Data from HP_2_HRD10591_00008.txt Node
Date: Mon Jan 19 14:16:05 EST 2026
User: Yrep
Spectrometer: HR+D1059
Trigger mode: 1
Integration Time (sec): 1.000000E-1
Scans to average: 1
Electric dark correction enabled: true
Nonlinearity correction enabled: false
Boxcar width: 0
XAxis mode: Wavelengths
Number of Pixels in Spectrum: 2048
>>>>>Begin Spectral Data<<<<<
223.165	-12.81
223.4	-12.81
223.635	-12.81
223.869	-16.81
224.104	-11.81
224.338	-27.81
224.573	-15.81
224.808	-8.81
225.042	-17.81
225.277	-5.81
225.511	11.19
225.746	-0.81
225.98	16.19
226.215	8.19
226.449	16.19
226.683	17.19
226.918	22.19
227.152	27.19
227.387	50.19
227.621	38.19
227.856	46.19
228.09	42.19
228.324	57.19
228.559	62.19
228.793	64.19
229.027	71.19
229.262	64.19
229.496	78.19
229.73	68.19
229.964	66.19
230.199	73.19
230.433	80.19
230.667	78.19
230.901	74.19
231.136	86.19
231.37	69.19
231.604	80.19
231.838	84.19
232.072	84.19
232.306	84.19
232.541	100.19
232.775	74.19
233.009	98.19
233.243	100.19
233.477	76.19
233.711	85.19
233.945	84.19
234.179	78.19
234.413	80.19
234.647	84.19
234.881	86.19
235.115	68.19
235.349	81.19
235.583	80.19
235.817	70.19
236.051	68.19
236.285	84.19
236.519	74.19
236.753	96.19
236.987	85.19
237.221	79.19
237.455	74.19
237.689	89.19
237.922	73.19
238.156	83.19
238.39	76.19
238.624	83.19
238.858	88.19
239.091	88.19
239.325	77.19
239.559	72.19
239.793	75.19
240.027	88.19
240.26	92.19
240.494	86.19
240.728	81.19
240.961	73.19
241.195	79.19
241.429	98.19
241.662	92.19
241.896	74.19
242.13	86.19
242.363	74.19
242.597	87.19
242.83	76.19
243.064	80.19
243.298	80.19
243.531	80.19
243.765	92.19
243.998	102.19
244.232	73.19
244.465	85.19
244.699	87.19
244.932	75.19
245.166	76.19
245.399	81.19
245.633	79.19
245.866	96.19
246.099	83.19
246.333	84.19
246.566	67.19
246.8	72.19
247.033	80.19
247.266	81.19
247.5	68.19
247.733	84.19
247.966	88.19
248.2	90.19
248.433	74.19
248.666	62.19
248.899	75.19
249.133	80.19
249.366	84.19
249.599	92.19
249.832	94.19
250.066	78.19
250.299	88.19
250.532	83.19
250.765	84.19
250.998	64.19
251.231	78.19
251.465	73.19
251.698	90.19
251.931	90.19
252.164	95.19
252.397	91.19
252.63	83.19
252.863	87.19
253.096	89.19
253.329	96.19
253.562	96.19
253.795	72.19
254.028	84.19
254.261	88.19
254.494	80.19
254.727	81.19
254.96	74.19
255.193	91.19
255.426	87.19
255.659	72.19
255.892	76.19
256.124	88.19
256.357	98.19
256.59	72.19
256.823	94.19
257.056	92.19
257.289	83.19
257.521	86.19
257.754	87.19
257.987	88.19
258.22	83.19
258.452	82.19
258.685	88.19
258.918	94.19
259.151	81.19
259.383	80.19
259.616	85.19
259.849	78.19
260.081	87.19
260.314	80.19
260.547	85.19
260.779	78.19
261.012	78.19
261.244	95.19
261.477	82.19
261.71	62.19
261.942	67.19
262.175	86.19
262.407	89.19
262.64	93.19
262.872	92.19
263.105	81.19
263.337	102.19
263.57	84.19
263.802	80.19
264.035	86.19
264.267	77.19
264.499	89.19
264.732	98.19
264.964	99.19
265.197	84.19
265.429	91.19
265.661	89.19
265.894	74.19
266.126	82.19
266.358	95.19
266.591	67.19
266.823	95.19
267.055	103.19
267.287	86.19
267.52	74.19
267.752	83.19
267.984	66.19
268.216	82.19
268.448	87.19
268.681	90.19
268.913	108.19
269.145	90.19
269.377	77.19
269.609	93.19
269.841	82.19
270.073	93.19
270.306	83.19
270.538	88.19
270.77	98.19
271.002	88.19
271.234	81.19
271.466	85.19
271.698	84.19
271.93	94.19
272.162	83.19
272.394	86.19
272.626	92.19
272.858	90.19
273.09	82.19
273.322	93.19
273.553	89.19
273.785	87.19
274.017	96.19
274.249	92.19
274.481	82.19
274.713	89.19
274.945	86.19
275.176	81.19
275.408	92.19
275.64	83.19
275.872	83.19
276.104	86.19
276.335	82.19
276.567	72.19
276.799	85.19
277.031	94.19
277.262	95.19
277.494	85.19
277.726	90.19
277.957	87.19
278.189	96.19
278.421	84.19
278.652	87.19
278.884	96.19
279.115	100.19
279.347	81.19
279.579	95.19
279.81	79.19
280.042	106.19
280.273	88.19
280.505	93.19
280.736	87.19
280.968	96.19
281.199	96.19
281.431	86.19
281.662	91.19
281.894	87.19
282.125	86.19
282.356	98.19
282.588	89.19
282.819	95.19
283.051	76.19
283.282	80.19
283.513	101.19
283.745	74.19
283.976	81.19
284.207	89.19
284.439	96.19
284.67	86.19
284.901	87.19
285.132	96.19
285.364	116.19
285.595	92.19
285.826	89.19
286.057	90.19
286.288	87.19
286.52	91.19
286.751	79.19
286.982	87.19
287.213	89.19
287.444	76.19
287.675	97.19
287.906	94.19
288.138	90.19
288.369	108.19
288.6	80.19
288.831	99.19
289.062	88.19
289.293	92.19
289.524	76.19
289.755	95.19
289.986	81.19
290.217	79.19
290.448	98.19
290.679	94.19
290.91	77.19
291.141	86.19
291.371	77.19
291.602	99.19
291.833	95.19
292.064	81.19
292.295	86.19
292.526	70.19
292.757	75.19
292.987	92.19
293.218	87.19
293.449	97.19
293.68	102.19
293.91	93.19
294.141	107.19
294.372	94.19
294.603	79.19
294.833	84.19
295.064	96.19
295.295	95.19
295.525	83.19
295.756	87.19
295.987	91.19
296.217	66.19
296.448	88.19
296.679	76.19
296.909	93.19
297.14	94.19
297.37	89.19
297.601	79.19
297.831	96.19
298.062	88.19
298.292	87.19
298.523	86.19
298.753	92.19
298.984	92.19
299.214	86.19
299.445	94.19
299.675	110.19
299.905	98.19
300.136	95.19
300.366	99.19
300.597	89.19
300.827	86.19
301.057	102.19
301.288	79.19
301.518	82.19
301.748	105.19
301.979	95.19
302.209	85.19
302.439	101.19
302.669	97.19
302.9	82.19
303.13	98.19
303.36	85.19
303.59	94.19
303.82	99.19
304.051	86.19
304.281	102.19
304.511	95.19
304.741	91.19
304.971	90.19
305.201	83.19
305.431	94.19
305.661	84.19
305.891	91.19
306.121	90.19
306.352	91.19
306.582	80.19
306.812	98.19
307.042	109.19
307.272	94.19
307.502	96.19
307.731	74.19
307.961	83.19
308.191	84.19
308.421	90.19
308.651	86.19
308.881	83.19
309.111	91.19
309.341	103.19
309.571	94.19
309.8	88.19
310.03	86.19
310.26	80.19
310.49	108.19
310.72	95.19
310.949	78.19
311.179	87.19
311.409	106.19
311.639	92.19
311.868	89.19
312.098	85.19
312.328	88.19
312.557	87.19
312.787	77.19
313.017	100.19
313.246	101.19
313.476	95.19
313.706	100.19
313.935	92.19
314.165	89.19
314.394	81.19
314.624	98.19
314.853	93.19
315.083	85.19
315.312	97.19
315.542	95.19
315.771	85.19
316.001	89.19
316.23	96.19
316.46	86.19
316.689	90.19
316.919	85.19
317.148	89.19
317.377	90.19
317.607	93.19
317.836	82.19
318.065	91.19
318.295	92.19
318.524	87.19
318.753	90.19
318.983	96.19
319.212	99.19
319.441	100.19
319.67	85.19
319.9	84.19
320.129	97.19
320.358	72.19
320.587	88.19
320.816	105.19
321.046	88.19
321.275	92.19
321.504	88.19
321.733	95.19
321.962	96.19
322.191	88.19
322.42	84.19
322.649	92.19
322.878	96.19
323.108	92.19
323.337	93.19
323.566	104.19
323.795	74.19
324.024	86.19
324.253	86.19
324.482	75.19
324.71	90.19
324.939	87.19
325.168	101.19
325.397	98.19
325.626	80.19
325.855	86.19
326.084	89.19
326.313	91.19
326.542	93.19
326.77	92.19
326.999	89.19
327.228	104.19
327.457	102.19
327.686	84.19
327.914	92.19
328.143	97.19
328.372	91.19
328.6	90.19
328.829	102.19
329.058	84.19
329.287	97.19
329.515	95.19
329.744	93.19
329.972	95.19
330.201	81.19
330.43	96.19
330.658	100.19
330.887	82.19
331.115	86.19
331.344	78.19
331.572	80.19
331.801	86.19
332.03	78.19
332.258	100.19
332.486	77.19
332.715	84.19
332.943	90.19
333.172	99.19
333.4	89.19
333.629	95.19
333.857	84.19
334.085	103.19
334.314	88.19
334.542	88.19
334.771	106.19
334.999	96.19
335.227	92.19
335.455	93.19
335.684	109.19
335.912	80.19
336.14	86.19
336.369	103.19
336.597	98.19
336.825	97.19
337.053	90.19
337.281	88.19
337.51	81.19
337.738	87.19
337.966	77.19
338.194	101.19
338.422	98.19
338.65	84.19
338.878	90.19
339.106	90.19
339.334	96.19
339.562	91.19
339.79	91.19
340.018	90.19
340.246	91.19
340.474	93.19
340.702	84.19
340.93	84.19
341.158	93.19
341.386	88.19
341.614	71.19
341.842	92.19
342.07	87.19
342.298	92.19
342.526	111.19
342.754	81.19
342.981	79.19
343.209	93.19
343.437	106.19
343.665	82.19
343.893	87.19
344.12	99.19
344.348	106.19
344.576	96.19
344.804	99.19
345.031	104.19
345.259	86.19
345.487	95.19
345.714	92.19
345.942	92.19
346.17	88.19
346.397	100.19
346.625	111.19
346.853	93.19
347.08	89.19
347.308	81.19
347.535	92.19
347.763	84.19
347.99	92.19
348.218	93.19
348.445	98.19
348.673	101.19
348.9	88.19
349.128	91.19
349.355	100.19
349.583	93.19
349.81	88.19
350.037	94.19
350.265	101.19
350.492	102.19
350.72	79.19
350.947	92.19
351.174	84.19
351.402	88.19
351.629	88.19
351.856	97.19
352.083	90.19
352.311	98.19
352.538	81.19
352.765	93.19
352.992	92.19
353.22	89.19
353.447	89.19
353.674	69.19
353.901	103.19
354.128	85.19
354.355	80.19
354.583	92.19
354.81	94.19
355.037	107.19
355.264	91.19
355.491	94.19
355.718	80.19
355.945	101.19
356.172	103.19
356.399	97.19
356.626	104.19
356.853	98.19
357.08	98.19
357.307	95.19
357.534	94.19
357.761	78.19
357.988	99.19
358.215	88.19
358.441	91.19
358.668	95.19
358.895	99.19
359.122	87.19
359.349	88.19
359.576	105.19
359.802	91.19
360.029	84.19
360.256	92.19
360.483	100.19
360.709	101.19
360.936	96.19
361.163	109.19
361.39	86.19
361.616	90.19
361.843	90.19
362.07	106.19
362.296	119.19
362.523	102.19
362.749	116.19
362.976	127.19
363.203	134.19
363.429	94.19
363.656	106.19
363.882	94.19
364.109	131.19
364.335	130.19
364.562	128.19
364.788	115.19
365.015	90.19
365.241	81.19
365.468	90.19
365.694	87.19
365.92	95.19
366.147	101.19
366.373	83.19
366.599	103.19
366.826	96.19
367.052	101.19
367.278	98.19
367.505	86.19
367.731	107.19
367.957	95.19
368.184	87.19
368.41	88.19
368.636	86.19
368.862	91.19
369.089	92.19
369.315	92.19
369.541	94.19
369.767	107.19
369.993	82.19
370.219	97.19
370.445	80.19
370.672	92.19
370.898	86.19
371.124	84.19
371.35	97.19
371.576	91.19
371.802	95.19
372.028	82.19
372.254	95.19
372.48	95.19
372.706	101.19
372.932	72.19
373.158	102.19
373.384	107.19
373.61	102.19
373.835	96.19
374.061	101.19
374.287	87.19
374.513	93.19
374.739	103.19
374.965	115.19
375.191	102.19
375.416	92.19
375.642	94.19
375.868	84.19
376.094	90.19
376.319	94.19
376.545	91.19
376.771	82.19
376.997	95.19
377.222	89.19
377.448	90.19
377.674	84.19
377.899	87.19
378.125	91.19
378.35	100.19
378.576	87.19
378.802	91.19
379.027	107.19
379.253	103.19
379.478	89.19
379.704	91.19
379.929	91.19
380.155	95.19
380.38	85.19
380.606	94.19
380.831	110.19
381.057	92.19
381.282	90.19
381.507	102.19
381.733	113.19
381.958	92.19
382.184	82.19
382.409	104.19
382.634	105.19
382.86	83.19
383.085	102.19
383.31	83.19
383.535	92.19
383.761	101.19
383.986	108.19
384.211	94.19
384.436	102.19
384.662	78.19
384.887	88.19
385.112	83.19
385.337	90.19
385.562	87.19
385.787	100.19
386.013	92.19
386.238	107.19
386.463	90.19
386.688	100.19
386.913	99.19
387.138	101.19
387.363	84.19
387.588	98.19
387.813	101.19
388.038	94.19
388.263	93.19
388.488	92.19
388.713	83.19
388.938	99.19
389.163	94.19
389.387	104.19
389.612	100.19
389.837	96.19
390.062	94.19
390.287	110.19
390.512	87.19
390.736	86.19
390.961	92.19
391.186	89.19
391.411	89.19
391.636	99.19
391.86	107.19
392.085	92.19
392.31	104.19
392.534	107.19
392.759	115.19
392.984	156.19
393.208	244.19
393.433	327.19
393.658	263.19
393.882	138.19
394.107	110.19
394.331	143.19
394.556	125.19
394.78	116.19
395.005	90.19
395.229	93.19
395.454	99.19
395.678	118.19
395.903	130.19
396.127	163.19
396.352	170.19
396.576	162.19
396.801	235.19
397.025	268.19
397.249	178.19
397.474	141.19
397.698	128.19
397.922	86.19
398.147	86.19
398.371	98.19
398.595	81.19
398.82	70.19
399.044	91.19
399.268	97.19
399.492	93.19
399.717	82.19
399.941	91.19
400.165	88.19
400.389	90.19
400.613	91.19
400.837	98.19
401.062	112.19
401.286	84.19
401.51	87.19
401.734	78.19
401.958	84.19
402.182	85.19
402.406	78.19
402.63	108.19
402.854	96.19
403.078	88.19
403.302	102.19
403.526	87.19
403.75	94.19
403.974	109.19
404.198	164.19
404.422	214.19
404.645	283.19
404.869	218.19
405.093	159.19
405.317	102.19
405.541	107.19
405.765	102.19
405.988	90.19
406.212	89.19
406.436	100.19
406.66	89.19
406.883	83.19
407.107	101.19
407.331	107.19
407.555	99.19
407.778	116.19
408.002	104.19
408.226	96.19
408.449	89.19
408.673	86.19
408.896	106.19
409.12	115.19
409.344	102.19
409.567	101.19
409.791	107.19
410.014	107.19
410.238	83.19
410.461	93.19
410.685	89.19
410.908	83.19
411.132	92.19
411.355	86.19
411.578	94.19
411.802	89.19
412.025	99.19
412.249	76.19
412.472	85.19
412.695	88.19
412.919	102.19
413.142	91.19
413.365	90.19
413.589	76.19
413.812	103.19
414.035	92.19
414.258	98.19
414.482	84.19
414.705	89.19
414.928	83.19
415.151	101.19
415.374	86.19
415.597	80.19
415.821	84.19
416.044	77.19
416.267	71.19
416.49	85.19
416.713	95.19
416.936	78.19
417.159	88.19
417.382	98.19
417.605	108.19
417.828	94.19
418.051	91.19
418.274	91.19
418.497	87.19
418.72	89.19
418.943	94.19
419.166	82.19
419.389	85.19
419.611	95.19
419.834	81.19
420.057	82.19
420.28	97.19
420.503	94.19
420.726	100.19
420.948	92.19
421.171	103.19
421.394	107.19
421.617	132.19
421.839	123.19
422.062	150.19
422.285	219.19
422.507	396.19
422.73	572.19
422.953	541.19
423.175	278.19
423.398	167.19
423.621	142.19
423.843	112.19
424.066	94.19
424.288	99.19
424.511	88.19
424.733	98.19
424.956	98.19
425.178	95.19
425.401	93.19
425.623	84.19
425.846	93.19
426.068	89.19
426.291	89.19
426.513	99.19
426.735	100.19
426.958	88.19
427.18	88.19
427.402	88.19
427.625	106.19
427.847	106.19
428.069	101.19
428.292	164.19
428.514	175.19
428.736	135.19
428.958	152.19
429.181	156.19
429.403	112.19
429.625	117.19
429.847	153.19
430.069	217.19
430.292	256.19
430.514	230.19
430.736	175.19
430.958	172.19
431.18	108.19
431.402	107.19
431.624	102.19
431.846	166.19
432.068	163.19
432.29	105.19
432.512	95.19
432.734	94.19
432.956	78.19
433.178	110.19
433.4	79.19
433.622	101.19
433.844	86.19
434.066	93.19
434.287	103.19
434.509	97.19
434.731	93.19
434.953	86.19
435.175	78.19
435.397	100.19
435.618	96.19
435.84	90.19
436.062	84.19
436.284	94.19
436.505	90.19
436.727	99.19
436.949	96.19
437.17	91.19
437.392	87.19
437.614	102.19
437.835	84.19
438.057	95.19
438.278	88.19
438.5	89.19
438.721	92.19
438.943	90.19
439.165	80.19
439.386	84.19
439.608	96.19
439.829	88.19
440.05	101.19
440.272	86.19
440.493	88.19
440.715	83.19
440.936	86.19
441.158	104.19
441.379	97.19
441.6	89.19
441.822	87.19
442.043	90.19
442.264	94.19
442.486	149.19
442.707	217.19
442.928	150.19
443.149	125.19
443.371	198.19
443.592	341.19
443.813	284.19
444.034	124.19
444.255	102.19
444.476	93.19
444.698	91.19
444.919	96.19
445.14	229.19
445.361	274.19
445.582	422.19
445.803	346.19
446.024	155.19
446.245	104.19
446.466	93.19
446.687	93.19
446.908	113.19
447.129	103.19
447.35	79.19
447.571	90.19
447.792	82.19
448.013	83.19
448.234	84.19
448.455	84.19
448.675	89.19
448.896	95.19
449.117	96.19
449.338	103.19
449.559	98.19
449.779	100.19
450	94.19
450.221	85.19
450.442	92.19
450.662	81.19
450.883	78.19
451.104	92.19
451.324	89.19
451.545	97.19
451.766	84.19
451.986	86.19
452.207	96.19
452.428	88.19
452.648	93.19
452.869	118.19
453.089	99.19
453.31	100.19
453.53	103.19
453.751	94.19
453.971	96.19
454.192	96.19
454.412	104.19
454.633	103.19
454.853	94.19
455.073	92.19
455.294	91.19
455.514	88.19
455.734	88.19
455.955	92.19
456.175	99.19
456.395	88.19
456.616	102.19
456.836	76.19
457.056	94.19
457.276	102.19
457.497	90.19
457.717	104.19
457.937	97.19
458.157	130.19
458.377	140.19
458.598	115.19
458.818	121.19
459.038	104.19
459.258	105.19
459.478	93.19
459.698	86.19
459.918	82.19
460.138	86.19
460.358	88.19
460.578	103.19
460.798	155.19
461.018	140.19
461.238	97.19
461.458	98.19
461.678	83.19
461.898	98.19
462.118	86.19
462.338	98.19
462.558	84.19
462.777	77.19
462.997	77.19
463.217	91.19
463.437	83.19
463.657	88.19
463.876	93.19
464.096	81.19
464.316	82.19
464.536	94.19
464.755	103.19
464.975	92.19
465.195	103.19
465.414	94.19
465.634	84.19
465.854	84.19
466.073	75.19
466.293	88.19
466.512	87.19
466.732	86.19
466.951	95.19
467.171	88.19
467.391	93.19
467.61	91.19
467.829	100.19
468.049	98.19
468.268	90.19
468.488	92.19
468.707	100.19
468.927	77.19
469.146	88.19
469.365	94.19
469.585	93.19
469.804	83.19
470.023	81.19
470.243	84.19
470.462	109.19
470.681	86.19
470.901	96.19
471.12	98.19
471.339	90.19
471.558	85.19
471.777	81.19
471.997	79.19
472.216	87.19
472.435	104.19
472.654	94.19
472.873	93.19
473.092	77.19
473.311	91.19
473.53	79.19
473.749	75.19
473.968	88.19
474.187	89.19
474.406	91.19
474.625	98.19
474.844	84.19
475.063	85.19
475.282	81.19
475.501	75.19
475.72	88.19
475.939	98.19
476.158	89.19
476.377	101.19
476.596	95.19
476.814	90.19
477.033	77.19
477.252	86.19
477.471	78.19
477.69	98.19
477.908	76.19
478.127	87.19
478.346	104.19
478.564	88.19
478.783	86.19
479.002	106.19
479.22	106.19
479.439	103.19
479.658	80.19
479.876	95.19
480.095	85.19
480.313	103.19
480.532	102.19
480.751	91.19
480.969	95.19
481.188	84.19
481.406	90.19
481.624	84.19
481.843	89.19
482.061	99.19
482.28	89.19
482.498	94.19
482.717	98.19
482.935	102.19
483.153	95.19
483.372	103.19
483.59	101.19
483.808	94.19
484.027	83.19
484.245	102.19
484.463	92.19
484.681	110.19
484.9	97.19
485.118	88.19
485.336	106.19
485.554	107.19
485.772	73.19
485.99	104.19
486.209	103.19
486.427	90.19
486.645	106.19
486.863	99.19
487.081	104.19
487.299	111.19
487.517	106.19
487.735	114.19
487.953	165.19
488.171	161.19
488.389	111.19
488.607	98.19
488.825	88.19
489.043	80.19
489.261	96.19
489.479	90.19
489.696	99.19
489.914	91.19
490.132	78.19
490.35	86.19
490.568	102.19
490.786	94.19
491.003	96.19
491.221	98.19
491.439	86.19
491.657	86.19
491.874	112.19
492.092	99.19
492.31	111.19
492.527	101.19
492.745	98.19
492.963	89.19
493.18	91.19
493.398	101.19
493.615	93.19
493.833	90.19
494.05	90.19
494.268	91.19
494.485	89.19
494.703	89.19
494.92	91.19
495.138	106.19
495.355	96.19
495.573	93.19
495.79	100.19
496.008	102.19
496.225	110.19
496.442	114.19
496.66	109.19
496.877	93.19
497.094	90.19
497.312	93.19
497.529	110.19
497.746	86.19
497.963	96.19
498.181	100.19
498.398	90.19
498.615	94.19
498.832	95.19
499.049	101.19
499.267	93.19
499.484	86.19
499.701	86.19
499.918	101.19
500.135	94.19
500.352	84.19
500.569	88.19
500.786	96.19
501.003	86.19
501.22	86.19
501.437	103.19
501.654	99.19
501.871	86.19
502.088	100.19
502.305	90.19
502.522	86.19
502.739	95.19
502.956	96.19
503.172	99.19
503.389	95.19
503.606	97.19
503.823	90.19
504.04	106.19
504.256	131.19
504.473	143.19
504.69	107.19
504.907	103.19
505.123	93.19
505.34	96.19
505.557	102.19
505.773	107.19
505.99	93.19
506.207	82.19
506.423	85.19
506.64	94.19
506.856	93.19
507.073	95.19
507.289	98.19
507.506	93.19
507.722	94.19
507.939	95.19
508.155	106.19
508.372	107.19
508.588	100.19
508.805	104.19
509.021	88.19
509.238	94.19
509.454	88.19
509.67	91.19
509.887	102.19
510.103	97.19
510.319	102.19
510.536	105.19
510.752	97.19
510.968	116.19
511.184	84.19
511.401	94.19
511.617	109.19
511.833	101.19
512.049	85.19
512.265	96.19
512.481	114.19
512.698	100.19
512.914	100.19
513.13	89.19
513.346	94.19
513.562	86.19
513.778	99.19
513.994	83.19
514.21	90.19
514.426	96.19
514.642	96.19
514.858	73.19
515.074	97.19
515.29	100.19
515.506	79.19
515.721	99.19
515.937	95.19
