Data from HP_2_HRD10591_00044.txt Node
Date: Mon Jan 19 14:16:23 EST 2026
User: Yrep
Spectrometer: HR+D1059
Trigger mode: 1
Integration Time (sec): 1.000000E-1
Scans to average: 1
Electric dark correction enabled: true
Nonlinearity correction enabled: false
Boxcar width: 0
XAxis mode: Wavelengths
Number of Pixels in Spectrum: 2048
>>>>>Begin Spectral Data<<<<<
223.165	-18.5
223.4	-18.5
223.635	-18.5
223.869	-19.5
224.104	-28.5
224.338	-23.5
224.573	-15.5
224.808	-0.5
225.042	-4.5
225.277	3.5
225.511	3.5
225.746	4.5
225.98	13.5
226.215	9.5
226.449	7.5
226.683	11.5
226.918	27.5
227.152	29.5
227.387	41.5
227.621	41.5
227.856	42.5
228.09	53.5
228.324	54.5
228.559	53.5
228.793	63.5
229.027	66.5
229.262	62.5
229.496	62.5
229.73	73.5
229.964	70.5
230.199	83.5
230.433	84.5
230.667	81.5
230.901	59.5
231.136	72.5
231.37	80.5
231.604	72.5
231.838	92.5
232.072	79.5
232.306	91.5
232.541	78.5
232.775	79.5
233.009	81.5
233.243	88.5
233.477	75.5
233.711	68.5
233.945	93.5
234.179	82.5
234.413	75.5
234.647	76.5
234.881	77.5
235.115	78.5
235.349	74.5
235.583	88.5
235.817	81.5
236.051	85.5
236.285	89.5
236.519	94.5
236.753	76.5
236.987	73.5
237.221	72.5
237.455	64.5
237.689	80.5
237.922	81.5
238.156	85.5
238.39	62.5
238.624	62.5
238.858	79.5
239.091	77.5
239.325	86.5
239.559	84.5
239.793	82.5
240.027	80.5
240.26	80.5
240.494	75.5
240.728	78.5
240.961	85.5
241.195	75.5
241.429	82.5
241.662	64.5
241.896	66.5
242.13	71.5
242.363	84.5
242.597	84.5
242.83	76.5
243.064	73.5
243.298	88.5
243.531	88.5
243.765	81.5
243.998	78.5
244.232	85.5
244.465	87.5
244.699	96.5
244.932	78.5
245.166	93.5
245.399	71.5
245.633	78.5
245.866	79.5
246.099	84.5
246.333	86.5
246.566	75.5
246.8	72.5
247.033	80.5
247.266	70.5
247.5	74.5
247.733	83.5
247.966	83.5
248.2	70.5
248.433	71.5
248.666	69.5
248.899	80.5
249.133	95.5
249.366	77.5
249.599	80.5
249.832	82.5
250.066	71.5
250.299	91.5
250.532	82.5
250.765	67.5
250.998	88.5
251.231	74.5
251.465	76.5
251.698	92.5
251.931	74.5
252.164	88.5
252.397	86.5
252.63	93.5
252.863	82.5
253.096	107.5
253.329	96.5
253.562	89.5
253.795	84.5
254.028	66.5
254.261	84.5
254.494	77.5
254.727	76.5
254.96	75.5
255.193	77.5
255.426	86.5
255.659	72.5
255.892	88.5
256.124	83.5
256.357	86.5
256.59	71.5
256.823	82.5
257.056	91.5
257.289	82.5
257.521	92.5
257.754	73.5
257.987	70.5
258.22	87.5
258.452	78.5
258.685	73.5
258.918	76.5
259.151	84.5
259.383	78.5
259.616	80.5
259.849	89.5
260.081	84.5
260.314	81.5
260.547	86.5
260.779	78.5
261.012	78.5
261.244	75.5
261.477	85.5
261.71	89.5
261.942	82.5
262.175	92.5
262.407	79.5
262.64	78.5
262.872	80.5
263.105	87.5
263.337	86.5
263.57	86.5
263.802	79.5
264.035	75.5
264.267	84.5
264.499	85.5
264.732	83.5
264.964	77.5
265.197	81.5
265.429	72.5
265.661	81.5
265.894	88.5
266.126	89.5
266.358	76.5
266.591	80.5
266.823	72.5
267.055	72.5
267.287	82.5
267.52	84.5
267.752	84.5
267.984	93.5
268.216	82.5
268.448	104.5
268.681	98.5
268.913	86.5
269.145	96.5
269.377	75.5
269.609	93.5
269.841	82.5
270.073	78.5
270.306	72.5
270.538	85.5
270.77	76.5
271.002	76.5
271.234	84.5
271.466	85.5
271.698	75.5
271.93	72.5
272.162	96.5
272.394	94.5
272.626	80.5
272.858	99.5
273.09	87.5
273.322	90.5
273.553	87.5
273.785	80.5
274.017	96.5
274.249	77.5
274.481	82.5
274.713	87.5
274.945	84.5
275.176	89.5
275.408	87.5
275.64	80.5
275.872	77.5
276.104	90.5
276.335	91.5
276.567	73.5
276.799	99.5
277.031	92.5
277.262	76.5
277.494	84.5
277.726	77.5
277.957	84.5
278.189	71.5
278.421	88.5
278.652	87.5
278.884	87.5
279.115	86.5
279.347	77.5
279.579	86.5
279.81	93.5
280.042	88.5
280.273	88.5
280.505	85.5
280.736	77.5
280.968	88.5
281.199	76.5
281.431	69.5
281.662	84.5
281.894	75.5
282.125	79.5
282.356	74.5
282.588	76.5
282.819	80.5
283.051	90.5
283.282	71.5
283.513	78.5
283.745	102.5
283.976	88.5
284.207	90.5
284.439	79.5
284.67	94.5
284.901	98.5
285.132	102.5
285.364	93.5
285.595	85.5
285.826	93.5
286.057	81.5
286.288	81.5
286.52	77.5
286.751	82.5
286.982	72.5
287.213	88.5
287.444	84.5
287.675	84.5
287.906	101.5
288.138	88.5
288.369	92.5
288.6	91.5
288.831	81.5
289.062	87.5
289.293	86.5
289.524	76.5
289.755	73.5
289.986	80.5
290.217	68.5
290.448	88.5
290.679	80.5
290.91	88.5
291.141	78.5
291.371	73.5
291.602	99.5
291.833	92.5
292.064	90.5
292.295	87.5
292.526	86.5
292.757	82.5
292.987	79.5
293.218	93.5
293.449	85.5
293.68	84.5
293.91	87.5
294.141	98.5
294.372	82.5
294.603	82.5
294.833	77.5
295.064	84.5
295.295	96.5
295.525	82.5
295.756	79.5
295.987	91.5
296.217	84.5
296.448	102.5
296.679	93.5
296.909	90.5
297.14	88.5
297.37	82.5
297.601	96.5
297.831	107.5
298.062	96.5
298.292	96.5
298.523	94.5
298.753	84.5
298.984	81.5
299.214	77.5
299.445	90.5
299.675	88.5
299.905	99.5
300.136	103.5
300.366	94.5
300.597	96.5
300.827	85.5
301.057	74.5
301.288	70.5
301.518	79.5
301.748	80.5
301.979	98.5
302.209	102.5
302.439	87.5
302.669	80.5
302.9	87.5
303.13	87.5
303.36	89.5
303.59	98.5
303.82	84.5
304.051	88.5
304.281	84.5
304.511	95.5
304.741	81.5
304.971	71.5
305.201	77.5
305.431	70.5
305.661	90.5
305.891	93.5
306.121	74.5
306.352	78.5
306.582	85.5
306.812	86.5
307.042	84.5
307.272	96.5
307.502	79.5
307.731	78.5
307.961	85.5
308.191	97.5
308.421	89.5
308.651	86.5
308.881	76.5
309.111	80.5
309.341	85.5
309.571	93.5
309.8	93.5
310.03	71.5
310.26	87.5
310.49	96.5
310.72	91.5
310.949	88.5
311.179	80.5
311.409	85.5
311.639	88.5
311.868	80.5
312.098	84.5
312.328	88.5
312.557	96.5
312.787	92.5
313.017	85.5
313.246	91.5
313.476	81.5
313.706	97.5
313.935	88.5
314.165	89.5
314.394	76.5
314.624	79.5
314.853	85.5
315.083	72.5
315.312	79.5
315.542	84.5
315.771	100.5
316.001	88.5
316.23	97.5
316.46	86.5
316.689	97.5
316.919	78.5
317.148	88.5
317.377	90.5
317.607	82.5
317.836	92.5
318.065	85.5
318.295	91.5
318.524	93.5
318.753	85.5
318.983	79.5
319.212	91.5
319.441	79.5
319.67	87.5
319.9	99.5
320.129	86.5
320.358	78.5
320.587	67.5
320.816	88.5
321.046	100.5
321.275	77.5
321.504	76.5
321.733	91.5
321.962	94.5
322.191	101.5
322.42	79.5
322.649	86.5
322.878	81.5
323.108	85.5
323.337	87.5
323.566	92.5
323.795	93.5
324.024	97.5
324.253	88.5
324.482	85.5
324.71	84.5
324.939	86.5
325.168	91.5
325.397	98.5
325.626	66.5
325.855	72.5
326.084	87.5
326.313	76.5
326.542	79.5
326.77	77.5
326.999	82.5
327.228	73.5
327.457	79.5
327.686	82.5
327.914	75.5
328.143	78.5
328.372	85.5
328.6	90.5
328.829	92.5
329.058	81.5
329.287	97.5
329.515	78.5
329.744	80.5
329.972	93.5
330.201	83.5
330.43	86.5
330.658	89.5
330.887	74.5
331.115	90.5
331.344	68.5
331.572	71.5
331.801	79.5
332.03	93.5
332.258	72.5
332.486	82.5
332.715	69.5
332.943	84.5
333.172	82.5
333.4	88.5
333.629	88.5
333.857	80.5
334.085	94.5
334.314	89.5
334.542	86.5
334.771	93.5
334.999	90.5
335.227	73.5
335.455	82.5
335.684	97.5
335.912	97.5
336.14	77.5
336.369	98.5
336.597	80.5
336.825	85.5
337.053	77.5
337.281	94.5
337.51	90.5
337.738	90.5
337.966	88.5
338.194	83.5
338.422	90.5
338.65	97.5
338.878	85.5
339.106	94.5
339.334	101.5
339.562	77.5
339.79	93.5
340.018	78.5
340.246	93.5
340.474	82.5
340.702	67.5
340.93	78.5
341.158	77.5
341.386	84.5
341.614	93.5
341.842	87.5
342.07	72.5
342.298	103.5
342.526	93.5
342.754	89.5
342.981	77.5
343.209	82.5
343.437	108.5
343.665	92.5
343.893	82.5
344.12	97.5
344.348	85.5
344.576	95.5
344.804	85.5
345.031	86.5
345.259	85.5
345.487	79.5
345.714	81.5
345.942	65.5
346.17	81.5
346.397	92.5
346.625	88.5
346.853	76.5
347.08	78.5
347.308	86.5
347.535	99.5
347.763	89.5
347.99	86.5
348.218	92.5
348.445	73.5
348.673	88.5
348.9	88.5
349.128	88.5
349.355	86.5
349.583	84.5
349.81	101.5
350.037	81.5
350.265	97.5
350.492	98.5
350.72	87.5
350.947	76.5
351.174	91.5
351.402	86.5
351.629	68.5
351.856	83.5
352.083	69.5
352.311	76.5
352.538	76.5
352.765	81.5
352.992	89.5
353.22	90.5
353.447	86.5
353.674	86.5
353.901	89.5
354.128	89.5
354.355	72.5
354.583	88.5
354.81	90.5
355.037	91.5
355.264	86.5
355.491	87.5
355.718	93.5
355.945	69.5
356.172	72.5
356.399	86.5
356.626	92.5
356.853	84.5
357.08	80.5
357.307	98.5
357.534	81.5
357.761	83.5
357.988	99.5
358.215	102.5
358.441	86.5
358.668	96.5
358.895	90.5
359.122	84.5
359.349	94.5
359.576	84.5
359.802	81.5
360.029	84.5
360.256	92.5
360.483	82.5
360.709	83.5
360.936	96.5
361.163	85.5
361.39	101.5
361.616	83.5
361.843	92.5
362.07	94.5
362.296	82.5
362.523	93.5
362.749	101.5
362.976	84.5
363.203	96.5
363.429	85.5
363.656	70.5
363.882	90.5
364.109	100.5
364.335	91.5
364.562	102.5
364.788	101.5
365.015	75.5
365.241	94.5
365.468	85.5
365.694	87.5
365.92	81.5
366.147	90.5
366.373	73.5
366.599	85.5
366.826	80.5
367.052	76.5
367.278	92.5
367.505	81.5
367.731	78.5
367.957	94.5
368.184	72.5
368.41	76.5
368.636	82.5
368.862	82.5
369.089	72.5
369.315	93.5
369.541	82.5
369.767	87.5
369.993	78.5
370.219	100.5
370.445	91.5
370.672	93.5
370.898	97.5
371.124	84.5
371.35	82.5
371.576	85.5
371.802	81.5
372.028	91.5
372.254	84.5
372.48	93.5
372.706	80.5
372.932	76.5
373.158	82.5
373.384	88.5
373.61	94.5
373.835	82.5
374.061	93.5
374.287	107.5
374.513	96.5
374.739	96.5
374.965	106.5
375.191	70.5
375.416	81.5
375.642	82.5
375.868	98.5
376.094	91.5
376.319	76.5
376.545	85.5
376.771	76.5
376.997	90.5
377.222	90.5
377.448	86.5
377.674	76.5
377.899	75.5
378.125	85.5
378.35	96.5
378.576	72.5
378.802	83.5
379.027	94.5
379.253	100.5
379.478	90.5
379.704	97.5
379.929	104.5
380.155	89.5
380.38	92.5
380.606	95.5
380.831	98.5
381.057	85.5
381.282	82.5
381.507	78.5
381.733	92.5
381.958	92.5
382.184	85.5
382.409	84.5
382.634	94.5
382.86	109.5
383.085	90.5
383.31	94.5
383.535	98.5
383.761	84.5
383.986	83.5
384.211	88.5
384.436	80.5
384.662	85.5
384.887	104.5
385.112	70.5
385.337	95.5
385.562	92.5
385.787	76.5
386.013	66.5
386.238	86.5
386.463	89.5
386.688	102.5
386.913	93.5
387.138	83.5
387.363	92.5
387.588	93.5
387.813	94.5
388.038	85.5
388.263	76.5
388.488	74.5
388.713	86.5
388.938	89.5
389.163	97.5
389.387	82.5
389.612	86.5
389.837	78.5
390.062	91.5
390.287	100.5
390.512	85.5
390.736	92.5
390.961	74.5
391.186	86.5
391.411	98.5
391.636	104.5
391.86	93.5
392.085	86.5
392.31	92.5
392.534	78.5
392.759	90.5
392.984	93.5
393.208	138.5
393.433	172.5
393.658	148.5
393.882	103.5
394.107	97.5
394.331	96.5
394.556	88.5
394.78	88.5
395.005	95.5
395.229	92.5
395.454	89.5
395.678	98.5
395.903	101.5
396.127	107.5
396.352	113.5
396.576	120.5
396.801	152.5
397.025	154.5
397.249	124.5
397.474	86.5
397.698	87.5
397.922	104.5
398.147	85.5
398.371	79.5
398.595	74.5
398.82	92.5
399.044	97.5
399.268	89.5
399.492	83.5
399.717	84.5
399.941	90.5
400.165	91.5
400.389	94.5
400.613	85.5
400.837	96.5
401.062	85.5
401.286	94.5
401.51	85.5
401.734	70.5
401.958	76.5
402.182	81.5
402.406	80.5
402.63	75.5
402.854	73.5
403.078	89.5
403.302	83.5
403.526	92.5
403.75	74.5
403.974	84.5
404.198	97.5
404.422	130.5
404.645	124.5
404.869	120.5
405.093	90.5
405.317	94.5
405.541	91.5
405.765	99.5
405.988	88.5
406.212	87.5
406.436	90.5
406.66	92.5
406.883	86.5
407.107	85.5
407.331	77.5
407.555	87.5
407.778	88.5
408.002	98.5
408.226	84.5
408.449	100.5
408.673	104.5
408.896	93.5
409.12	86.5
409.344	78.5
409.567	82.5
409.791	96.5
410.014	89.5
410.238	88.5
410.461	83.5
410.685	86.5
410.908	76.5
411.132	91.5
411.355	93.5
411.578	96.5
411.802	66.5
412.025	83.5
412.249	82.5
412.472	70.5
412.695	84.5
412.919	85.5
413.142	82.5
413.365	81.5
413.589	76.5
413.812	99.5
414.035	97.5
414.258	88.5
414.482	84.5
414.705	77.5
414.928	89.5
415.151	70.5
415.374	89.5
415.597	89.5
415.821	89.5
416.044	76.5
416.267	96.5
416.49	95.5
416.713	81.5
416.936	73.5
417.159	94.5
417.382	88.5
417.605	83.5
417.828	70.5
418.051	83.5
418.274	79.5
418.497	81.5
418.72	81.5
418.943	86.5
419.166	92.5
419.389	95.5
419.611	84.5
419.834	83.5
420.057	83.5
420.28	83.5
420.503	90.5
420.726	79.5
420.948	94.5
421.171	75.5
421.394	95.5
421.617	99.5
421.839	100.5
422.062	95.5
422.285	134.5
422.507	203.5
422.73	272.5
422.953	248.5
423.175	150.5
423.398	119.5
423.621	93.5
423.843	100.5
424.066	87.5
424.288	76.5
424.511	86.5
424.733	97.5
424.956	82.5
425.178	81.5
425.401	77.5
425.623	93.5
425.846	91.5
426.068	81.5
426.291	88.5
426.513	94.5
426.735	90.5
426.958	92.5
427.18	82.5
427.402	79.5
427.625	82.5
427.847	89.5
428.069	82.5
428.292	110.5
428.514	133.5
428.736	101.5
428.958	97.5
429.181	103.5
429.403	104.5
429.625	89.5
429.847	120.5
430.069	124.5
430.292	152.5
430.514	124.5
430.736	107.5
430.958	118.5
431.18	94.5
431.402	101.5
431.624	96.5
431.846	105.5
432.068	116.5
432.29	88.5
432.512	82.5
432.734	79.5
432.956	75.5
433.178	65.5
433.4	93.5
433.622	94.5
433.844	97.5
434.066	86.5
434.287	85.5
434.509	84.5
434.731	92.5
434.953	91.5
435.175	96.5
435.397	78.5
435.618	79.5
435.84	92.5
436.062	83.5
436.284	94.5
436.505	79.5
436.727	92.5
436.949	87.5
437.17	70.5
437.392	78.5
437.614	97.5
437.835	92.5
438.057	73.5
438.278	86.5
438.5	76.5
438.721	88.5
438.943	97.5
439.165	90.5
439.386	86.5
439.608	96.5
439.829	84.5
440.05	100.5
440.272	83.5
440.493	95.5
440.715	92.5
440.936	90.5
441.158	91.5
441.379	78.5
441.6	80.5
441.822	96.5
442.043	93.5
442.264	91.5
442.486	118.5
442.707	128.5
442.928	104.5
443.149	102.5
443.371	116.5
443.592	178.5
443.813	153.5
444.034	104.5
444.255	100.5
444.476	93.5
444.698	93.5
444.919	93.5
445.14	159.5
445.361	161.5
445.582	193.5
445.803	154.5
446.024	92.5
446.245	92.5
446.466	78.5
446.687	95.5
446.908	78.5
447.129	83.5
447.35	80.5
447.571	70.5
447.792	83.5
448.013	88.5
448.234	94.5
448.455	92.5
448.675	83.5
448.896	83.5
449.117	99.5
449.338	98.5
449.559	89.5
449.779	96.5
450	88.5
450.221	85.5
450.442	76.5
450.662	82.5
450.883	92.5
451.104	81.5
451.324	85.5
451.545	75.5
451.766	75.5
451.986	88.5
452.207	84.5
452.428	73.5
452.648	94.5
452.869	85.5
453.089	98.5
453.31	90.5
453.53	73.5
453.751	89.5
453.971	82.5
454.192	85.5
454.412	86.5
454.633	91.5
454.853	83.5
455.073	75.5
455.294	94.5
455.514	88.5
455.734	83.5
455.955	93.5
456.175	85.5
456.395	79.5
456.616	96.5
456.836	90.5
457.056	85.5
457.276	80.5
457.497	76.5
457.717	108.5
457.937	102.5
458.157	79.5
458.377	101.5
458.598	107.5
458.818	98.5
459.038	89.5
459.258	80.5
459.478	76.5
459.698	85.5
459.918	89.5
460.138	91.5
460.358	83.5
460.578	102.5
460.798	101.5
461.018	118.5
461.238	76.5
461.458	89.5
461.678	91.5
461.898	78.5
462.118	86.5
462.338	103.5
462.558	100.5
462.777	90.5
462.997	93.5
463.217	97.5
463.437	84.5
463.657	72.5
463.876	82.5
464.096	85.5
464.316	81.5
464.536	109.5
464.755	79.5
464.975	86.5
465.195	84.5
465.414	85.5
465.634	82.5
465.854	77.5
466.073	81.5
466.293	83.5
466.512	82.5
466.732	84.5
466.951	97.5
467.171	80.5
467.391	77.5
467.61	84.5
467.829	71.5
468.049	87.5
468.268	83.5
468.488	87.5
468.707	77.5
468.927	78.5
469.146	82.5
469.365	97.5
469.585	85.5
469.804	87.5
470.023	88.5
470.243	85.5
470.462	85.5
470.681	101.5
470.901	100.5
471.12	96.5
471.339	77.5
471.558	88.5
471.777	84.5
471.997	78.5
472.216	85.5
472.435	80.5
472.654	75.5
472.873	80.5
473.092	76.5
473.311	79.5
473.53	70.5
473.749	83.5
473.968	84.5
474.187	82.5
474.406	79.5
474.625	80.5
474.844	88.5
475.063	100.5
475.282	89.5
475.501	79.5
475.72	94.5
475.939	76.5
476.158	90.5
476.377	73.5
476.596	86.5
476.814	96.5
477.033	89.5
477.252	85.5
477.471	79.5
477.69	80.5
477.908	79.5
478.127	82.5
478.346	89.5
478.564	70.5
478.783	95.5
479.002	89.5
479.22	70.5
479.439	82.5
479.658	91.5
479.876	83.5
480.095	79.5
480.313	85.5
480.532	84.5
480.751	95.5
480.969	84.5
481.188	79.5
481.406	89.5
481.624	62.5
481.843	94.5
482.061	80.5
482.28	93.5
482.498	93.5
482.717	88.5
482.935	90.5
483.153	73.5
483.372	84.5
483.59	82.5
483.808	93.5
484.027	79.5
484.245	82.5
484.463	82.5
484.681	73.5
484.9	89.5
485.118	86.5
485.336	87.5
485.554	71.5
485.772	101.5
485.99	84.5
486.209	74.5
486.427	90.5
486.645	97.5
486.863	78.5
487.081	82.5
487.299	88.5
487.517	90.5
487.735	94.5
487.953	121.5
488.171	102.5
488.389	104.5
488.607	81.5
488.825	93.5
489.043	81.5
489.261	86.5
489.479	94.5
489.696	77.5
489.914	91.5
490.132	97.5
490.35	96.5
490.568	91.5
490.786	92.5
491.003	91.5
491.221	91.5
491.439	87.5
491.657	93.5
491.874	69.5
492.092	79.5
492.31	92.5
492.527	92.5
492.745	79.5
492.963	78.5
493.18	76.5
493.398	81.5
493.615	93.5
493.833	89.5
494.05	74.5
494.268	80.5
494.485	92.5
494.703	86.5
494.92	95.5
495.138	79.5
495.355	98.5
495.573	91.5
495.79	82.5
496.008	89.5
496.225	84.5
496.442	78.5
496.66	85.5
496.877	97.5
497.094	98.5
497.312	97.5
497.529	94.5
497.746	84.5
497.963	90.5
498.181	82.5
498.398	86.5
498.615	75.5
498.832	106.5
499.049	76.5
499.267	88.5
499.484	94.5
499.701	75.5
499.918	100.5
500.135	100.5
500.352	88.5
500.569	89.5
500.786	100.5
501.003	84.5
501.22	82.5
501.437	91.5
501.654	86.5
501.871	84.5
502.088	93.5
502.305	89.5
502.522	97.5
502.739	85.5
502.956	88.5
503.172	92.5
503.389	77.5
503.606	84.5
503.823	92.5
504.04	86.5
504.256	105.5
504.473	104.5
504.69	85.5
504.907	91.5
505.123	85.5
505.34	88.5
505.557	86.5
505.773	82.5
505.99	93.5
506.207	81.5
506.423	91.5
506.64	84.5
506.856	87.5
507.073	74.5
507.289	83.5
507.506	79.5
507.722	95.5
507.939	86.5
508.155	84.5
508.372	88.5
508.588	92.5
508.805	80.5
509.021	82.5
509.238	93.5
509.454	82.5
509.67	76.5
509.887	92.5
510.103	96.5
510.319	87.5
510.536	77.5
510.752	82.5
510.968	84.5
511.184	100.5
511.401	78.5
511.617	97.5
511.833	96.5
512.049	90.5
512.265	91.5
512.481	85.5
512.698	84.5
512.914	88.5
513.13	77.5
513.346	87.5
513.562	92.5
513.778	80.5
513.994	80.5
514.21	87.5
514.426	93.5
514.642	90.5
514.858	98.5
515.074	86.5
515.29	81.5
515.506	85.5
515.721	70.5
515.937	88.5
516.153	84.5
516.369	81.5
516.585	88.5
516.801	100.5
517.016	90.5
517.232	76.5
517.448	96.5
517.664	84.5
517.879	100.5
518.095	88.5
518.311	96.5
518.527	92.5
518.742	89.5
518.958	104.5
519.173	110.5
519.389	99.5
519.605	86.5
519.82	94.5
520.036	96.5
520.251	84.5
520.467	82.5
520.682	83.5
520.898	88.5
521.113	85.5
521.329	94.5
521.544	82.5
521.76	79.5
521.975	100.5
522.19	81.5
522.406	74.5
522.621	90.5
522.836	86.5
523.052	82.5
523.267	89.5
523.482	85.5
523.698	83.5
523.913	86.5
524.128	86.5
524.343	93.5
524.559	92.5
524.774	84.5
524.989	101.5
525.204	84.5
525.419	95.5
525.634	91.5
525.849	99.5
526.064	92.5
526.28	146.5
526.495	164.5
526.71	187.5
526.925	164.5
527.14	200.5
527.355	163.5
527.57	91.5
527.785	77.5
527.999	80.5
528.214	100.5
528.429	75.5
528.644	100.5
528.859	98.5
529.074	90.5
529.289	94.5
529.503	85.5
529.718	97.5
529.933	106.5
530.148	91.5
530.363	86.5
530.577	87.5
530.792	68.5
531.007	66.5
531.221	76.5
531.436	81.5
531.651	102.5
531.865	106.5
532.08	90.5
532.295	87.5
532.509	81.5
532.724	94.5
532.938	98.5
533.153	104.5
533.367	96.5
533.582	84.5
533.796	90.5
534.011	96.5
534.225	86.5
534.44	105.5
534.654	101.5
534.868	116.5
535.083	116.5
535.297	96.5
535.511	102.5
535.726	100.5
535.94	92.5
536.154	78.5
536.369	101.5
536.583	87.5
536.797	86.5
537.011	77.5
537.225	87.5
537.44	82.5
537.654	88.5
537.868	105.5
538.082	86.5
538.296	101.5
538.51	103.5
538.724	77.5
