Data from HP_2_HRD10591_00024.txt Node
Date: Mon Jan 19 14:16:13 EST 2026
User: Yrep
Spectrometer: HR+D1059
Trigger mode: 1
Integration Time (sec): 1.000000E-1
Scans to average: 1
Electric dark correction enabled: true
Nonlinearity correction enabled: false
Boxcar width: 0
XAxis mode: Wavelengths
Number of Pixels in Spectrum: 2048
>>>>>Begin Spectral Data<<<<<
223.165	-21.38
223.4	-21.38
223.635	-21.38
223.869	-23.38
224.104	-15.38
224.338	-7.38
224.573	-19.38
224.808	-10.38
225.042	-8.38
225.277	1.62
225.511	1.62
225.746	-3.38
225.98	4.62
226.215	10.62
226.449	16.62
226.683	16.62
226.918	31.62
227.152	25.62
227.387	37.62
227.621	46.62
227.856	23.62
228.09	35.62
228.324	63.62
228.559	47.62
228.793	51.62
229.027	49.62
229.262	66.62
229.496	66.62
229.73	63.62
229.964	67.62
230.199	73.62
230.433	75.62
230.667	71.62
230.901	78.62
231.136	74.62
231.37	77.62
231.604	73.62
231.838	71.62
232.072	81.62
232.306	74.62
232.541	72.62
232.775	69.62
233.009	81.62
233.243	61.62
233.477	76.62
233.711	91.62
233.945	73.62
234.179	79.62
234.413	94.62
234.647	64.62
234.881	66.62
235.115	82.62
235.349	71.62
235.583	72.62
235.817	68.62
236.051	69.62
236.285	78.62
236.519	84.62
236.753	79.62
236.987	74.62
237.221	72.62
237.455	69.62
237.689	79.62
237.922	67.62
238.156	62.62
238.39	63.62
238.624	63.62
238.858	85.62
239.091	85.62
239.325	76.62
239.559	73.62
239.793	87.62
240.027	62.62
240.26	73.62
240.494	88.62
240.728	68.62
240.961	71.62
241.195	68.62
241.429	79.62
241.662	73.62
241.896	57.62
242.13	67.62
242.363	59.62
242.597	70.62
242.83	74.62
243.064	71.62
243.298	81.62
243.531	71.62
243.765	81.62
243.998	60.62
244.232	66.62
244.465	56.62
244.699	52.62
244.932	67.62
245.166	69.62
245.399	61.62
245.633	79.62
245.866	90.62
246.099	72.62
246.333	65.62
246.566	77.62
246.8	66.62
247.033	51.62
247.266	72.62
247.5	71.62
247.733	72.62
247.966	74.62
248.2	72.62
248.433	71.62
248.666	62.62
248.899	85.62
249.133	66.62
249.366	80.62
249.599	88.62
249.832	93.62
250.066	91.62
250.299	69.62
250.532	89.62
250.765	80.62
250.998	68.62
251.231	65.62
251.465	87.62
251.698	78.62
251.931	69.62
252.164	70.62
252.397	78.62
252.63	83.62
252.863	71.62
253.096	80.62
253.329	69.62
253.562	79.62
253.795	73.62
254.028	87.62
254.261	77.62
254.494	76.62
254.727	94.62
254.96	74.62
255.193	73.62
255.426	85.62
255.659	79.62
255.892	85.62
256.124	83.62
256.357	71.62
256.59	72.62
256.823	79.62
257.056	81.62
257.289	81.62
257.521	89.62
257.754	71.62
257.987	77.62
258.22	90.62
258.452	78.62
258.685	76.62
258.918	71.62
259.151	63.62
259.383	73.62
259.616	55.62
259.849	79.62
260.081	69.62
260.314	71.62
260.547	71.62
260.779	78.62
261.012	72.62
261.244	79.62
261.477	83.62
261.71	71.62
261.942	69.62
262.175	89.62
262.407	92.62
262.64	72.62
262.872	83.62
263.105	77.62
263.337	95.62
263.57	87.62
263.802	82.62
264.035	79.62
264.267	63.62
264.499	72.62
264.732	86.62
264.964	75.62
265.197	81.62
265.429	83.62
265.661	78.62
265.894	82.62
266.126	78.62
266.358	81.62
266.591	91.62
266.823	72.62
267.055	81.62
267.287	88.62
267.52	73.62
267.752	83.62
267.984	76.62
268.216	78.62
268.448	73.62
268.681	92.62
268.913	78.62
269.145	83.62
269.377	86.62
269.609	66.62
269.841	83.62
270.073	67.62
270.306	78.62
270.538	73.62
270.77	90.62
271.002	66.62
271.234	73.62
271.466	94.62
271.698	75.62
271.93	71.62
272.162	77.62
272.394	73.62
272.626	87.62
272.858	62.62
273.09	85.62
273.322	86.62
273.553	83.62
273.785	76.62
274.017	80.62
274.249	70.62
274.481	77.62
274.713	79.62
274.945	87.62
275.176	73.62
275.408	74.62
275.64	85.62
275.872	83.62
276.104	70.62
276.335	74.62
276.567	68.62
276.799	80.62
277.031	85.62
277.262	89.62
277.494	80.62
277.726	73.62
277.957	79.62
278.189	79.62
278.421	67.62
278.652	85.62
278.884	70.62
279.115	60.62
279.347	87.62
279.579	91.62
279.81	87.62
280.042	75.62
280.273	81.62
280.505	84.62
280.736	67.62
280.968	74.62
281.199	81.62
281.431	86.62
281.662	89.62
281.894	89.62
282.125	92.62
282.356	87.62
282.588	73.62
282.819	80.62
283.051	77.62
283.282	86.62
283.513	88.62
283.745	77.62
283.976	79.62
284.207	67.62
284.439	88.62
284.67	85.62
284.901	77.62
285.132	74.62
285.364	101.62
285.595	85.62
285.826	72.62
286.057	88.62
286.288	86.62
286.52	84.62
286.751	83.62
286.982	84.62
287.213	69.62
287.444	78.62
287.675	79.62
287.906	96.62
288.138	77.62
288.369	79.62
288.6	73.62
288.831	65.62
289.062	76.62
289.293	84.62
289.524	87.62
289.755	75.62
289.986	83.62
290.217	95.62
290.448	84.62
290.679	74.62
290.91	77.62
291.141	74.62
291.371	90.62
291.602	82.62
291.833	87.62
292.064	93.62
292.295	84.62
292.526	80.62
292.757	91.62
292.987	72.62
293.218	79.62
293.449	69.62
293.68	81.62
293.91	68.62
294.141	67.62
294.372	86.62
294.603	97.62
294.833	87.62
295.064	81.62
295.295	96.62
295.525	87.62
295.756	72.62
295.987	71.62
296.217	76.62
296.448	80.62
296.679	99.62
296.909	97.62
297.14	89.62
297.37	89.62
297.601	88.62
297.831	85.62
298.062	94.62
298.292	83.62
298.523	94.62
298.753	73.62
298.984	81.62
299.214	86.62
299.445	69.62
299.675	86.62
299.905	80.62
300.136	92.62
300.366	86.62
300.597	86.62
300.827	89.62
301.057	83.62
301.288	87.62
301.518	61.62
301.748	76.62
301.979	108.62
302.209	77.62
302.439	68.62
302.669	83.62
302.9	67.62
303.13	83.62
303.36	76.62
303.59	81.62
303.82	86.62
304.051	69.62
304.281	84.62
304.511	77.62
304.741	101.62
304.971	72.62
305.201	80.62
305.431	74.62
305.661	93.62
305.891	81.62
306.121	79.62
306.352	76.62
306.582	75.62
306.812	77.62
307.042	92.62
307.272	71.62
307.502	87.62
307.731	90.62
307.961	81.62
308.191	85.62
308.421	96.62
308.651	84.62
308.881	92.62
309.111	89.62
309.341	94.62
309.571	87.62
309.8	70.62
310.03	98.62
310.26	91.62
310.49	93.62
310.72	86.62
310.949	86.62
311.179	80.62
311.409	77.62
311.639	93.62
311.868	81.62
312.098	79.62
312.328	84.62
312.557	81.62
312.787	71.62
313.017	91.62
313.246	93.62
313.476	92.62
313.706	80.62
313.935	91.62
314.165	81.62
314.394	79.62
314.624	81.62
314.853	76.62
315.083	82.62
315.312	71.62
315.542	79.62
315.771	89.62
316.001	85.62
316.23	81.62
316.46	94.62
316.689	79.62
316.919	77.62
317.148	69.62
317.377	93.62
317.607	88.62
317.836	81.62
318.065	91.62
318.295	83.62
318.524	87.62
318.753	73.62
318.983	76.62
319.212	81.62
319.441	74.62
319.67	78.62
319.9	81.62
320.129	95.62
320.358	97.62
320.587	82.62
320.816	74.62
321.046	83.62
321.275	93.62
321.504	93.62
321.733	84.62
321.962	92.62
322.191	83.62
322.42	92.62
322.649	87.62
322.878	91.62
323.108	84.62
323.337	87.62
323.566	86.62
323.795	77.62
324.024	84.62
324.253	78.62
324.482	84.62
324.71	93.62
324.939	89.62
325.168	96.62
325.397	102.62
325.626	89.62
325.855	79.62
326.084	77.62
326.313	80.62
326.542	73.62
326.77	96.62
326.999	72.62
327.228	83.62
327.457	93.62
327.686	86.62
327.914	75.62
328.143	86.62
328.372	79.62
328.6	71.62
328.829	73.62
329.058	74.62
329.287	92.62
329.515	88.62
329.744	95.62
329.972	72.62
330.201	89.62
330.43	83.62
330.658	93.62
330.887	81.62
331.115	77.62
331.344	82.62
331.572	93.62
331.801	70.62
332.03	73.62
332.258	73.62
332.486	88.62
332.715	84.62
332.943	88.62
333.172	64.62
333.4	70.62
333.629	81.62
333.857	70.62
334.085	79.62
334.314	79.62
334.542	81.62
334.771	99.62
334.999	88.62
335.227	100.62
335.455	85.62
335.684	99.62
335.912	84.62
336.14	91.62
336.369	95.62
336.597	91.62
336.825	85.62
337.053	79.62
337.281	67.62
337.51	97.62
337.738	85.62
337.966	86.62
338.194	79.62
338.422	90.62
338.65	76.62
338.878	85.62
339.106	72.62
339.334	76.62
339.562	69.62
339.79	88.62
340.018	88.62
340.246	93.62
340.474	87.62
340.702	83.62
340.93	93.62
341.158	94.62
341.386	73.62
341.614	78.62
341.842	74.62
342.07	83.62
342.298	73.62
342.526	88.62
342.754	81.62
342.981	79.62
343.209	85.62
343.437	80.62
343.665	80.62
343.893	96.62
344.12	83.62
344.348	82.62
344.576	84.62
344.804	85.62
345.031	88.62
345.259	94.62
345.487	84.62
345.714	71.62
345.942	78.62
346.17	92.62
346.397	84.62
346.625	84.62
346.853	79.62
347.08	81.62
347.308	89.62
347.535	94.62
347.763	81.62
347.99	88.62
348.218	88.62
348.445	88.62
348.673	76.62
348.9	76.62
349.128	79.62
349.355	89.62
349.583	88.62
349.81	88.62
350.037	79.62
350.265	93.62
350.492	64.62
350.72	94.62
350.947	87.62
351.174	94.62
351.402	78.62
351.629	74.62
351.856	82.62
352.083	72.62
352.311	72.62
352.538	73.62
352.765	85.62
352.992	76.62
353.22	97.62
353.447	82.62
353.674	85.62
353.901	83.62
354.128	78.62
354.355	86.62
354.583	79.62
354.81	76.62
355.037	73.62
355.264	82.62
355.491	77.62
355.718	76.62
355.945	72.62
356.172	78.62
356.399	82.62
356.626	88.62
356.853	84.62
357.08	80.62
357.307	105.62
357.534	81.62
357.761	82.62
357.988	88.62
358.215	85.62
358.441	83.62
358.668	80.62
358.895	91.62
359.122	68.62
359.349	86.62
359.576	77.62
359.802	80.62
360.029	72.62
360.256	73.62
360.483	69.62
360.709	83.62
360.936	96.62
361.163	96.62
361.39	92.62
361.616	100.62
361.843	98.62
362.07	76.62
362.296	94.62
362.523	89.62
362.749	97.62
362.976	114.62
363.203	116.62
363.429	88.62
363.656	89.62
363.882	90.62
364.109	111.62
364.335	104.62
364.562	103.62
364.788	102.62
365.015	79.62
365.241	86.62
365.468	93.62
365.694	88.62
365.92	87.62
366.147	85.62
366.373	73.62
366.599	80.62
366.826	90.62
367.052	88.62
367.278	84.62
367.505	92.62
367.731	89.62
367.957	95.62
368.184	98.62
368.41	74.62
368.636	93.62
368.862	83.62
369.089	92.62
369.315	87.62
369.541	88.62
369.767	73.62
369.993	66.62
370.219	79.62
370.445	82.62
370.672	85.62
370.898	91.62
371.124	81.62
371.35	98.62
371.576	83.62
371.802	81.62
372.028	88.62
372.254	82.62
372.48	88.62
372.706	87.62
372.932	72.62
373.158	85.62
373.384	92.62
373.61	84.62
373.835	83.62
374.061	87.62
374.287	89.62
374.513	82.62
374.739	85.62
374.965	108.62
375.191	100.62
375.416	93.62
375.642	83.62
375.868	92.62
376.094	89.62
376.319	88.62
376.545	87.62
376.771	93.62
376.997	83.62
377.222	71.62
377.448	78.62
377.674	76.62
377.899	84.62
378.125	83.62
378.35	84.62
378.576	73.62
378.802	82.62
379.027	90.62
379.253	107.62
379.478	79.62
379.704	93.62
379.929	107.62
380.155	93.62
380.38	87.62
380.606	80.62
380.831	93.62
381.057	88.62
381.282	93.62
381.507	91.62
381.733	83.62
381.958	90.62
382.184	90.62
382.409	92.62
382.634	81.62
382.86	90.62
383.085	81.62
383.31	91.62
383.535	93.62
383.761	88.62
383.986	92.62
384.211	82.62
384.436	84.62
384.662	79.62
384.887	73.62
385.112	74.62
385.337	87.62
385.562	82.62
385.787	96.62
386.013	89.62
386.238	82.62
386.463	86.62
386.688	85.62
386.913	85.62
387.138	84.62
387.363	89.62
387.588	81.62
387.813	97.62
388.038	104.62
388.263	87.62
388.488	81.62
388.713	94.62
388.938	84.62
389.163	88.62
389.387	72.62
389.612	93.62
389.837	84.62
390.062	84.62
390.287	97.62
390.512	80.62
390.736	84.62
390.961	78.62
391.186	88.62
391.411	89.62
391.636	83.62
391.86	96.62
392.085	81.62
392.31	90.62
392.534	86.62
392.759	108.62
392.984	133.62
393.208	192.62
393.433	249.62
393.658	200.62
393.882	102.62
394.107	114.62
394.331	118.62
394.556	125.62
394.78	105.62
395.005	88.62
395.229	85.62
395.454	85.62
395.678	100.62
395.903	112.62
396.127	128.62
396.352	144.62
396.576	143.62
396.801	174.62
397.025	208.62
397.249	141.62
397.474	104.62
397.698	92.62
397.922	87.62
398.147	88.62
398.371	81.62
398.595	96.62
398.82	83.62
399.044	77.62
399.268	91.62
399.492	94.62
399.717	80.62
399.941	73.62
400.165	81.62
400.389	95.62
400.613	84.62
400.837	85.62
401.062	86.62
401.286	85.62
401.51	84.62
401.734	83.62
401.958	74.62
402.182	80.62
402.406	91.62
402.63	93.62
402.854	87.62
403.078	82.62
403.302	96.62
403.526	100.62
403.75	81.62
403.974	90.62
404.198	94.62
404.422	117.62
404.645	122.62
404.869	113.62
405.093	98.62
405.317	81.62
405.541	88.62
405.765	90.62
405.988	85.62
406.212	81.62
406.436	89.62
406.66	105.62
406.883	96.62
407.107	92.62
407.331	78.62
407.555	99.62
407.778	103.62
408.002	100.62
408.226	79.62
408.449	77.62
408.673	74.62
408.896	85.62
409.12	83.62
409.344	99.62
409.567	102.62
409.791	100.62
410.014	97.62
410.238	85.62
410.461	85.62
410.685	77.62
410.908	95.62
411.132	77.62
411.355	73.62
411.578	86.62
411.802	83.62
412.025	87.62
412.249	80.62
412.472	82.62
412.695	85.62
412.919	89.62
413.142	91.62
413.365	82.62
413.589	86.62
413.812	95.62
414.035	92.62
414.258	87.62
414.482	77.62
414.705	87.62
414.928	81.62
415.151	85.62
415.374	78.62
415.597	80.62
415.821	86.62
416.044	83.62
416.267	82.62
416.49	86.62
416.713	83.62
416.936	97.62
417.159	80.62
417.382	76.62
417.605	84.62
417.828	77.62
418.051	82.62
418.274	101.62
418.497	94.62
418.72	82.62
418.943	77.62
419.166	99.62
419.389	87.62
419.611	91.62
419.834	79.62
420.057	76.62
420.28	84.62
420.503	86.62
420.726	82.62
420.948	98.62
421.171	96.62
421.394	99.62
421.617	107.62
421.839	115.62
422.062	143.62
422.285	165.62
422.507	267.62
422.73	317.62
422.953	304.62
423.175	204.62
423.398	145.62
423.621	111.62
423.843	100.62
424.066	76.62
424.288	81.62
424.511	96.62
424.733	80.62
424.956	99.62
425.178	95.62
425.401	84.62
425.623	91.62
425.846	75.62
426.068	95.62
426.291	97.62
426.513	104.62
426.735	72.62
426.958	86.62
427.18	85.62
427.402	94.62
427.625	85.62
427.847	89.62
428.069	94.62
428.292	114.62
428.514	120.62
428.736	89.62
428.958	111.62
429.181	113.62
429.403	93.62
429.625	101.62
429.847	108.62
430.069	155.62
430.292	174.62
430.514	146.62
430.736	127.62
430.958	120.62
431.18	89.62
431.402	86.62
431.624	91.62
431.846	111.62
432.068	120.62
432.29	90.62
432.512	79.62
432.734	75.62
432.956	79.62
433.178	77.62
433.4	81.62
433.622	84.62
433.844	79.62
434.066	87.62
434.287	78.62
434.509	86.62
434.731	80.62
434.953	91.62
435.175	74.62
435.397	86.62
435.618	81.62
435.84	92.62
436.062	84.62
436.284	73.62
436.505	73.62
436.727	79.62
436.949	64.62
437.17	83.62
437.392	83.62
437.614	76.62
437.835	88.62
438.057	90.62
438.278	73.62
438.5	75.62
438.721	90.62
438.943	79.62
439.165	85.62
439.386	85.62
439.608	103.62
439.829	90.62
440.05	89.62
440.272	81.62
440.493	91.62
440.715	76.62
440.936	84.62
441.158	81.62
441.379	89.62
441.6	84.62
441.822	83.62
442.043	93.62
442.264	95.62
442.486	128.62
442.707	154.62
442.928	125.62
443.149	111.62
443.371	134.62
443.592	231.62
443.813	190.62
444.034	103.62
444.255	95.62
444.476	92.62
444.698	72.62
444.919	92.62
445.14	172.62
445.361	188.62
445.582	263.62
445.803	234.62
446.024	127.62
446.245	84.62
446.466	97.62
446.687	78.62
446.908	79.62
447.129	78.62
447.35	85.62
447.571	76.62
447.792	73.62
448.013	75.62
448.234	76.62
448.455	88.62
448.675	87.62
448.896	78.62
449.117	100.62
449.338	72.62
449.559	76.62
449.779	85.62
450	67.62
450.221	96.62
450.442	83.62
450.662	72.62
450.883	83.62
451.104	84.62
451.324	93.62
451.545	88.62
451.766	87.62
451.986	90.62
452.207	60.62
452.428	75.62
452.648	83.62
452.869	96.62
453.089	77.62
453.31	84.62
453.53	74.62
453.751	96.62
453.971	99.62
454.192	88.62
454.412	75.62
454.633	99.62
454.853	87.62
455.073	86.62
455.294	74.62
455.514	94.62
455.734	68.62
455.955	96.62
456.175	73.62
456.395	80.62
456.616	96.62
456.836	83.62
457.056	85.62
457.276	92.62
457.497	80.62
457.717	71.62
457.937	108.62
458.157	117.62
458.377	123.62
458.598	119.62
458.818	120.62
459.038	96.62
459.258	91.62
459.478	89.62
459.698	101.62
459.918	83.62
460.138	77.62
460.358	83.62
460.578	115.62
460.798	112.62
461.018	125.62
461.238	89.62
461.458	85.62
461.678	93.62
461.898	86.62
462.118	64.62
462.338	77.62
462.558	97.62
462.777	90.62
462.997	92.62
463.217	84.62
463.437	72.62
463.657	83.62
463.876	77.62
464.096	75.62
464.316	79.62
464.536	85.62
464.755	74.62
464.975	83.62
465.195	84.62
465.414	92.62
465.634	83.62
465.854	77.62
466.073	76.62
466.293	84.62
466.512	75.62
466.732	72.62
466.951	79.62
467.171	87.62
467.391	79.62
467.61	82.62
467.829	88.62
468.049	91.62
468.268	80.62
468.488	85.62
468.707	91.62
468.927	79.62
469.146	76.62
469.365	65.62
469.585	82.62
469.804	80.62
470.023	87.62
470.243	84.62
470.462	89.62
470.681	79.62
470.901	81.62
471.12	78.62
471.339	85.62
471.558	93.62
471.777	92.62
471.997	94.62
472.216	84.62
472.435	89.62
472.654	79.62
472.873	83.62
473.092	98.62
473.311	67.62
473.53	63.62
473.749	82.62
473.968	85.62
474.187	89.62
474.406	83.62
474.625	94.62
474.844	87.62
475.063	91.62
475.282	88.62
475.501	89.62
475.72	98.62
475.939	88.62
476.158	79.62
476.377	81.62
476.596	82.62
476.814	90.62
477.033	92.62
477.252	87.62
477.471	83.62
477.69	92.62
477.908	91.62
478.127	84.62
478.346	80.62
478.564	80.62
478.783	79.62
479.002	87.62
479.22	91.62
479.439	86.62
479.658	77.62
479.876	77.62
480.095	80.62
480.313	79.62
480.532	79.62
480.751	97.62
480.969	72.62
481.188	79.62
481.406	91.62
481.624	85.62
481.843	91.62
482.061	84.62
482.28	67.62
482.498	88.62
482.717	70.62
482.935	93.62
483.153	80.62
483.372	85.62
483.59	103.62
483.808	81.62
484.027	85.62
484.245	75.62
484.463	92.62
484.681	105.62
484.9	93.62
485.118	88.62
485.336	77.62
485.554	95.62
485.772	94.62
485.99	102.62
486.209	83.62
486.427	87.62
486.645	89.62
486.863	91.62
487.081	95.62
487.299	99.62
487.517	100.62
487.735	120.62
487.953	168.62
488.171	151.62
488.389	100.62
488.607	87.62
488.825	71.62
489.043	84.62
489.261	97.62
489.479	105.62
489.696	73.62
489.914	88.62
490.132	79.62
490.35	86.62
490.568	98.62
490.786	91.62
491.003	90.62
491.221	104.62
491.439	82.62
491.657	88.62
491.874	94.62
492.092	91.62
492.31	93.62
492.527	106.62
492.745	83.62
492.963	100.62
493.18	97.62
493.398	88.62
493.615	88.62
493.833	68.62
494.05	85.62
494.268	71.62
494.485	92.62
494.703	84.62
494.92	75.62
495.138	83.62
495.355	84.62
495.573	95.62
495.79	98.62
496.008	92.62
496.225	83.62
496.442	110.62
496.66	97.62
496.877	94.62
497.094	98.62
497.312	89.62
497.529	81.62
497.746	91.62
497.963	95.62
498.181	89.62
498.398	100.62
498.615	88.62
498.832	89.62
499.049	82.62
499.267	93.62
499.484	91.62
499.701	96.62
499.918	91.62
500.135	92.62
500.352	101.62
500.569	107.62
500.786	81.62
501.003	99.62
501.22	91.62
501.437	88.62
501.654	96.62
501.871	87.62
502.088	87.62
502.305	97.62
502.522	89.62
502.739	86.62
502.956	84.62
503.172	78.62
503.389	88.62
503.606	91.62
503.823	90.62
504.04	98.62
504.256	124.62
504.473	139.62
504.69	83.62
504.907	110.62
505.123	77.62
505.34	80.62
505.557	79.62
505.773	76.62
505.99	81.62
506.207	81.62
506.423	73.62
506.64	105.62
506.856	85.62
507.073	83.62
507.289	104.62
507.506	92.62
507.722	87.62
507.939	82.62
508.155	84.62
508.372	80.62
508.588	86.62
508.805	87.62
509.021	92.62
509.238	96.62
509.454	76.62
509.67	88.62
509.887	88.62
510.103	93.62
510.319	89.62
510.536	87.62
510.752	79.62
510.968	88.62
511.184	87.62
511.401	98.62
511.617	87.62
511.833	82.62
512.049	82.62
512.265	107.62
512.481	80.62
512.698	81.62
512.914	99.62
513.13	97.62
513.346	77.62
513.562	95.62
513.778	102.62
513.994	72.62
514.21	80.62
514.426	81.62
514.642	87.62
514.858	104.62
515.074	87.62
515.29	76.62
515.506	95.62
515.721	91.62
515.937	87.62
516.153	97.62
516.369	78.62
516.585	87.62
516.801	104.62
517.016	109.62
517.232	83.62
517.448	98.62
517.664	100.62
517.879	90.62
518.095	92.62
518.311	80.62
518.527	114.62
