Data from HP_2_HRD10591_00035.txt Node
Date: Mon Jan 19 14:16:18 EST 2026
User: Yrep
Spectrometer: HR+D1059
Trigger mode: 1
Integration Time (sec): 1.000000E-1
Scans to average: 1
Electric dark correction enabled: true
Nonlinearity correction enabled: false
Boxcar width: 0
XAxis mode: Wavelengths
Number of Pixels in Spectrum: 2048
>>>>>Begin Spectral Data<<<<<
223.165	-16.56
223.4	-16.56
223.635	-16.56
223.869	-26.56
224.104	-17.56
224.338	-8.56
224.573	-26.56
224.808	-8.56
225.042	-0.56
225.277	-11.56
225.511	-9.56
225.746	-0.56
225.98	0.44
226.215	24.44
226.449	10.44
226.683	11.44
226.918	50.44
227.152	29.44
227.387	34.44
227.621	36.44
227.856	41.44
228.09	40.44
228.324	57.44
228.559	69.44
228.793	66.44
229.027	63.44
229.262	56.44
229.496	68.44
229.73	60.44
229.964	68.44
230.199	59.44
230.433	64.44
230.667	77.44
230.901	81.44
231.136	76.44
231.37	74.44
231.604	90.44
231.838	69.44
232.072	76.44
232.306	72.44
232.541	74.44
232.775	78.44
233.009	86.44
233.243	81.44
233.477	59.44
233.711	73.44
233.945	85.44
234.179	71.44
234.413	63.44
234.647	88.44
234.881	94.44
235.115	72.44
235.349	75.44
235.583	76.44
235.817	85.44
236.051	80.44
236.285	80.44
236.519	74.44
236.753	77.44
236.987	76.44
237.221	81.44
237.455	64.44
237.689	65.44
237.922	84.44
238.156	75.44
238.39	74.44
238.624	74.44
238.858	71.44
239.091	79.44
239.325	79.44
239.559	82.44
239.793	73.44
240.027	68.44
240.26	51.44
240.494	81.44
240.728	57.44
240.961	81.44
241.195	74.44
241.429	85.44
241.662	61.44
241.896	84.44
242.13	78.44
242.363	73.44
242.597	77.44
242.83	75.44
243.064	85.44
243.298	77.44
243.531	60.44
243.765	78.44
243.998	92.44
244.232	81.44
244.465	66.44
244.699	73.44
244.932	72.44
245.166	68.44
245.399	74.44
245.633	87.44
245.866	73.44
246.099	72.44
246.333	73.44
246.566	83.44
246.8	88.44
247.033	69.44
247.266	71.44
247.5	96.44
247.733	83.44
247.966	69.44
248.2	83.44
248.433	81.44
248.666	79.44
248.899	74.44
249.133	78.44
249.366	95.44
249.599	77.44
249.832	72.44
250.066	84.44
250.299	79.44
250.532	91.44
250.765	73.44
250.998	84.44
251.231	83.44
251.465	74.44
251.698	76.44
251.931	77.44
252.164	90.44
252.397	85.44
252.63	88.44
252.863	76.44
253.096	68.44
253.329	74.44
253.562	76.44
253.795	76.44
254.028	80.44
254.261	75.44
254.494	97.44
254.727	81.44
254.96	75.44
255.193	87.44
255.426	88.44
255.659	72.44
255.892	74.44
256.124	60.44
256.357	77.44
256.59	73.44
256.823	76.44
257.056	83.44
257.289	72.44
257.521	86.44
257.754	78.44
257.987	77.44
258.22	85.44
258.452	64.44
258.685	77.44
258.918	88.44
259.151	83.44
259.383	88.44
259.616	83.44
259.849	76.44
260.081	91.44
260.314	88.44
260.547	86.44
260.779	87.44
261.012	72.44
261.244	77.44
261.477	90.44
261.71	86.44
261.942	76.44
262.175	75.44
262.407	80.44
262.64	69.44
262.872	89.44
263.105	79.44
263.337	60.44
263.57	61.44
263.802	77.44
264.035	80.44
264.267	86.44
264.499	76.44
264.732	79.44
264.964	76.44
265.197	89.44
265.429	81.44
265.661	80.44
265.894	81.44
266.126	82.44
266.358	91.44
266.591	71.44
266.823	97.44
267.055	98.44
267.287	84.44
267.52	84.44
267.752	83.44
267.984	77.44
268.216	85.44
268.448	92.44
268.681	96.44
268.913	95.44
269.145	80.44
269.377	91.44
269.609	84.44
269.841	82.44
270.073	86.44
270.306	67.44
270.538	77.44
270.77	81.44
271.002	82.44
271.234	90.44
271.466	75.44
271.698	72.44
271.93	87.44
272.162	71.44
272.394	67.44
272.626	78.44
272.858	83.44
273.09	75.44
273.322	82.44
273.553	86.44
273.785	88.44
274.017	82.44
274.249	82.44
274.481	72.44
274.713	95.44
274.945	66.44
275.176	84.44
275.408	81.44
275.64	68.44
275.872	79.44
276.104	83.44
276.335	78.44
276.567	87.44
276.799	88.44
277.031	101.44
277.262	75.44
277.494	70.44
277.726	71.44
277.957	84.44
278.189	73.44
278.421	74.44
278.652	81.44
278.884	77.44
279.115	88.44
279.347	73.44
279.579	90.44
279.81	87.44
280.042	79.44
280.273	88.44
280.505	81.44
280.736	78.44
280.968	85.44
281.199	89.44
281.431	74.44
281.662	85.44
281.894	89.44
282.125	77.44
282.356	81.44
282.588	82.44
282.819	87.44
283.051	75.44
283.282	76.44
283.513	88.44
283.745	89.44
283.976	83.44
284.207	75.44
284.439	84.44
284.67	80.44
284.901	99.44
285.132	87.44
285.364	96.44
285.595	89.44
285.826	91.44
286.057	86.44
286.288	76.44
286.52	78.44
286.751	83.44
286.982	77.44
287.213	76.44
287.444	91.44
287.675	81.44
287.906	83.44
288.138	83.44
288.369	84.44
288.6	77.44
288.831	99.44
289.062	116.44
289.293	89.44
289.524	84.44
289.755	83.44
289.986	84.44
290.217	75.44
290.448	78.44
290.679	79.44
290.91	90.44
291.141	85.44
291.371	99.44
291.602	82.44
291.833	82.44
292.064	67.44
292.295	72.44
292.526	95.44
292.757	86.44
292.987	89.44
293.218	82.44
293.449	73.44
293.68	89.44
293.91	80.44
294.141	72.44
294.372	78.44
294.603	83.44
294.833	78.44
295.064	74.44
295.295	93.44
295.525	93.44
295.756	85.44
295.987	67.44
296.217	83.44
296.448	90.44
296.679	90.44
296.909	82.44
297.14	75.44
297.37	91.44
297.601	77.44
297.831	73.44
298.062	73.44
298.292	98.44
298.523	85.44
298.753	90.44
298.984	90.44
299.214	88.44
299.445	81.44
299.675	72.44
299.905	83.44
300.136	71.44
300.366	96.44
300.597	90.44
300.827	100.44
301.057	93.44
301.288	93.44
301.518	97.44
301.748	83.44
301.979	106.44
302.209	86.44
302.439	90.44
302.669	78.44
302.9	70.44
303.13	83.44
303.36	83.44
303.59	83.44
303.82	84.44
304.051	82.44
304.281	89.44
304.511	88.44
304.741	99.44
304.971	83.44
305.201	82.44
305.431	83.44
305.661	74.44
305.891	77.44
306.121	95.44
306.352	90.44
306.582	79.44
306.812	73.44
307.042	90.44
307.272	79.44
307.502	91.44
307.731	89.44
307.961	75.44
308.191	92.44
308.421	86.44
308.651	78.44
308.881	104.44
309.111	97.44
309.341	87.44
309.571	92.44
309.8	93.44
310.03	73.44
310.26	77.44
310.49	92.44
310.72	77.44
310.949	75.44
311.179	81.44
311.409	96.44
311.639	78.44
311.868	66.44
312.098	66.44
312.328	84.44
312.557	83.44
312.787	93.44
313.017	82.44
313.246	81.44
313.476	77.44
313.706	81.44
313.935	95.44
314.165	88.44
314.394	87.44
314.624	98.44
314.853	96.44
315.083	101.44
315.312	94.44
315.542	84.44
315.771	92.44
316.001	85.44
316.23	88.44
316.46	77.44
316.689	76.44
316.919	82.44
317.148	105.44
317.377	91.44
317.607	87.44
317.836	81.44
318.065	86.44
318.295	101.44
318.524	83.44
318.753	83.44
318.983	75.44
319.212	89.44
319.441	85.44
319.67	90.44
319.9	94.44
320.129	86.44
320.358	70.44
320.587	89.44
320.816	96.44
321.046	81.44
321.275	103.44
321.504	75.44
321.733	95.44
321.962	78.44
322.191	87.44
322.42	88.44
322.649	84.44
322.878	94.44
323.108	80.44
323.337	76.44
323.566	88.44
323.795	87.44
324.024	83.44
324.253	88.44
324.482	83.44
324.71	82.44
324.939	86.44
325.168	77.44
325.397	83.44
325.626	80.44
325.855	78.44
326.084	83.44
326.313	69.44
326.542	81.44
326.77	92.44
326.999	77.44
327.228	78.44
327.457	85.44
327.686	84.44
327.914	88.44
328.143	89.44
328.372	76.44
328.6	77.44
328.829	84.44
329.058	90.44
329.287	92.44
329.515	87.44
329.744	89.44
329.972	65.44
330.201	85.44
330.43	78.44
330.658	73.44
330.887	95.44
331.115	80.44
331.344	82.44
331.572	96.44
331.801	77.44
332.03	85.44
332.258	85.44
332.486	78.44
332.715	84.44
332.943	76.44
333.172	88.44
333.4	87.44
333.629	76.44
333.857	80.44
334.085	96.44
334.314	80.44
334.542	87.44
334.771	77.44
334.999	100.44
335.227	88.44
335.455	89.44
335.684	92.44
335.912	84.44
336.14	81.44
336.369	86.44
336.597	89.44
336.825	92.44
337.053	70.44
337.281	81.44
337.51	72.44
337.738	81.44
337.966	93.44
338.194	83.44
338.422	92.44
338.65	91.44
338.878	92.44
339.106	84.44
339.334	74.44
339.562	87.44
339.79	93.44
340.018	84.44
340.246	81.44
340.474	86.44
340.702	85.44
340.93	86.44
341.158	81.44
341.386	88.44
341.614	86.44
341.842	81.44
342.07	81.44
342.298	87.44
342.526	82.44
342.754	92.44
342.981	89.44
343.209	84.44
343.437	90.44
343.665	78.44
343.893	73.44
344.12	82.44
344.348	74.44
344.576	88.44
344.804	87.44
345.031	74.44
345.259	85.44
345.487	79.44
345.714	83.44
345.942	90.44
346.17	81.44
346.397	91.44
346.625	75.44
346.853	89.44
347.08	84.44
347.308	93.44
347.535	77.44
347.763	90.44
347.99	104.44
348.218	87.44
348.445	96.44
348.673	99.44
348.9	84.44
349.128	101.44
349.355	85.44
349.583	84.44
349.81	87.44
350.037	93.44
350.265	83.44
350.492	83.44
350.72	94.44
350.947	91.44
351.174	79.44
351.402	78.44
351.629	76.44
351.856	82.44
352.083	82.44
352.311	85.44
352.538	86.44
352.765	82.44
352.992	89.44
353.22	92.44
353.447	71.44
353.674	84.44
353.901	85.44
354.128	84.44
354.355	83.44
354.583	85.44
354.81	83.44
355.037	96.44
355.264	89.44
355.491	91.44
355.718	87.44
355.945	89.44
356.172	88.44
356.399	84.44
356.626	76.44
356.853	90.44
357.08	93.44
357.307	85.44
357.534	91.44
357.761	92.44
357.988	104.44
358.215	90.44
358.441	77.44
358.668	95.44
358.895	77.44
359.122	95.44
359.349	93.44
359.576	83.44
359.802	67.44
360.029	75.44
360.256	87.44
360.483	86.44
360.709	91.44
360.936	84.44
361.163	77.44
361.39	80.44
361.616	88.44
361.843	88.44
362.07	86.44
362.296	93.44
362.523	85.44
362.749	95.44
362.976	87.44
363.203	89.44
363.429	87.44
363.656	90.44
363.882	91.44
364.109	96.44
364.335	93.44
364.562	116.44
364.788	98.44
365.015	86.44
365.241	82.44
365.468	89.44
365.694	78.44
365.92	79.44
366.147	92.44
366.373	72.44
366.599	85.44
366.826	94.44
367.052	91.44
367.278	84.44
367.505	80.44
367.731	85.44
367.957	91.44
368.184	94.44
368.41	88.44
368.636	100.44
368.862	72.44
369.089	87.44
369.315	97.44
369.541	92.44
369.767	93.44
369.993	98.44
370.219	66.44
370.445	96.44
370.672	99.44
370.898	78.44
371.124	105.44
371.35	85.44
371.576	75.44
371.802	94.44
372.028	102.44
372.254	89.44
372.48	93.44
372.706	87.44
372.932	78.44
373.158	96.44
373.384	96.44
373.61	97.44
373.835	79.44
374.061	79.44
374.287	94.44
374.513	83.44
374.739	96.44
374.965	96.44
375.191	97.44
375.416	87.44
375.642	82.44
375.868	89.44
376.094	79.44
376.319	95.44
376.545	80.44
376.771	81.44
376.997	83.44
377.222	89.44
377.448	90.44
377.674	81.44
377.899	89.44
378.125	74.44
378.35	81.44
378.576	75.44
378.802	76.44
379.027	73.44
379.253	79.44
379.478	77.44
379.704	86.44
379.929	98.44
380.155	96.44
380.38	92.44
380.606	80.44
380.831	74.44
381.057	81.44
381.282	91.44
381.507	95.44
381.733	81.44
381.958	86.44
382.184	98.44
382.409	87.44
382.634	89.44
382.86	103.44
383.085	87.44
383.31	96.44
383.535	85.44
383.761	85.44
383.986	87.44
384.211	87.44
384.436	89.44
384.662	94.44
384.887	84.44
385.112	84.44
385.337	94.44
385.562	85.44
385.787	79.44
386.013	88.44
386.238	82.44
386.463	85.44
386.688	99.44
386.913	95.44
387.138	82.44
387.363	81.44
387.588	91.44
387.813	81.44
388.038	105.44
388.263	87.44
388.488	90.44
388.713	83.44
388.938	92.44
389.163	97.44
389.387	80.44
389.612	72.44
389.837	84.44
390.062	100.44
390.287	95.44
390.512	83.44
390.736	80.44
390.961	76.44
391.186	87.44
391.411	95.44
391.636	83.44
391.86	75.44
392.085	79.44
392.31	83.44
392.534	96.44
392.759	85.44
392.984	104.44
393.208	133.44
393.433	161.44
393.658	142.44
393.882	101.44
394.107	97.44
394.331	97.44
394.556	106.44
394.78	102.44
395.005	99.44
395.229	87.44
395.454	88.44
395.678	88.44
395.903	81.44
396.127	107.44
396.352	104.44
396.576	113.44
396.801	140.44
397.025	142.44
397.249	105.44
397.474	91.44
397.698	84.44
397.922	81.44
398.147	72.44
398.371	80.44
398.595	93.44
398.82	93.44
399.044	84.44
399.268	97.44
399.492	81.44
399.717	91.44
399.941	69.44
400.165	93.44
400.389	90.44
400.613	97.44
400.837	84.44
401.062	86.44
401.286	68.44
401.51	85.44
401.734	90.44
401.958	86.44
402.182	83.44
402.406	88.44
402.63	73.44
402.854	88.44
403.078	92.44
403.302	81.44
403.526	99.44
403.75	92.44
403.974	92.44
404.198	102.44
404.422	120.44
404.645	120.44
404.869	97.44
405.093	91.44
405.317	80.44
405.541	90.44
405.765	85.44
405.988	75.44
406.212	75.44
406.436	78.44
406.66	83.44
406.883	79.44
407.107	78.44
407.331	73.44
407.555	91.44
407.778	89.44
408.002	87.44
408.226	89.44
408.449	82.44
408.673	70.44
408.896	72.44
409.12	77.44
409.344	82.44
409.567	85.44
409.791	88.44
410.014	105.44
410.238	90.44
410.461	78.44
410.685	76.44
410.908	92.44
411.132	86.44
411.355	72.44
411.578	91.44
411.802	75.44
412.025	83.44
412.249	87.44
412.472	88.44
412.695	95.44
412.919	102.44
413.142	91.44
413.365	83.44
413.589	81.44
413.812	77.44
414.035	85.44
414.258	97.44
414.482	93.44
414.705	85.44
414.928	88.44
415.151	84.44
415.374	85.44
415.597	65.44
415.821	92.44
416.044	84.44
416.267	104.44
416.49	87.44
416.713	80.44
416.936	69.44
417.159	75.44
417.382	93.44
417.605	77.44
417.828	96.44
418.051	78.44
418.274	95.44
418.497	86.44
418.72	89.44
418.943	87.44
419.166	87.44
419.389	86.44
419.611	80.44
419.834	75.44
420.057	79.44
420.28	99.44
420.503	105.44
420.726	86.44
420.948	76.44
421.171	85.44
421.394	89.44
421.617	100.44
421.839	105.44
422.062	98.44
422.285	131.44
422.507	166.44
422.73	233.44
422.953	211.44
423.175	148.44
423.398	112.44
423.621	103.44
423.843	80.44
424.066	79.44
424.288	94.44
424.511	98.44
424.733	101.44
424.956	90.44
425.178	105.44
425.401	87.44
425.623	80.44
425.846	92.44
426.068	91.44
426.291	88.44
426.513	93.44
426.735	84.44
426.958	88.44
427.18	90.44
427.402	95.44
427.625	78.44
427.847	78.44
428.069	87.44
428.292	111.44
428.514	102.44
428.736	100.44
428.958	120.44
429.181	99.44
429.403	87.44
429.625	91.44
429.847	89.44
430.069	124.44
430.292	134.44
430.514	115.44
430.736	105.44
430.958	106.44
431.18	103.44
431.402	83.44
431.624	85.44
431.846	91.44
432.068	109.44
432.29	93.44
432.512	89.44
432.734	73.44
432.956	69.44
433.178	72.44
433.4	87.44
433.622	82.44
433.844	88.44
434.066	77.44
434.287	91.44
434.509	93.44
434.731	92.44
434.953	82.44
435.175	93.44
435.397	92.44
435.618	78.44
435.84	88.44
436.062	83.44
436.284	99.44
436.505	83.44
436.727	91.44
436.949	87.44
437.17	86.44
437.392	73.44
437.614	79.44
437.835	74.44
438.057	83.44
438.278	89.44
438.5	96.44
438.721	91.44
438.943	75.44
439.165	83.44
439.386	90.44
439.608	88.44
439.829	94.44
440.05	98.44
440.272	78.44
440.493	87.44
440.715	88.44
440.936	102.44
441.158	84.44
441.379	69.44
441.6	89.44
441.822	98.44
442.043	81.44
442.264	80.44
442.486	106.44
442.707	112.44
442.928	85.44
443.149	91.44
443.371	106.44
443.592	159.44
443.813	134.44
444.034	92.44
444.255	84.44
444.476	83.44
444.698	84.44
444.919	85.44
445.14	157.44
445.361	157.44
445.582	179.44
445.803	152.44
446.024	102.44
446.245	92.44
446.466	86.44
446.687	87.44
446.908	85.44
447.129	93.44
447.35	81.44
447.571	81.44
447.792	92.44
448.013	88.44
448.234	82.44
448.455	90.44
448.675	91.44
448.896	73.44
449.117	88.44
449.338	87.44
449.559	86.44
449.779	78.44
450	77.44
450.221	82.44
450.442	82.44
450.662	91.44
450.883	93.44
451.104	82.44
451.324	99.44
451.545	82.44
451.766	81.44
451.986	77.44
452.207	82.44
452.428	91.44
452.648	87.44
452.869	97.44
453.089	93.44
453.31	103.44
453.53	80.44
453.751	83.44
453.971	66.44
454.192	71.44
454.412	78.44
454.633	79.44
454.853	92.44
455.073	93.44
455.294	89.44
455.514	89.44
455.734	83.44
455.955	75.44
456.175	99.44
456.395	79.44
456.616	92.44
456.836	84.44
457.056	76.44
457.276	87.44
457.497	98.44
457.717	78.44
457.937	89.44
458.157	77.44
458.377	93.44
458.598	101.44
458.818	98.44
459.038	95.44
459.258	81.44
459.478	75.44
459.698	81.44
459.918	86.44
460.138	89.44
460.358	89.44
460.578	92.44
460.798	105.44
461.018	105.44
461.238	87.44
461.458	100.44
461.678	71.44
461.898	85.44
462.118	68.44
462.338	83.44
462.558	81.44
462.777	75.44
462.997	80.44
463.217	75.44
463.437	83.44
463.657	85.44
463.876	86.44
464.096	91.44
464.316	80.44
464.536	92.44
464.755	95.44
464.975	85.44
465.195	76.44
465.414	79.44
465.634	77.44
465.854	74.44
466.073	76.44
466.293	76.44
466.512	81.44
466.732	82.44
466.951	79.44
467.171	85.44
467.391	84.44
467.61	78.44
467.829	83.44
468.049	77.44
468.268	87.44
468.488	73.44
468.707	97.44
468.927	74.44
469.146	87.44
469.365	106.44
469.585	72.44
469.804	92.44
470.023	87.44
470.243	84.44
470.462	76.44
470.681	87.44
470.901	94.44
471.12	95.44
471.339	87.44
471.558	87.44
471.777	80.44
471.997	85.44
472.216	85.44
472.435	84.44
472.654	94.44
472.873	100.44
473.092	87.44
473.311	85.44
473.53	78.44
473.749	71.44
473.968	82.44
474.187	84.44
474.406	89.44
474.625	96.44
474.844	94.44
475.063	78.44
475.282	87.44
475.501	88.44
475.72	88.44
475.939	79.44
476.158	83.44
476.377	75.44
476.596	73.44
476.814	93.44
477.033	84.44
477.252	90.44
477.471	83.44
477.69	80.44
477.908	83.44
478.127	101.44
478.346	84.44
478.564	84.44
478.783	80.44
479.002	87.44
479.22	67.44
479.439	88.44
479.658	89.44
479.876	72.44
480.095	75.44
480.313	91.44
480.532	87.44
480.751	87.44
480.969	90.44
481.188	86.44
481.406	87.44
481.624	90.44
481.843	79.44
482.061	77.44
482.28	69.44
482.498	79.44
482.717	84.44
482.935	87.44
483.153	79.44
483.372	95.44
483.59	84.44
483.808	97.44
484.027	85.44
484.245	82.44
484.463	70.44
484.681	76.44
484.9	80.44
485.118	88.44
485.336	100.44
485.554	69.44
485.772	71.44
485.99	77.44
486.209	83.44
486.427	97.44
486.645	89.44
486.863	86.44
487.081	104.44
487.299	91.44
487.517	89.44
487.735	97.44
487.953	118.44
488.171	105.44
488.389	91.44
488.607	87.44
488.825	85.44
489.043	78.44
489.261	91.44
489.479	83.44
489.696	87.44
489.914	80.44
490.132	77.44
490.35	81.44
490.568	89.44
490.786	84.44
491.003	81.44
491.221	76.44
491.439	91.44
491.657	81.44
491.874	86.44
492.092	77.44
492.31	86.44
492.527	73.44
492.745	85.44
492.963	105.44
493.18	77.44
493.398	81.44
493.615	78.44
493.833	92.44
494.05	80.44
494.268	91.44
494.485	91.44
494.703	89.44
494.92	84.44
495.138	92.44
495.355	82.44
495.573	79.44
495.79	78.44
496.008	61.44
496.225	80.44
496.442	79.44
496.66	88.44
496.877	69.44
497.094	97.44
497.312	103.44
497.529	82.44
497.746	80.44
497.963	80.44
498.181	96.44
498.398	89.44
498.615	87.44
498.832	90.44
499.049	84.44
499.267	77.44
499.484	76.44
499.701	92.44
499.918	69.44
500.135	83.44
500.352	77.44
500.569	82.44
500.786	87.44
501.003	96.44
501.22	85.44
501.437	77.44
501.654	84.44
501.871	83.44
502.088	81.44
502.305	79.44
502.522	81.44
502.739	98.44
502.956	78.44
503.172	89.44
503.389	89.44
503.606	93.44
503.823	89.44
504.04	104.44
504.256	109.44
504.473	111.44
504.69	95.44
504.907	93.44
505.123	93.44
505.34	82.44
505.557	90.44
505.773	75.44
505.99	87.44
506.207	84.44
506.423	100.44
506.64	94.44
506.856	89.44
507.073	83.44
507.289	78.44
507.506	97.44
507.722	88.44
507.939	74.44
508.155	82.44
508.372	85.44
508.588	96.44
508.805	77.44
509.021	99.44
509.238	90.44
509.454	89.44
509.67	80.44
509.887	83.44
510.103	89.44
510.319	85.44
510.536	74.44
510.752	84.44
510.968	80.44
511.184	98.44
511.401	103.44
511.617	83.44
511.833	84.44
512.049	77.44
512.265	95.44
512.481	95.44
512.698	82.44
512.914	88.44
513.13	89.44
513.346	80.44
513.562	76.44
513.778	89.44
513.994	94.44
514.21	89.44
514.426	86.44
514.642	89.44
514.858	77.44
515.074	82.44
515.29	97.44
515.506	75.44
515.721	87.44
515.937	90.44
516.153	77.44
516.369	94.44
516.585	101.44
516.801	92.44
517.016	89.44
517.232	90.44
517.448	82.44
517.664	92.44
517.879	78.44
518.095	83.44
518.311	81.44
518.527	107.44
518.742	91.44
518.958	106.44
