Data from HP_2_HRD10591_00040.txt Node
Date: Mon Jan 19 14:16:21 EST 2026
User: Yrep
Spectrometer: HR+D1059
Trigger mode: 1
Integration Time (sec): 1.000000E-1
Scans to average: 1
Electric dark correction enabled: true
Nonlinearity correction enabled: false
Boxcar width: 0
XAxis mode: Wavelengths
Number of Pixels in Spectrum: 2048
>>>>>Begin Spectral Data<<<<<
223.165	-21.25
223.4	-21.25
223.635	-21.25
223.869	-8.25
224.104	-22.25
224.338	-9.25
224.573	-7.25
224.808	-15.25
225.042	-9.25
225.277	-5.25
225.511	-5.25
225.746	10.75
225.98	10.75
226.215	3.75
226.449	-0.25
226.683	19.75
226.918	24.75
227.152	33.75
227.387	53.75
227.621	40.75
227.856	47.75
228.09	53.75
228.324	57.75
228.559	60.75
228.793	57.75
229.027	67.75
229.262	71.75
229.496	66.75
229.73	60.75
229.964	60.75
230.199	74.75
230.433	68.75
230.667	68.75
230.901	73.75
231.136	79.75
231.37	76.75
231.604	86.75
231.838	76.75
232.072	86.75
232.306	80.75
232.541	78.75
232.775	79.75
233.009	74.75
233.243	79.75
233.477	86.75
233.711	81.75
233.945	83.75
234.179	78.75
234.413	85.75
234.647	78.75
234.881	85.75
235.115	89.75
235.349	82.75
235.583	69.75
235.817	84.75
236.051	80.75
236.285	70.75
236.519	79.75
236.753	86.75
236.987	73.75
237.221	79.75
237.455	89.75
237.689	85.75
237.922	77.75
238.156	88.75
238.39	57.75
238.624	75.75
238.858	83.75
239.091	98.75
239.325	77.75
239.559	71.75
239.793	79.75
240.027	88.75
240.26	79.75
240.494	90.75
240.728	76.75
240.961	72.75
241.195	70.75
241.429	86.75
241.662	78.75
241.896	79.75
242.13	70.75
242.363	60.75
242.597	74.75
242.83	74.75
243.064	78.75
243.298	68.75
243.531	74.75
243.765	88.75
243.998	71.75
244.232	83.75
244.465	78.75
244.699	66.75
244.932	76.75
245.166	77.75
245.399	77.75
245.633	73.75
245.866	75.75
246.099	79.75
246.333	84.75
246.566	68.75
246.8	75.75
247.033	74.75
247.266	79.75
247.5	62.75
247.733	76.75
247.966	74.75
248.2	72.75
248.433	73.75
248.666	74.75
248.899	77.75
249.133	74.75
249.366	94.75
249.599	75.75
249.832	77.75
250.066	77.75
250.299	90.75
250.532	82.75
250.765	86.75
250.998	61.75
251.231	82.75
251.465	82.75
251.698	92.75
251.931	82.75
252.164	76.75
252.397	85.75
252.63	83.75
252.863	84.75
253.096	69.75
253.329	71.75
253.562	78.75
253.795	76.75
254.028	96.75
254.261	85.75
254.494	73.75
254.727	71.75
254.96	98.75
255.193	83.75
255.426	74.75
255.659	82.75
255.892	84.75
256.124	73.75
256.357	78.75
256.59	90.75
256.823	80.75
257.056	84.75
257.289	75.75
257.521	84.75
257.754	72.75
257.987	74.75
258.22	90.75
258.452	90.75
258.685	85.75
258.918	76.75
259.151	68.75
259.383	67.75
259.616	87.75
259.849	78.75
260.081	84.75
260.314	72.75
260.547	67.75
260.779	69.75
261.012	88.75
261.244	78.75
261.477	77.75
261.71	94.75
261.942	88.75
262.175	94.75
262.407	75.75
262.64	94.75
262.872	76.75
263.105	86.75
263.337	86.75
263.57	64.75
263.802	83.75
264.035	82.75
264.267	76.75
264.499	88.75
264.732	81.75
264.964	88.75
265.197	84.75
265.429	81.75
265.661	85.75
265.894	78.75
266.126	94.75
266.358	81.75
266.591	85.75
266.823	77.75
267.055	86.75
267.287	95.75
267.52	74.75
267.752	69.75
267.984	84.75
268.216	70.75
268.448	76.75
268.681	76.75
268.913	81.75
269.145	85.75
269.377	97.75
269.609	82.75
269.841	79.75
270.073	91.75
270.306	62.75
270.538	76.75
270.77	67.75
271.002	88.75
271.234	81.75
271.466	81.75
271.698	84.75
271.93	94.75
272.162	88.75
272.394	80.75
272.626	71.75
272.858	82.75
273.09	76.75
273.322	85.75
273.553	85.75
273.785	78.75
274.017	74.75
274.249	68.75
274.481	82.75
274.713	72.75
274.945	75.75
275.176	76.75
275.408	76.75
275.64	85.75
275.872	79.75
276.104	78.75
276.335	90.75
276.567	77.75
276.799	82.75
277.031	84.75
277.262	77.75
277.494	92.75
277.726	77.75
277.957	81.75
278.189	75.75
278.421	64.75
278.652	72.75
278.884	81.75
279.115	81.75
279.347	88.75
279.579	79.75
279.81	90.75
280.042	85.75
280.273	68.75
280.505	72.75
280.736	82.75
280.968	68.75
281.199	72.75
281.431	80.75
281.662	96.75
281.894	79.75
282.125	101.75
282.356	83.75
282.588	87.75
282.819	80.75
283.051	78.75
283.282	86.75
283.513	96.75
283.745	87.75
283.976	75.75
284.207	76.75
284.439	94.75
284.67	92.75
284.901	76.75
285.132	93.75
285.364	95.75
285.595	78.75
285.826	82.75
286.057	84.75
286.288	77.75
286.52	73.75
286.751	67.75
286.982	84.75
287.213	84.75
287.444	88.75
287.675	76.75
287.906	85.75
288.138	82.75
288.369	72.75
288.6	79.75
288.831	89.75
289.062	91.75
289.293	79.75
289.524	70.75
289.755	73.75
289.986	78.75
290.217	83.75
290.448	93.75
290.679	102.75
290.91	83.75
291.141	84.75
291.371	82.75
291.602	82.75
291.833	84.75
292.064	99.75
292.295	92.75
292.526	96.75
292.757	94.75
292.987	87.75
293.218	82.75
293.449	86.75
293.68	95.75
293.91	98.75
294.141	102.75
294.372	77.75
294.603	84.75
294.833	76.75
295.064	78.75
295.295	70.75
295.525	91.75
295.756	79.75
295.987	88.75
296.217	81.75
296.448	90.75
296.679	87.75
296.909	99.75
297.14	86.75
297.37	80.75
297.601	85.75
297.831	84.75
298.062	89.75
298.292	82.75
298.523	96.75
298.753	84.75
298.984	99.75
299.214	95.75
299.445	89.75
299.675	89.75
299.905	98.75
300.136	82.75
300.366	97.75
300.597	83.75
300.827	88.75
301.057	95.75
301.288	77.75
301.518	84.75
301.748	69.75
301.979	84.75
302.209	69.75
302.439	84.75
302.669	98.75
302.9	84.75
303.13	97.75
303.36	87.75
303.59	74.75
303.82	86.75
304.051	93.75
304.281	75.75
304.511	84.75
304.741	73.75
304.971	86.75
305.201	98.75
305.431	85.75
305.661	85.75
305.891	80.75
306.121	78.75
306.352	76.75
306.582	81.75
306.812	96.75
307.042	86.75
307.272	82.75
307.502	82.75
307.731	86.75
307.961	99.75
308.191	86.75
308.421	78.75
308.651	80.75
308.881	72.75
309.111	78.75
309.341	87.75
309.571	96.75
309.8	80.75
310.03	89.75
310.26	82.75
310.49	89.75
310.72	94.75
310.949	92.75
311.179	88.75
311.409	85.75
311.639	105.75
311.868	97.75
312.098	85.75
312.328	77.75
312.557	81.75
312.787	91.75
313.017	89.75
313.246	93.75
313.476	77.75
313.706	88.75
313.935	85.75
314.165	86.75
314.394	74.75
314.624	75.75
314.853	86.75
315.083	94.75
315.312	77.75
315.542	81.75
315.771	93.75
316.001	76.75
316.23	89.75
316.46	80.75
316.689	89.75
316.919	86.75
317.148	96.75
317.377	104.75
317.607	92.75
317.836	81.75
318.065	87.75
318.295	76.75
318.524	71.75
318.753	80.75
318.983	86.75
319.212	89.75
319.441	96.75
319.67	84.75
319.9	78.75
320.129	85.75
320.358	84.75
320.587	99.75
320.816	73.75
321.046	85.75
321.275	82.75
321.504	81.75
321.733	80.75
321.962	98.75
322.191	90.75
322.42	77.75
322.649	81.75
322.878	89.75
323.108	90.75
323.337	90.75
323.566	89.75
323.795	84.75
324.024	82.75
324.253	91.75
324.482	88.75
324.71	88.75
324.939	96.75
325.168	90.75
325.397	87.75
325.626	89.75
325.855	87.75
326.084	90.75
326.313	90.75
326.542	87.75
326.77	78.75
326.999	96.75
327.228	96.75
327.457	90.75
327.686	98.75
327.914	96.75
328.143	84.75
328.372	89.75
328.6	74.75
328.829	83.75
329.058	76.75
329.287	80.75
329.515	91.75
329.744	69.75
329.972	79.75
330.201	79.75
330.43	74.75
330.658	78.75
330.887	81.75
331.115	92.75
331.344	99.75
331.572	88.75
331.801	85.75
332.03	83.75
332.258	77.75
332.486	77.75
332.715	86.75
332.943	80.75
333.172	79.75
333.4	93.75
333.629	92.75
333.857	99.75
334.085	84.75
334.314	92.75
334.542	95.75
334.771	81.75
334.999	84.75
335.227	92.75
335.455	85.75
335.684	87.75
335.912	84.75
336.14	89.75
336.369	84.75
336.597	86.75
336.825	88.75
337.053	87.75
337.281	81.75
337.51	81.75
337.738	84.75
337.966	89.75
338.194	74.75
338.422	83.75
338.65	83.75
338.878	94.75
339.106	84.75
339.334	86.75
339.562	89.75
339.79	89.75
340.018	85.75
340.246	83.75
340.474	76.75
340.702	86.75
340.93	92.75
341.158	89.75
341.386	86.75
341.614	78.75
341.842	82.75
342.07	90.75
342.298	97.75
342.526	80.75
342.754	100.75
342.981	101.75
343.209	92.75
343.437	100.75
343.665	92.75
343.893	93.75
344.12	81.75
344.348	82.75
344.576	92.75
344.804	79.75
345.031	86.75
345.259	84.75
345.487	84.75
345.714	76.75
345.942	90.75
346.17	83.75
346.397	76.75
346.625	89.75
346.853	77.75
347.08	75.75
347.308	83.75
347.535	87.75
347.763	79.75
347.99	90.75
348.218	89.75
348.445	76.75
348.673	91.75
348.9	81.75
349.128	85.75
349.355	89.75
349.583	74.75
349.81	76.75
350.037	90.75
350.265	91.75
350.492	79.75
350.72	86.75
350.947	90.75
351.174	81.75
351.402	70.75
351.629	76.75
351.856	94.75
352.083	82.75
352.311	98.75
352.538	81.75
352.765	87.75
352.992	94.75
353.22	83.75
353.447	84.75
353.674	90.75
353.901	103.75
354.128	80.75
354.355	81.75
354.583	77.75
354.81	84.75
355.037	91.75
355.264	91.75
355.491	101.75
355.718	94.75
355.945	90.75
356.172	95.75
356.399	74.75
356.626	83.75
356.853	90.75
357.08	97.75
357.307	96.75
357.534	92.75
357.761	90.75
357.988	93.75
358.215	77.75
358.441	88.75
358.668	83.75
358.895	90.75
359.122	82.75
359.349	86.75
359.576	81.75
359.802	83.75
360.029	85.75
360.256	87.75
360.483	88.75
360.709	93.75
360.936	95.75
361.163	91.75
361.39	89.75
361.616	84.75
361.843	80.75
362.07	97.75
362.296	98.75
362.523	91.75
362.749	87.75
362.976	76.75
363.203	98.75
363.429	94.75
363.656	89.75
363.882	82.75
364.109	88.75
364.335	88.75
364.562	97.75
364.788	84.75
365.015	99.75
365.241	86.75
365.468	87.75
365.694	87.75
365.92	97.75
366.147	79.75
366.373	90.75
366.599	79.75
366.826	86.75
367.052	82.75
367.278	79.75
367.505	93.75
367.731	88.75
367.957	96.75
368.184	81.75
368.41	90.75
368.636	73.75
368.862	88.75
369.089	85.75
369.315	77.75
369.541	75.75
369.767	88.75
369.993	76.75
370.219	90.75
370.445	91.75
370.672	78.75
370.898	75.75
371.124	82.75
371.35	77.75
371.576	88.75
371.802	84.75
372.028	92.75
372.254	100.75
372.48	86.75
372.706	74.75
372.932	90.75
373.158	75.75
373.384	90.75
373.61	97.75
373.835	82.75
374.061	86.75
374.287	95.75
374.513	89.75
374.739	84.75
374.965	97.75
375.191	80.75
375.416	85.75
375.642	92.75
375.868	102.75
376.094	82.75
376.319	96.75
376.545	100.75
376.771	74.75
376.997	82.75
377.222	85.75
377.448	81.75
377.674	93.75
377.899	78.75
378.125	95.75
378.35	91.75
378.576	97.75
378.802	73.75
379.027	78.75
379.253	89.75
379.478	84.75
379.704	86.75
379.929	85.75
380.155	85.75
380.38	89.75
380.606	82.75
380.831	79.75
381.057	86.75
381.282	76.75
381.507	85.75
381.733	97.75
381.958	93.75
382.184	82.75
382.409	92.75
382.634	101.75
382.86	90.75
383.085	99.75
383.31	91.75
383.535	73.75
383.761	90.75
383.986	92.75
384.211	74.75
384.436	78.75
384.662	78.75
384.887	91.75
385.112	70.75
385.337	84.75
385.562	90.75
385.787	101.75
386.013	83.75
386.238	91.75
386.463	81.75
386.688	102.75
386.913	81.75
387.138	69.75
387.363	72.75
387.588	86.75
387.813	80.75
388.038	94.75
388.263	75.75
388.488	89.75
388.713	84.75
388.938	73.75
389.163	80.75
389.387	80.75
389.612	92.75
389.837	90.75
390.062	93.75
390.287	94.75
390.512	88.75
390.736	93.75
390.961	82.75
391.186	86.75
391.411	88.75
391.636	93.75
391.86	88.75
392.085	77.75
392.31	87.75
392.534	89.75
392.759	85.75
392.984	101.75
393.208	118.75
393.433	138.75
393.658	116.75
393.882	102.75
394.107	92.75
394.331	89.75
394.556	107.75
394.78	105.75
395.005	88.75
395.229	88.75
395.454	75.75
395.678	85.75
395.903	97.75
396.127	97.75
396.352	112.75
396.576	108.75
396.801	119.75
397.025	125.75
397.249	107.75
397.474	77.75
397.698	82.75
397.922	78.75
398.147	76.75
398.371	95.75
398.595	100.75
398.82	99.75
399.044	89.75
399.268	86.75
399.492	88.75
399.717	79.75
399.941	88.75
400.165	94.75
400.389	99.75
400.613	88.75
400.837	74.75
401.062	64.75
401.286	90.75
401.51	76.75
401.734	90.75
401.958	86.75
402.182	84.75
402.406	66.75
402.63	67.75
402.854	91.75
403.078	89.75
403.302	86.75
403.526	77.75
403.75	83.75
403.974	87.75
404.198	99.75
404.422	125.75
404.645	163.75
404.869	132.75
405.093	82.75
405.317	88.75
405.541	85.75
405.765	96.75
405.988	102.75
406.212	94.75
406.436	77.75
406.66	74.75
406.883	84.75
407.107	79.75
407.331	85.75
407.555	90.75
407.778	93.75
408.002	87.75
408.226	88.75
408.449	84.75
408.673	86.75
408.896	84.75
409.12	70.75
409.344	88.75
409.567	86.75
409.791	79.75
410.014	93.75
410.238	83.75
410.461	96.75
410.685	78.75
410.908	76.75
411.132	91.75
411.355	86.75
411.578	83.75
411.802	82.75
412.025	92.75
412.249	84.75
412.472	87.75
412.695	77.75
412.919	96.75
413.142	70.75
413.365	94.75
413.589	84.75
413.812	88.75
414.035	85.75
414.258	75.75
414.482	86.75
414.705	96.75
414.928	93.75
415.151	76.75
415.374	96.75
415.597	89.75
415.821	79.75
416.044	79.75
416.267	80.75
416.49	88.75
416.713	84.75
416.936	84.75
417.159	90.75
417.382	83.75
417.605	78.75
417.828	82.75
418.051	83.75
418.274	93.75
418.497	81.75
418.72	96.75
418.943	87.75
419.166	84.75
419.389	88.75
419.611	70.75
419.834	81.75
420.057	89.75
420.28	74.75
420.503	90.75
420.726	81.75
420.948	87.75
421.171	91.75
421.394	87.75
421.617	98.75
421.839	104.75
422.062	91.75
422.285	121.75
422.507	164.75
422.73	232.75
422.953	217.75
423.175	152.75
423.398	109.75
423.621	99.75
423.843	102.75
424.066	93.75
424.288	80.75
424.511	94.75
424.733	84.75
424.956	84.75
425.178	85.75
425.401	87.75
425.623	78.75
425.846	83.75
426.068	88.75
426.291	86.75
426.513	92.75
426.735	85.75
426.958	79.75
427.18	89.75
427.402	93.75
427.625	96.75
427.847	90.75
428.069	88.75
428.292	102.75
428.514	119.75
428.736	92.75
428.958	99.75
429.181	104.75
429.403	93.75
429.625	95.75
429.847	93.75
430.069	114.75
430.292	131.75
430.514	116.75
430.736	108.75
430.958	104.75
431.18	104.75
431.402	83.75
431.624	76.75
431.846	100.75
432.068	99.75
432.29	95.75
432.512	95.75
432.734	77.75
432.956	91.75
433.178	102.75
433.4	105.75
433.622	99.75
433.844	107.75
434.066	87.75
434.287	91.75
434.509	68.75
434.731	80.75
434.953	74.75
435.175	72.75
435.397	75.75
435.618	100.75
435.84	78.75
436.062	93.75
436.284	78.75
436.505	93.75
436.727	85.75
436.949	94.75
437.17	84.75
437.392	84.75
437.614	86.75
437.835	71.75
438.057	62.75
438.278	77.75
438.5	91.75
438.721	99.75
438.943	78.75
439.165	83.75
439.386	92.75
439.608	99.75
439.829	80.75
440.05	70.75
440.272	68.75
440.493	77.75
440.715	68.75
440.936	93.75
441.158	89.75
441.379	87.75
441.6	94.75
441.822	85.75
442.043	86.75
442.264	81.75
442.486	103.75
442.707	102.75
442.928	99.75
443.149	90.75
443.371	107.75
443.592	149.75
443.813	122.75
444.034	91.75
444.255	90.75
444.476	93.75
444.698	77.75
444.919	90.75
445.14	164.75
445.361	153.75
445.582	180.75
445.803	152.75
446.024	97.75
446.245	81.75
446.466	81.75
446.687	84.75
446.908	84.75
447.129	87.75
447.35	82.75
447.571	84.75
447.792	88.75
448.013	81.75
448.234	85.75
448.455	89.75
448.675	90.75
448.896	92.75
449.117	74.75
449.338	87.75
449.559	83.75
449.779	79.75
450	79.75
450.221	83.75
450.442	85.75
450.662	86.75
450.883	76.75
451.104	86.75
451.324	79.75
451.545	97.75
451.766	78.75
451.986	88.75
452.207	83.75
452.428	82.75
452.648	84.75
452.869	83.75
453.089	90.75
453.31	76.75
453.53	77.75
453.751	74.75
453.971	92.75
454.192	80.75
454.412	81.75
454.633	90.75
454.853	80.75
455.073	71.75
455.294	82.75
455.514	84.75
455.734	80.75
455.955	91.75
456.175	91.75
456.395	81.75
456.616	84.75
456.836	77.75
457.056	94.75
457.276	79.75
457.497	90.75
457.717	81.75
457.937	90.75
458.157	105.75
458.377	90.75
458.598	103.75
458.818	98.75
459.038	87.75
459.258	81.75
459.478	73.75
459.698	95.75
459.918	86.75
460.138	94.75
460.358	96.75
460.578	88.75
460.798	122.75
461.018	100.75
461.238	85.75
461.458	88.75
461.678	88.75
461.898	82.75
462.118	92.75
462.338	77.75
462.558	82.75
462.777	73.75
462.997	85.75
463.217	78.75
463.437	85.75
463.657	112.75
463.876	82.75
464.096	81.75
464.316	74.75
464.536	95.75
464.755	98.75
464.975	88.75
465.195	83.75
465.414	70.75
465.634	78.75
465.854	74.75
466.073	84.75
466.293	76.75
466.512	92.75
466.732	68.75
466.951	74.75
467.171	75.75
467.391	86.75
467.61	86.75
467.829	90.75
468.049	85.75
468.268	67.75
468.488	84.75
468.707	92.75
468.927	84.75
469.146	89.75
469.365	88.75
469.585	83.75
469.804	82.75
470.023	79.75
470.243	75.75
470.462	87.75
470.681	83.75
470.901	79.75
471.12	76.75
471.339	75.75
471.558	74.75
471.777	70.75
471.997	80.75
472.216	82.75
472.435	82.75
472.654	89.75
472.873	75.75
473.092	83.75
473.311	78.75
473.53	84.75
473.749	85.75
473.968	103.75
474.187	100.75
474.406	91.75
474.625	82.75
474.844	87.75
475.063	89.75
475.282	81.75
475.501	98.75
475.72	101.75
475.939	78.75
476.158	74.75
476.377	83.75
476.596	72.75
476.814	84.75
477.033	90.75
477.252	86.75
477.471	91.75
477.69	89.75
477.908	77.75
478.127	93.75
478.346	78.75
478.564	85.75
478.783	88.75
479.002	89.75
479.22	76.75
479.439	76.75
479.658	98.75
479.876	94.75
480.095	78.75
480.313	77.75
480.532	97.75
480.751	76.75
480.969	80.75
481.188	79.75
481.406	84.75
481.624	79.75
481.843	102.75
482.061	86.75
482.28	70.75
482.498	74.75
482.717	97.75
482.935	101.75
483.153	80.75
483.372	90.75
483.59	92.75
483.808	90.75
484.027	85.75
484.245	83.75
484.463	84.75
484.681	93.75
484.9	87.75
485.118	83.75
485.336	80.75
485.554	80.75
485.772	93.75
485.99	79.75
486.209	86.75
486.427	78.75
486.645	91.75
486.863	79.75
487.081	86.75
487.299	92.75
487.517	104.75
487.735	85.75
487.953	92.75
488.171	100.75
488.389	94.75
488.607	84.75
488.825	72.75
489.043	88.75
489.261	77.75
489.479	89.75
489.696	100.75
489.914	96.75
490.132	86.75
490.35	84.75
490.568	83.75
490.786	75.75
491.003	80.75
491.221	92.75
491.439	90.75
491.657	78.75
491.874	80.75
492.092	96.75
492.31	104.75
492.527	94.75
492.745	92.75
492.963	84.75
493.18	85.75
493.398	91.75
493.615	101.75
493.833	88.75
494.05	96.75
494.268	75.75
494.485	92.75
494.703	91.75
494.92	84.75
495.138	104.75
495.355	90.75
495.573	76.75
495.79	80.75
496.008	89.75
496.225	90.75
496.442	85.75
496.66	99.75
496.877	86.75
497.094	89.75
497.312	68.75
497.529	94.75
497.746	90.75
497.963	88.75
498.181	76.75
498.398	86.75
498.615	85.75
498.832	84.75
499.049	73.75
499.267	98.75
499.484	87.75
499.701	86.75
499.918	89.75
500.135	84.75
500.352	92.75
500.569	79.75
500.786	92.75
501.003	86.75
501.22	88.75
501.437	73.75
501.654	87.75
501.871	88.75
502.088	82.75
502.305	80.75
502.522	78.75
502.739	87.75
502.956	80.75
503.172	89.75
503.389	84.75
503.606	90.75
503.823	79.75
504.04	86.75
504.256	81.75
504.473	90.75
504.69	83.75
504.907	84.75
505.123	100.75
505.34	98.75
505.557	87.75
505.773	84.75
505.99	89.75
506.207	87.75
506.423	85.75
506.64	83.75
506.856	92.75
507.073	89.75
507.289	93.75
507.506	91.75
507.722	92.75
507.939	97.75
508.155	93.75
508.372	89.75
508.588	97.75
508.805	84.75
509.021	84.75
509.238	97.75
509.454	79.75
509.67	78.75
509.887	101.75
510.103	98.75
510.319	105.75
510.536	92.75
510.752	89.75
510.968	84.75
511.184	85.75
511.401	90.75
511.617	92.75
511.833	78.75
512.049	94.75
512.265	82.75
512.481	92.75
512.698	106.75
512.914	95.75
513.13	76.75
513.346	75.75
513.562	97.75
513.778	89.75
513.994	90.75
514.21	85.75
514.426	96.75
514.642	103.75
514.858	90.75
515.074	92.75
515.29	89.75
515.506	97.75
515.721	85.75
515.937	72.75
516.153	78.75
516.369	78.75
516.585	82.75
516.801	93.75
517.016	92.75
517.232	85.75
517.448	80.75
517.664	83.75
517.879	92.75
518.095	90.75
518.311	85.75
518.527	64.75
518.742	84.75
518.958	96.75
519.173	114.75
