Data from HP_2_HRD10591_00011.txt Node
Date: Mon Jan 19 14:16:06 EST 2026
User: Yrep
Spectrometer: HR+D1059
Trigger mode: 1
Integration Time (sec): 1.000000E-1
Scans to average: 1
Electric dark correction enabled: true
Nonlinearity correction enabled: false
Boxcar width: 0
XAxis mode: Wavelengths
Number of Pixels in Spectrum: 2048
>>>>>Begin Spectral Data<<<<<
223.165	-19.06
223.4	-19.06
223.635	-19.06
223.869	-20.06
224.104	-4.06
224.338	-12.06
224.573	-12.06
224.808	-7.06
225.042	-10.06
225.277	-13.06
225.511	-20.06
225.746	10.94
225.98	0.94
226.215	18.94
226.449	18.94
226.683	20.94
226.918	23.94
227.152	22.94
227.387	33.94
227.621	53.94
227.856	52.94
228.09	29.94
228.324	46.94
228.559	52.94
228.793	66.94
229.027	59.94
229.262	76.94
229.496	72.94
229.73	63.94
229.964	75.94
230.199	65.94
230.433	70.94
230.667	80.94
230.901	83.94
231.136	82.94
231.37	75.94
231.604	86.94
231.838	82.94
232.072	89.94
232.306	75.94
232.541	83.94
232.775	85.94
233.009	75.94
233.243	86.94
233.477	81.94
233.711	89.94
233.945	84.94
234.179	84.94
234.413	73.94
234.647	62.94
234.881	68.94
235.115	74.94
235.349	70.94
235.583	75.94
235.817	77.94
236.051	68.94
236.285	82.94
236.519	92.94
236.753	74.94
236.987	74.94
237.221	74.94
237.455	63.94
237.689	77.94
237.922	72.94
238.156	68.94
238.39	56.94
238.624	81.94
238.858	77.94
239.091	75.94
239.325	70.94
239.559	81.94
239.793	77.94
240.027	73.94
240.26	80.94
240.494	104.94
240.728	75.94
240.961	77.94
241.195	84.94
241.429	84.94
241.662	82.94
241.896	79.94
242.13	69.94
242.363	74.94
242.597	82.94
242.83	70.94
243.064	62.94
243.298	91.94
243.531	83.94
243.765	74.94
243.998	66.94
244.232	97.94
244.465	82.94
244.699	68.94
244.932	76.94
245.166	94.94
245.399	69.94
245.633	78.94
245.866	68.94
246.099	65.94
246.333	66.94
246.566	66.94
246.8	85.94
247.033	66.94
247.266	80.94
247.5	83.94
247.733	84.94
247.966	75.94
248.2	66.94
248.433	75.94
248.666	83.94
248.899	86.94
249.133	77.94
249.366	77.94
249.599	86.94
249.832	77.94
250.066	72.94
250.299	76.94
250.532	82.94
250.765	100.94
250.998	78.94
251.231	62.94
251.465	71.94
251.698	88.94
251.931	81.94
252.164	77.94
252.397	85.94
252.63	77.94
252.863	76.94
253.096	88.94
253.329	85.94
253.562	80.94
253.795	78.94
254.028	89.94
254.261	80.94
254.494	86.94
254.727	73.94
254.96	73.94
255.193	75.94
255.426	76.94
255.659	75.94
255.892	68.94
256.124	79.94
256.357	77.94
256.59	71.94
256.823	61.94
257.056	77.94
257.289	82.94
257.521	88.94
257.754	82.94
257.987	77.94
258.22	73.94
258.452	85.94
258.685	97.94
258.918	78.94
259.151	81.94
259.383	78.94
259.616	84.94
259.849	78.94
260.081	73.94
260.314	71.94
260.547	94.94
260.779	87.94
261.012	69.94
261.244	82.94
261.477	83.94
261.71	86.94
261.942	96.94
262.175	93.94
262.407	77.94
262.64	75.94
262.872	96.94
263.105	82.94
263.337	83.94
263.57	83.94
263.802	89.94
264.035	89.94
264.267	79.94
264.499	72.94
264.732	77.94
264.964	89.94
265.197	90.94
265.429	92.94
265.661	85.94
265.894	72.94
266.126	88.94
266.358	77.94
266.591	84.94
266.823	81.94
267.055	84.94
267.287	82.94
267.52	84.94
267.752	89.94
267.984	66.94
268.216	82.94
268.448	89.94
268.681	88.94
268.913	91.94
269.145	88.94
269.377	94.94
269.609	83.94
269.841	90.94
270.073	77.94
270.306	92.94
270.538	86.94
270.77	84.94
271.002	87.94
271.234	83.94
271.466	90.94
271.698	90.94
271.93	89.94
272.162	70.94
272.394	67.94
272.626	80.94
272.858	84.94
273.09	92.94
273.322	74.94
273.553	74.94
273.785	100.94
274.017	79.94
274.249	88.94
274.481	72.94
274.713	96.94
274.945	90.94
275.176	88.94
275.408	89.94
275.64	98.94
275.872	84.94
276.104	69.94
276.335	83.94
276.567	81.94
276.799	88.94
277.031	78.94
277.262	105.94
277.494	80.94
277.726	80.94
277.957	96.94
278.189	78.94
278.421	82.94
278.652	76.94
278.884	99.94
279.115	85.94
279.347	70.94
279.579	92.94
279.81	99.94
280.042	84.94
280.273	86.94
280.505	78.94
280.736	98.94
280.968	86.94
281.199	84.94
281.431	67.94
281.662	74.94
281.894	86.94
282.125	68.94
282.356	79.94
282.588	81.94
282.819	82.94
283.051	87.94
283.282	86.94
283.513	100.94
283.745	77.94
283.976	88.94
284.207	86.94
284.439	78.94
284.67	87.94
284.901	99.94
285.132	81.94
285.364	99.94
285.595	92.94
285.826	84.94
286.057	82.94
286.288	88.94
286.52	83.94
286.751	82.94
286.982	86.94
287.213	80.94
287.444	86.94
287.675	88.94
287.906	93.94
288.138	88.94
288.369	88.94
288.6	81.94
288.831	79.94
289.062	88.94
289.293	75.94
289.524	81.94
289.755	100.94
289.986	94.94
290.217	100.94
290.448	91.94
290.679	88.94
290.91	92.94
291.141	81.94
291.371	97.94
291.602	78.94
291.833	83.94
292.064	99.94
292.295	97.94
292.526	100.94
292.757	78.94
292.987	94.94
293.218	85.94
293.449	92.94
293.68	88.94
293.91	84.94
294.141	87.94
294.372	94.94
294.603	76.94
294.833	88.94
295.064	88.94
295.295	98.94
295.525	80.94
295.756	82.94
295.987	89.94
296.217	76.94
296.448	88.94
296.679	84.94
296.909	92.94
297.14	86.94
297.37	83.94
297.601	81.94
297.831	81.94
298.062	64.94
298.292	80.94
298.523	92.94
298.753	81.94
298.984	80.94
299.214	90.94
299.445	95.94
299.675	91.94
299.905	87.94
300.136	89.94
300.366	79.94
300.597	91.94
300.827	68.94
301.057	82.94
301.288	88.94
301.518	84.94
301.748	92.94
301.979	98.94
302.209	90.94
302.439	89.94
302.669	85.94
302.9	93.94
303.13	88.94
303.36	84.94
303.59	96.94
303.82	92.94
304.051	89.94
304.281	85.94
304.511	90.94
304.741	74.94
304.971	86.94
305.201	99.94
305.431	96.94
305.661	82.94
305.891	83.94
306.121	77.94
306.352	98.94
306.582	95.94
306.812	82.94
307.042	93.94
307.272	91.94
307.502	88.94
307.731	88.94
307.961	91.94
308.191	91.94
308.421	78.94
308.651	90.94
308.881	94.94
309.111	91.94
309.341	89.94
309.571	93.94
309.8	82.94
310.03	91.94
310.26	83.94
310.49	95.94
310.72	78.94
310.949	73.94
311.179	89.94
311.409	86.94
311.639	95.94
311.868	90.94
312.098	82.94
312.328	96.94
312.557	90.94
312.787	89.94
313.017	84.94
313.246	78.94
313.476	82.94
313.706	84.94
313.935	91.94
314.165	84.94
314.394	82.94
314.624	67.94
314.853	82.94
315.083	88.94
315.312	73.94
315.542	82.94
315.771	86.94
316.001	98.94
316.23	86.94
316.46	93.94
316.689	90.94
316.919	88.94
317.148	86.94
317.377	87.94
317.607	92.94
317.836	99.94
318.065	89.94
318.295	92.94
318.524	90.94
318.753	93.94
318.983	90.94
319.212	84.94
319.441	83.94
319.67	88.94
319.9	97.94
320.129	93.94
320.358	96.94
320.587	90.94
320.816	83.94
321.046	84.94
321.275	103.94
321.504	83.94
321.733	85.94
321.962	90.94
322.191	87.94
322.42	88.94
322.649	96.94
322.878	83.94
323.108	96.94
323.337	96.94
323.566	88.94
323.795	86.94
324.024	86.94
324.253	89.94
324.482	92.94
324.71	74.94
324.939	101.94
325.168	100.94
325.397	93.94
325.626	85.94
325.855	96.94
326.084	88.94
326.313	93.94
326.542	98.94
326.77	96.94
326.999	90.94
327.228	90.94
327.457	87.94
327.686	76.94
327.914	100.94
328.143	110.94
328.372	103.94
328.6	85.94
328.829	89.94
329.058	106.94
329.287	76.94
329.515	100.94
329.744	81.94
329.972	94.94
330.201	84.94
330.43	77.94
330.658	90.94
330.887	82.94
331.115	96.94
331.344	103.94
331.572	91.94
331.801	83.94
332.03	93.94
332.258	87.94
332.486	88.94
332.715	88.94
332.943	74.94
333.172	85.94
333.4	90.94
333.629	88.94
333.857	92.94
334.085	90.94
334.314	83.94
334.542	66.94
334.771	78.94
334.999	90.94
335.227	95.94
335.455	82.94
335.684	90.94
335.912	93.94
336.14	100.94
336.369	82.94
336.597	91.94
336.825	84.94
337.053	83.94
337.281	104.94
337.51	92.94
337.738	84.94
337.966	84.94
338.194	79.94
338.422	80.94
338.65	92.94
338.878	76.94
339.106	91.94
339.334	87.94
339.562	92.94
339.79	81.94
340.018	87.94
340.246	98.94
340.474	93.94
340.702	82.94
340.93	88.94
341.158	93.94
341.386	84.94
341.614	85.94
341.842	82.94
342.07	70.94
342.298	96.94
342.526	86.94
342.754	87.94
342.981	85.94
343.209	78.94
343.437	91.94
343.665	82.94
343.893	91.94
344.12	90.94
344.348	95.94
344.576	89.94
344.804	98.94
345.031	87.94
345.259	84.94
345.487	89.94
345.714	86.94
345.942	83.94
346.17	90.94
346.397	103.94
346.625	81.94
346.853	89.94
347.08	86.94
347.308	102.94
347.535	92.94
347.763	99.94
347.99	114.94
348.218	84.94
348.445	80.94
348.673	85.94
348.9	98.94
349.128	82.94
349.355	84.94
349.583	104.94
349.81	89.94
350.037	84.94
350.265	87.94
350.492	80.94
350.72	76.94
350.947	89.94
351.174	75.94
351.402	78.94
351.629	87.94
351.856	83.94
352.083	88.94
352.311	93.94
352.538	87.94
352.765	89.94
352.992	94.94
353.22	96.94
353.447	78.94
353.674	97.94
353.901	78.94
354.128	59.94
354.355	80.94
354.583	82.94
354.81	100.94
355.037	91.94
355.264	90.94
355.491	74.94
355.718	87.94
355.945	74.94
356.172	97.94
356.399	80.94
356.626	91.94
356.853	102.94
357.08	102.94
357.307	85.94
357.534	97.94
357.761	92.94
357.988	91.94
358.215	100.94
358.441	88.94
358.668	72.94
358.895	94.94
359.122	92.94
359.349	90.94
359.576	81.94
359.802	85.94
360.029	75.94
360.256	84.94
360.483	87.94
360.709	78.94
360.936	98.94
361.163	81.94
361.39	93.94
361.616	84.94
361.843	84.94
362.07	83.94
362.296	92.94
362.523	86.94
362.749	92.94
362.976	96.94
363.203	103.94
363.429	100.94
363.656	109.94
363.882	98.94
364.109	124.94
364.335	100.94
364.562	100.94
364.788	102.94
365.015	93.94
365.241	85.94
365.468	100.94
365.694	84.94
365.92	92.94
366.147	87.94
366.373	97.94
366.599	85.94
366.826	88.94
367.052	88.94
367.278	76.94
367.505	82.94
367.731	90.94
367.957	88.94
368.184	82.94
368.41	84.94
368.636	89.94
368.862	82.94
369.089	92.94
369.315	96.94
369.541	82.94
369.767	77.94
369.993	85.94
370.219	88.94
370.445	97.94
370.672	94.94
370.898	90.94
371.124	94.94
371.35	104.94
371.576	91.94
371.802	76.94
372.028	91.94
372.254	91.94
372.48	85.94
372.706	89.94
372.932	90.94
373.158	95.94
373.384	99.94
373.61	82.94
373.835	86.94
374.061	86.94
374.287	72.94
374.513	105.94
374.739	100.94
374.965	84.94
375.191	91.94
375.416	89.94
375.642	81.94
375.868	95.94
376.094	84.94
376.319	92.94
376.545	73.94
376.771	101.94
376.997	97.94
377.222	87.94
377.448	86.94
377.674	85.94
377.899	90.94
378.125	93.94
378.35	96.94
378.576	80.94
378.802	87.94
379.027	89.94
379.253	97.94
379.478	92.94
379.704	89.94
379.929	97.94
380.155	91.94
380.38	87.94
380.606	91.94
380.831	78.94
381.057	79.94
381.282	93.94
381.507	87.94
381.733	89.94
381.958	88.94
382.184	97.94
382.409	80.94
382.634	91.94
382.86	94.94
383.085	100.94
383.31	92.94
383.535	92.94
383.761	100.94
383.986	100.94
384.211	94.94
384.436	78.94
384.662	92.94
384.887	90.94
385.112	69.94
385.337	90.94
385.562	89.94
385.787	100.94
386.013	100.94
386.238	100.94
386.463	88.94
386.688	109.94
386.913	98.94
387.138	92.94
387.363	94.94
387.588	87.94
387.813	95.94
388.038	94.94
388.263	108.94
388.488	89.94
388.713	89.94
388.938	85.94
389.163	88.94
389.387	101.94
389.612	90.94
389.837	84.94
390.062	98.94
390.287	88.94
390.512	90.94
390.736	83.94
390.961	77.94
391.186	92.94
391.411	87.94
391.636	84.94
391.86	86.94
392.085	97.94
392.31	96.94
392.534	96.94
392.759	113.94
392.984	128.94
393.208	161.94
393.433	217.94
393.658	169.94
393.882	122.94
394.107	101.94
394.331	121.94
394.556	112.94
394.78	94.94
395.005	100.94
395.229	82.94
395.454	89.94
395.678	92.94
395.903	100.94
396.127	123.94
396.352	124.94
396.576	128.94
396.801	168.94
397.025	193.94
397.249	139.94
397.474	111.94
397.698	105.94
397.922	92.94
398.147	92.94
398.371	74.94
398.595	90.94
398.82	92.94
399.044	81.94
399.268	90.94
399.492	104.94
399.717	89.94
399.941	93.94
400.165	95.94
400.389	89.94
400.613	85.94
400.837	92.94
401.062	81.94
401.286	86.94
401.51	90.94
401.734	84.94
401.958	76.94
402.182	92.94
402.406	88.94
402.63	86.94
402.854	83.94
403.078	92.94
403.302	93.94
403.526	86.94
403.75	77.94
403.974	90.94
404.198	134.94
404.422	146.94
404.645	196.94
404.869	165.94
405.093	124.94
405.317	91.94
405.541	94.94
405.765	83.94
405.988	102.94
406.212	88.94
406.436	90.94
406.66	96.94
406.883	93.94
407.107	94.94
407.331	96.94
407.555	97.94
407.778	83.94
408.002	91.94
408.226	85.94
408.449	93.94
408.673	90.94
408.896	98.94
409.12	93.94
409.344	84.94
409.567	94.94
409.791	103.94
410.014	93.94
410.238	85.94
410.461	94.94
410.685	97.94
410.908	72.94
411.132	87.94
411.355	103.94
411.578	93.94
411.802	81.94
412.025	88.94
412.249	86.94
412.472	82.94
412.695	96.94
412.919	91.94
413.142	82.94
413.365	97.94
413.589	89.94
413.812	84.94
414.035	97.94
414.258	77.94
414.482	100.94
414.705	80.94
414.928	92.94
415.151	97.94
415.374	89.94
415.597	97.94
415.821	100.94
416.044	77.94
416.267	91.94
416.49	94.94
416.713	70.94
416.936	91.94
417.159	77.94
417.382	84.94
417.605	94.94
417.828	92.94
418.051	91.94
418.274	92.94
418.497	92.94
418.72	97.94
418.943	98.94
419.166	97.94
419.389	82.94
419.611	83.94
419.834	89.94
420.057	91.94
420.28	85.94
420.503	102.94
420.726	78.94
420.948	78.94
421.171	87.94
421.394	97.94
421.617	116.94
421.839	103.94
422.062	125.94
422.285	149.94
422.507	225.94
422.73	300.94
422.953	283.94
423.175	187.94
423.398	128.94
423.621	100.94
423.843	111.94
424.066	109.94
424.288	86.94
424.511	97.94
424.733	107.94
424.956	90.94
425.178	82.94
425.401	92.94
425.623	83.94
425.846	83.94
426.068	102.94
426.291	85.94
426.513	88.94
426.735	68.94
426.958	94.94
427.18	91.94
427.402	93.94
427.625	98.94
427.847	93.94
428.069	100.94
428.292	120.94
428.514	122.94
428.736	104.94
428.958	114.94
429.181	116.94
429.403	89.94
429.625	109.94
429.847	107.94
430.069	135.94
430.292	160.94
430.514	155.94
430.736	137.94
430.958	150.94
431.18	100.94
431.402	82.94
431.624	99.94
431.846	116.94
432.068	132.94
432.29	93.94
432.512	92.94
432.734	99.94
432.956	98.94
433.178	90.94
433.4	88.94
433.622	97.94
433.844	81.94
434.066	98.94
434.287	89.94
434.509	90.94
434.731	105.94
434.953	91.94
435.175	90.94
435.397	99.94
435.618	90.94
435.84	100.94
436.062	90.94
436.284	89.94
436.505	93.94
436.727	89.94
436.949	87.94
437.17	98.94
437.392	100.94
437.614	89.94
437.835	72.94
438.057	86.94
438.278	104.94
438.5	84.94
438.721	90.94
438.943	82.94
439.165	94.94
439.386	83.94
439.608	88.94
439.829	98.94
440.05	94.94
440.272	82.94
440.493	97.94
440.715	107.94
440.936	97.94
441.158	82.94
441.379	96.94
441.6	93.94
441.822	96.94
442.043	81.94
442.264	75.94
442.486	126.94
442.707	154.94
442.928	112.94
443.149	126.94
443.371	152.94
443.592	213.94
443.813	174.94
444.034	109.94
444.255	92.94
444.476	97.94
444.698	90.94
444.919	89.94
445.14	183.94
445.361	187.94
445.582	260.94
445.803	222.94
446.024	126.94
446.245	90.94
446.466	88.94
446.687	92.94
446.908	92.94
447.129	76.94
447.35	97.94
447.571	92.94
447.792	80.94
448.013	74.94
448.234	82.94
448.455	98.94
448.675	77.94
448.896	89.94
449.117	90.94
449.338	84.94
449.559	92.94
449.779	93.94
450	86.94
450.221	92.94
450.442	84.94
450.662	92.94
450.883	86.94
451.104	100.94
451.324	91.94
451.545	82.94
451.766	82.94
451.986	89.94
452.207	83.94
452.428	88.94
452.648	86.94
452.869	83.94
453.089	93.94
453.31	101.94
453.53	92.94
453.751	99.94
453.971	110.94
454.192	87.94
454.412	89.94
454.633	97.94
454.853	92.94
455.073	83.94
455.294	78.94
455.514	94.94
455.734	91.94
455.955	98.94
456.175	108.94
456.395	84.94
456.616	84.94
456.836	99.94
457.056	91.94
457.276	71.94
457.497	85.94
457.717	87.94
457.937	106.94
458.157	109.94
458.377	106.94
458.598	99.94
458.818	116.94
459.038	86.94
459.258	88.94
459.478	89.94
459.698	96.94
459.918	90.94
460.138	74.94
460.358	84.94
460.578	94.94
460.798	112.94
461.018	121.94
461.238	93.94
461.458	94.94
461.678	89.94
461.898	94.94
462.118	88.94
462.338	75.94
462.558	100.94
462.777	92.94
462.997	95.94
463.217	88.94
463.437	84.94
463.657	75.94
463.876	86.94
464.096	74.94
464.316	91.94
464.536	78.94
464.755	87.94
464.975	93.94
465.195	74.94
465.414	94.94
465.634	83.94
465.854	90.94
466.073	96.94
466.293	88.94
466.512	92.94
466.732	89.94
466.951	86.94
467.171	95.94
467.391	93.94
467.61	95.94
467.829	86.94
468.049	85.94
468.268	82.94
468.488	82.94
468.707	98.94
468.927	92.94
469.146	73.94
469.365	90.94
469.585	88.94
469.804	95.94
470.023	100.94
470.243	94.94
470.462	104.94
470.681	91.94
470.901	82.94
471.12	87.94
471.339	88.94
471.558	81.94
471.777	92.94
471.997	82.94
472.216	93.94
472.435	69.94
472.654	84.94
472.873	83.94
473.092	87.94
473.311	91.94
473.53	90.94
473.749	107.94
473.968	84.94
474.187	86.94
474.406	79.94
474.625	98.94
474.844	86.94
475.063	86.94
475.282	85.94
475.501	92.94
475.72	106.94
475.939	89.94
476.158	88.94
476.377	83.94
476.596	84.94
476.814	99.94
477.033	96.94
477.252	92.94
477.471	89.94
477.69	79.94
477.908	86.94
478.127	78.94
478.346	85.94
478.564	90.94
478.783	99.94
479.002	92.94
479.22	100.94
479.439	97.94
479.658	78.94
479.876	99.94
480.095	81.94
480.313	85.94
480.532	92.94
480.751	82.94
480.969	104.94
481.188	95.94
481.406	97.94
481.624	103.94
481.843	84.94
482.061	91.94
482.28	96.94
482.498	95.94
482.717	97.94
482.935	85.94
483.153	104.94
483.372	77.94
483.59	104.94
483.808	98.94
484.027	107.94
484.245	91.94
484.463	88.94
484.681	110.94
484.9	92.94
485.118	99.94
485.336	89.94
485.554	90.94
485.772	98.94
485.99	103.94
486.209	87.94
486.427	98.94
486.645	102.94
486.863	93.94
487.081	92.94
487.299	98.94
487.517	89.94
487.735	105.94
487.953	126.94
488.171	139.94
488.389	88.94
488.607	88.94
488.825	91.94
489.043	103.94
489.261	91.94
489.479	97.94
489.696	92.94
489.914	89.94
490.132	95.94
490.35	92.94
490.568	87.94
490.786	85.94
491.003	78.94
491.221	81.94
491.439	85.94
491.657	90.94
491.874	89.94
492.092	112.94
492.31	109.94
492.527	100.94
492.745	104.94
492.963	98.94
493.18	93.94
493.398	80.94
493.615	73.94
493.833	93.94
494.05	91.94
494.268	92.94
494.485	105.94
494.703	85.94
494.92	101.94
495.138	99.94
495.355	93.94
495.573	96.94
495.79	97.94
496.008	104.94
496.225	97.94
496.442	88.94
496.66	111.94
496.877	100.94
497.094	106.94
497.312	93.94
497.529	85.94
497.746	95.94
497.963	99.94
498.181	109.94
498.398	103.94
498.615	85.94
498.832	83.94
499.049	94.94
499.267	108.94
499.484	87.94
499.701	100.94
499.918	98.94
500.135	84.94
500.352	89.94
500.569	98.94
500.786	96.94
501.003	102.94
501.22	94.94
501.437	93.94
501.654	94.94
501.871	88.94
502.088	104.94
502.305	97.94
502.522	100.94
502.739	90.94
502.956	84.94
503.172	98.94
503.389	101.94
503.606	77.94
503.823	90.94
504.04	103.94
504.256	113.94
504.473	98.94
504.69	90.94
504.907	94.94
505.123	87.94
505.34	97.94
505.557	98.94
505.773	90.94
505.99	88.94
506.207	73.94
506.423	94.94
506.64	86.94
506.856	95.94
507.073	84.94
507.289	76.94
507.506	96.94
507.722	99.94
507.939	81.94
508.155	73.94
508.372	92.94
508.588	102.94
508.805	89.94
509.021	104.94
509.238	104.94
509.454	96.94
509.67	97.94
509.887	107.94
510.103	106.94
510.319	97.94
510.536	101.94
510.752	91.94
510.968	107.94
511.184	86.94
511.401	93.94
511.617	106.94
511.833	94.94
512.049	96.94
512.265	96.94
512.481	78.94
512.698	91.94
512.914	93.94
513.13	83.94
513.346	85.94
513.562	92.94
513.778	72.94
513.994	97.94
514.21	96.94
514.426	100.94
514.642	99.94
514.858	98.94
515.074	106.94
515.29	92.94
515.506	95.94
515.721	95.94
515.937	101.94
516.153	89.94
516.369	84.94
516.585	87.94
516.801	94.94
517.016	99.94
517.232	86.94
517.448	102.94
517.664	103.94
