Data from HP_2_HRD10591_00032.txt Node
Date: Mon Jan 19 14:16:17 EST 2026
User: Yrep
Spectrometer: HR+D1059
Trigger mode: 1
Integration Time (sec): 1.000000E-1
Scans to average: 1
Electric dark correction enabled: true
Nonlinearity correction enabled: false
Boxcar width: 0
XAxis mode: Wavelengths
Number of Pixels in Spectrum: 2048
>>>>>Begin Spectral Data<<<<<
223.165	-16.19
223.4	-16.19
223.635	-16.19
223.869	-23.19
224.104	-12.19
224.338	-15.19
224.573	-23.19
224.808	-10.19
225.042	-9.19
225.277	-10.19
225.511	-5.19
225.746	-0.19
225.98	5.81
226.215	10.81
226.449	20.81
226.683	19.81
226.918	27.81
227.152	39.81
227.387	35.81
227.621	53.81
227.856	49.81
228.09	45.81
228.324	44.81
228.559	51.81
228.793	58.81
229.027	67.81
229.262	74.81
229.496	60.81
229.73	63.81
229.964	63.81
230.199	73.81
230.433	72.81
230.667	81.81
230.901	75.81
231.136	88.81
231.37	83.81
231.604	73.81
231.838	86.81
232.072	98.81
232.306	76.81
232.541	92.81
232.775	81.81
233.009	70.81
233.243	84.81
233.477	72.81
233.711	88.81
233.945	71.81
234.179	66.81
234.413	78.81
234.647	64.81
234.881	90.81
235.115	79.81
235.349	80.81
235.583	74.81
235.817	68.81
236.051	68.81
236.285	82.81
236.519	61.81
236.753	79.81
236.987	67.81
237.221	78.81
237.455	70.81
237.689	81.81
237.922	78.81
238.156	82.81
238.39	74.81
238.624	74.81
238.858	57.81
239.091	77.81
239.325	92.81
239.559	70.81
239.793	68.81
240.027	77.81
240.26	78.81
240.494	74.81
240.728	73.81
240.961	70.81
241.195	68.81
241.429	81.81
241.662	70.81
241.896	70.81
242.13	72.81
242.363	86.81
242.597	87.81
242.83	62.81
243.064	66.81
243.298	86.81
243.531	84.81
243.765	70.81
243.998	71.81
244.232	74.81
244.465	93.81
244.699	81.81
244.932	85.81
245.166	82.81
245.399	76.81
245.633	77.81
245.866	77.81
246.099	83.81
246.333	88.81
246.566	89.81
246.8	75.81
247.033	68.81
247.266	70.81
247.5	73.81
247.733	75.81
247.966	87.81
248.2	67.81
248.433	82.81
248.666	82.81
248.899	80.81
249.133	88.81
249.366	86.81
249.599	75.81
249.832	76.81
250.066	93.81
250.299	84.81
250.532	77.81
250.765	62.81
250.998	69.81
251.231	74.81
251.465	83.81
251.698	73.81
251.931	78.81
252.164	82.81
252.397	75.81
252.63	82.81
252.863	85.81
253.096	71.81
253.329	99.81
253.562	86.81
253.795	59.81
254.028	82.81
254.261	70.81
254.494	77.81
254.727	98.81
254.96	73.81
255.193	82.81
255.426	69.81
255.659	80.81
255.892	79.81
256.124	81.81
256.357	88.81
256.59	83.81
256.823	80.81
257.056	84.81
257.289	81.81
257.521	86.81
257.754	69.81
257.987	77.81
258.22	84.81
258.452	78.81
258.685	77.81
258.918	80.81
259.151	73.81
259.383	77.81
259.616	70.81
259.849	68.81
260.081	85.81
260.314	75.81
260.547	77.81
260.779	77.81
261.012	86.81
261.244	89.81
261.477	97.81
261.71	77.81
261.942	73.81
262.175	75.81
262.407	77.81
262.64	84.81
262.872	91.81
263.105	78.81
263.337	87.81
263.57	71.81
263.802	70.81
264.035	80.81
264.267	91.81
264.499	90.81
264.732	83.81
264.964	72.81
265.197	72.81
265.429	89.81
265.661	78.81
265.894	81.81
266.126	78.81
266.358	82.81
266.591	86.81
266.823	85.81
267.055	69.81
267.287	84.81
267.52	64.81
267.752	75.81
267.984	83.81
268.216	77.81
268.448	73.81
268.681	74.81
268.913	79.81
269.145	78.81
269.377	75.81
269.609	76.81
269.841	80.81
270.073	75.81
270.306	86.81
270.538	76.81
270.77	84.81
271.002	88.81
271.234	95.81
271.466	90.81
271.698	81.81
271.93	86.81
272.162	88.81
272.394	88.81
272.626	77.81
272.858	82.81
273.09	73.81
273.322	83.81
273.553	88.81
273.785	72.81
274.017	79.81
274.249	87.81
274.481	90.81
274.713	73.81
274.945	83.81
275.176	84.81
275.408	85.81
275.64	76.81
275.872	75.81
276.104	86.81
276.335	80.81
276.567	78.81
276.799	78.81
277.031	89.81
277.262	83.81
277.494	85.81
277.726	84.81
277.957	89.81
278.189	73.81
278.421	72.81
278.652	79.81
278.884	76.81
279.115	90.81
279.347	84.81
279.579	98.81
279.81	83.81
280.042	76.81
280.273	68.81
280.505	82.81
280.736	82.81
280.968	81.81
281.199	91.81
281.431	81.81
281.662	86.81
281.894	70.81
282.125	76.81
282.356	67.81
282.588	72.81
282.819	81.81
283.051	86.81
283.282	77.81
283.513	85.81
283.745	87.81
283.976	100.81
284.207	90.81
284.439	83.81
284.67	68.81
284.901	79.81
285.132	83.81
285.364	92.81
285.595	78.81
285.826	88.81
286.057	84.81
286.288	86.81
286.52	92.81
286.751	86.81
286.982	95.81
287.213	78.81
287.444	83.81
287.675	87.81
287.906	89.81
288.138	82.81
288.369	82.81
288.6	76.81
288.831	78.81
289.062	76.81
289.293	71.81
289.524	69.81
289.755	81.81
289.986	81.81
290.217	79.81
290.448	96.81
290.679	91.81
290.91	96.81
291.141	80.81
291.371	87.81
291.602	75.81
291.833	80.81
292.064	66.81
292.295	84.81
292.526	72.81
292.757	90.81
292.987	70.81
293.218	83.81
293.449	91.81
293.68	96.81
293.91	99.81
294.141	86.81
294.372	80.81
294.603	84.81
294.833	81.81
295.064	80.81
295.295	75.81
295.525	72.81
295.756	85.81
295.987	90.81
296.217	89.81
296.448	92.81
296.679	68.81
296.909	76.81
297.14	81.81
297.37	86.81
297.601	95.81
297.831	90.81
298.062	90.81
298.292	92.81
298.523	86.81
298.753	81.81
298.984	103.81
299.214	90.81
299.445	77.81
299.675	87.81
299.905	98.81
300.136	84.81
300.366	90.81
300.597	88.81
300.827	90.81
301.057	81.81
301.288	73.81
301.518	76.81
301.748	84.81
301.979	73.81
302.209	82.81
302.439	86.81
302.669	96.81
302.9	83.81
303.13	80.81
303.36	86.81
303.59	90.81
303.82	84.81
304.051	101.81
304.281	95.81
304.511	82.81
304.741	89.81
304.971	93.81
305.201	84.81
305.431	87.81
305.661	89.81
305.891	89.81
306.121	97.81
306.352	83.81
306.582	87.81
306.812	77.81
307.042	81.81
307.272	78.81
307.502	82.81
307.731	96.81
307.961	94.81
308.191	91.81
308.421	81.81
308.651	100.81
308.881	82.81
309.111	86.81
309.341	85.81
309.571	105.81
309.8	80.81
310.03	93.81
310.26	75.81
310.49	73.81
310.72	79.81
310.949	87.81
311.179	76.81
311.409	87.81
311.639	70.81
311.868	95.81
312.098	80.81
312.328	94.81
312.557	81.81
312.787	92.81
313.017	97.81
313.246	86.81
313.476	92.81
313.706	87.81
313.935	96.81
314.165	77.81
314.394	76.81
314.624	83.81
314.853	76.81
315.083	82.81
315.312	86.81
315.542	81.81
315.771	87.81
316.001	94.81
316.23	88.81
316.46	93.81
316.689	92.81
316.919	79.81
317.148	70.81
317.377	76.81
317.607	87.81
317.836	83.81
318.065	86.81
318.295	95.81
318.524	86.81
318.753	80.81
318.983	92.81
319.212	84.81
319.441	82.81
319.67	83.81
319.9	101.81
320.129	86.81
320.358	97.81
320.587	93.81
320.816	103.81
321.046	84.81
321.275	82.81
321.504	83.81
321.733	94.81
321.962	95.81
322.191	84.81
322.42	96.81
322.649	69.81
322.878	85.81
323.108	94.81
323.337	83.81
323.566	78.81
323.795	92.81
324.024	83.81
324.253	96.81
324.482	89.81
324.71	89.81
324.939	100.81
325.168	93.81
325.397	72.81
325.626	91.81
325.855	96.81
326.084	79.81
326.313	73.81
326.542	79.81
326.77	78.81
326.999	88.81
327.228	75.81
327.457	97.81
327.686	94.81
327.914	86.81
328.143	77.81
328.372	82.81
328.6	91.81
328.829	91.81
329.058	87.81
329.287	79.81
329.515	80.81
329.744	90.81
329.972	86.81
330.201	88.81
330.43	87.81
330.658	77.81
330.887	81.81
331.115	80.81
331.344	86.81
331.572	74.81
331.801	78.81
332.03	73.81
332.258	80.81
332.486	76.81
332.715	86.81
332.943	80.81
333.172	79.81
333.4	73.81
333.629	82.81
333.857	82.81
334.085	74.81
334.314	89.81
334.542	99.81
334.771	86.81
334.999	77.81
335.227	92.81
335.455	97.81
335.684	86.81
335.912	95.81
336.14	76.81
336.369	79.81
336.597	77.81
336.825	94.81
337.053	80.81
337.281	95.81
337.51	74.81
337.738	89.81
337.966	79.81
338.194	70.81
338.422	83.81
338.65	82.81
338.878	76.81
339.106	76.81
339.334	86.81
339.562	79.81
339.79	68.81
340.018	80.81
340.246	86.81
340.474	86.81
340.702	79.81
340.93	71.81
341.158	83.81
341.386	83.81
341.614	76.81
341.842	73.81
342.07	87.81
342.298	91.81
342.526	79.81
342.754	88.81
342.981	84.81
343.209	104.81
343.437	99.81
343.665	93.81
343.893	95.81
344.12	87.81
344.348	98.81
344.576	78.81
344.804	87.81
345.031	70.81
345.259	89.81
345.487	88.81
345.714	98.81
345.942	81.81
346.17	88.81
346.397	76.81
346.625	99.81
346.853	89.81
347.08	90.81
347.308	93.81
347.535	90.81
347.763	72.81
347.99	89.81
348.218	86.81
348.445	81.81
348.673	84.81
348.9	91.81
349.128	100.81
349.355	74.81
349.583	81.81
349.81	79.81
350.037	101.81
350.265	78.81
350.492	85.81
350.72	93.81
350.947	85.81
351.174	83.81
351.402	66.81
351.629	86.81
351.856	77.81
352.083	87.81
352.311	90.81
352.538	94.81
352.765	84.81
352.992	95.81
353.22	80.81
353.447	97.81
353.674	80.81
353.901	88.81
354.128	76.81
354.355	83.81
354.583	74.81
354.81	89.81
355.037	80.81
355.264	87.81
355.491	91.81
355.718	90.81
355.945	84.81
356.172	92.81
356.399	97.81
356.626	90.81
356.853	92.81
357.08	75.81
357.307	102.81
357.534	94.81
357.761	77.81
357.988	91.81
358.215	86.81
358.441	80.81
358.668	89.81
358.895	81.81
359.122	69.81
359.349	72.81
359.576	97.81
359.802	85.81
360.029	85.81
360.256	74.81
360.483	82.81
360.709	78.81
360.936	100.81
361.163	92.81
361.39	86.81
361.616	78.81
361.843	87.81
362.07	76.81
362.296	95.81
362.523	108.81
362.749	107.81
362.976	100.81
363.203	109.81
363.429	80.81
363.656	99.81
363.882	82.81
364.109	99.81
364.335	106.81
364.562	97.81
364.788	99.81
365.015	88.81
365.241	92.81
365.468	94.81
365.694	75.81
365.92	80.81
366.147	74.81
366.373	79.81
366.599	96.81
366.826	92.81
367.052	92.81
367.278	90.81
367.505	88.81
367.731	97.81
367.957	86.81
368.184	83.81
368.41	68.81
368.636	77.81
368.862	88.81
369.089	85.81
369.315	95.81
369.541	99.81
369.767	97.81
369.993	89.81
370.219	86.81
370.445	82.81
370.672	83.81
370.898	92.81
371.124	87.81
371.35	87.81
371.576	74.81
371.802	74.81
372.028	86.81
372.254	84.81
372.48	79.81
372.706	66.81
372.932	75.81
373.158	83.81
373.384	91.81
373.61	94.81
373.835	91.81
374.061	74.81
374.287	92.81
374.513	86.81
374.739	86.81
374.965	86.81
375.191	92.81
375.416	89.81
375.642	94.81
375.868	95.81
376.094	81.81
376.319	91.81
376.545	77.81
376.771	92.81
376.997	75.81
377.222	74.81
377.448	85.81
377.674	75.81
377.899	84.81
378.125	90.81
378.35	92.81
378.576	82.81
378.802	86.81
379.027	71.81
379.253	86.81
379.478	76.81
379.704	100.81
379.929	87.81
380.155	92.81
380.38	85.81
380.606	76.81
380.831	97.81
381.057	88.81
381.282	100.81
381.507	89.81
381.733	92.81
381.958	90.81
382.184	91.81
382.409	91.81
382.634	83.81
382.86	99.81
383.085	94.81
383.31	92.81
383.535	99.81
383.761	90.81
383.986	88.81
384.211	89.81
384.436	82.81
384.662	77.81
384.887	89.81
385.112	81.81
385.337	80.81
385.562	75.81
385.787	94.81
386.013	86.81
386.238	85.81
386.463	79.81
386.688	98.81
386.913	83.81
387.138	90.81
387.363	91.81
387.588	87.81
387.813	74.81
388.038	98.81
388.263	70.81
388.488	97.81
388.713	80.81
388.938	89.81
389.163	82.81
389.387	83.81
389.612	74.81
389.837	89.81
390.062	76.81
390.287	81.81
390.512	86.81
390.736	90.81
390.961	73.81
391.186	77.81
391.411	76.81
391.636	80.81
391.86	81.81
392.085	85.81
392.31	80.81
392.534	96.81
392.759	91.81
392.984	104.81
393.208	149.81
393.433	188.81
393.658	155.81
393.882	121.81
394.107	98.81
394.331	93.81
394.556	105.81
394.78	92.81
395.005	96.81
395.229	84.81
395.454	72.81
395.678	95.81
395.903	102.81
396.127	121.81
396.352	110.81
396.576	117.81
396.801	160.81
397.025	182.81
397.249	122.81
397.474	103.81
397.698	96.81
397.922	88.81
398.147	96.81
398.371	90.81
398.595	73.81
398.82	85.81
399.044	72.81
399.268	79.81
399.492	75.81
399.717	99.81
399.941	84.81
400.165	80.81
400.389	72.81
400.613	83.81
400.837	82.81
401.062	85.81
401.286	84.81
401.51	89.81
401.734	80.81
401.958	94.81
402.182	80.81
402.406	104.81
402.63	88.81
402.854	84.81
403.078	86.81
403.302	93.81
403.526	80.81
403.75	83.81
403.974	83.81
404.198	110.81
404.422	126.81
404.645	124.81
404.869	111.81
405.093	94.81
405.317	94.81
405.541	82.81
405.765	88.81
405.988	81.81
406.212	87.81
406.436	78.81
406.66	102.81
406.883	81.81
407.107	99.81
407.331	81.81
407.555	96.81
407.778	101.81
408.002	80.81
408.226	95.81
408.449	71.81
408.673	76.81
408.896	89.81
409.12	93.81
409.344	82.81
409.567	80.81
409.791	88.81
410.014	101.81
410.238	111.81
410.461	95.81
410.685	90.81
410.908	77.81
411.132	107.81
411.355	84.81
411.578	87.81
411.802	85.81
412.025	83.81
412.249	80.81
412.472	92.81
412.695	95.81
412.919	74.81
413.142	102.81
413.365	87.81
413.589	73.81
413.812	96.81
414.035	84.81
414.258	82.81
414.482	74.81
414.705	77.81
414.928	79.81
415.151	76.81
415.374	80.81
415.597	73.81
415.821	89.81
416.044	86.81
416.267	77.81
416.49	71.81
416.713	65.81
416.936	86.81
417.159	88.81
417.382	85.81
417.605	70.81
417.828	83.81
418.051	88.81
418.274	86.81
418.497	87.81
418.72	68.81
418.943	82.81
419.166	79.81
419.389	66.81
419.611	79.81
419.834	82.81
420.057	81.81
420.28	79.81
420.503	86.81
420.726	98.81
420.948	101.81
421.171	95.81
421.394	105.81
421.617	105.81
421.839	105.81
422.062	108.81
422.285	138.81
422.507	215.81
422.73	284.81
422.953	276.81
423.175	169.81
423.398	105.81
423.621	96.81
423.843	90.81
424.066	92.81
424.288	92.81
424.511	99.81
424.733	81.81
424.956	74.81
425.178	100.81
425.401	91.81
425.623	84.81
425.846	86.81
426.068	88.81
426.291	96.81
426.513	89.81
426.735	88.81
426.958	94.81
427.18	102.81
427.402	80.81
427.625	87.81
427.847	84.81
428.069	100.81
428.292	129.81
428.514	127.81
428.736	102.81
428.958	119.81
429.181	127.81
429.403	114.81
429.625	95.81
429.847	110.81
430.069	128.81
430.292	144.81
430.514	140.81
430.736	108.81
430.958	138.81
431.18	87.81
431.402	82.81
431.624	80.81
431.846	106.81
432.068	122.81
432.29	92.81
432.512	75.81
432.734	90.81
432.956	82.81
433.178	85.81
433.4	80.81
433.622	72.81
433.844	88.81
434.066	82.81
434.287	90.81
434.509	82.81
434.731	76.81
434.953	90.81
435.175	83.81
435.397	82.81
435.618	77.81
435.84	82.81
436.062	83.81
436.284	86.81
436.505	89.81
436.727	93.81
436.949	74.81
437.17	75.81
437.392	99.81
437.614	86.81
437.835	86.81
438.057	76.81
438.278	83.81
438.5	75.81
438.721	80.81
438.943	71.81
439.165	80.81
439.386	83.81
439.608	95.81
439.829	72.81
440.05	68.81
440.272	77.81
440.493	73.81
440.715	74.81
440.936	90.81
441.158	83.81
441.379	90.81
441.6	84.81
441.822	85.81
442.043	84.81
442.264	98.81
442.486	125.81
442.707	150.81
442.928	122.81
443.149	107.81
443.371	140.81
443.592	211.81
443.813	179.81
444.034	99.81
444.255	89.81
444.476	84.81
444.698	96.81
444.919	90.81
445.14	174.81
445.361	210.81
445.582	247.81
445.803	212.81
446.024	118.81
446.245	94.81
446.466	82.81
446.687	89.81
446.908	86.81
447.129	94.81
447.35	90.81
447.571	82.81
447.792	73.81
448.013	78.81
448.234	72.81
448.455	78.81
448.675	84.81
448.896	93.81
449.117	100.81
449.338	83.81
449.559	89.81
449.779	77.81
450	107.81
450.221	86.81
450.442	90.81
450.662	83.81
450.883	72.81
451.104	89.81
451.324	76.81
451.545	80.81
451.766	83.81
451.986	66.81
452.207	98.81
452.428	72.81
452.648	87.81
452.869	97.81
453.089	90.81
453.31	73.81
453.53	90.81
453.751	75.81
453.971	75.81
454.192	75.81
454.412	83.81
454.633	76.81
454.853	96.81
455.073	85.81
455.294	78.81
455.514	81.81
455.734	82.81
455.955	89.81
456.175	90.81
456.395	95.81
456.616	84.81
456.836	74.81
457.056	82.81
457.276	83.81
457.497	92.81
457.717	79.81
457.937	86.81
458.157	104.81
458.377	103.81
458.598	109.81
458.818	117.81
459.038	101.81
459.258	91.81
459.478	73.81
459.698	88.81
459.918	72.81
460.138	81.81
460.358	90.81
460.578	83.81
460.798	110.81
461.018	119.81
461.238	97.81
461.458	80.81
461.678	77.81
461.898	84.81
462.118	82.81
462.338	76.81
462.558	84.81
462.777	68.81
462.997	75.81
463.217	83.81
463.437	86.81
463.657	80.81
463.876	84.81
464.096	84.81
464.316	65.81
464.536	74.81
464.755	93.81
464.975	88.81
465.195	94.81
465.414	92.81
465.634	81.81
465.854	87.81
466.073	77.81
466.293	76.81
466.512	91.81
466.732	71.81
466.951	102.81
467.171	82.81
467.391	90.81
467.61	91.81
467.829	72.81
468.049	80.81
468.268	76.81
468.488	74.81
468.707	93.81
468.927	80.81
469.146	73.81
469.365	88.81
469.585	81.81
469.804	78.81
470.023	81.81
470.243	94.81
470.462	85.81
470.681	83.81
470.901	88.81
471.12	76.81
471.339	82.81
471.558	83.81
471.777	86.81
471.997	73.81
472.216	70.81
472.435	85.81
472.654	95.81
472.873	94.81
473.092	87.81
473.311	98.81
473.53	88.81
473.749	94.81
473.968	86.81
474.187	75.81
474.406	81.81
474.625	88.81
474.844	87.81
475.063	86.81
475.282	77.81
475.501	80.81
475.72	97.81
475.939	79.81
476.158	82.81
476.377	88.81
476.596	89.81
476.814	74.81
477.033	83.81
477.252	76.81
477.471	72.81
477.69	83.81
477.908	77.81
478.127	82.81
478.346	86.81
478.564	87.81
478.783	79.81
479.002	91.81
479.22	87.81
479.439	93.81
479.658	91.81
479.876	105.81
480.095	91.81
480.313	82.81
480.532	87.81
480.751	79.81
480.969	85.81
481.188	80.81
481.406	87.81
481.624	76.81
481.843	97.81
482.061	84.81
482.28	87.81
482.498	93.81
482.717	67.81
482.935	87.81
483.153	89.81
483.372	86.81
483.59	84.81
483.808	72.81
484.027	94.81
484.245	84.81
484.463	76.81
484.681	96.81
484.9	97.81
485.118	77.81
485.336	82.81
485.554	96.81
485.772	79.81
485.99	82.81
486.209	99.81
486.427	74.81
486.645	86.81
486.863	90.81
487.081	92.81
487.299	87.81
487.517	95.81
487.735	91.81
487.953	138.81
488.171	114.81
488.389	79.81
488.607	83.81
488.825	79.81
489.043	79.81
489.261	85.81
489.479	80.81
489.696	67.81
489.914	89.81
490.132	88.81
490.35	75.81
490.568	86.81
490.786	84.81
491.003	90.81
491.221	99.81
491.439	83.81
491.657	80.81
491.874	80.81
492.092	82.81
492.31	87.81
492.527	87.81
492.745	85.81
492.963	81.81
493.18	93.81
493.398	98.81
493.615	87.81
493.833	66.81
494.05	75.81
494.268	80.81
494.485	86.81
494.703	86.81
494.92	89.81
495.138	84.81
495.355	107.81
495.573	78.81
495.79	87.81
496.008	99.81
496.225	95.81
496.442	97.81
496.66	88.81
496.877	75.81
497.094	90.81
497.312	83.81
497.529	81.81
497.746	91.81
497.963	103.81
498.181	80.81
498.398	94.81
498.615	79.81
498.832	94.81
499.049	90.81
499.267	102.81
499.484	94.81
499.701	92.81
499.918	91.81
500.135	79.81
500.352	85.81
500.569	74.81
500.786	94.81
501.003	96.81
501.22	82.81
501.437	80.81
501.654	82.81
501.871	95.81
502.088	95.81
502.305	74.81
502.522	81.81
502.739	87.81
502.956	77.81
503.172	75.81
503.389	64.81
503.606	91.81
503.823	95.81
504.04	87.81
504.256	109.81
504.473	112.81
504.69	94.81
504.907	99.81
505.123	78.81
505.34	81.81
505.557	84.81
505.773	82.81
505.99	84.81
506.207	88.81
506.423	84.81
506.64	86.81
506.856	94.81
507.073	82.81
507.289	98.81
507.506	94.81
507.722	87.81
507.939	76.81
508.155	88.81
508.372	89.81
508.588	86.81
508.805	99.81
509.021	83.81
509.238	92.81
509.454	84.81
509.67	81.81
509.887	94.81
510.103	99.81
510.319	83.81
510.536	89.81
510.752	81.81
510.968	82.81
511.184	85.81
511.401	79.81
511.617	77.81
511.833	84.81
512.049	88.81
512.265	90.81
512.481	91.81
512.698	88.81
512.914	90.81
513.13	98.81
513.346	87.81
513.562	91.81
513.778	88.81
513.994	71.81
514.21	76.81
514.426	90.81
514.642	90.81
514.858	89.81
515.074	91.81
515.29	99.81
515.506	83.81
515.721	79.81
515.937	89.81
516.153	76.81
516.369	76.81
516.585	82.81
516.801	89.81
517.016	90.81
517.232	85.81
517.448	98.81
517.664	96.81
517.879	74.81
518.095	76.81
518.311	103.81
518.527	103.81
518.742	95.81
