Data from HP_2_HRD10591_00034.txt Node
Date: Mon Jan 19 14:16:18 EST 2026
User: Yrep
Spectrometer: HR+D1059
Trigger mode: 1
Integration Time (sec): 1.000000E-1
Scans to average: 1
Electric dark correction enabled: true
Nonlinearity correction enabled: false
Boxcar width: 0
XAxis mode: Wavelengths
Number of Pixels in Spectrum: 2048
>>>>>Begin Spectral Data<<<<<
223.165	-30.75
223.4	-30.75
223.635	-30.75
223.869	-20.75
224.104	-10.75
224.338	-10.75
224.573	-17.75
224.808	-3.75
225.042	-6.75
225.277	9.25
225.511	-5.75
225.746	4.25
225.98	3.25
226.215	29.25
226.449	5.25
226.683	11.25
226.918	19.25
227.152	25.25
227.387	34.25
227.621	38.25
227.856	46.25
228.09	56.25
228.324	62.25
228.559	54.25
228.793	72.25
229.027	67.25
229.262	56.25
229.496	68.25
229.73	84.25
229.964	81.25
230.199	79.25
230.433	68.25
230.667	88.25
230.901	68.25
231.136	83.25
231.37	70.25
231.604	91.25
231.838	98.25
232.072	91.25
232.306	82.25
232.541	77.25
232.775	70.25
233.009	78.25
233.243	86.25
233.477	93.25
233.711	85.25
233.945	76.25
234.179	90.25
234.413	85.25
234.647	81.25
234.881	74.25
235.115	82.25
235.349	85.25
235.583	81.25
235.817	66.25
236.051	76.25
236.285	73.25
236.519	96.25
236.753	76.25
236.987	76.25
237.221	88.25
237.455	80.25
237.689	76.25
237.922	82.25
238.156	89.25
238.39	75.25
238.624	81.25
238.858	74.25
239.091	72.25
239.325	81.25
239.559	88.25
239.793	75.25
240.027	79.25
240.26	77.25
240.494	78.25
240.728	89.25
240.961	73.25
241.195	62.25
241.429	91.25
241.662	74.25
241.896	76.25
242.13	84.25
242.363	82.25
242.597	68.25
242.83	81.25
243.064	68.25
243.298	77.25
243.531	85.25
243.765	78.25
243.998	80.25
244.232	74.25
244.465	86.25
244.699	82.25
244.932	80.25
245.166	82.25
245.399	80.25
245.633	87.25
245.866	88.25
246.099	75.25
246.333	85.25
246.566	85.25
246.8	84.25
247.033	83.25
247.266	75.25
247.5	83.25
247.733	85.25
247.966	86.25
248.2	83.25
248.433	85.25
248.666	78.25
248.899	77.25
249.133	91.25
249.366	96.25
249.599	77.25
249.832	77.25
250.066	97.25
250.299	70.25
250.532	90.25
250.765	88.25
250.998	69.25
251.231	74.25
251.465	82.25
251.698	79.25
251.931	77.25
252.164	77.25
252.397	85.25
252.63	78.25
252.863	69.25
253.096	98.25
253.329	87.25
253.562	82.25
253.795	84.25
254.028	97.25
254.261	90.25
254.494	82.25
254.727	73.25
254.96	86.25
255.193	91.25
255.426	78.25
255.659	82.25
255.892	80.25
256.124	78.25
256.357	92.25
256.59	90.25
256.823	88.25
257.056	81.25
257.289	60.25
257.521	84.25
257.754	77.25
257.987	85.25
258.22	85.25
258.452	91.25
258.685	76.25
258.918	78.25
259.151	88.25
259.383	85.25
259.616	78.25
259.849	84.25
260.081	90.25
260.314	78.25
260.547	78.25
260.779	81.25
261.012	84.25
261.244	67.25
261.477	96.25
261.71	84.25
261.942	93.25
262.175	88.25
262.407	85.25
262.64	81.25
262.872	74.25
263.105	80.25
263.337	87.25
263.57	71.25
263.802	82.25
264.035	76.25
264.267	78.25
264.499	79.25
264.732	76.25
264.964	79.25
265.197	90.25
265.429	77.25
265.661	82.25
265.894	82.25
266.126	78.25
266.358	82.25
266.591	84.25
266.823	84.25
267.055	97.25
267.287	72.25
267.52	74.25
267.752	67.25
267.984	82.25
268.216	76.25
268.448	85.25
268.681	82.25
268.913	82.25
269.145	79.25
269.377	93.25
269.609	100.25
269.841	99.25
270.073	86.25
270.306	91.25
270.538	80.25
270.77	92.25
271.002	82.25
271.234	74.25
271.466	92.25
271.698	98.25
271.93	75.25
272.162	83.25
272.394	73.25
272.626	93.25
272.858	82.25
273.09	87.25
273.322	82.25
273.553	90.25
273.785	85.25
274.017	80.25
274.249	77.25
274.481	96.25
274.713	86.25
274.945	89.25
275.176	92.25
275.408	82.25
275.64	82.25
275.872	87.25
276.104	91.25
276.335	86.25
276.567	81.25
276.799	96.25
277.031	88.25
277.262	103.25
277.494	77.25
277.726	88.25
277.957	96.25
278.189	85.25
278.421	93.25
278.652	97.25
278.884	71.25
279.115	94.25
279.347	82.25
279.579	84.25
279.81	78.25
280.042	89.25
280.273	101.25
280.505	82.25
280.736	79.25
280.968	78.25
281.199	84.25
281.431	91.25
281.662	76.25
281.894	70.25
282.125	86.25
282.356	92.25
282.588	79.25
282.819	86.25
283.051	90.25
283.282	73.25
283.513	90.25
283.745	86.25
283.976	76.25
284.207	92.25
284.439	96.25
284.67	74.25
284.901	75.25
285.132	84.25
285.364	89.25
285.595	82.25
285.826	82.25
286.057	78.25
286.288	95.25
286.52	86.25
286.751	90.25
286.982	87.25
287.213	86.25
287.444	72.25
287.675	84.25
287.906	100.25
288.138	94.25
288.369	99.25
288.6	93.25
288.831	69.25
289.062	93.25
289.293	92.25
289.524	76.25
289.755	100.25
289.986	93.25
290.217	86.25
290.448	88.25
290.679	96.25
290.91	83.25
291.141	88.25
291.371	85.25
291.602	84.25
291.833	78.25
292.064	73.25
292.295	90.25
292.526	100.25
292.757	92.25
292.987	78.25
293.218	91.25
293.449	74.25
293.68	89.25
293.91	94.25
294.141	88.25
294.372	64.25
294.603	90.25
294.833	82.25
295.064	87.25
295.295	89.25
295.525	76.25
295.756	88.25
295.987	85.25
296.217	91.25
296.448	100.25
296.679	101.25
296.909	88.25
297.14	100.25
297.37	93.25
297.601	93.25
297.831	90.25
298.062	85.25
298.292	96.25
298.523	91.25
298.753	92.25
298.984	75.25
299.214	83.25
299.445	79.25
299.675	89.25
299.905	79.25
300.136	96.25
300.366	97.25
300.597	87.25
300.827	95.25
301.057	80.25
301.288	74.25
301.518	84.25
301.748	86.25
301.979	101.25
302.209	85.25
302.439	82.25
302.669	90.25
302.9	85.25
303.13	79.25
303.36	92.25
303.59	88.25
303.82	82.25
304.051	99.25
304.281	96.25
304.511	92.25
304.741	88.25
304.971	84.25
305.201	81.25
305.431	88.25
305.661	110.25
305.891	96.25
306.121	89.25
306.352	91.25
306.582	85.25
306.812	96.25
307.042	90.25
307.272	77.25
307.502	91.25
307.731	90.25
307.961	88.25
308.191	88.25
308.421	91.25
308.651	93.25
308.881	86.25
309.111	93.25
309.341	86.25
309.571	87.25
309.8	86.25
310.03	88.25
310.26	87.25
310.49	98.25
310.72	72.25
310.949	87.25
311.179	84.25
311.409	96.25
311.639	89.25
311.868	77.25
312.098	78.25
312.328	100.25
312.557	76.25
312.787	81.25
313.017	100.25
313.246	102.25
313.476	108.25
313.706	93.25
313.935	76.25
314.165	74.25
314.394	89.25
314.624	89.25
314.853	86.25
315.083	84.25
315.312	90.25
315.542	88.25
315.771	101.25
316.001	93.25
316.23	84.25
316.46	89.25
316.689	89.25
316.919	91.25
317.148	98.25
317.377	98.25
317.607	91.25
317.836	102.25
318.065	85.25
318.295	91.25
318.524	85.25
318.753	94.25
318.983	89.25
319.212	91.25
319.441	89.25
319.67	82.25
319.9	90.25
320.129	77.25
320.358	84.25
320.587	88.25
320.816	79.25
321.046	88.25
321.275	83.25
321.504	91.25
321.733	94.25
321.962	92.25
322.191	79.25
322.42	86.25
322.649	85.25
322.878	82.25
323.108	97.25
323.337	93.25
323.566	74.25
323.795	93.25
324.024	89.25
324.253	81.25
324.482	64.25
324.71	89.25
324.939	83.25
325.168	76.25
325.397	95.25
325.626	80.25
325.855	86.25
326.084	80.25
326.313	93.25
326.542	76.25
326.77	90.25
326.999	81.25
327.228	75.25
327.457	75.25
327.686	95.25
327.914	88.25
328.143	86.25
328.372	98.25
328.6	72.25
328.829	89.25
329.058	95.25
329.287	74.25
329.515	93.25
329.744	82.25
329.972	88.25
330.201	88.25
330.43	92.25
330.658	89.25
330.887	90.25
331.115	89.25
331.344	86.25
331.572	86.25
331.801	94.25
332.03	94.25
332.258	90.25
332.486	77.25
332.715	62.25
332.943	91.25
333.172	82.25
333.4	78.25
333.629	90.25
333.857	85.25
334.085	85.25
334.314	98.25
334.542	76.25
334.771	84.25
334.999	86.25
335.227	75.25
335.455	94.25
335.684	104.25
335.912	99.25
336.14	98.25
336.369	94.25
336.597	73.25
336.825	80.25
337.053	88.25
337.281	79.25
337.51	94.25
337.738	88.25
337.966	84.25
338.194	90.25
338.422	88.25
338.65	88.25
338.878	94.25
339.106	78.25
339.334	89.25
339.562	88.25
339.79	90.25
340.018	78.25
340.246	90.25
340.474	92.25
340.702	96.25
340.93	84.25
341.158	77.25
341.386	78.25
341.614	84.25
341.842	88.25
342.07	83.25
342.298	94.25
342.526	80.25
342.754	76.25
342.981	79.25
343.209	89.25
343.437	98.25
343.665	88.25
343.893	91.25
344.12	93.25
344.348	84.25
344.576	97.25
344.804	82.25
345.031	84.25
345.259	78.25
345.487	80.25
345.714	72.25
345.942	80.25
346.17	98.25
346.397	79.25
346.625	85.25
346.853	89.25
347.08	92.25
347.308	96.25
347.535	101.25
347.763	101.25
347.99	99.25
348.218	84.25
348.445	77.25
348.673	73.25
348.9	81.25
349.128	104.25
349.355	78.25
349.583	92.25
349.81	84.25
350.037	90.25
350.265	79.25
350.492	83.25
350.72	79.25
350.947	87.25
351.174	83.25
351.402	80.25
351.629	77.25
351.856	86.25
352.083	86.25
352.311	90.25
352.538	81.25
352.765	65.25
352.992	80.25
353.22	78.25
353.447	92.25
353.674	88.25
353.901	100.25
354.128	93.25
354.355	70.25
354.583	77.25
354.81	84.25
355.037	84.25
355.264	96.25
355.491	89.25
355.718	62.25
355.945	85.25
356.172	76.25
356.399	85.25
356.626	81.25
356.853	79.25
357.08	89.25
357.307	101.25
357.534	92.25
357.761	92.25
357.988	90.25
358.215	95.25
358.441	82.25
358.668	100.25
358.895	96.25
359.122	91.25
359.349	93.25
359.576	93.25
359.802	66.25
360.029	85.25
360.256	87.25
360.483	100.25
360.709	83.25
360.936	86.25
361.163	92.25
361.39	86.25
361.616	86.25
361.843	92.25
362.07	92.25
362.296	93.25
362.523	94.25
362.749	99.25
362.976	103.25
363.203	123.25
363.429	96.25
363.656	94.25
363.882	88.25
364.109	107.25
364.335	106.25
364.562	110.25
364.788	106.25
365.015	91.25
365.241	94.25
365.468	96.25
365.694	93.25
365.92	78.25
366.147	88.25
366.373	93.25
366.599	93.25
366.826	92.25
367.052	95.25
367.278	94.25
367.505	90.25
367.731	96.25
367.957	99.25
368.184	97.25
368.41	83.25
368.636	101.25
368.862	84.25
369.089	82.25
369.315	83.25
369.541	77.25
369.767	73.25
369.993	87.25
370.219	98.25
370.445	74.25
370.672	78.25
370.898	94.25
371.124	84.25
371.35	88.25
371.576	97.25
371.802	82.25
372.028	80.25
372.254	94.25
372.48	84.25
372.706	79.25
372.932	68.25
373.158	86.25
373.384	93.25
373.61	105.25
373.835	111.25
374.061	97.25
374.287	91.25
374.513	90.25
374.739	103.25
374.965	106.25
375.191	112.25
375.416	76.25
375.642	104.25
375.868	101.25
376.094	95.25
376.319	81.25
376.545	99.25
376.771	88.25
376.997	84.25
377.222	89.25
377.448	86.25
377.674	98.25
377.899	80.25
378.125	82.25
378.35	105.25
378.576	84.25
378.802	93.25
379.027	99.25
379.253	82.25
379.478	94.25
379.704	96.25
379.929	87.25
380.155	93.25
380.38	97.25
380.606	93.25
380.831	91.25
381.057	96.25
381.282	92.25
381.507	82.25
381.733	90.25
381.958	102.25
382.184	91.25
382.409	98.25
382.634	105.25
382.86	85.25
383.085	96.25
383.31	84.25
383.535	100.25
383.761	103.25
383.986	104.25
384.211	85.25
384.436	84.25
384.662	95.25
384.887	99.25
385.112	91.25
385.337	89.25
385.562	81.25
385.787	91.25
386.013	93.25
386.238	89.25
386.463	81.25
386.688	96.25
386.913	85.25
387.138	100.25
387.363	82.25
387.588	97.25
387.813	97.25
388.038	78.25
388.263	96.25
388.488	91.25
388.713	96.25
388.938	92.25
389.163	89.25
389.387	87.25
389.612	89.25
389.837	85.25
390.062	88.25
390.287	93.25
390.512	98.25
390.736	77.25
390.961	90.25
391.186	92.25
391.411	96.25
391.636	94.25
391.86	82.25
392.085	101.25
392.31	103.25
392.534	109.25
392.759	108.25
392.984	129.25
393.208	188.25
393.433	262.25
393.658	209.25
393.882	109.25
394.107	125.25
394.331	110.25
394.556	122.25
394.78	85.25
395.005	93.25
395.229	97.25
395.454	96.25
395.678	96.25
395.903	102.25
396.127	134.25
396.352	129.25
396.576	150.25
396.801	186.25
397.025	217.25
397.249	130.25
397.474	115.25
397.698	86.25
397.922	86.25
398.147	86.25
398.371	85.25
398.595	88.25
398.82	88.25
399.044	90.25
399.268	81.25
399.492	97.25
399.717	106.25
399.941	62.25
400.165	90.25
400.389	77.25
400.613	88.25
400.837	87.25
401.062	98.25
401.286	93.25
401.51	86.25
401.734	88.25
401.958	80.25
402.182	87.25
402.406	89.25
402.63	79.25
402.854	82.25
403.078	83.25
403.302	78.25
403.526	87.25
403.75	85.25
403.974	102.25
404.198	108.25
404.422	140.25
404.645	169.25
404.869	130.25
405.093	118.25
405.317	101.25
405.541	81.25
405.765	84.25
405.988	93.25
406.212	97.25
406.436	92.25
406.66	91.25
406.883	85.25
407.107	86.25
407.331	92.25
407.555	89.25
407.778	102.25
408.002	108.25
408.226	97.25
408.449	84.25
408.673	77.25
408.896	94.25
409.12	90.25
409.344	102.25
409.567	87.25
409.791	87.25
410.014	114.25
410.238	86.25
410.461	99.25
410.685	96.25
410.908	89.25
411.132	101.25
411.355	79.25
411.578	91.25
411.802	87.25
412.025	86.25
412.249	91.25
412.472	94.25
412.695	88.25
412.919	97.25
413.142	92.25
413.365	88.25
413.589	92.25
413.812	84.25
414.035	84.25
414.258	87.25
414.482	93.25
414.705	65.25
414.928	82.25
415.151	92.25
415.374	82.25
415.597	81.25
415.821	93.25
416.044	77.25
416.267	88.25
416.49	88.25
416.713	102.25
416.936	87.25
417.159	101.25
417.382	79.25
417.605	85.25
417.828	106.25
418.051	106.25
418.274	91.25
418.497	72.25
418.72	88.25
418.943	101.25
419.166	96.25
419.389	83.25
419.611	93.25
419.834	90.25
420.057	94.25
420.28	88.25
420.503	100.25
420.726	86.25
420.948	105.25
421.171	102.25
421.394	106.25
421.617	117.25
421.839	122.25
422.062	142.25
422.285	175.25
422.507	276.25
422.73	433.25
422.953	374.25
423.175	221.25
423.398	152.25
423.621	114.25
423.843	105.25
424.066	94.25
424.288	106.25
424.511	99.25
424.733	96.25
424.956	99.25
425.178	90.25
425.401	83.25
425.623	89.25
425.846	100.25
426.068	104.25
426.291	85.25
426.513	89.25
426.735	81.25
426.958	100.25
427.18	84.25
427.402	92.25
427.625	89.25
427.847	96.25
428.069	92.25
428.292	149.25
428.514	141.25
428.736	122.25
428.958	124.25
429.181	135.25
429.403	103.25
429.625	96.25
429.847	117.25
430.069	151.25
430.292	178.25
430.514	150.25
430.736	149.25
430.958	137.25
431.18	108.25
431.402	100.25
431.624	108.25
431.846	127.25
432.068	120.25
432.29	90.25
432.512	101.25
432.734	77.25
432.956	79.25
433.178	91.25
433.4	89.25
433.622	96.25
433.844	90.25
434.066	94.25
434.287	72.25
434.509	86.25
434.731	98.25
434.953	92.25
435.175	106.25
435.397	89.25
435.618	101.25
435.84	89.25
436.062	93.25
436.284	75.25
436.505	86.25
436.727	96.25
436.949	84.25
437.17	73.25
437.392	75.25
437.614	84.25
437.835	88.25
438.057	91.25
438.278	87.25
438.5	85.25
438.721	95.25
438.943	88.25
439.165	77.25
439.386	85.25
439.608	68.25
439.829	73.25
440.05	84.25
440.272	84.25
440.493	91.25
440.715	96.25
440.936	92.25
441.158	82.25
441.379	97.25
441.6	83.25
441.822	79.25
442.043	84.25
442.264	97.25
442.486	126.25
442.707	159.25
442.928	126.25
443.149	126.25
443.371	149.25
443.592	240.25
443.813	203.25
444.034	114.25
444.255	87.25
444.476	76.25
444.698	105.25
444.919	99.25
445.14	176.25
445.361	202.25
445.582	288.25
445.803	236.25
446.024	118.25
446.245	96.25
446.466	93.25
446.687	82.25
446.908	83.25
447.129	78.25
447.35	85.25
447.571	86.25
447.792	85.25
448.013	86.25
448.234	89.25
448.455	85.25
448.675	90.25
448.896	84.25
449.117	96.25
449.338	96.25
449.559	84.25
449.779	70.25
450	95.25
450.221	87.25
450.442	85.25
450.662	92.25
450.883	86.25
451.104	86.25
451.324	94.25
451.545	92.25
451.766	72.25
451.986	87.25
452.207	74.25
452.428	113.25
452.648	88.25
452.869	96.25
453.089	93.25
453.31	95.25
453.53	98.25
453.751	87.25
453.971	98.25
454.192	99.25
454.412	78.25
454.633	85.25
454.853	92.25
455.073	101.25
455.294	89.25
455.514	77.25
455.734	79.25
455.955	88.25
456.175	84.25
456.395	83.25
456.616	91.25
456.836	91.25
457.056	82.25
457.276	78.25
457.497	80.25
457.717	99.25
457.937	106.25
458.157	115.25
458.377	112.25
458.598	129.25
458.818	115.25
459.038	90.25
459.258	94.25
459.478	87.25
459.698	71.25
459.918	103.25
460.138	81.25
460.358	78.25
460.578	101.25
460.798	131.25
461.018	118.25
461.238	88.25
461.458	94.25
461.678	82.25
461.898	84.25
462.118	93.25
462.338	83.25
462.558	81.25
462.777	82.25
462.997	88.25
463.217	77.25
463.437	86.25
463.657	82.25
463.876	92.25
464.096	87.25
464.316	64.25
464.536	93.25
464.755	80.25
464.975	83.25
465.195	85.25
465.414	88.25
465.634	86.25
465.854	89.25
466.073	92.25
466.293	92.25
466.512	84.25
466.732	80.25
466.951	81.25
467.171	88.25
467.391	87.25
467.61	101.25
467.829	90.25
468.049	73.25
468.268	90.25
468.488	90.25
468.707	88.25
468.927	83.25
469.146	84.25
469.365	86.25
469.585	87.25
469.804	95.25
470.023	86.25
470.243	79.25
470.462	88.25
470.681	85.25
470.901	82.25
471.12	93.25
471.339	77.25
471.558	68.25
471.777	85.25
471.997	88.25
472.216	85.25
472.435	88.25
472.654	97.25
472.873	83.25
473.092	92.25
473.311	77.25
473.53	82.25
473.749	93.25
473.968	90.25
474.187	89.25
474.406	106.25
474.625	82.25
474.844	104.25
475.063	101.25
475.282	83.25
475.501	93.25
475.72	96.25
475.939	78.25
476.158	85.25
476.377	112.25
476.596	81.25
476.814	89.25
477.033	86.25
477.252	82.25
477.471	82.25
477.69	94.25
477.908	79.25
478.127	88.25
478.346	88.25
478.564	106.25
478.783	102.25
479.002	93.25
479.22	77.25
479.439	84.25
479.658	80.25
479.876	97.25
480.095	68.25
480.313	91.25
480.532	87.25
480.751	109.25
480.969	91.25
481.188	91.25
481.406	95.25
481.624	81.25
481.843	83.25
482.061	90.25
482.28	91.25
482.498	74.25
482.717	93.25
482.935	101.25
483.153	103.25
483.372	99.25
483.59	89.25
483.808	91.25
484.027	87.25
484.245	96.25
484.463	101.25
484.681	114.25
484.9	92.25
485.118	87.25
485.336	94.25
485.554	74.25
485.772	90.25
485.99	99.25
486.209	100.25
486.427	107.25
486.645	97.25
486.863	92.25
487.081	102.25
487.299	92.25
487.517	100.25
487.735	115.25
487.953	156.25
488.171	114.25
488.389	99.25
488.607	104.25
488.825	89.25
489.043	85.25
489.261	94.25
489.479	87.25
489.696	85.25
489.914	90.25
490.132	102.25
490.35	105.25
490.568	91.25
490.786	101.25
491.003	75.25
491.221	93.25
491.439	88.25
491.657	89.25
491.874	90.25
492.092	83.25
492.31	84.25
492.527	82.25
492.745	87.25
492.963	82.25
493.18	85.25
493.398	83.25
493.615	113.25
493.833	92.25
494.05	87.25
494.268	86.25
494.485	98.25
494.703	97.25
494.92	91.25
495.138	98.25
495.355	92.25
495.573	89.25
495.79	90.25
496.008	100.25
496.225	94.25
496.442	90.25
496.66	93.25
496.877	89.25
497.094	97.25
497.312	90.25
497.529	84.25
497.746	93.25
497.963	91.25
498.181	93.25
498.398	96.25
498.615	90.25
498.832	89.25
499.049	85.25
499.267	93.25
499.484	93.25
499.701	95.25
499.918	85.25
500.135	93.25
500.352	89.25
500.569	82.25
500.786	83.25
501.003	88.25
501.22	89.25
501.437	103.25
501.654	92.25
501.871	90.25
502.088	87.25
502.305	91.25
502.522	99.25
502.739	80.25
502.956	99.25
503.172	79.25
503.389	84.25
503.606	86.25
503.823	93.25
504.04	99.25
504.256	121.25
504.473	120.25
504.69	121.25
504.907	101.25
505.123	88.25
505.34	94.25
505.557	101.25
505.773	97.25
505.99	105.25
506.207	89.25
506.423	79.25
506.64	96.25
506.856	100.25
507.073	84.25
507.289	102.25
507.506	99.25
507.722	78.25
507.939	85.25
508.155	101.25
508.372	97.25
508.588	97.25
508.805	88.25
509.021	89.25
509.238	87.25
509.454	104.25
509.67	100.25
509.887	100.25
510.103	83.25
510.319	92.25
510.536	94.25
510.752	91.25
510.968	96.25
511.184	88.25
511.401	90.25
511.617	81.25
511.833	86.25
512.049	88.25
512.265	91.25
512.481	93.25
512.698	86.25
512.914	83.25
513.13	98.25
513.346	91.25
513.562	92.25
513.778	94.25
513.994	109.25
514.21	100.25
514.426	91.25
514.642	92.25
514.858	98.25
515.074	99.25
515.29	87.25
515.506	74.25
515.721	96.25
515.937	91.25
516.153	98.25
516.369	79.25
516.585	87.25
516.801	89.25
517.016	96.25
517.232	101.25
517.448	86.25
517.664	84.25
