Data from HP_2_HRD10591_00019.txt Node
Date: Mon Jan 19 14:16:10 EST 2026
User: Yrep
Spectrometer: HR+D1059
Trigger mode: 1
Integration Time (sec): 1.000000E-1
Scans to average: 1
Electric dark correction enabled: true
Nonlinearity correction enabled: false
Boxcar width: 0
XAxis mode: Wavelengths
Number of Pixels in Spectrum: 2048
>>>>>Begin Spectral Data<<<<<
223.165	-16.31
223.4	-16.31
223.635	-16.31
223.869	-14.31
224.104	-25.31
224.338	-25.31
224.573	-20.31
224.808	-8.31
225.042	-14.31
225.277	-6.31
225.511	-3.31
225.746	3.69
225.98	5.69
226.215	16.69
226.449	17.69
226.683	19.69
226.918	47.69
227.152	22.69
227.387	23.69
227.621	35.69
227.856	45.69
228.09	47.69
228.324	51.69
228.559	59.69
228.793	65.69
229.027	51.69
229.262	65.69
229.496	67.69
229.73	72.69
229.964	78.69
230.199	71.69
230.433	74.69
230.667	78.69
230.901	71.69
231.136	68.69
231.37	69.69
231.604	75.69
231.838	80.69
232.072	86.69
232.306	76.69
232.541	94.69
232.775	77.69
233.009	79.69
233.243	77.69
233.477	93.69
233.711	79.69
233.945	94.69
234.179	73.69
234.413	91.69
234.647	78.69
234.881	89.69
235.115	73.69
235.349	80.69
235.583	69.69
235.817	65.69
236.051	83.69
236.285	76.69
236.519	86.69
236.753	71.69
236.987	80.69
237.221	84.69
237.455	75.69
237.689	75.69
237.922	78.69
238.156	76.69
238.39	82.69
238.624	81.69
238.858	77.69
239.091	75.69
239.325	80.69
239.559	81.69
239.793	67.69
240.027	75.69
240.26	96.69
240.494	84.69
240.728	63.69
240.961	63.69
241.195	78.69
241.429	77.69
241.662	71.69
241.896	77.69
242.13	71.69
242.363	75.69
242.597	56.69
242.83	79.69
243.064	83.69
243.298	84.69
243.531	62.69
243.765	81.69
243.998	66.69
244.232	67.69
244.465	70.69
244.699	71.69
244.932	73.69
245.166	80.69
245.399	74.69
245.633	95.69
245.866	88.69
246.099	69.69
246.333	85.69
246.566	73.69
246.8	67.69
247.033	82.69
247.266	71.69
247.5	67.69
247.733	86.69
247.966	82.69
248.2	78.69
248.433	73.69
248.666	75.69
248.899	74.69
249.133	70.69
249.366	76.69
249.599	82.69
249.832	87.69
250.066	86.69
250.299	84.69
250.532	95.69
250.765	76.69
250.998	66.69
251.231	77.69
251.465	82.69
251.698	93.69
251.931	72.69
252.164	81.69
252.397	77.69
252.63	85.69
252.863	74.69
253.096	77.69
253.329	80.69
253.562	81.69
253.795	81.69
254.028	86.69
254.261	71.69
254.494	87.69
254.727	92.69
254.96	77.69
255.193	76.69
255.426	76.69
255.659	90.69
255.892	87.69
256.124	76.69
256.357	95.69
256.59	82.69
256.823	86.69
257.056	79.69
257.289	63.69
257.521	80.69
257.754	85.69
257.987	79.69
258.22	85.69
258.452	79.69
258.685	85.69
258.918	72.69
259.151	75.69
259.383	75.69
259.616	79.69
259.849	71.69
260.081	91.69
260.314	75.69
260.547	90.69
260.779	82.69
261.012	82.69
261.244	76.69
261.477	81.69
261.71	75.69
261.942	65.69
262.175	73.69
262.407	69.69
262.64	82.69
262.872	74.69
263.105	75.69
263.337	75.69
263.57	93.69
263.802	81.69
264.035	101.69
264.267	89.69
264.499	81.69
264.732	79.69
264.964	76.69
265.197	83.69
265.429	89.69
265.661	83.69
265.894	82.69
266.126	76.69
266.358	83.69
266.591	75.69
266.823	90.69
267.055	83.69
267.287	84.69
267.52	83.69
267.752	91.69
267.984	92.69
268.216	86.69
268.448	92.69
268.681	89.69
268.913	84.69
269.145	67.69
269.377	80.69
269.609	81.69
269.841	80.69
270.073	83.69
270.306	70.69
270.538	74.69
270.77	68.69
271.002	83.69
271.234	72.69
271.466	78.69
271.698	92.69
271.93	85.69
272.162	92.69
272.394	102.69
272.626	88.69
272.858	89.69
273.09	89.69
273.322	71.69
273.553	72.69
273.785	99.69
274.017	84.69
274.249	78.69
274.481	71.69
274.713	74.69
274.945	89.69
275.176	87.69
275.408	79.69
275.64	69.69
275.872	65.69
276.104	85.69
276.335	84.69
276.567	79.69
276.799	75.69
277.031	79.69
277.262	79.69
277.494	76.69
277.726	81.69
277.957	77.69
278.189	73.69
278.421	71.69
278.652	91.69
278.884	76.69
279.115	85.69
279.347	97.69
279.579	87.69
279.81	76.69
280.042	92.69
280.273	88.69
280.505	95.69
280.736	69.69
280.968	87.69
281.199	63.69
281.431	84.69
281.662	91.69
281.894	83.69
282.125	81.69
282.356	88.69
282.588	82.69
282.819	79.69
283.051	80.69
283.282	79.69
283.513	86.69
283.745	69.69
283.976	76.69
284.207	87.69
284.439	84.69
284.67	86.69
284.901	83.69
285.132	82.69
285.364	78.69
285.595	86.69
285.826	89.69
286.057	84.69
286.288	69.69
286.52	77.69
286.751	89.69
286.982	95.69
287.213	74.69
287.444	84.69
287.675	89.69
287.906	95.69
288.138	86.69
288.369	84.69
288.6	84.69
288.831	88.69
289.062	76.69
289.293	71.69
289.524	90.69
289.755	79.69
289.986	81.69
290.217	79.69
290.448	82.69
290.679	65.69
290.91	80.69
291.141	91.69
291.371	73.69
291.602	84.69
291.833	84.69
292.064	89.69
292.295	85.69
292.526	80.69
292.757	81.69
292.987	90.69
293.218	95.69
293.449	82.69
293.68	81.69
293.91	83.69
294.141	97.69
294.372	95.69
294.603	86.69
294.833	91.69
295.064	78.69
295.295	93.69
295.525	81.69
295.756	90.69
295.987	85.69
296.217	73.69
296.448	92.69
296.679	83.69
296.909	91.69
297.14	91.69
297.37	88.69
297.601	93.69
297.831	69.69
298.062	82.69
298.292	79.69
298.523	77.69
298.753	92.69
298.984	89.69
299.214	88.69
299.445	79.69
299.675	94.69
299.905	84.69
300.136	99.69
300.366	87.69
300.597	90.69
300.827	77.69
301.057	92.69
301.288	86.69
301.518	83.69
301.748	80.69
301.979	94.69
302.209	97.69
302.439	75.69
302.669	87.69
302.9	89.69
303.13	79.69
303.36	83.69
303.59	81.69
303.82	89.69
304.051	86.69
304.281	96.69
304.511	81.69
304.741	86.69
304.971	86.69
305.201	94.69
305.431	81.69
305.661	87.69
305.891	88.69
306.121	76.69
306.352	95.69
306.582	83.69
306.812	94.69
307.042	85.69
307.272	87.69
307.502	69.69
307.731	82.69
307.961	92.69
308.191	111.69
308.421	82.69
308.651	77.69
308.881	95.69
309.111	97.69
309.341	98.69
309.571	97.69
309.8	79.69
310.03	86.69
310.26	85.69
310.49	92.69
310.72	81.69
310.949	69.69
311.179	89.69
311.409	96.69
311.639	72.69
311.868	91.69
312.098	83.69
312.328	86.69
312.557	82.69
312.787	89.69
313.017	84.69
313.246	101.69
313.476	83.69
313.706	81.69
313.935	91.69
314.165	77.69
314.394	76.69
314.624	85.69
314.853	87.69
315.083	84.69
315.312	89.69
315.542	91.69
315.771	82.69
316.001	90.69
316.23	83.69
316.46	94.69
316.689	81.69
316.919	88.69
317.148	85.69
317.377	94.69
317.607	89.69
317.836	102.69
318.065	97.69
318.295	96.69
318.524	83.69
318.753	93.69
318.983	83.69
319.212	106.69
319.441	87.69
319.67	88.69
319.9	72.69
320.129	76.69
320.358	95.69
320.587	91.69
320.816	80.69
321.046	100.69
321.275	91.69
321.504	93.69
321.733	98.69
321.962	81.69
322.191	99.69
322.42	98.69
322.649	89.69
322.878	99.69
323.108	93.69
323.337	80.69
323.566	79.69
323.795	89.69
324.024	85.69
324.253	93.69
324.482	86.69
324.71	92.69
324.939	81.69
325.168	81.69
325.397	81.69
325.626	89.69
325.855	81.69
326.084	96.69
326.313	100.69
326.542	82.69
326.77	80.69
326.999	81.69
327.228	85.69
327.457	85.69
327.686	85.69
327.914	76.69
328.143	89.69
328.372	92.69
328.6	100.69
328.829	93.69
329.058	80.69
329.287	81.69
329.515	81.69
329.744	83.69
329.972	76.69
330.201	88.69
330.43	95.69
330.658	98.69
330.887	88.69
331.115	90.69
331.344	80.69
331.572	117.69
331.801	81.69
332.03	79.69
332.258	91.69
332.486	75.69
332.715	104.69
332.943	91.69
333.172	94.69
333.4	73.69
333.629	80.69
333.857	85.69
334.085	85.69
334.314	79.69
334.542	84.69
334.771	83.69
334.999	99.69
335.227	93.69
335.455	89.69
335.684	91.69
335.912	97.69
336.14	91.69
336.369	92.69
336.597	90.69
336.825	92.69
337.053	86.69
337.281	88.69
337.51	95.69
337.738	78.69
337.966	101.69
338.194	98.69
338.422	93.69
338.65	69.69
338.878	92.69
339.106	89.69
339.334	79.69
339.562	84.69
339.79	85.69
340.018	91.69
340.246	82.69
340.474	91.69
340.702	89.69
340.93	100.69
341.158	83.69
341.386	88.69
341.614	82.69
341.842	73.69
342.07	81.69
342.298	102.69
342.526	84.69
342.754	90.69
342.981	99.69
343.209	83.69
343.437	115.69
343.665	86.69
343.893	95.69
344.12	91.69
344.348	97.69
344.576	90.69
344.804	89.69
345.031	97.69
345.259	95.69
345.487	96.69
345.714	87.69
345.942	96.69
346.17	84.69
346.397	90.69
346.625	97.69
346.853	76.69
347.08	75.69
347.308	106.69
347.535	90.69
347.763	92.69
347.99	100.69
348.218	85.69
348.445	91.69
348.673	95.69
348.9	95.69
349.128	92.69
349.355	85.69
349.583	100.69
349.81	90.69
350.037	80.69
350.265	78.69
350.492	84.69
350.72	83.69
350.947	93.69
351.174	84.69
351.402	77.69
351.629	83.69
351.856	99.69
352.083	94.69
352.311	77.69
352.538	81.69
352.765	99.69
352.992	106.69
353.22	95.69
353.447	84.69
353.674	89.69
353.901	64.69
354.128	94.69
354.355	77.69
354.583	76.69
354.81	88.69
355.037	86.69
355.264	87.69
355.491	92.69
355.718	85.69
355.945	95.69
356.172	90.69
356.399	84.69
356.626	89.69
356.853	86.69
357.08	95.69
357.307	101.69
357.534	92.69
357.761	93.69
357.988	101.69
358.215	86.69
358.441	81.69
358.668	84.69
358.895	95.69
359.122	79.69
359.349	76.69
359.576	99.69
359.802	103.69
360.029	87.69
360.256	95.69
360.483	75.69
360.709	84.69
360.936	97.69
361.163	83.69
361.39	82.69
361.616	84.69
361.843	92.69
362.07	97.69
362.296	99.69
362.523	90.69
362.749	91.69
362.976	106.69
363.203	111.69
363.429	74.69
363.656	92.69
363.882	98.69
364.109	101.69
364.335	119.69
364.562	109.69
364.788	95.69
365.015	84.69
365.241	90.69
365.468	87.69
365.694	84.69
365.92	95.69
366.147	84.69
366.373	87.69
366.599	99.69
366.826	96.69
367.052	81.69
367.278	85.69
367.505	96.69
367.731	89.69
367.957	84.69
368.184	84.69
368.41	77.69
368.636	83.69
368.862	88.69
369.089	88.69
369.315	86.69
369.541	88.69
369.767	88.69
369.993	82.69
370.219	104.69
370.445	76.69
370.672	88.69
370.898	89.69
371.124	87.69
371.35	84.69
371.576	92.69
371.802	82.69
372.028	93.69
372.254	91.69
372.48	85.69
372.706	88.69
372.932	103.69
373.158	89.69
373.384	87.69
373.61	102.69
373.835	104.69
374.061	93.69
374.287	95.69
374.513	94.69
374.739	99.69
374.965	104.69
375.191	92.69
375.416	87.69
375.642	92.69
375.868	97.69
376.094	88.69
376.319	87.69
376.545	87.69
376.771	80.69
376.997	86.69
377.222	89.69
377.448	74.69
377.674	94.69
377.899	105.69
378.125	85.69
378.35	91.69
378.576	97.69
378.802	83.69
379.027	91.69
379.253	85.69
379.478	92.69
379.704	86.69
379.929	82.69
380.155	88.69
380.38	80.69
380.606	103.69
380.831	101.69
381.057	87.69
381.282	93.69
381.507	90.69
381.733	88.69
381.958	84.69
382.184	102.69
382.409	96.69
382.634	95.69
382.86	90.69
383.085	102.69
383.31	81.69
383.535	81.69
383.761	90.69
383.986	97.69
384.211	92.69
384.436	86.69
384.662	88.69
384.887	88.69
385.112	95.69
385.337	96.69
385.562	80.69
385.787	95.69
386.013	89.69
386.238	84.69
386.463	97.69
386.688	98.69
386.913	85.69
387.138	102.69
387.363	88.69
387.588	92.69
387.813	98.69
388.038	93.69
388.263	88.69
388.488	92.69
388.713	91.69
388.938	83.69
389.163	87.69
389.387	95.69
389.612	87.69
389.837	102.69
390.062	90.69
390.287	83.69
390.512	88.69
390.736	80.69
390.961	85.69
391.186	92.69
391.411	91.69
391.636	96.69
391.86	83.69
392.085	91.69
392.31	96.69
392.534	103.69
392.759	108.69
392.984	124.69
393.208	208.69
393.433	254.69
393.658	199.69
393.882	128.69
394.107	101.69
394.331	105.69
394.556	106.69
394.78	119.69
395.005	91.69
395.229	88.69
395.454	79.69
395.678	109.69
395.903	128.69
396.127	117.69
396.352	137.69
396.576	156.69
396.801	195.69
397.025	223.69
397.249	144.69
397.474	118.69
397.698	103.69
397.922	104.69
398.147	88.69
398.371	87.69
398.595	115.69
398.82	100.69
399.044	88.69
399.268	86.69
399.492	66.69
399.717	82.69
399.941	74.69
400.165	103.69
400.389	83.69
400.613	97.69
400.837	88.69
401.062	88.69
401.286	102.69
401.51	85.69
401.734	88.69
401.958	91.69
402.182	96.69
402.406	96.69
402.63	98.69
402.854	103.69
403.078	98.69
403.302	94.69
403.526	92.69
403.75	91.69
403.974	103.69
404.198	105.69
404.422	148.69
404.645	157.69
404.869	144.69
405.093	102.69
405.317	97.69
405.541	90.69
405.765	100.69
405.988	82.69
406.212	94.69
406.436	82.69
406.66	96.69
406.883	92.69
407.107	89.69
407.331	90.69
407.555	105.69
407.778	111.69
408.002	108.69
408.226	95.69
408.449	81.69
408.673	71.69
408.896	82.69
409.12	93.69
409.344	91.69
409.567	104.69
409.791	98.69
410.014	97.69
410.238	76.69
410.461	101.69
410.685	89.69
410.908	106.69
411.132	103.69
411.355	98.69
411.578	77.69
411.802	83.69
412.025	81.69
412.249	93.69
412.472	95.69
412.695	85.69
412.919	91.69
413.142	83.69
413.365	98.69
413.589	91.69
413.812	91.69
414.035	95.69
414.258	83.69
414.482	80.69
414.705	81.69
414.928	81.69
415.151	97.69
415.374	83.69
415.597	89.69
415.821	81.69
416.044	94.69
416.267	97.69
416.49	98.69
416.713	87.69
416.936	90.69
417.159	88.69
417.382	86.69
417.605	95.69
417.828	87.69
418.051	93.69
418.274	78.69
418.497	85.69
418.72	84.69
418.943	95.69
419.166	93.69
419.389	92.69
419.611	92.69
419.834	89.69
420.057	85.69
420.28	87.69
420.503	81.69
420.726	91.69
420.948	84.69
421.171	105.69
421.394	110.69
421.617	105.69
421.839	135.69
422.062	117.69
422.285	195.69
422.507	287.69
422.73	436.69
422.953	399.69
423.175	227.69
423.398	138.69
423.621	122.69
423.843	115.69
424.066	102.69
424.288	111.69
424.511	92.69
424.733	71.69
424.956	97.69
425.178	101.69
425.401	95.69
425.623	82.69
425.846	94.69
426.068	75.69
426.291	88.69
426.513	91.69
426.735	87.69
426.958	97.69
427.18	86.69
427.402	103.69
427.625	95.69
427.847	88.69
428.069	95.69
428.292	131.69
428.514	146.69
428.736	121.69
428.958	139.69
429.181	129.69
429.403	107.69
429.625	105.69
429.847	140.69
430.069	160.69
430.292	195.69
430.514	169.69
430.736	129.69
430.958	145.69
431.18	106.69
431.402	87.69
431.624	104.69
431.846	121.69
432.068	139.69
432.29	97.69
432.512	90.69
432.734	87.69
432.956	95.69
433.178	98.69
433.4	84.69
433.622	80.69
433.844	86.69
434.066	83.69
434.287	73.69
434.509	91.69
434.731	77.69
434.953	90.69
435.175	89.69
435.397	83.69
435.618	100.69
435.84	87.69
436.062	95.69
436.284	87.69
436.505	86.69
436.727	86.69
436.949	101.69
437.17	99.69
437.392	87.69
437.614	78.69
437.835	90.69
438.057	86.69
438.278	83.69
438.5	103.69
438.721	83.69
438.943	87.69
439.165	91.69
439.386	85.69
439.608	87.69
439.829	92.69
440.05	67.69
440.272	90.69
440.493	105.69
440.715	95.69
440.936	105.69
441.158	86.69
441.379	85.69
441.6	91.69
441.822	84.69
442.043	91.69
442.264	95.69
442.486	131.69
442.707	160.69
442.928	120.69
443.149	126.69
443.371	164.69
443.592	259.69
443.813	236.69
444.034	116.69
444.255	109.69
444.476	103.69
444.698	99.69
444.919	93.69
445.14	182.69
445.361	205.69
445.582	303.69
445.803	257.69
446.024	127.69
446.245	106.69
446.466	90.69
446.687	74.69
446.908	81.69
447.129	80.69
447.35	89.69
447.571	90.69
447.792	85.69
448.013	99.69
448.234	96.69
448.455	77.69
448.675	97.69
448.896	75.69
449.117	96.69
449.338	99.69
449.559	97.69
449.779	93.69
450	96.69
450.221	87.69
450.442	87.69
450.662	88.69
450.883	100.69
451.104	101.69
451.324	84.69
451.545	91.69
451.766	104.69
451.986	87.69
452.207	91.69
452.428	74.69
452.648	108.69
452.869	80.69
453.089	97.69
453.31	95.69
453.53	97.69
453.751	98.69
453.971	107.69
454.192	92.69
454.412	79.69
454.633	70.69
454.853	87.69
455.073	79.69
455.294	88.69
455.514	92.69
455.734	97.69
455.955	92.69
456.175	97.69
456.395	83.69
456.616	101.69
456.836	81.69
457.056	90.69
457.276	92.69
457.497	81.69
457.717	91.69
457.937	103.69
458.157	128.69
458.377	104.69
458.598	114.69
458.818	119.69
459.038	91.69
459.258	96.69
459.478	95.69
459.698	105.69
459.918	87.69
460.138	76.69
460.358	81.69
460.578	111.69
460.798	142.69
461.018	146.69
461.238	101.69
461.458	85.69
461.678	71.69
461.898	92.69
462.118	83.69
462.338	101.69
462.558	89.69
462.777	82.69
462.997	95.69
463.217	87.69
463.437	99.69
463.657	96.69
463.876	85.69
464.096	91.69
464.316	76.69
464.536	87.69
464.755	89.69
464.975	79.69
465.195	75.69
465.414	96.69
465.634	87.69
465.854	85.69
466.073	81.69
466.293	77.69
466.512	77.69
466.732	93.69
466.951	89.69
467.171	90.69
467.391	88.69
467.61	95.69
467.829	81.69
468.049	92.69
468.268	96.69
468.488	95.69
468.707	84.69
468.927	93.69
469.146	82.69
469.365	78.69
469.585	81.69
469.804	86.69
470.023	100.69
470.243	92.69
470.462	88.69
470.681	87.69
470.901	106.69
471.12	97.69
471.339	95.69
471.558	77.69
471.777	100.69
471.997	81.69
472.216	80.69
472.435	83.69
472.654	83.69
472.873	106.69
473.092	84.69
473.311	78.69
473.53	93.69
473.749	85.69
473.968	88.69
474.187	92.69
474.406	99.69
474.625	76.69
474.844	89.69
475.063	84.69
475.282	91.69
475.501	81.69
475.72	84.69
475.939	80.69
476.158	77.69
476.377	87.69
476.596	82.69
476.814	85.69
477.033	77.69
477.252	90.69
477.471	77.69
477.69	95.69
477.908	78.69
478.127	90.69
478.346	102.69
478.564	87.69
478.783	90.69
479.002	85.69
479.22	98.69
479.439	97.69
479.658	100.69
479.876	106.69
480.095	82.69
480.313	84.69
480.532	94.69
480.751	97.69
480.969	77.69
481.188	88.69
481.406	89.69
481.624	81.69
481.843	74.69
482.061	75.69
482.28	99.69
482.498	84.69
482.717	97.69
482.935	81.69
483.153	94.69
483.372	95.69
483.59	100.69
483.808	89.69
484.027	85.69
484.245	88.69
484.463	88.69
484.681	97.69
484.9	97.69
485.118	99.69
485.336	90.69
485.554	92.69
485.772	93.69
485.99	95.69
486.209	104.69
486.427	91.69
486.645	91.69
486.863	99.69
487.081	87.69
487.299	85.69
487.517	107.69
487.735	121.69
487.953	160.69
488.171	132.69
488.389	91.69
488.607	85.69
488.825	95.69
489.043	95.69
489.261	104.69
489.479	86.69
489.696	91.69
489.914	96.69
490.132	91.69
490.35	69.69
490.568	90.69
490.786	89.69
491.003	96.69
491.221	88.69
491.439	90.69
491.657	81.69
491.874	96.69
492.092	99.69
492.31	99.69
492.527	91.69
492.745	99.69
492.963	93.69
493.18	91.69
493.398	79.69
493.615	100.69
493.833	96.69
494.05	91.69
494.268	97.69
494.485	102.69
494.703	87.69
494.92	95.69
495.138	81.69
495.355	97.69
495.573	95.69
495.79	95.69
496.008	96.69
496.225	85.69
496.442	101.69
496.66	93.69
496.877	101.69
497.094	97.69
497.312	102.69
497.529	75.69
497.746	81.69
497.963	89.69
498.181	88.69
498.398	108.69
498.615	88.69
498.832	94.69
499.049	87.69
499.267	99.69
499.484	95.69
499.701	99.69
499.918	101.69
500.135	89.69
500.352	92.69
500.569	72.69
500.786	93.69
501.003	97.69
501.22	88.69
501.437	81.69
501.654	88.69
501.871	83.69
502.088	81.69
502.305	91.69
502.522	89.69
502.739	83.69
502.956	93.69
503.172	87.69
503.389	97.69
503.606	108.69
503.823	94.69
504.04	104.69
504.256	127.69
504.473	121.69
504.69	119.69
504.907	97.69
505.123	101.69
505.34	87.69
505.557	99.69
505.773	80.69
505.99	93.69
506.207	89.69
506.423	82.69
506.64	89.69
506.856	99.69
507.073	97.69
507.289	95.69
507.506	89.69
507.722	85.69
507.939	87.69
508.155	101.69
508.372	81.69
508.588	92.69
508.805	91.69
509.021	85.69
509.238	84.69
509.454	93.69
509.67	97.69
509.887	91.69
510.103	93.69
510.319	91.69
510.536	90.69
510.752	96.69
510.968	82.69
511.184	92.69
511.401	104.69
511.617	100.69
511.833	83.69
512.049	96.69
512.265	72.69
512.481	90.69
512.698	84.69
512.914	95.69
513.13	83.69
513.346	89.69
513.562	108.69
513.778	86.69
513.994	96.69
514.21	91.69
514.426	94.69
514.642	83.69
514.858	85.69
515.074	106.69
515.29	81.69
515.506	95.69
515.721	105.69
515.937	100.69
516.153	77.69
516.369	91.69
516.585	95.69
516.801	85.69
517.016	100.69
517.232	89.69
517.448	93.69
517.664	86.69
