Data from HP_2_HRD10591_00004.txt Node
Date: Mon Jan 19 14:16:03 EST 2026
User: Yrep
Spectrometer: HR+D1059
Trigger mode: 1
Integration Time (sec): 1.000000E-1
Scans to average: 1
Electric dark correction enabled: true
Nonlinearity correction enabled: false
Boxcar width: 0
XAxis mode: Wavelengths
Number of Pixels in Spectrum: 2048
>>>>>Begin Spectral Data<<<<<
223.165	-10.31
223.4	-10.31
223.635	-10.31
223.869	-25.31
224.104	-20.31
224.338	-10.31
224.573	-17.31
224.808	-21.31
225.042	-6.31
225.277	-10.31
225.511	8.69
225.746	11.69
225.98	0.69
226.215	10.69
226.449	13.69
226.683	22.69
226.918	27.69
227.152	25.69
227.387	28.69
227.621	25.69
227.856	32.69
228.09	52.69
228.324	41.69
228.559	51.69
228.793	49.69
229.027	53.69
229.262	62.69
229.496	61.69
229.73	62.69
229.964	61.69
230.199	69.69
230.433	66.69
230.667	80.69
230.901	77.69
231.136	65.69
231.37	78.69
231.604	67.69
231.838	61.69
232.072	66.69
232.306	72.69
232.541	81.69
232.775	81.69
233.009	81.69
233.243	81.69
233.477	88.69
233.711	74.69
233.945	68.69
234.179	78.69
234.413	80.69
234.647	67.69
234.881	67.69
235.115	72.69
235.349	70.69
235.583	67.69
235.817	88.69
236.051	70.69
236.285	71.69
236.519	78.69
236.753	76.69
236.987	89.69
237.221	72.69
237.455	71.69
237.689	87.69
237.922	81.69
238.156	84.69
238.39	59.69
238.624	88.69
238.858	73.69
239.091	73.69
239.325	79.69
239.559	73.69
239.793	79.69
240.027	67.69
240.26	77.69
240.494	79.69
240.728	76.69
240.961	80.69
241.195	74.69
241.429	85.69
241.662	69.69
241.896	86.69
242.13	79.69
242.363	74.69
242.597	71.69
242.83	67.69
243.064	73.69
243.298	83.69
243.531	74.69
243.765	84.69
243.998	74.69
244.232	90.69
244.465	80.69
244.699	76.69
244.932	88.69
245.166	78.69
245.399	86.69
245.633	82.69
245.866	84.69
246.099	90.69
246.333	77.69
246.566	88.69
246.8	80.69
247.033	75.69
247.266	70.69
247.5	91.69
247.733	72.69
247.966	96.69
248.2	63.69
248.433	66.69
248.666	74.69
248.899	76.69
249.133	70.69
249.366	83.69
249.599	74.69
249.832	76.69
250.066	89.69
250.299	85.69
250.532	73.69
250.765	79.69
250.998	82.69
251.231	81.69
251.465	78.69
251.698	81.69
251.931	89.69
252.164	90.69
252.397	95.69
252.63	74.69
252.863	83.69
253.096	86.69
253.329	73.69
253.562	85.69
253.795	82.69
254.028	79.69
254.261	76.69
254.494	76.69
254.727	76.69
254.96	97.69
255.193	79.69
255.426	81.69
255.659	77.69
255.892	89.69
256.124	63.69
256.357	77.69
256.59	79.69
256.823	78.69
257.056	68.69
257.289	63.69
257.521	88.69
257.754	82.69
257.987	76.69
258.22	84.69
258.452	74.69
258.685	80.69
258.918	81.69
259.151	75.69
259.383	70.69
259.616	82.69
259.849	88.69
260.081	87.69
260.314	91.69
260.547	81.69
260.779	73.69
261.012	83.69
261.244	85.69
261.477	74.69
261.71	68.69
261.942	93.69
262.175	82.69
262.407	70.69
262.64	76.69
262.872	70.69
263.105	69.69
263.337	73.69
263.57	91.69
263.802	80.69
264.035	74.69
264.267	81.69
264.499	82.69
264.732	71.69
264.964	102.69
265.197	78.69
265.429	86.69
265.661	84.69
265.894	75.69
266.126	101.69
266.358	76.69
266.591	76.69
266.823	82.69
267.055	98.69
267.287	78.69
267.52	88.69
267.752	80.69
267.984	78.69
268.216	90.69
268.448	86.69
268.681	86.69
268.913	68.69
269.145	84.69
269.377	78.69
269.609	70.69
269.841	71.69
270.073	81.69
270.306	75.69
270.538	76.69
270.77	86.69
271.002	92.69
271.234	81.69
271.466	72.69
271.698	98.69
271.93	78.69
272.162	85.69
272.394	83.69
272.626	89.69
272.858	86.69
273.09	85.69
273.322	87.69
273.553	81.69
273.785	75.69
274.017	84.69
274.249	71.69
274.481	99.69
274.713	89.69
274.945	96.69
275.176	83.69
275.408	82.69
275.64	89.69
275.872	75.69
276.104	87.69
276.335	83.69
276.567	97.69
276.799	70.69
277.031	81.69
277.262	99.69
277.494	88.69
277.726	65.69
277.957	80.69
278.189	76.69
278.421	72.69
278.652	87.69
278.884	99.69
279.115	91.69
279.347	88.69
279.579	79.69
279.81	88.69
280.042	93.69
280.273	87.69
280.505	83.69
280.736	92.69
280.968	98.69
281.199	93.69
281.431	76.69
281.662	78.69
281.894	86.69
282.125	86.69
282.356	81.69
282.588	86.69
282.819	80.69
283.051	81.69
283.282	78.69
283.513	85.69
283.745	77.69
283.976	87.69
284.207	98.69
284.439	89.69
284.67	89.69
284.901	95.69
285.132	80.69
285.364	96.69
285.595	97.69
285.826	95.69
286.057	95.69
286.288	78.69
286.52	70.69
286.751	95.69
286.982	83.69
287.213	87.69
287.444	86.69
287.675	88.69
287.906	97.69
288.138	90.69
288.369	95.69
288.6	75.69
288.831	79.69
289.062	91.69
289.293	76.69
289.524	75.69
289.755	92.69
289.986	87.69
290.217	76.69
290.448	75.69
290.679	95.69
290.91	76.69
291.141	81.69
291.371	79.69
291.602	80.69
291.833	77.69
292.064	75.69
292.295	87.69
292.526	75.69
292.757	75.69
292.987	85.69
293.218	86.69
293.449	94.69
293.68	88.69
293.91	84.69
294.141	99.69
294.372	101.69
294.603	79.69
294.833	81.69
295.064	83.69
295.295	89.69
295.525	96.69
295.756	89.69
295.987	83.69
296.217	93.69
296.448	82.69
296.679	76.69
296.909	89.69
297.14	76.69
297.37	89.69
297.601	87.69
297.831	78.69
298.062	85.69
298.292	79.69
298.523	111.69
298.753	88.69
298.984	85.69
299.214	75.69
299.445	89.69
299.675	80.69
299.905	94.69
300.136	77.69
300.366	86.69
300.597	103.69
300.827	100.69
301.057	75.69
301.288	79.69
301.518	90.69
301.748	84.69
301.979	104.69
302.209	97.69
302.439	80.69
302.669	87.69
302.9	69.69
303.13	72.69
303.36	78.69
303.59	89.69
303.82	101.69
304.051	89.69
304.281	80.69
304.511	83.69
304.741	81.69
304.971	80.69
305.201	81.69
305.431	97.69
305.661	78.69
305.891	85.69
306.121	86.69
306.352	80.69
306.582	87.69
306.812	85.69
307.042	74.69
307.272	85.69
307.502	87.69
307.731	87.69
307.961	95.69
308.191	98.69
308.421	99.69
308.651	93.69
308.881	112.69
309.111	100.69
309.341	91.69
309.571	109.69
309.8	103.69
310.03	91.69
310.26	78.69
310.49	78.69
310.72	94.69
310.949	92.69
311.179	93.69
311.409	83.69
311.639	107.69
311.868	88.69
312.098	83.69
312.328	97.69
312.557	90.69
312.787	89.69
313.017	79.69
313.246	80.69
313.476	87.69
313.706	104.69
313.935	85.69
314.165	78.69
314.394	82.69
314.624	94.69
314.853	85.69
315.083	84.69
315.312	95.69
315.542	84.69
315.771	79.69
316.001	80.69
316.23	84.69
316.46	89.69
316.689	99.69
316.919	85.69
317.148	80.69
317.377	82.69
317.607	83.69
317.836	95.69
318.065	106.69
318.295	98.69
318.524	88.69
318.753	99.69
318.983	85.69
319.212	93.69
319.441	90.69
319.67	97.69
319.9	87.69
320.129	65.69
320.358	89.69
320.587	82.69
320.816	95.69
321.046	82.69
321.275	101.69
321.504	84.69
321.733	99.69
321.962	102.69
322.191	79.69
322.42	80.69
322.649	94.69
322.878	79.69
323.108	91.69
323.337	86.69
323.566	89.69
323.795	75.69
324.024	93.69
324.253	81.69
324.482	87.69
324.71	91.69
324.939	89.69
325.168	99.69
325.397	98.69
325.626	83.69
325.855	90.69
326.084	84.69
326.313	82.69
326.542	86.69
326.77	88.69
326.999	74.69
327.228	85.69
327.457	91.69
327.686	86.69
327.914	93.69
328.143	90.69
328.372	93.69
328.6	81.69
328.829	73.69
329.058	80.69
329.287	88.69
329.515	91.69
329.744	72.69
329.972	81.69
330.201	89.69
330.43	85.69
330.658	83.69
330.887	99.69
331.115	69.69
331.344	88.69
331.572	101.69
331.801	87.69
332.03	89.69
332.258	84.69
332.486	87.69
332.715	86.69
332.943	79.69
333.172	93.69
333.4	90.69
333.629	99.69
333.857	89.69
334.085	109.69
334.314	97.69
334.542	98.69
334.771	101.69
334.999	85.69
335.227	87.69
335.455	92.69
335.684	110.69
335.912	101.69
336.14	98.69
336.369	97.69
336.597	90.69
336.825	96.69
337.053	96.69
337.281	104.69
337.51	99.69
337.738	98.69
337.966	83.69
338.194	87.69
338.422	83.69
338.65	86.69
338.878	104.69
339.106	95.69
339.334	85.69
339.562	87.69
339.79	84.69
340.018	75.69
340.246	93.69
340.474	97.69
340.702	79.69
340.93	98.69
341.158	89.69
341.386	80.69
341.614	79.69
341.842	84.69
342.07	82.69
342.298	86.69
342.526	81.69
342.754	98.69
342.981	88.69
343.209	87.69
343.437	91.69
343.665	93.69
343.893	87.69
344.12	103.69
344.348	102.69
344.576	94.69
344.804	96.69
345.031	96.69
345.259	84.69
345.487	90.69
345.714	93.69
345.942	82.69
346.17	94.69
346.397	76.69
346.625	97.69
346.853	79.69
347.08	84.69
347.308	90.69
347.535	97.69
347.763	88.69
347.99	92.69
348.218	97.69
348.445	94.69
348.673	89.69
348.9	98.69
349.128	104.69
349.355	74.69
349.583	85.69
349.81	79.69
350.037	93.69
350.265	88.69
350.492	91.69
350.72	98.69
350.947	95.69
351.174	89.69
351.402	64.69
351.629	83.69
351.856	93.69
352.083	82.69
352.311	103.69
352.538	76.69
352.765	83.69
352.992	85.69
353.22	79.69
353.447	89.69
353.674	86.69
353.901	91.69
354.128	78.69
354.355	97.69
354.583	95.69
354.81	75.69
355.037	86.69
355.264	98.69
355.491	96.69
355.718	95.69
355.945	105.69
356.172	83.69
356.399	92.69
356.626	101.69
356.853	94.69
357.08	97.69
357.307	96.69
357.534	98.69
357.761	76.69
357.988	91.69
358.215	91.69
358.441	95.69
358.668	97.69
358.895	96.69
359.122	97.69
359.349	83.69
359.576	87.69
359.802	94.69
360.029	96.69
360.256	85.69
360.483	83.69
360.709	94.69
360.936	103.69
361.163	96.69
361.39	104.69
361.616	95.69
361.843	101.69
362.07	119.69
362.296	113.69
362.523	139.69
362.749	137.69
362.976	142.69
363.203	144.69
363.429	126.69
363.656	123.69
363.882	116.69
364.109	148.69
364.335	178.69
364.562	171.69
364.788	133.69
365.015	113.69
365.241	109.69
365.468	89.69
365.694	103.69
365.92	92.69
366.147	96.69
366.373	89.69
366.599	83.69
366.826	76.69
367.052	77.69
367.278	102.69
367.505	79.69
367.731	85.69
367.957	82.69
368.184	99.69
368.41	84.69
368.636	94.69
368.862	86.69
369.089	81.69
369.315	91.69
369.541	81.69
369.767	93.69
369.993	90.69
370.219	90.69
370.445	89.69
370.672	86.69
370.898	96.69
371.124	93.69
371.35	81.69
371.576	91.69
371.802	110.69
372.028	101.69
372.254	97.69
372.48	94.69
372.706	91.69
372.932	97.69
373.158	94.69
373.384	105.69
373.61	122.69
373.835	109.69
374.061	99.69
374.287	91.69
374.513	93.69
374.739	107.69
374.965	120.69
375.191	107.69
375.416	93.69
375.642	96.69
375.868	95.69
376.094	94.69
376.319	98.69
376.545	100.69
376.771	95.69
376.997	90.69
377.222	88.69
377.448	87.69
377.674	81.69
377.899	76.69
378.125	85.69
378.35	87.69
378.576	86.69
378.802	99.69
379.027	109.69
379.253	86.69
379.478	100.69
379.704	85.69
379.929	87.69
380.155	82.69
380.38	97.69
380.606	95.69
380.831	91.69
381.057	79.69
381.282	75.69
381.507	109.69
381.733	88.69
381.958	100.69
382.184	103.69
382.409	88.69
382.634	99.69
382.86	109.69
383.085	109.69
383.31	110.69
383.535	113.69
383.761	106.69
383.986	129.69
384.211	101.69
384.436	97.69
384.662	101.69
384.887	105.69
385.112	100.69
385.337	96.69
385.562	102.69
385.787	99.69
386.013	113.69
386.238	100.69
386.463	87.69
386.688	101.69
386.913	94.69
387.138	103.69
387.363	100.69
387.588	114.69
387.813	93.69
388.038	103.69
388.263	98.69
388.488	101.69
388.713	105.69
388.938	89.69
389.163	102.69
389.387	89.69
389.612	104.69
389.837	105.69
390.062	112.69
390.287	97.69
390.512	89.69
390.736	79.69
390.961	93.69
391.186	105.69
391.411	92.69
391.636	107.69
391.86	90.69
392.085	106.69
392.31	125.69
392.534	121.69
392.759	146.69
392.984	232.69
393.208	356.69
393.433	527.69
393.658	379.69
393.882	189.69
394.107	137.69
394.331	165.69
394.556	179.69
394.78	141.69
395.005	112.69
395.229	113.69
395.454	123.69
395.678	133.69
395.903	164.69
396.127	215.69
396.352	231.69
396.576	244.69
396.801	351.69
397.025	433.69
397.249	229.69
397.474	148.69
397.698	116.69
397.922	94.69
398.147	93.69
398.371	87.69
398.595	89.69
398.82	91.69
399.044	73.69
399.268	90.69
399.492	85.69
399.717	95.69
399.941	82.69
400.165	105.69
400.389	92.69
400.613	94.69
400.837	93.69
401.062	96.69
401.286	95.69
401.51	93.69
401.734	89.69
401.958	97.69
402.182	82.69
402.406	84.69
402.63	88.69
402.854	89.69
403.078	102.69
403.302	95.69
403.526	103.69
403.75	100.69
403.974	126.69
404.198	174.69
404.422	252.69
404.645	287.69
404.869	222.69
405.093	150.69
405.317	106.69
405.541	96.69
405.765	89.69
405.988	98.69
406.212	93.69
406.436	91.69
406.66	95.69
406.883	99.69
407.107	95.69
407.331	90.69
407.555	115.69
407.778	131.69
408.002	127.69
408.226	107.69
408.449	86.69
408.673	98.69
408.896	105.69
409.12	101.69
409.344	95.69
409.567	102.69
409.791	100.69
410.014	107.69
410.238	107.69
410.461	107.69
410.685	96.69
410.908	101.69
411.132	89.69
411.355	85.69
411.578	96.69
411.802	85.69
412.025	93.69
412.249	94.69
412.472	85.69
412.695	85.69
412.919	80.69
413.142	99.69
413.365	95.69
413.589	93.69
413.812	89.69
414.035	93.69
414.258	89.69
414.482	91.69
414.705	94.69
414.928	103.69
415.151	104.69
415.374	91.69
415.597	87.69
415.821	82.69
416.044	96.69
416.267	85.69
416.49	94.69
416.713	90.69
416.936	84.69
417.159	87.69
417.382	105.69
417.605	93.69
417.828	92.69
418.051	88.69
418.274	74.69
418.497	73.69
418.72	94.69
418.943	108.69
419.166	95.69
419.389	105.69
419.611	104.69
419.834	99.69
420.057	90.69
420.28	85.69
420.503	102.69
420.726	103.69
420.948	105.69
421.171	102.69
421.394	130.69
421.617	158.69
421.839	165.69
422.062	198.69
422.285	271.69
422.507	483.69
422.73	676.69
422.953	595.69
423.175	361.69
423.398	219.69
423.621	135.69
423.843	109.69
424.066	121.69
424.288	115.69
424.511	112.69
424.733	104.69
424.956	99.69
425.178	96.69
425.401	95.69
425.623	86.69
425.846	90.69
426.068	89.69
426.291	85.69
426.513	83.69
426.735	84.69
426.958	87.69
427.18	104.69
427.402	104.69
427.625	99.69
427.847	102.69
428.069	136.69
428.292	195.69
428.514	214.69
428.736	160.69
428.958	220.69
429.181	211.69
429.403	131.69
429.625	134.69
429.847	168.69
430.069	284.69
430.292	321.69
430.514	303.69
430.736	221.69
430.958	238.69
431.18	123.69
431.402	96.69
431.624	122.69
431.846	189.69
432.068	211.69
432.29	130.69
432.512	114.69
432.734	98.69
432.956	97.69
433.178	89.69
433.4	97.69
433.622	85.69
433.844	88.69
434.066	87.69
434.287	88.69
434.509	81.69
434.731	86.69
434.953	82.69
435.175	99.69
435.397	76.69
435.618	99.69
435.84	109.69
436.062	91.69
436.284	100.69
436.505	91.69
436.727	93.69
436.949	85.69
437.17	103.69
437.392	93.69
437.614	89.69
437.835	85.69
438.057	100.69
438.278	88.69
438.5	95.69
438.721	89.69
438.943	71.69
439.165	84.69
439.386	97.69
439.608	96.69
439.829	77.69
440.05	92.69
440.272	90.69
440.493	92.69
440.715	107.69
440.936	93.69
441.158	86.69
441.379	88.69
441.6	82.69
441.822	102.69
442.043	102.69
442.264	122.69
442.486	217.69
442.707	291.69
442.928	188.69
443.149	170.69
443.371	261.69
443.592	458.69
443.813	400.69
444.034	176.69
444.255	105.69
444.476	109.69
444.698	111.69
444.919	112.69
445.14	259.69
445.361	383.69
445.582	566.69
445.803	490.69
446.024	197.69
446.245	130.69
446.466	100.69
446.687	91.69
446.908	96.69
447.129	98.69
447.35	99.69
447.571	70.69
447.792	97.69
448.013	94.69
448.234	77.69
448.455	83.69
448.675	76.69
448.896	88.69
449.117	79.69
449.338	73.69
449.559	87.69
449.779	92.69
450	77.69
450.221	76.69
450.442	86.69
450.662	91.69
450.883	91.69
451.104	102.69
451.324	94.69
451.545	92.69
451.766	98.69
451.986	85.69
452.207	97.69
452.428	102.69
452.648	89.69
452.869	110.69
453.089	106.69
453.31	99.69
453.53	89.69
453.751	105.69
453.971	84.69
454.192	78.69
454.412	94.69
454.633	81.69
454.853	82.69
455.073	91.69
455.294	82.69
455.514	102.69
455.734	87.69
455.955	91.69
456.175	83.69
456.395	85.69
456.616	98.69
456.836	82.69
457.056	87.69
457.276	93.69
457.497	82.69
457.717	103.69
457.937	135.69
458.157	160.69
458.377	175.69
458.598	163.69
458.818	188.69
459.038	121.69
459.258	96.69
459.478	87.69
459.698	86.69
459.918	88.69
460.138	102.69
460.358	93.69
460.578	119.69
460.798	168.69
461.018	168.69
461.238	93.69
461.458	79.69
461.678	98.69
461.898	83.69
462.118	84.69
462.338	90.69
462.558	92.69
462.777	100.69
462.997	89.69
463.217	69.69
463.437	101.69
463.657	85.69
463.876	84.69
464.096	84.69
464.316	87.69
464.536	87.69
464.755	90.69
464.975	80.69
465.195	88.69
465.414	83.69
465.634	89.69
465.854	89.69
466.073	82.69
466.293	79.69
466.512	74.69
466.732	95.69
466.951	99.69
467.171	93.69
467.391	89.69
467.61	83.69
467.829	88.69
468.049	81.69
468.268	82.69
468.488	80.69
468.707	83.69
468.927	85.69
469.146	89.69
469.365	100.69
469.585	89.69
469.804	95.69
470.023	86.69
470.243	92.69
470.462	103.69
470.681	109.69
470.901	101.69
471.12	99.69
471.339	101.69
471.558	96.69
471.777	94.69
471.997	85.69
472.216	93.69
472.435	89.69
472.654	78.69
472.873	100.69
473.092	86.69
473.311	93.69
473.53	95.69
473.749	82.69
473.968	85.69
474.187	97.69
474.406	77.69
474.625	94.69
474.844	91.69
475.063	72.69
475.282	98.69
475.501	84.69
475.72	102.69
475.939	88.69
476.158	86.69
476.377	73.69
476.596	83.69
476.814	88.69
477.033	96.69
477.252	79.69
477.471	83.69
477.69	73.69
477.908	81.69
478.127	81.69
478.346	85.69
478.564	91.69
478.783	82.69
479.002	81.69
479.22	84.69
479.439	94.69
479.658	85.69
479.876	73.69
480.095	91.69
480.313	93.69
480.532	92.69
480.751	92.69
480.969	94.69
481.188	91.69
481.406	96.69
481.624	95.69
481.843	83.69
482.061	92.69
482.28	89.69
482.498	90.69
482.717	92.69
482.935	93.69
483.153	92.69
483.372	113.69
483.59	90.69
483.808	91.69
484.027	89.69
484.245	94.69
484.463	112.69
484.681	85.69
484.9	93.69
485.118	93.69
485.336	94.69
485.554	93.69
485.772	83.69
485.99	103.69
486.209	89.69
486.427	82.69
486.645	82.69
486.863	92.69
487.081	104.69
487.299	115.69
487.517	136.69
487.735	154.69
487.953	256.69
488.171	241.69
488.389	137.69
488.607	102.69
488.825	107.69
489.043	102.69
489.261	97.69
489.479	101.69
489.696	102.69
489.914	96.69
490.132	96.69
490.35	107.69
490.568	95.69
490.786	80.69
491.003	87.69
491.221	95.69
491.439	94.69
491.657	90.69
491.874	82.69
492.092	102.69
492.31	109.69
492.527	82.69
492.745	100.69
492.963	104.69
493.18	89.69
493.398	102.69
493.615	81.69
493.833	80.69
494.05	85.69
494.268	92.69
494.485	93.69
494.703	84.69
494.92	85.69
495.138	86.69
495.355	93.69
495.573	85.69
495.79	101.69
496.008	96.69
496.225	90.69
496.442	112.69
496.66	96.69
496.877	88.69
497.094	96.69
497.312	102.69
497.529	89.69
497.746	90.69
497.963	99.69
498.181	107.69
498.398	112.69
498.615	83.69
498.832	94.69
499.049	95.69
499.267	95.69
499.484	90.69
499.701	86.69
499.918	93.69
500.135	101.69
500.352	102.69
500.569	95.69
500.786	98.69
501.003	98.69
501.22	85.69
501.437	94.69
501.654	109.69
501.871	72.69
502.088	89.69
502.305	103.69
502.522	94.69
502.739	111.69
502.956	95.69
503.172	72.69
503.389	81.69
503.606	97.69
503.823	117.69
504.04	121.69
504.256	162.69
504.473	195.69
504.69	119.69
504.907	110.69
505.123	90.69
505.34	85.69
505.557	100.69
505.773	82.69
505.99	85.69
506.207	104.69
506.423	87.69
506.64	94.69
506.856	102.69
507.073	95.69
507.289	109.69
507.506	87.69
507.722	95.69
507.939	90.69
508.155	85.69
508.372	86.69
508.588	80.69
508.805	80.69
509.021	103.69
509.238	86.69
509.454	97.69
509.67	92.69
509.887	109.69
510.103	101.69
510.319	92.69
510.536	95.69
510.752	95.69
510.968	100.69
511.184	89.69
511.401	89.69
511.617	94.69
511.833	99.69
512.049	81.69
512.265	107.69
512.481	83.69
512.698	81.69
512.914	91.69
513.13	105.69
513.346	80.69
513.562	75.69
513.778	81.69
513.994	76.69
514.21	95.69
514.426	103.69
514.642	93.69
514.858	95.69
515.074	99.69
515.29	102.69
515.506	87.69
515.721	90.69
515.937	91.69
516.153	90.69
