Data from HP_2_HRD10591_00013.txt Node
Date: Mon Jan 19 14:16:07 EST 2026
User: Yrep
Spectrometer: HR+D1059
Trigger mode: 1
Integration Time (sec): 1.000000E-1
Scans to average: 1
Electric dark correction enabled: true
Nonlinearity correction enabled: false
Boxcar width: 0
XAxis mode: Wavelengths
Number of Pixels in Spectrum: 2048
>>>>>Begin Spectral Data<<<<<
223.165	-21.69
223.4	-21.69
223.635	-21.69
223.869	-13.69
224.104	-27.69
224.338	-0.69
224.573	0.31
224.808	-24.69
225.042	-5.69
225.277	-4.69
225.511	-7.69
225.746	-12.69
225.98	10.31
226.215	27.31
226.449	15.31
226.683	20.31
226.918	19.31
227.152	26.31
227.387	31.31
227.621	34.31
227.856	35.31
228.09	42.31
228.324	38.31
228.559	47.31
228.793	63.31
229.027	65.31
229.262	58.31
229.496	72.31
229.73	70.31
229.964	70.31
230.199	72.31
230.433	72.31
230.667	79.31
230.901	64.31
231.136	81.31
231.37	66.31
231.604	78.31
231.838	75.31
232.072	74.31
232.306	79.31
232.541	81.31
232.775	67.31
233.009	80.31
233.243	86.31
233.477	82.31
233.711	76.31
233.945	79.31
234.179	86.31
234.413	82.31
234.647	71.31
234.881	85.31
235.115	79.31
235.349	90.31
235.583	78.31
235.817	72.31
236.051	81.31
236.285	79.31
236.519	68.31
236.753	70.31
236.987	91.31
237.221	84.31
237.455	65.31
237.689	65.31
237.922	65.31
238.156	85.31
238.39	70.31
238.624	65.31
238.858	69.31
239.091	70.31
239.325	83.31
239.559	64.31
239.793	72.31
240.027	75.31
240.26	86.31
240.494	80.31
240.728	67.31
240.961	75.31
241.195	87.31
241.429	63.31
241.662	67.31
241.896	72.31
242.13	64.31
242.363	79.31
242.597	71.31
242.83	79.31
243.064	76.31
243.298	87.31
243.531	70.31
243.765	75.31
243.998	74.31
244.232	77.31
244.465	79.31
244.699	55.31
244.932	86.31
245.166	79.31
245.399	84.31
245.633	87.31
245.866	75.31
246.099	70.31
246.333	75.31
246.566	67.31
246.8	66.31
247.033	73.31
247.266	88.31
247.5	83.31
247.733	76.31
247.966	81.31
248.2	77.31
248.433	68.31
248.666	65.31
248.899	80.31
249.133	76.31
249.366	69.31
249.599	73.31
249.832	72.31
250.066	83.31
250.299	83.31
250.532	85.31
250.765	70.31
250.998	79.31
251.231	80.31
251.465	69.31
251.698	77.31
251.931	81.31
252.164	70.31
252.397	87.31
252.63	79.31
252.863	70.31
253.096	62.31
253.329	92.31
253.562	78.31
253.795	75.31
254.028	75.31
254.261	74.31
254.494	78.31
254.727	74.31
254.96	73.31
255.193	63.31
255.426	67.31
255.659	75.31
255.892	78.31
256.124	63.31
256.357	82.31
256.59	74.31
256.823	84.31
257.056	73.31
257.289	86.31
257.521	74.31
257.754	69.31
257.987	73.31
258.22	80.31
258.452	79.31
258.685	79.31
258.918	79.31
259.151	78.31
259.383	72.31
259.616	90.31
259.849	76.31
260.081	71.31
260.314	79.31
260.547	74.31
260.779	85.31
261.012	86.31
261.244	80.31
261.477	69.31
261.71	70.31
261.942	76.31
262.175	86.31
262.407	91.31
262.64	82.31
262.872	90.31
263.105	81.31
263.337	78.31
263.57	88.31
263.802	83.31
264.035	89.31
264.267	85.31
264.499	71.31
264.732	74.31
264.964	78.31
265.197	75.31
265.429	88.31
265.661	85.31
265.894	83.31
266.126	78.31
266.358	94.31
266.591	80.31
266.823	83.31
267.055	70.31
267.287	65.31
267.52	81.31
267.752	79.31
267.984	98.31
268.216	68.31
268.448	72.31
268.681	72.31
268.913	75.31
269.145	74.31
269.377	81.31
269.609	65.31
269.841	81.31
270.073	70.31
270.306	87.31
270.538	84.31
270.77	84.31
271.002	83.31
271.234	83.31
271.466	65.31
271.698	88.31
271.93	87.31
272.162	82.31
272.394	69.31
272.626	64.31
272.858	71.31
273.09	91.31
273.322	86.31
273.553	90.31
273.785	80.31
274.017	69.31
274.249	81.31
274.481	92.31
274.713	67.31
274.945	84.31
275.176	73.31
275.408	82.31
275.64	81.31
275.872	100.31
276.104	89.31
276.335	86.31
276.567	74.31
276.799	71.31
277.031	79.31
277.262	84.31
277.494	80.31
277.726	87.31
277.957	74.31
278.189	97.31
278.421	89.31
278.652	76.31
278.884	86.31
279.115	78.31
279.347	83.31
279.579	77.31
279.81	77.31
280.042	98.31
280.273	89.31
280.505	73.31
280.736	73.31
280.968	75.31
281.199	71.31
281.431	77.31
281.662	71.31
281.894	96.31
282.125	71.31
282.356	75.31
282.588	83.31
282.819	100.31
283.051	81.31
283.282	80.31
283.513	84.31
283.745	98.31
283.976	91.31
284.207	89.31
284.439	90.31
284.67	79.31
284.901	89.31
285.132	91.31
285.364	82.31
285.595	93.31
285.826	81.31
286.057	85.31
286.288	84.31
286.52	79.31
286.751	74.31
286.982	85.31
287.213	87.31
287.444	74.31
287.675	71.31
287.906	96.31
288.138	81.31
288.369	89.31
288.6	87.31
288.831	81.31
289.062	90.31
289.293	89.31
289.524	93.31
289.755	90.31
289.986	88.31
290.217	87.31
290.448	84.31
290.679	83.31
290.91	91.31
291.141	84.31
291.371	98.31
291.602	82.31
291.833	85.31
292.064	89.31
292.295	88.31
292.526	82.31
292.757	94.31
292.987	77.31
293.218	76.31
293.449	95.31
293.68	89.31
293.91	83.31
294.141	93.31
294.372	91.31
294.603	96.31
294.833	90.31
295.064	75.31
295.295	79.31
295.525	99.31
295.756	83.31
295.987	81.31
296.217	82.31
296.448	80.31
296.679	76.31
296.909	90.31
297.14	77.31
297.37	89.31
297.601	79.31
297.831	79.31
298.062	81.31
298.292	95.31
298.523	99.31
298.753	78.31
298.984	95.31
299.214	94.31
299.445	82.31
299.675	86.31
299.905	84.31
300.136	83.31
300.366	90.31
300.597	96.31
300.827	94.31
301.057	90.31
301.288	89.31
301.518	85.31
301.748	76.31
301.979	105.31
302.209	90.31
302.439	87.31
302.669	92.31
302.9	84.31
303.13	97.31
303.36	87.31
303.59	72.31
303.82	88.31
304.051	77.31
304.281	79.31
304.511	98.31
304.741	93.31
304.971	85.31
305.201	90.31
305.431	87.31
305.661	76.31
305.891	98.31
306.121	78.31
306.352	87.31
306.582	67.31
306.812	74.31
307.042	87.31
307.272	99.31
307.502	85.31
307.731	87.31
307.961	99.31
308.191	82.31
308.421	86.31
308.651	76.31
308.881	85.31
309.111	91.31
309.341	99.31
309.571	81.31
309.8	97.31
310.03	76.31
310.26	82.31
310.49	85.31
310.72	89.31
310.949	91.31
311.179	79.31
311.409	80.31
311.639	84.31
311.868	90.31
312.098	83.31
312.328	79.31
312.557	95.31
312.787	79.31
313.017	72.31
313.246	88.31
313.476	91.31
313.706	95.31
313.935	85.31
314.165	91.31
314.394	89.31
314.624	94.31
314.853	86.31
315.083	83.31
315.312	83.31
315.542	101.31
315.771	85.31
316.001	85.31
316.23	75.31
316.46	96.31
316.689	103.31
316.919	85.31
317.148	99.31
317.377	85.31
317.607	75.31
317.836	83.31
318.065	91.31
318.295	78.31
318.524	93.31
318.753	88.31
318.983	84.31
319.212	88.31
319.441	70.31
319.67	85.31
319.9	79.31
320.129	70.31
320.358	81.31
320.587	83.31
320.816	81.31
321.046	88.31
321.275	82.31
321.504	86.31
321.733	96.31
321.962	85.31
322.191	89.31
322.42	98.31
322.649	86.31
322.878	80.31
323.108	82.31
323.337	83.31
323.566	81.31
323.795	90.31
324.024	84.31
324.253	69.31
324.482	94.31
324.71	96.31
324.939	94.31
325.168	84.31
325.397	84.31
325.626	87.31
325.855	80.31
326.084	89.31
326.313	90.31
326.542	99.31
326.77	83.31
326.999	75.31
327.228	73.31
327.457	75.31
327.686	90.31
327.914	87.31
328.143	106.31
328.372	95.31
328.6	65.31
328.829	74.31
329.058	77.31
329.287	87.31
329.515	74.31
329.744	88.31
329.972	78.31
330.201	73.31
330.43	75.31
330.658	94.31
330.887	76.31
331.115	86.31
331.344	80.31
331.572	87.31
331.801	82.31
332.03	95.31
332.258	76.31
332.486	96.31
332.715	82.31
332.943	70.31
333.172	88.31
333.4	69.31
333.629	82.31
333.857	74.31
334.085	89.31
334.314	85.31
334.542	80.31
334.771	91.31
334.999	94.31
335.227	91.31
335.455	95.31
335.684	90.31
335.912	91.31
336.14	99.31
336.369	93.31
336.597	105.31
336.825	88.31
337.053	88.31
337.281	94.31
337.51	74.31
337.738	87.31
337.966	96.31
338.194	83.31
338.422	87.31
338.65	84.31
338.878	83.31
339.106	89.31
339.334	78.31
339.562	86.31
339.79	88.31
340.018	85.31
340.246	70.31
340.474	90.31
340.702	74.31
340.93	110.31
341.158	81.31
341.386	86.31
341.614	83.31
341.842	93.31
342.07	82.31
342.298	97.31
342.526	96.31
342.754	61.31
342.981	81.31
343.209	106.31
343.437	116.31
343.665	65.31
343.893	95.31
344.12	98.31
344.348	104.31
344.576	93.31
344.804	94.31
345.031	85.31
345.259	95.31
345.487	76.31
345.714	90.31
345.942	100.31
346.17	101.31
346.397	78.31
346.625	82.31
346.853	87.31
347.08	90.31
347.308	87.31
347.535	85.31
347.763	77.31
347.99	85.31
348.218	70.31
348.445	81.31
348.673	93.31
348.9	95.31
349.128	81.31
349.355	101.31
349.583	102.31
349.81	84.31
350.037	80.31
350.265	80.31
350.492	82.31
350.72	95.31
350.947	92.31
351.174	85.31
351.402	66.31
351.629	90.31
351.856	72.31
352.083	85.31
352.311	89.31
352.538	88.31
352.765	93.31
352.992	86.31
353.22	85.31
353.447	91.31
353.674	86.31
353.901	90.31
354.128	91.31
354.355	78.31
354.583	88.31
354.81	74.31
355.037	96.31
355.264	84.31
355.491	91.31
355.718	73.31
355.945	81.31
356.172	92.31
356.399	96.31
356.626	88.31
356.853	83.31
357.08	85.31
357.307	82.31
357.534	82.31
357.761	96.31
357.988	81.31
358.215	86.31
358.441	83.31
358.668	89.31
358.895	85.31
359.122	89.31
359.349	90.31
359.576	84.31
359.802	89.31
360.029	71.31
360.256	81.31
360.483	75.31
360.709	87.31
360.936	90.31
361.163	78.31
361.39	86.31
361.616	91.31
361.843	87.31
362.07	101.31
362.296	82.31
362.523	85.31
362.749	93.31
362.976	95.31
363.203	106.31
363.429	97.31
363.656	102.31
363.882	94.31
364.109	104.31
364.335	108.31
364.562	108.31
364.788	87.31
365.015	81.31
365.241	97.31
365.468	61.31
365.694	74.31
365.92	82.31
366.147	86.31
366.373	80.31
366.599	84.31
366.826	84.31
367.052	78.31
367.278	87.31
367.505	89.31
367.731	93.31
367.957	82.31
368.184	77.31
368.41	78.31
368.636	83.31
368.862	106.31
369.089	77.31
369.315	85.31
369.541	91.31
369.767	102.31
369.993	84.31
370.219	78.31
370.445	99.31
370.672	79.31
370.898	92.31
371.124	93.31
371.35	94.31
371.576	71.31
371.802	97.31
372.028	97.31
372.254	87.31
372.48	87.31
372.706	82.31
372.932	93.31
373.158	86.31
373.384	94.31
373.61	88.31
373.835	105.31
374.061	93.31
374.287	104.31
374.513	106.31
374.739	78.31
374.965	96.31
375.191	89.31
375.416	95.31
375.642	93.31
375.868	90.31
376.094	72.31
376.319	93.31
376.545	104.31
376.771	75.31
376.997	96.31
377.222	88.31
377.448	104.31
377.674	93.31
377.899	92.31
378.125	86.31
378.35	82.31
378.576	83.31
378.802	79.31
379.027	86.31
379.253	85.31
379.478	91.31
379.704	93.31
379.929	83.31
380.155	77.31
380.38	84.31
380.606	90.31
380.831	84.31
381.057	96.31
381.282	79.31
381.507	83.31
381.733	104.31
381.958	74.31
382.184	85.31
382.409	101.31
382.634	93.31
382.86	88.31
383.085	81.31
383.31	83.31
383.535	99.31
383.761	109.31
383.986	89.31
384.211	86.31
384.436	96.31
384.662	83.31
384.887	73.31
385.112	88.31
385.337	79.31
385.562	89.31
385.787	102.31
386.013	110.31
386.238	91.31
386.463	101.31
386.688	95.31
386.913	78.31
387.138	82.31
387.363	80.31
387.588	82.31
387.813	96.31
388.038	95.31
388.263	106.31
388.488	94.31
388.713	90.31
388.938	83.31
389.163	81.31
389.387	69.31
389.612	79.31
389.837	91.31
390.062	99.31
390.287	85.31
390.512	69.31
390.736	75.31
390.961	95.31
391.186	85.31
391.411	82.31
391.636	91.31
391.86	110.31
392.085	92.31
392.31	81.31
392.534	102.31
392.759	99.31
392.984	111.31
393.208	146.31
393.433	187.31
393.658	174.31
393.882	107.31
394.107	103.31
394.331	117.31
394.556	112.31
394.78	102.31
395.005	93.31
395.229	92.31
395.454	87.31
395.678	85.31
395.903	95.31
396.127	113.31
396.352	123.31
396.576	132.31
396.801	151.31
397.025	185.31
397.249	114.31
397.474	117.31
397.698	101.31
397.922	104.31
398.147	97.31
398.371	81.31
398.595	89.31
398.82	105.31
399.044	80.31
399.268	91.31
399.492	89.31
399.717	82.31
399.941	106.31
400.165	90.31
400.389	85.31
400.613	85.31
400.837	82.31
401.062	92.31
401.286	93.31
401.51	83.31
401.734	90.31
401.958	94.31
402.182	90.31
402.406	94.31
402.63	89.31
402.854	86.31
403.078	97.31
403.302	89.31
403.526	86.31
403.75	85.31
403.974	102.31
404.198	122.31
404.422	153.31
404.645	191.31
404.869	173.31
405.093	139.31
405.317	97.31
405.541	84.31
405.765	85.31
405.988	83.31
406.212	97.31
406.436	95.31
406.66	82.31
406.883	83.31
407.107	93.31
407.331	100.31
407.555	100.31
407.778	99.31
408.002	100.31
408.226	89.31
408.449	80.31
408.673	87.31
408.896	94.31
409.12	77.31
409.344	100.31
409.567	77.31
409.791	89.31
410.014	89.31
410.238	78.31
410.461	77.31
410.685	95.31
410.908	69.31
411.132	75.31
411.355	85.31
411.578	79.31
411.802	72.31
412.025	76.31
412.249	94.31
412.472	80.31
412.695	82.31
412.919	70.31
413.142	83.31
413.365	77.31
413.589	60.31
413.812	81.31
414.035	82.31
414.258	86.31
414.482	91.31
414.705	90.31
414.928	102.31
415.151	85.31
415.374	81.31
415.597	78.31
415.821	92.31
416.044	85.31
416.267	77.31
416.49	78.31
416.713	97.31
416.936	92.31
417.159	90.31
417.382	86.31
417.605	81.31
417.828	76.31
418.051	72.31
418.274	79.31
418.497	92.31
418.72	93.31
418.943	89.31
419.166	99.31
419.389	89.31
419.611	93.31
419.834	99.31
420.057	90.31
420.28	91.31
420.503	93.31
420.726	94.31
420.948	81.31
421.171	85.31
421.394	99.31
421.617	95.31
421.839	114.31
422.062	106.31
422.285	148.31
422.507	232.31
422.73	325.31
422.953	262.31
423.175	175.31
423.398	126.31
423.621	96.31
423.843	87.31
424.066	87.31
424.288	90.31
424.511	86.31
424.733	89.31
424.956	97.31
425.178	97.31
425.401	85.31
425.623	89.31
425.846	97.31
426.068	91.31
426.291	95.31
426.513	89.31
426.735	89.31
426.958	84.31
427.18	94.31
427.402	97.31
427.625	87.31
427.847	85.31
428.069	102.31
428.292	121.31
428.514	123.31
428.736	106.31
428.958	128.31
429.181	128.31
429.403	84.31
429.625	88.31
429.847	118.31
430.069	143.31
430.292	159.31
430.514	161.31
430.736	117.31
430.958	136.31
431.18	101.31
431.402	93.31
431.624	94.31
431.846	119.31
432.068	123.31
432.29	101.31
432.512	69.31
432.734	99.31
432.956	103.31
433.178	88.31
433.4	81.31
433.622	74.31
433.844	87.31
434.066	81.31
434.287	95.31
434.509	78.31
434.731	70.31
434.953	83.31
435.175	83.31
435.397	83.31
435.618	80.31
435.84	93.31
436.062	83.31
436.284	95.31
436.505	94.31
436.727	82.31
436.949	83.31
437.17	76.31
437.392	86.31
437.614	73.31
437.835	85.31
438.057	83.31
438.278	91.31
438.5	94.31
438.721	90.31
438.943	92.31
439.165	91.31
439.386	82.31
439.608	93.31
439.829	83.31
440.05	80.31
440.272	88.31
440.493	84.31
440.715	109.31
440.936	86.31
441.158	87.31
441.379	60.31
441.6	87.31
441.822	85.31
442.043	105.31
442.264	102.31
442.486	120.31
442.707	132.31
442.928	104.31
443.149	100.31
443.371	129.31
443.592	200.31
443.813	158.31
444.034	95.31
444.255	76.31
444.476	98.31
444.698	81.31
444.919	91.31
445.14	160.31
445.361	191.31
445.582	237.31
445.803	190.31
446.024	116.31
446.245	105.31
446.466	72.31
446.687	81.31
446.908	80.31
447.129	80.31
447.35	82.31
447.571	89.31
447.792	87.31
448.013	81.31
448.234	82.31
448.455	83.31
448.675	78.31
448.896	84.31
449.117	85.31
449.338	69.31
449.559	99.31
449.779	76.31
450	83.31
450.221	75.31
450.442	77.31
450.662	70.31
450.883	87.31
451.104	94.31
451.324	93.31
451.545	94.31
451.766	85.31
451.986	71.31
452.207	75.31
452.428	81.31
452.648	79.31
452.869	84.31
453.089	93.31
453.31	99.31
453.53	93.31
453.751	104.31
453.971	82.31
454.192	86.31
454.412	88.31
454.633	75.31
454.853	93.31
455.073	76.31
455.294	73.31
455.514	91.31
455.734	79.31
455.955	85.31
456.175	84.31
456.395	80.31
456.616	89.31
456.836	85.31
457.056	94.31
457.276	85.31
457.497	83.31
457.717	88.31
457.937	95.31
458.157	109.31
458.377	106.31
458.598	104.31
458.818	103.31
459.038	98.31
459.258	82.31
459.478	90.31
459.698	85.31
459.918	74.31
460.138	87.31
460.358	84.31
460.578	96.31
460.798	123.31
461.018	102.31
461.238	88.31
461.458	89.31
461.678	75.31
461.898	78.31
462.118	78.31
462.338	72.31
462.558	86.31
462.777	69.31
462.997	80.31
463.217	82.31
463.437	85.31
463.657	80.31
463.876	98.31
464.096	90.31
464.316	81.31
464.536	97.31
464.755	82.31
464.975	79.31
465.195	90.31
465.414	82.31
465.634	86.31
465.854	84.31
466.073	93.31
466.293	76.31
466.512	78.31
466.732	71.31
466.951	81.31
467.171	104.31
467.391	90.31
467.61	75.31
467.829	76.31
468.049	97.31
468.268	75.31
468.488	77.31
468.707	95.31
468.927	86.31
469.146	90.31
469.365	99.31
469.585	96.31
469.804	83.31
470.023	78.31
470.243	76.31
470.462	87.31
470.681	78.31
470.901	84.31
471.12	85.31
471.339	86.31
471.558	84.31
471.777	78.31
471.997	86.31
472.216	86.31
472.435	74.31
472.654	87.31
472.873	73.31
473.092	65.31
473.311	79.31
473.53	76.31
473.749	86.31
473.968	83.31
474.187	69.31
474.406	81.31
474.625	81.31
474.844	97.31
475.063	88.31
475.282	82.31
475.501	81.31
475.72	103.31
475.939	83.31
476.158	81.31
476.377	84.31
476.596	89.31
476.814	78.31
477.033	89.31
477.252	87.31
477.471	75.31
477.69	97.31
477.908	89.31
478.127	93.31
478.346	78.31
478.564	58.31
478.783	75.31
479.002	85.31
479.22	81.31
479.439	106.31
479.658	96.31
479.876	87.31
480.095	87.31
480.313	80.31
480.532	85.31
480.751	93.31
480.969	94.31
481.188	90.31
481.406	105.31
481.624	80.31
481.843	79.31
482.061	91.31
482.28	92.31
482.498	89.31
482.717	77.31
482.935	89.31
483.153	90.31
483.372	86.31
483.59	78.31
483.808	83.31
484.027	85.31
484.245	90.31
484.463	96.31
484.681	90.31
484.9	77.31
485.118	93.31
485.336	87.31
485.554	93.31
485.772	94.31
485.99	105.31
486.209	93.31
486.427	101.31
486.645	93.31
486.863	84.31
487.081	93.31
487.299	93.31
487.517	93.31
487.735	101.31
487.953	136.31
488.171	114.31
488.389	81.31
488.607	97.31
488.825	83.31
489.043	94.31
489.261	86.31
489.479	90.31
489.696	95.31
489.914	81.31
490.132	100.31
490.35	104.31
490.568	91.31
490.786	96.31
491.003	86.31
491.221	87.31
491.439	90.31
491.657	101.31
491.874	93.31
492.092	91.31
492.31	91.31
492.527	82.31
492.745	77.31
492.963	79.31
493.18	105.31
493.398	86.31
493.615	73.31
493.833	81.31
494.05	94.31
494.268	98.31
494.485	91.31
494.703	83.31
494.92	95.31
495.138	91.31
495.355	93.31
495.573	75.31
495.79	88.31
496.008	101.31
496.225	76.31
496.442	94.31
496.66	94.31
496.877	96.31
497.094	104.31
497.312	94.31
497.529	91.31
497.746	96.31
497.963	73.31
498.181	81.31
498.398	82.31
498.615	86.31
498.832	82.31
499.049	74.31
499.267	102.31
499.484	101.31
499.701	83.31
499.918	90.31
500.135	85.31
500.352	77.31
500.569	89.31
500.786	81.31
501.003	94.31
501.22	74.31
501.437	87.31
501.654	79.31
501.871	78.31
502.088	78.31
502.305	93.31
502.522	98.31
502.739	102.31
502.956	89.31
503.172	82.31
503.389	85.31
503.606	87.31
503.823	88.31
504.04	75.31
504.256	115.31
504.473	117.31
504.69	90.31
504.907	87.31
505.123	85.31
505.34	89.31
505.557	91.31
505.773	84.31
505.99	85.31
506.207	96.31
506.423	83.31
506.64	79.31
506.856	98.31
507.073	86.31
507.289	85.31
507.506	100.31
507.722	87.31
507.939	91.31
508.155	107.31
508.372	100.31
508.588	101.31
508.805	82.31
509.021	94.31
509.238	77.31
509.454	86.31
509.67	87.31
509.887	95.31
510.103	94.31
510.319	91.31
510.536	81.31
510.752	90.31
510.968	86.31
511.184	89.31
511.401	87.31
511.617	84.31
511.833	89.31
512.049	85.31
512.265	81.31
512.481	86.31
512.698	103.31
512.914	91.31
513.13	82.31
513.346	79.31
513.562	87.31
513.778	84.31
513.994	82.31
514.21	91.31
514.426	85.31
514.642	95.31
514.858	85.31
515.074	94.31
515.29	101.31
515.506	83.31
515.721	73.31
515.937	87.31
516.153	78.31
516.369	71.31
516.585	111.31
516.801	89.31
517.016	85.31
517.232	93.31
517.448	104.31
517.664	89.31
517.879	85.31
518.095	77.31
518.311	97.31
