Data from HP_2_HRD10591_00018.txt Node
Date: Mon Jan 19 14:16:10 EST 2026
User: Yrep
Spectrometer: HR+D1059
Trigger mode: 1
Integration Time (sec): 1.000000E-1
Scans to average: 1
Electric dark correction enabled: true
Nonlinearity correction enabled: false
Boxcar width: 0
XAxis mode: Wavelengths
Number of Pixels in Spectrum: 2048
>>>>>Begin Spectral Data<<<<<
223.165	-25.12
223.4	-25.12
223.635	-25.12
223.869	-26.12
224.104	-4.12
224.338	-2.12
224.573	-1.12
224.808	-7.12
225.042	-6.12
225.277	-28.12
225.511	-0.12
225.746	2.88
225.98	2.88
226.215	9.88
226.449	26.88
226.683	27.88
226.918	14.88
227.152	14.88
227.387	16.88
227.621	37.88
227.856	47.88
228.09	49.88
228.324	31.88
228.559	57.88
228.793	53.88
229.027	73.88
229.262	74.88
229.496	74.88
229.73	71.88
229.964	72.88
230.199	61.88
230.433	71.88
230.667	71.88
230.901	86.88
231.136	80.88
231.37	72.88
231.604	76.88
231.838	71.88
232.072	72.88
232.306	82.88
232.541	79.88
232.775	67.88
233.009	73.88
233.243	72.88
233.477	69.88
233.711	85.88
233.945	87.88
234.179	71.88
234.413	88.88
234.647	73.88
234.881	84.88
235.115	72.88
235.349	71.88
235.583	78.88
235.817	70.88
236.051	85.88
236.285	88.88
236.519	81.88
236.753	66.88
236.987	79.88
237.221	60.88
237.455	71.88
237.689	76.88
237.922	80.88
238.156	81.88
238.39	51.88
238.624	78.88
238.858	85.88
239.091	73.88
239.325	76.88
239.559	82.88
239.793	55.88
240.027	69.88
240.26	65.88
240.494	72.88
240.728	69.88
240.961	69.88
241.195	88.88
241.429	79.88
241.662	55.88
241.896	69.88
242.13	70.88
242.363	81.88
242.597	65.88
242.83	66.88
243.064	77.88
243.298	73.88
243.531	80.88
243.765	69.88
243.998	85.88
244.232	66.88
244.465	73.88
244.699	82.88
244.932	79.88
245.166	71.88
245.399	79.88
245.633	79.88
245.866	73.88
246.099	71.88
246.333	71.88
246.566	76.88
246.8	89.88
247.033	61.88
247.266	71.88
247.5	72.88
247.733	72.88
247.966	89.88
248.2	75.88
248.433	73.88
248.666	81.88
248.899	69.88
249.133	73.88
249.366	70.88
249.599	77.88
249.832	66.88
250.066	71.88
250.299	83.88
250.532	66.88
250.765	75.88
250.998	85.88
251.231	89.88
251.465	69.88
251.698	83.88
251.931	81.88
252.164	79.88
252.397	88.88
252.63	83.88
252.863	85.88
253.096	83.88
253.329	88.88
253.562	75.88
253.795	76.88
254.028	79.88
254.261	73.88
254.494	73.88
254.727	85.88
254.96	64.88
255.193	70.88
255.426	93.88
255.659	69.88
255.892	79.88
256.124	90.88
256.357	71.88
256.59	75.88
256.823	85.88
257.056	83.88
257.289	90.88
257.521	86.88
257.754	73.88
257.987	58.88
258.22	89.88
258.452	93.88
258.685	68.88
258.918	79.88
259.151	69.88
259.383	69.88
259.616	72.88
259.849	82.88
260.081	84.88
260.314	75.88
260.547	77.88
260.779	80.88
261.012	79.88
261.244	80.88
261.477	76.88
261.71	72.88
261.942	79.88
262.175	92.88
262.407	81.88
262.64	81.88
262.872	84.88
263.105	79.88
263.337	82.88
263.57	71.88
263.802	79.88
264.035	79.88
264.267	83.88
264.499	84.88
264.732	86.88
264.964	83.88
265.197	76.88
265.429	84.88
265.661	94.88
265.894	87.88
266.126	89.88
266.358	85.88
266.591	96.88
266.823	83.88
267.055	74.88
267.287	76.88
267.52	77.88
267.752	85.88
267.984	78.88
268.216	83.88
268.448	89.88
268.681	82.88
268.913	81.88
269.145	93.88
269.377	84.88
269.609	79.88
269.841	69.88
270.073	92.88
270.306	69.88
270.538	63.88
270.77	65.88
271.002	84.88
271.234	83.88
271.466	81.88
271.698	85.88
271.93	88.88
272.162	86.88
272.394	86.88
272.626	81.88
272.858	83.88
273.09	78.88
273.322	85.88
273.553	96.88
273.785	90.88
274.017	79.88
274.249	87.88
274.481	84.88
274.713	63.88
274.945	73.88
275.176	74.88
275.408	79.88
275.64	81.88
275.872	74.88
276.104	74.88
276.335	84.88
276.567	73.88
276.799	79.88
277.031	76.88
277.262	63.88
277.494	85.88
277.726	81.88
277.957	87.88
278.189	74.88
278.421	85.88
278.652	85.88
278.884	91.88
279.115	81.88
279.347	85.88
279.579	83.88
279.81	83.88
280.042	80.88
280.273	85.88
280.505	72.88
280.736	86.88
280.968	88.88
281.199	84.88
281.431	79.88
281.662	96.88
281.894	73.88
282.125	82.88
282.356	89.88
282.588	76.88
282.819	86.88
283.051	74.88
283.282	89.88
283.513	91.88
283.745	101.88
283.976	97.88
284.207	83.88
284.439	85.88
284.67	64.88
284.901	96.88
285.132	93.88
285.364	95.88
285.595	86.88
285.826	78.88
286.057	81.88
286.288	85.88
286.52	88.88
286.751	83.88
286.982	69.88
287.213	88.88
287.444	77.88
287.675	93.88
287.906	90.88
288.138	82.88
288.369	91.88
288.6	83.88
288.831	86.88
289.062	89.88
289.293	75.88
289.524	90.88
289.755	83.88
289.986	69.88
290.217	75.88
290.448	75.88
290.679	85.88
290.91	93.88
291.141	81.88
291.371	85.88
291.602	87.88
291.833	86.88
292.064	92.88
292.295	69.88
292.526	87.88
292.757	75.88
292.987	92.88
293.218	87.88
293.449	87.88
293.68	72.88
293.91	85.88
294.141	86.88
294.372	74.88
294.603	80.88
294.833	98.88
295.064	89.88
295.295	81.88
295.525	87.88
295.756	86.88
295.987	79.88
296.217	86.88
296.448	80.88
296.679	82.88
296.909	74.88
297.14	82.88
297.37	87.88
297.601	86.88
297.831	62.88
298.062	87.88
298.292	93.88
298.523	78.88
298.753	84.88
298.984	81.88
299.214	79.88
299.445	92.88
299.675	85.88
299.905	90.88
300.136	90.88
300.366	82.88
300.597	93.88
300.827	87.88
301.057	94.88
301.288	91.88
301.518	96.88
301.748	80.88
301.979	94.88
302.209	96.88
302.439	75.88
302.669	83.88
302.9	75.88
303.13	76.88
303.36	81.88
303.59	87.88
303.82	93.88
304.051	88.88
304.281	88.88
304.511	84.88
304.741	82.88
304.971	80.88
305.201	86.88
305.431	89.88
305.661	89.88
305.891	81.88
306.121	95.88
306.352	99.88
306.582	81.88
306.812	80.88
307.042	89.88
307.272	80.88
307.502	73.88
307.731	85.88
307.961	78.88
308.191	93.88
308.421	79.88
308.651	90.88
308.881	92.88
309.111	95.88
309.341	97.88
309.571	104.88
309.8	89.88
310.03	81.88
310.26	74.88
310.49	72.88
310.72	74.88
310.949	82.88
311.179	78.88
311.409	82.88
311.639	87.88
311.868	95.88
312.098	80.88
312.328	100.88
312.557	87.88
312.787	85.88
313.017	75.88
313.246	89.88
313.476	83.88
313.706	74.88
313.935	79.88
314.165	78.88
314.394	87.88
314.624	74.88
314.853	89.88
315.083	85.88
315.312	82.88
315.542	74.88
315.771	83.88
316.001	95.88
316.23	91.88
316.46	93.88
316.689	83.88
316.919	98.88
317.148	86.88
317.377	91.88
317.607	82.88
317.836	101.88
318.065	103.88
318.295	88.88
318.524	74.88
318.753	87.88
318.983	79.88
319.212	86.88
319.441	82.88
319.67	92.88
319.9	88.88
320.129	76.88
320.358	83.88
320.587	74.88
320.816	84.88
321.046	75.88
321.275	93.88
321.504	87.88
321.733	87.88
321.962	79.88
322.191	96.88
322.42	109.88
322.649	83.88
322.878	94.88
323.108	84.88
323.337	88.88
323.566	101.88
323.795	79.88
324.024	75.88
324.253	89.88
324.482	99.88
324.71	79.88
324.939	83.88
325.168	74.88
325.397	88.88
325.626	88.88
325.855	92.88
326.084	76.88
326.313	87.88
326.542	88.88
326.77	96.88
326.999	83.88
327.228	81.88
327.457	78.88
327.686	101.88
327.914	91.88
328.143	98.88
328.372	83.88
328.6	76.88
328.829	87.88
329.058	83.88
329.287	73.88
329.515	73.88
329.744	76.88
329.972	78.88
330.201	95.88
330.43	96.88
330.658	86.88
330.887	93.88
331.115	82.88
331.344	75.88
331.572	79.88
331.801	82.88
332.03	78.88
332.258	80.88
332.486	103.88
332.715	81.88
332.943	84.88
333.172	78.88
333.4	82.88
333.629	79.88
333.857	89.88
334.085	109.88
334.314	111.88
334.542	91.88
334.771	83.88
334.999	101.88
335.227	87.88
335.455	87.88
335.684	111.88
335.912	103.88
336.14	93.88
336.369	81.88
336.597	88.88
336.825	85.88
337.053	91.88
337.281	89.88
337.51	89.88
337.738	79.88
337.966	87.88
338.194	106.88
338.422	82.88
338.65	83.88
338.878	98.88
339.106	99.88
339.334	88.88
339.562	77.88
339.79	88.88
340.018	103.88
340.246	89.88
340.474	95.88
340.702	93.88
340.93	92.88
341.158	87.88
341.386	83.88
341.614	92.88
341.842	92.88
342.07	82.88
342.298	85.88
342.526	97.88
342.754	82.88
342.981	86.88
343.209	82.88
343.437	90.88
343.665	89.88
343.893	98.88
344.12	85.88
344.348	90.88
344.576	93.88
344.804	87.88
345.031	92.88
345.259	76.88
345.487	95.88
345.714	89.88
345.942	96.88
346.17	80.88
346.397	90.88
346.625	94.88
346.853	93.88
347.08	94.88
347.308	90.88
347.535	95.88
347.763	58.88
347.99	93.88
348.218	81.88
348.445	89.88
348.673	92.88
348.9	81.88
349.128	86.88
349.355	89.88
349.583	89.88
349.81	85.88
350.037	80.88
350.265	93.88
350.492	78.88
350.72	80.88
350.947	100.88
351.174	90.88
351.402	84.88
351.629	86.88
351.856	93.88
352.083	90.88
352.311	94.88
352.538	76.88
352.765	77.88
352.992	94.88
353.22	100.88
353.447	74.88
353.674	80.88
353.901	89.88
354.128	83.88
354.355	80.88
354.583	94.88
354.81	82.88
355.037	90.88
355.264	77.88
355.491	86.88
355.718	81.88
355.945	90.88
356.172	86.88
356.399	93.88
356.626	80.88
356.853	90.88
357.08	86.88
357.307	108.88
357.534	87.88
357.761	93.88
357.988	98.88
358.215	101.88
358.441	95.88
358.668	82.88
358.895	84.88
359.122	85.88
359.349	97.88
359.576	72.88
359.802	78.88
360.029	87.88
360.256	85.88
360.483	72.88
360.709	88.88
360.936	103.88
361.163	100.88
361.39	94.88
361.616	90.88
361.843	90.88
362.07	93.88
362.296	94.88
362.523	119.88
362.749	117.88
362.976	132.88
363.203	115.88
363.429	104.88
363.656	102.88
363.882	111.88
364.109	113.88
364.335	150.88
364.562	144.88
364.788	111.88
365.015	101.88
365.241	83.88
365.468	92.88
365.694	85.88
365.92	92.88
366.147	94.88
366.373	92.88
366.599	75.88
366.826	88.88
367.052	95.88
367.278	83.88
367.505	90.88
367.731	84.88
367.957	82.88
368.184	96.88
368.41	86.88
368.636	83.88
368.862	90.88
369.089	98.88
369.315	87.88
369.541	94.88
369.767	87.88
369.993	86.88
370.219	97.88
370.445	86.88
370.672	94.88
370.898	94.88
371.124	80.88
371.35	90.88
371.576	103.88
371.802	76.88
372.028	98.88
372.254	107.88
372.48	96.88
372.706	90.88
372.932	89.88
373.158	96.88
373.384	93.88
373.61	96.88
373.835	113.88
374.061	92.88
374.287	79.88
374.513	95.88
374.739	97.88
374.965	97.88
375.191	105.88
375.416	87.88
375.642	97.88
375.868	81.88
376.094	97.88
376.319	76.88
376.545	98.88
376.771	95.88
376.997	92.88
377.222	67.88
377.448	89.88
377.674	95.88
377.899	77.88
378.125	83.88
378.35	82.88
378.576	72.88
378.802	89.88
379.027	110.88
379.253	79.88
379.478	82.88
379.704	73.88
379.929	85.88
380.155	98.88
380.38	89.88
380.606	86.88
380.831	74.88
381.057	95.88
381.282	91.88
381.507	91.88
381.733	99.88
381.958	101.88
382.184	91.88
382.409	101.88
382.634	112.88
382.86	85.88
383.085	107.88
383.31	113.88
383.535	94.88
383.761	111.88
383.986	112.88
384.211	102.88
384.436	85.88
384.662	94.88
384.887	95.88
385.112	90.88
385.337	102.88
385.562	86.88
385.787	103.88
386.013	107.88
386.238	94.88
386.463	89.88
386.688	113.88
386.913	96.88
387.138	88.88
387.363	91.88
387.588	95.88
387.813	99.88
388.038	104.88
388.263	102.88
388.488	95.88
388.713	79.88
388.938	88.88
389.163	89.88
389.387	85.88
389.612	95.88
389.837	89.88
390.062	98.88
390.287	87.88
390.512	101.88
390.736	90.88
390.961	81.88
391.186	90.88
391.411	70.88
391.636	88.88
391.86	91.88
392.085	99.88
392.31	113.88
392.534	99.88
392.759	120.88
392.984	158.88
393.208	284.88
393.433	395.88
393.658	314.88
393.882	153.88
394.107	114.88
394.331	137.88
394.556	144.88
394.78	120.88
395.005	110.88
395.229	103.88
395.454	94.88
395.678	126.88
395.903	139.88
396.127	176.88
396.352	181.88
396.576	199.88
396.801	287.88
397.025	318.88
397.249	179.88
397.474	135.88
397.698	113.88
397.922	110.88
398.147	89.88
398.371	89.88
398.595	97.88
398.82	79.88
399.044	69.88
399.268	77.88
399.492	88.88
399.717	94.88
399.941	68.88
400.165	93.88
400.389	83.88
400.613	103.88
400.837	94.88
401.062	98.88
401.286	89.88
401.51	83.88
401.734	92.88
401.958	85.88
402.182	77.88
402.406	83.88
402.63	96.88
402.854	87.88
403.078	91.88
403.302	97.88
403.526	82.88
403.75	101.88
403.974	100.88
404.198	134.88
404.422	183.88
404.645	230.88
404.869	177.88
405.093	143.88
405.317	104.88
405.541	101.88
405.765	99.88
405.988	90.88
406.212	77.88
406.436	100.88
406.66	86.88
406.883	78.88
407.107	96.88
407.331	102.88
407.555	97.88
407.778	132.88
408.002	113.88
408.226	91.88
408.449	80.88
408.673	88.88
408.896	74.88
409.12	79.88
409.344	94.88
409.567	98.88
409.791	102.88
410.014	99.88
410.238	93.88
410.461	101.88
410.685	97.88
410.908	83.88
411.132	85.88
411.355	90.88
411.578	97.88
411.802	79.88
412.025	87.88
412.249	93.88
412.472	94.88
412.695	79.88
412.919	94.88
413.142	87.88
413.365	86.88
413.589	74.88
413.812	97.88
414.035	89.88
414.258	85.88
414.482	82.88
414.705	100.88
414.928	90.88
415.151	73.88
415.374	89.88
415.597	84.88
415.821	83.88
416.044	79.88
416.267	106.88
416.49	77.88
416.713	86.88
416.936	82.88
417.159	87.88
417.382	99.88
417.605	85.88
417.828	83.88
418.051	81.88
418.274	84.88
418.497	82.88
418.72	101.88
418.943	94.88
419.166	73.88
419.389	85.88
419.611	93.88
419.834	89.88
420.057	91.88
420.28	85.88
420.503	83.88
420.726	98.88
420.948	111.88
421.171	101.88
421.394	113.88
421.617	144.88
421.839	131.88
422.062	156.88
422.285	217.88
422.507	392.88
422.73	570.88
422.953	521.88
423.175	301.88
423.398	181.88
423.621	128.88
423.843	117.88
424.066	109.88
424.288	122.88
424.511	97.88
424.733	90.88
424.956	94.88
425.178	97.88
425.401	89.88
425.623	89.88
425.846	82.88
426.068	72.88
426.291	78.88
426.513	91.88
426.735	91.88
426.958	95.88
427.18	93.88
427.402	100.88
427.625	91.88
427.847	79.88
428.069	118.88
428.292	161.88
428.514	193.88
428.736	120.88
428.958	163.88
429.181	165.88
429.403	101.88
429.625	99.88
429.847	145.88
430.069	223.88
430.292	255.88
430.514	229.88
430.736	159.88
430.958	187.88
431.18	127.88
431.402	100.88
431.624	93.88
431.846	150.88
432.068	182.88
432.29	110.88
432.512	89.88
432.734	75.88
432.956	102.88
433.178	105.88
433.4	88.88
433.622	98.88
433.844	90.88
434.066	83.88
434.287	86.88
434.509	90.88
434.731	87.88
434.953	103.88
435.175	83.88
435.397	82.88
435.618	88.88
435.84	89.88
436.062	98.88
436.284	82.88
436.505	70.88
436.727	86.88
436.949	80.88
437.17	105.88
437.392	99.88
437.614	87.88
437.835	88.88
438.057	77.88
438.278	99.88
438.5	84.88
438.721	95.88
438.943	93.88
439.165	102.88
439.386	81.88
439.608	79.88
439.829	81.88
440.05	98.88
440.272	97.88
440.493	102.88
440.715	81.88
440.936	89.88
441.158	102.88
441.379	85.88
441.6	103.88
441.822	94.88
442.043	88.88
442.264	105.88
442.486	176.88
442.707	229.88
442.928	158.88
443.149	151.88
443.371	204.88
443.592	361.88
443.813	319.88
444.034	150.88
444.255	95.88
444.476	100.88
444.698	89.88
444.919	109.88
445.14	201.88
445.361	279.88
445.582	438.88
445.803	351.88
446.024	145.88
446.245	97.88
446.466	100.88
446.687	97.88
446.908	88.88
447.129	81.88
447.35	84.88
447.571	79.88
447.792	93.88
448.013	82.88
448.234	71.88
448.455	72.88
448.675	81.88
448.896	90.88
449.117	61.88
449.338	94.88
449.559	88.88
449.779	83.88
450	86.88
450.221	74.88
450.442	77.88
450.662	93.88
450.883	93.88
451.104	84.88
451.324	88.88
451.545	91.88
451.766	84.88
451.986	89.88
452.207	89.88
452.428	95.88
452.648	95.88
452.869	98.88
453.089	107.88
453.31	86.88
453.53	101.88
453.751	90.88
453.971	85.88
454.192	81.88
454.412	93.88
454.633	85.88
454.853	95.88
455.073	90.88
455.294	94.88
455.514	85.88
455.734	90.88
455.955	97.88
456.175	82.88
456.395	63.88
456.616	74.88
456.836	86.88
457.056	94.88
457.276	87.88
457.497	86.88
457.717	100.88
457.937	118.88
458.157	130.88
458.377	114.88
458.598	134.88
458.818	136.88
459.038	107.88
459.258	88.88
459.478	100.88
459.698	79.88
459.918	78.88
460.138	78.88
460.358	95.88
460.578	97.88
460.798	145.88
461.018	174.88
461.238	100.88
461.458	91.88
461.678	87.88
461.898	96.88
462.118	82.88
462.338	103.88
462.558	89.88
462.777	71.88
462.997	76.88
463.217	83.88
463.437	87.88
463.657	83.88
463.876	95.88
464.096	89.88
464.316	90.88
464.536	91.88
464.755	82.88
464.975	82.88
465.195	75.88
465.414	89.88
465.634	72.88
465.854	75.88
466.073	73.88
466.293	87.88
466.512	87.88
466.732	73.88
466.951	91.88
467.171	80.88
467.391	81.88
467.61	85.88
467.829	85.88
468.049	83.88
468.268	79.88
468.488	87.88
468.707	83.88
468.927	83.88
469.146	91.88
469.365	88.88
469.585	93.88
469.804	87.88
470.023	74.88
470.243	84.88
470.462	99.88
470.681	81.88
470.901	84.88
471.12	83.88
471.339	85.88
471.558	75.88
471.777	95.88
471.997	86.88
472.216	86.88
472.435	95.88
472.654	93.88
472.873	90.88
473.092	89.88
473.311	88.88
473.53	86.88
473.749	86.88
473.968	95.88
474.187	99.88
474.406	103.88
474.625	90.88
474.844	80.88
475.063	83.88
475.282	85.88
475.501	79.88
475.72	85.88
475.939	76.88
476.158	84.88
476.377	87.88
476.596	83.88
476.814	86.88
477.033	74.88
477.252	98.88
477.471	91.88
477.69	104.88
477.908	90.88
478.127	93.88
478.346	99.88
478.564	79.88
478.783	83.88
479.002	89.88
479.22	82.88
479.439	87.88
479.658	83.88
479.876	95.88
480.095	82.88
480.313	75.88
480.532	92.88
480.751	87.88
480.969	82.88
481.188	91.88
481.406	93.88
481.624	86.88
481.843	89.88
482.061	85.88
482.28	85.88
482.498	92.88
482.717	82.88
482.935	77.88
483.153	86.88
483.372	97.88
483.59	100.88
483.808	98.88
484.027	109.88
484.245	78.88
484.463	82.88
484.681	89.88
484.9	93.88
485.118	87.88
485.336	89.88
485.554	102.88
485.772	95.88
485.99	95.88
486.209	94.88
486.427	77.88
486.645	91.88
486.863	90.88
487.081	91.88
487.299	100.88
487.517	112.88
487.735	136.88
487.953	193.88
488.171	175.88
488.389	106.88
488.607	99.88
488.825	91.88
489.043	84.88
489.261	96.88
489.479	83.88
489.696	85.88
489.914	97.88
490.132	98.88
490.35	90.88
490.568	76.88
490.786	106.88
491.003	96.88
491.221	83.88
491.439	95.88
491.657	91.88
491.874	84.88
492.092	94.88
492.31	105.88
492.527	77.88
492.745	88.88
492.963	91.88
493.18	86.88
493.398	101.88
493.615	101.88
493.833	100.88
494.05	90.88
494.268	89.88
494.485	91.88
494.703	96.88
494.92	98.88
495.138	89.88
495.355	91.88
495.573	94.88
495.79	99.88
496.008	100.88
496.225	101.88
496.442	100.88
496.66	96.88
496.877	91.88
497.094	100.88
497.312	99.88
497.529	93.88
497.746	101.88
497.963	99.88
498.181	92.88
498.398	93.88
498.615	90.88
498.832	99.88
499.049	98.88
499.267	89.88
499.484	93.88
499.701	101.88
499.918	90.88
500.135	98.88
500.352	103.88
500.569	82.88
500.786	91.88
501.003	88.88
501.22	103.88
501.437	104.88
501.654	87.88
501.871	87.88
502.088	87.88
502.305	80.88
502.522	95.88
502.739	96.88
502.956	85.88
503.172	94.88
503.389	101.88
503.606	101.88
503.823	122.88
504.04	124.88
504.256	148.88
504.473	139.88
504.69	103.88
504.907	99.88
505.123	101.88
505.34	98.88
505.557	113.88
505.773	85.88
505.99	88.88
506.207	94.88
506.423	89.88
506.64	109.88
506.856	84.88
507.073	99.88
507.289	92.88
507.506	82.88
507.722	85.88
507.939	87.88
508.155	89.88
508.372	98.88
508.588	94.88
508.805	90.88
509.021	82.88
509.238	90.88
509.454	85.88
509.67	97.88
509.887	85.88
510.103	101.88
510.319	101.88
510.536	91.88
510.752	105.88
510.968	106.88
511.184	95.88
511.401	99.88
511.617	90.88
511.833	107.88
512.049	90.88
512.265	89.88
512.481	78.88
512.698	83.88
512.914	97.88
513.13	96.88
513.346	101.88
513.562	81.88
513.778	95.88
513.994	95.88
514.21	84.88
514.426	88.88
514.642	81.88
514.858	94.88
515.074	105.88
515.29	95.88
515.506	89.88
515.721	99.88
515.937	91.88
516.153	83.88
516.369	77.88
516.585	94.88
516.801	77.88
517.016	93.88
517.232	94.88
