Data from HP_2_HRD10591_00016.txt Node
Date: Mon Jan 19 14:16:09 EST 2026
User: Yrep
Spectrometer: HR+D1059
Trigger mode: 1
Integration Time (sec): 1.000000E-1
Scans to average: 1
Electric dark correction enabled: true
Nonlinearity correction enabled: false
Boxcar width: 0
XAxis mode: Wavelengths
Number of Pixels in Spectrum: 2048
>>>>>Begin Spectral Data<<<<<
223.165	-2.19
223.4	-2.19
223.635	-2.19
223.869	-16.19
224.104	-20.19
224.338	-17.19
224.573	-16.19
224.808	-10.19
225.042	-18.19
225.277	-9.19
225.511	-3.19
225.746	14.81
225.98	-3.19
226.215	16.81
226.449	13.81
226.683	9.81
226.918	28.81
227.152	31.81
227.387	42.81
227.621	30.81
227.856	43.81
228.09	48.81
228.324	51.81
228.559	65.81
228.793	62.81
229.027	63.81
229.262	54.81
229.496	65.81
229.73	58.81
229.964	74.81
230.199	74.81
230.433	83.81
230.667	71.81
230.901	74.81
231.136	73.81
231.37	80.81
231.604	80.81
231.838	75.81
232.072	71.81
232.306	87.81
232.541	72.81
232.775	65.81
233.009	80.81
233.243	88.81
233.477	98.81
233.711	79.81
233.945	80.81
234.179	85.81
234.413	84.81
234.647	75.81
234.881	65.81
235.115	80.81
235.349	71.81
235.583	77.81
235.817	68.81
236.051	84.81
236.285	72.81
236.519	70.81
236.753	80.81
236.987	74.81
237.221	65.81
237.455	79.81
237.689	78.81
237.922	79.81
238.156	77.81
238.39	74.81
238.624	79.81
238.858	74.81
239.091	73.81
239.325	91.81
239.559	83.81
239.793	64.81
240.027	76.81
240.26	76.81
240.494	64.81
240.728	79.81
240.961	62.81
241.195	69.81
241.429	73.81
241.662	66.81
241.896	76.81
242.13	80.81
242.363	73.81
242.597	65.81
242.83	76.81
243.064	69.81
243.298	96.81
243.531	77.81
243.765	70.81
243.998	77.81
244.232	86.81
244.465	90.81
244.699	67.81
244.932	79.81
245.166	79.81
245.399	67.81
245.633	63.81
245.866	62.81
246.099	68.81
246.333	62.81
246.566	77.81
246.8	59.81
247.033	71.81
247.266	79.81
247.5	80.81
247.733	83.81
247.966	93.81
248.2	74.81
248.433	67.81
248.666	85.81
248.899	93.81
249.133	75.81
249.366	74.81
249.599	81.81
249.832	74.81
250.066	73.81
250.299	89.81
250.532	69.81
250.765	75.81
250.998	87.81
251.231	81.81
251.465	79.81
251.698	75.81
251.931	81.81
252.164	77.81
252.397	79.81
252.63	78.81
252.863	71.81
253.096	79.81
253.329	70.81
253.562	74.81
253.795	73.81
254.028	92.81
254.261	75.81
254.494	81.81
254.727	81.81
254.96	80.81
255.193	85.81
255.426	72.81
255.659	79.81
255.892	93.81
256.124	76.81
256.357	80.81
256.59	68.81
256.823	72.81
257.056	78.81
257.289	73.81
257.521	69.81
257.754	76.81
257.987	85.81
258.22	66.81
258.452	84.81
258.685	86.81
258.918	74.81
259.151	72.81
259.383	78.81
259.616	71.81
259.849	76.81
260.081	81.81
260.314	77.81
260.547	93.81
260.779	77.81
261.012	92.81
261.244	79.81
261.477	63.81
261.71	82.81
261.942	81.81
262.175	77.81
262.407	80.81
262.64	73.81
262.872	93.81
263.105	78.81
263.337	82.81
263.57	77.81
263.802	98.81
264.035	83.81
264.267	79.81
264.499	69.81
264.732	81.81
264.964	85.81
265.197	71.81
265.429	79.81
265.661	83.81
265.894	75.81
266.126	90.81
266.358	90.81
266.591	80.81
266.823	78.81
267.055	76.81
267.287	67.81
267.52	77.81
267.752	77.81
267.984	78.81
268.216	75.81
268.448	71.81
268.681	81.81
268.913	82.81
269.145	73.81
269.377	87.81
269.609	79.81
269.841	70.81
270.073	71.81
270.306	102.81
270.538	84.81
270.77	78.81
271.002	73.81
271.234	71.81
271.466	84.81
271.698	85.81
271.93	82.81
272.162	86.81
272.394	92.81
272.626	74.81
272.858	84.81
273.09	85.81
273.322	109.81
273.553	71.81
273.785	84.81
274.017	82.81
274.249	95.81
274.481	90.81
274.713	79.81
274.945	97.81
275.176	94.81
275.408	85.81
275.64	75.81
275.872	84.81
276.104	79.81
276.335	88.81
276.567	94.81
276.799	81.81
277.031	83.81
277.262	84.81
277.494	81.81
277.726	81.81
277.957	78.81
278.189	88.81
278.421	78.81
278.652	78.81
278.884	92.81
279.115	82.81
279.347	97.81
279.579	78.81
279.81	90.81
280.042	78.81
280.273	86.81
280.505	96.81
280.736	74.81
280.968	90.81
281.199	86.81
281.431	72.81
281.662	79.81
281.894	87.81
282.125	87.81
282.356	89.81
282.588	81.81
282.819	80.81
283.051	70.81
283.282	69.81
283.513	83.81
283.745	82.81
283.976	71.81
284.207	78.81
284.439	86.81
284.67	83.81
284.901	91.81
285.132	89.81
285.364	81.81
285.595	90.81
285.826	79.81
286.057	68.81
286.288	80.81
286.52	84.81
286.751	74.81
286.982	81.81
287.213	83.81
287.444	70.81
287.675	89.81
287.906	79.81
288.138	85.81
288.369	82.81
288.6	69.81
288.831	81.81
289.062	70.81
289.293	80.81
289.524	82.81
289.755	84.81
289.986	84.81
290.217	66.81
290.448	71.81
290.679	69.81
290.91	88.81
291.141	85.81
291.371	81.81
291.602	95.81
291.833	89.81
292.064	94.81
292.295	81.81
292.526	90.81
292.757	84.81
292.987	81.81
293.218	101.81
293.449	75.81
293.68	87.81
293.91	85.81
294.141	89.81
294.372	78.81
294.603	85.81
294.833	71.81
295.064	82.81
295.295	80.81
295.525	72.81
295.756	77.81
295.987	83.81
296.217	67.81
296.448	88.81
296.679	87.81
296.909	93.81
297.14	85.81
297.37	85.81
297.601	70.81
297.831	74.81
298.062	95.81
298.292	78.81
298.523	68.81
298.753	77.81
298.984	83.81
299.214	93.81
299.445	69.81
299.675	85.81
299.905	99.81
300.136	99.81
300.366	94.81
300.597	88.81
300.827	101.81
301.057	104.81
301.288	79.81
301.518	81.81
301.748	83.81
301.979	93.81
302.209	77.81
302.439	90.81
302.669	85.81
302.9	69.81
303.13	93.81
303.36	74.81
303.59	83.81
303.82	87.81
304.051	76.81
304.281	78.81
304.511	95.81
304.741	82.81
304.971	87.81
305.201	82.81
305.431	86.81
305.661	97.81
305.891	93.81
306.121	98.81
306.352	85.81
306.582	88.81
306.812	81.81
307.042	81.81
307.272	87.81
307.502	104.81
307.731	87.81
307.961	92.81
308.191	92.81
308.421	97.81
308.651	89.81
308.881	86.81
309.111	88.81
309.341	86.81
309.571	94.81
309.8	95.81
310.03	73.81
310.26	56.81
310.49	98.81
310.72	88.81
310.949	87.81
311.179	85.81
311.409	87.81
311.639	68.81
311.868	98.81
312.098	97.81
312.328	83.81
312.557	105.81
312.787	93.81
313.017	86.81
313.246	95.81
313.476	71.81
313.706	82.81
313.935	75.81
314.165	75.81
314.394	89.81
314.624	78.81
314.853	70.81
315.083	96.81
315.312	89.81
315.542	75.81
315.771	94.81
316.001	97.81
316.23	94.81
316.46	74.81
316.689	77.81
316.919	87.81
317.148	84.81
317.377	86.81
317.607	77.81
317.836	77.81
318.065	82.81
318.295	69.81
318.524	87.81
318.753	84.81
318.983	90.81
319.212	95.81
319.441	82.81
319.67	104.81
319.9	87.81
320.129	87.81
320.358	67.81
320.587	77.81
320.816	69.81
321.046	82.81
321.275	85.81
321.504	83.81
321.733	88.81
321.962	89.81
322.191	78.81
322.42	87.81
322.649	107.81
322.878	75.81
323.108	83.81
323.337	78.81
323.566	89.81
323.795	85.81
324.024	83.81
324.253	89.81
324.482	77.81
324.71	94.81
324.939	80.81
325.168	81.81
325.397	83.81
325.626	77.81
325.855	92.81
326.084	89.81
326.313	74.81
326.542	95.81
326.77	89.81
326.999	87.81
327.228	104.81
327.457	89.81
327.686	87.81
327.914	96.81
328.143	87.81
328.372	81.81
328.6	89.81
328.829	80.81
329.058	79.81
329.287	91.81
329.515	85.81
329.744	79.81
329.972	92.81
330.201	83.81
330.43	82.81
330.658	92.81
330.887	85.81
331.115	79.81
331.344	79.81
331.572	86.81
331.801	76.81
332.03	87.81
332.258	71.81
332.486	86.81
332.715	87.81
332.943	89.81
333.172	73.81
333.4	93.81
333.629	86.81
333.857	72.81
334.085	93.81
334.314	71.81
334.542	66.81
334.771	85.81
334.999	75.81
335.227	85.81
335.455	89.81
335.684	97.81
335.912	84.81
336.14	100.81
336.369	88.81
336.597	87.81
336.825	98.81
337.053	75.81
337.281	86.81
337.51	91.81
337.738	74.81
337.966	86.81
338.194	100.81
338.422	86.81
338.65	89.81
338.878	87.81
339.106	81.81
339.334	76.81
339.562	85.81
339.79	80.81
340.018	75.81
340.246	79.81
340.474	97.81
340.702	81.81
340.93	88.81
341.158	75.81
341.386	86.81
341.614	88.81
341.842	90.81
342.07	89.81
342.298	97.81
342.526	73.81
342.754	81.81
342.981	71.81
343.209	95.81
343.437	88.81
343.665	91.81
343.893	70.81
344.12	86.81
344.348	103.81
344.576	106.81
344.804	100.81
345.031	85.81
345.259	86.81
345.487	83.81
345.714	86.81
345.942	70.81
346.17	78.81
346.397	87.81
346.625	95.81
346.853	83.81
347.08	93.81
347.308	81.81
347.535	78.81
347.763	86.81
347.99	81.81
348.218	85.81
348.445	93.81
348.673	86.81
348.9	75.81
349.128	90.81
349.355	90.81
349.583	71.81
349.81	76.81
350.037	75.81
350.265	106.81
350.492	84.81
350.72	65.81
350.947	97.81
351.174	97.81
351.402	85.81
351.629	78.81
351.856	79.81
352.083	83.81
352.311	74.81
352.538	80.81
352.765	76.81
352.992	94.81
353.22	88.81
353.447	79.81
353.674	97.81
353.901	88.81
354.128	82.81
354.355	85.81
354.583	85.81
354.81	73.81
355.037	79.81
355.264	89.81
355.491	81.81
355.718	99.81
355.945	82.81
356.172	79.81
356.399	100.81
356.626	88.81
356.853	74.81
357.08	77.81
357.307	79.81
357.534	63.81
357.761	97.81
357.988	89.81
358.215	99.81
358.441	98.81
358.668	90.81
358.895	86.81
359.122	86.81
359.349	93.81
359.576	73.81
359.802	89.81
360.029	87.81
360.256	95.81
360.483	94.81
360.709	89.81
360.936	104.81
361.163	90.81
361.39	85.81
361.616	79.81
361.843	78.81
362.07	90.81
362.296	99.81
362.523	107.81
362.749	103.81
362.976	98.81
363.203	97.81
363.429	92.81
363.656	92.81
363.882	96.81
364.109	104.81
364.335	110.81
364.562	134.81
364.788	107.81
365.015	83.81
365.241	85.81
365.468	97.81
365.694	79.81
365.92	89.81
366.147	86.81
366.373	79.81
366.599	89.81
366.826	89.81
367.052	83.81
367.278	81.81
367.505	70.81
367.731	101.81
367.957	93.81
368.184	72.81
368.41	90.81
368.636	85.81
368.862	93.81
369.089	77.81
369.315	76.81
369.541	98.81
369.767	71.81
369.993	89.81
370.219	82.81
370.445	83.81
370.672	89.81
370.898	93.81
371.124	92.81
371.35	91.81
371.576	93.81
371.802	81.81
372.028	99.81
372.254	92.81
372.48	96.81
372.706	96.81
372.932	89.81
373.158	75.81
373.384	87.81
373.61	89.81
373.835	95.81
374.061	90.81
374.287	79.81
374.513	104.81
374.739	101.81
374.965	82.81
375.191	91.81
375.416	97.81
375.642	83.81
375.868	89.81
376.094	100.81
376.319	87.81
376.545	88.81
376.771	79.81
376.997	71.81
377.222	85.81
377.448	89.81
377.674	87.81
377.899	85.81
378.125	89.81
378.35	93.81
378.576	88.81
378.802	71.81
379.027	81.81
379.253	89.81
379.478	93.81
379.704	70.81
379.929	88.81
380.155	93.81
380.38	78.81
380.606	93.81
380.831	93.81
381.057	85.81
381.282	91.81
381.507	106.81
381.733	99.81
381.958	74.81
382.184	97.81
382.409	93.81
382.634	97.81
382.86	97.81
383.085	95.81
383.31	86.81
383.535	96.81
383.761	80.81
383.986	85.81
384.211	86.81
384.436	97.81
384.662	83.81
384.887	84.81
385.112	101.81
385.337	91.81
385.562	74.81
385.787	95.81
386.013	102.81
386.238	94.81
386.463	82.81
386.688	92.81
386.913	93.81
387.138	89.81
387.363	89.81
387.588	101.81
387.813	85.81
388.038	81.81
388.263	88.81
388.488	78.81
388.713	87.81
388.938	81.81
389.163	95.81
389.387	89.81
389.612	84.81
389.837	93.81
390.062	94.81
390.287	79.81
390.512	93.81
390.736	77.81
390.961	93.81
391.186	88.81
391.411	98.81
391.636	95.81
391.86	83.81
392.085	78.81
392.31	92.81
392.534	98.81
392.759	105.81
392.984	134.81
393.208	197.81
393.433	262.81
393.658	209.81
393.882	121.81
394.107	101.81
394.331	107.81
394.556	126.81
394.78	94.81
395.005	106.81
395.229	93.81
395.454	96.81
395.678	99.81
395.903	106.81
396.127	148.81
396.352	154.81
396.576	156.81
396.801	182.81
397.025	223.81
397.249	136.81
397.474	99.81
397.698	103.81
397.922	82.81
398.147	81.81
398.371	91.81
398.595	76.81
398.82	82.81
399.044	90.81
399.268	74.81
399.492	93.81
399.717	90.81
399.941	74.81
400.165	85.81
400.389	78.81
400.613	82.81
400.837	77.81
401.062	79.81
401.286	72.81
401.51	97.81
401.734	69.81
401.958	73.81
402.182	90.81
402.406	101.81
402.63	88.81
402.854	92.81
403.078	81.81
403.302	97.81
403.526	77.81
403.75	95.81
403.974	128.81
404.198	139.81
404.422	193.81
404.645	217.81
404.869	170.81
405.093	123.81
405.317	97.81
405.541	80.81
405.765	81.81
405.988	82.81
406.212	91.81
406.436	74.81
406.66	76.81
406.883	91.81
407.107	89.81
407.331	99.81
407.555	102.81
407.778	105.81
408.002	109.81
408.226	105.81
408.449	85.81
408.673	82.81
408.896	74.81
409.12	75.81
409.344	86.81
409.567	82.81
409.791	95.81
410.014	99.81
410.238	87.81
410.461	87.81
410.685	89.81
410.908	89.81
411.132	96.81
411.355	87.81
411.578	91.81
411.802	87.81
412.025	90.81
412.249	82.81
412.472	87.81
412.695	86.81
412.919	83.81
413.142	88.81
413.365	86.81
413.589	100.81
413.812	94.81
414.035	89.81
414.258	92.81
414.482	85.81
414.705	80.81
414.928	76.81
415.151	82.81
415.374	96.81
415.597	84.81
415.821	77.81
416.044	73.81
416.267	74.81
416.49	71.81
416.713	89.81
416.936	89.81
417.159	92.81
417.382	88.81
417.605	74.81
417.828	87.81
418.051	81.81
418.274	85.81
418.497	90.81
418.72	85.81
418.943	89.81
419.166	79.81
419.389	97.81
419.611	83.81
419.834	82.81
420.057	82.81
420.28	89.81
420.503	79.81
420.726	78.81
420.948	101.81
421.171	92.81
421.394	97.81
421.617	99.81
421.839	116.81
422.062	147.81
422.285	189.81
422.507	282.81
422.73	403.81
422.953	388.81
423.175	243.81
423.398	157.81
423.621	121.81
423.843	120.81
424.066	90.81
424.288	95.81
424.511	85.81
424.733	75.81
424.956	90.81
425.178	86.81
425.401	80.81
425.623	89.81
425.846	92.81
426.068	101.81
426.291	77.81
426.513	82.81
426.735	85.81
426.958	83.81
427.18	78.81
427.402	82.81
427.625	88.81
427.847	91.81
428.069	114.81
428.292	126.81
428.514	133.81
428.736	106.81
428.958	129.81
429.181	141.81
429.403	113.81
429.625	90.81
429.847	136.81
430.069	175.81
430.292	204.81
430.514	196.81
430.736	131.81
430.958	149.81
431.18	105.81
431.402	90.81
431.624	87.81
431.846	127.81
432.068	140.81
432.29	98.81
432.512	79.81
432.734	76.81
432.956	95.81
433.178	72.81
433.4	85.81
433.622	88.81
433.844	84.81
434.066	83.81
434.287	71.81
434.509	70.81
434.731	78.81
434.953	85.81
435.175	72.81
435.397	79.81
435.618	74.81
435.84	98.81
436.062	90.81
436.284	73.81
436.505	70.81
436.727	85.81
436.949	93.81
437.17	89.81
437.392	83.81
437.614	73.81
437.835	88.81
438.057	98.81
438.278	73.81
438.5	84.81
438.721	104.81
438.943	99.81
439.165	82.81
439.386	90.81
439.608	75.81
439.829	75.81
440.05	82.81
440.272	78.81
440.493	80.81
440.715	101.81
440.936	103.81
441.158	78.81
441.379	89.81
441.6	95.81
441.822	72.81
442.043	81.81
442.264	113.81
442.486	140.81
442.707	178.81
442.928	108.81
443.149	115.81
443.371	184.81
443.592	286.81
443.813	233.81
444.034	121.81
444.255	104.81
444.476	97.81
444.698	97.81
444.919	99.81
445.14	179.81
445.361	226.81
445.582	306.81
445.803	259.81
446.024	119.81
446.245	104.81
446.466	91.81
446.687	83.81
446.908	76.81
447.129	91.81
447.35	94.81
447.571	82.81
447.792	78.81
448.013	70.81
448.234	76.81
448.455	82.81
448.675	86.81
448.896	89.81
449.117	87.81
449.338	89.81
449.559	78.81
449.779	94.81
450	87.81
450.221	71.81
450.442	82.81
450.662	85.81
450.883	73.81
451.104	94.81
451.324	89.81
451.545	81.81
451.766	87.81
451.986	74.81
452.207	83.81
452.428	98.81
452.648	87.81
452.869	93.81
453.089	102.81
453.31	86.81
453.53	68.81
453.751	65.81
453.971	65.81
454.192	91.81
454.412	92.81
454.633	87.81
454.853	97.81
455.073	77.81
455.294	90.81
455.514	88.81
455.734	88.81
455.955	84.81
456.175	82.81
456.395	86.81
456.616	81.81
456.836	98.81
457.056	83.81
457.276	81.81
457.497	89.81
457.717	85.81
457.937	97.81
458.157	113.81
458.377	111.81
458.598	110.81
458.818	120.81
459.038	103.81
459.258	91.81
459.478	78.81
459.698	82.81
459.918	85.81
460.138	82.81
460.358	87.81
460.578	91.81
460.798	130.81
461.018	133.81
461.238	101.81
461.458	79.81
461.678	88.81
461.898	85.81
462.118	101.81
462.338	87.81
462.558	99.81
462.777	81.81
462.997	96.81
463.217	84.81
463.437	65.81
463.657	77.81
463.876	81.81
464.096	84.81
464.316	87.81
464.536	74.81
464.755	84.81
464.975	83.81
465.195	89.81
465.414	96.81
465.634	83.81
465.854	82.81
466.073	74.81
466.293	79.81
466.512	78.81
466.732	79.81
466.951	80.81
467.171	83.81
467.391	102.81
467.61	93.81
467.829	71.81
468.049	79.81
468.268	82.81
468.488	87.81
468.707	88.81
468.927	91.81
469.146	79.81
469.365	72.81
469.585	69.81
469.804	77.81
470.023	77.81
470.243	82.81
470.462	80.81
470.681	85.81
470.901	81.81
471.12	79.81
471.339	81.81
471.558	83.81
471.777	80.81
471.997	109.81
472.216	79.81
472.435	96.81
472.654	95.81
472.873	101.81
473.092	82.81
473.311	79.81
473.53	84.81
473.749	97.81
473.968	106.81
474.187	77.81
474.406	85.81
474.625	84.81
474.844	75.81
475.063	82.81
475.282	81.81
475.501	77.81
475.72	94.81
475.939	83.81
476.158	76.81
476.377	78.81
476.596	85.81
476.814	79.81
477.033	93.81
477.252	88.81
477.471	81.81
477.69	88.81
477.908	82.81
478.127	84.81
478.346	88.81
478.564	86.81
478.783	93.81
479.002	83.81
479.22	77.81
479.439	90.81
479.658	74.81
479.876	79.81
480.095	86.81
480.313	91.81
480.532	100.81
480.751	89.81
480.969	95.81
481.188	91.81
481.406	86.81
481.624	73.81
481.843	82.81
482.061	85.81
482.28	85.81
482.498	82.81
482.717	91.81
482.935	105.81
483.153	100.81
483.372	82.81
483.59	88.81
483.808	98.81
484.027	82.81
484.245	86.81
484.463	105.81
484.681	86.81
484.9	82.81
485.118	84.81
485.336	90.81
485.554	78.81
485.772	79.81
485.99	85.81
486.209	96.81
486.427	89.81
486.645	93.81
486.863	84.81
487.081	89.81
487.299	101.81
487.517	101.81
487.735	110.81
487.953	145.81
488.171	138.81
488.389	101.81
488.607	97.81
488.825	86.81
489.043	89.81
489.261	90.81
489.479	88.81
489.696	98.81
489.914	86.81
490.132	83.81
490.35	104.81
490.568	80.81
490.786	93.81
491.003	85.81
491.221	92.81
491.439	93.81
491.657	85.81
491.874	86.81
492.092	79.81
492.31	94.81
492.527	73.81
492.745	88.81
492.963	95.81
493.18	96.81
493.398	73.81
493.615	81.81
493.833	87.81
494.05	95.81
494.268	91.81
494.485	103.81
494.703	87.81
494.92	98.81
495.138	99.81
495.355	88.81
495.573	83.81
495.79	76.81
496.008	106.81
496.225	95.81
496.442	92.81
496.66	101.81
496.877	87.81
497.094	91.81
497.312	89.81
497.529	91.81
497.746	74.81
497.963	83.81
498.181	85.81
498.398	99.81
498.615	101.81
498.832	95.81
499.049	85.81
499.267	92.81
499.484	90.81
499.701	99.81
499.918	85.81
500.135	91.81
500.352	94.81
500.569	92.81
500.786	96.81
501.003	96.81
501.22	75.81
501.437	99.81
501.654	94.81
501.871	81.81
502.088	81.81
502.305	90.81
502.522	95.81
502.739	77.81
502.956	92.81
503.172	81.81
503.389	85.81
503.606	84.81
503.823	107.81
504.04	104.81
504.256	124.81
504.473	130.81
504.69	100.81
504.907	91.81
505.123	84.81
505.34	87.81
505.557	89.81
505.773	88.81
505.99	68.81
506.207	94.81
506.423	94.81
506.64	90.81
506.856	68.81
507.073	77.81
507.289	81.81
507.506	79.81
507.722	80.81
507.939	103.81
508.155	90.81
508.372	85.81
508.588	97.81
508.805	90.81
509.021	86.81
509.238	83.81
509.454	98.81
509.67	100.81
509.887	95.81
510.103	97.81
510.319	82.81
510.536	97.81
510.752	84.81
510.968	86.81
511.184	89.81
511.401	83.81
511.617	94.81
511.833	107.81
512.049	93.81
512.265	75.81
512.481	80.81
512.698	90.81
512.914	75.81
513.13	88.81
513.346	79.81
513.562	84.81
513.778	94.81
513.994	94.81
514.21	88.81
514.426	93.81
514.642	87.81
514.858	99.81
515.074	82.81
515.29	84.81
515.506	96.81
515.721	88.81
515.937	74.81
516.153	91.81
516.369	91.81
516.585	86.81
516.801	91.81
517.016	96.81
517.232	73.81
517.448	104.81
517.664	83.81
517.879	93.81
518.095	85.81
518.311	86.81
