Data from HP_2_HRD10591_00030.txt Node
Date: Mon Jan 19 14:16:16 EST 2026
User: Yrep
Spectrometer: HR+D1059
Trigger mode: 1
Integration Time (sec): 1.000000E-1
Scans to average: 1
Electric dark correction enabled: true
Nonlinearity correction enabled: false
Boxcar width: 0
XAxis mode: Wavelengths
Number of Pixels in Spectrum: 2048
>>>>>Begin Spectral Data<<<<<
223.165	-14.69
223.4	-14.69
223.635	-14.69
223.869	-22.69
224.104	-24.69
224.338	-18.69
224.573	-8.69
224.808	-17.69
225.042	-8.69
225.277	-1.69
225.511	-9.69
225.746	9.31
225.98	13.31
226.215	10.31
226.449	14.31
226.683	17.31
226.918	27.31
227.152	35.31
227.387	33.31
227.621	52.31
227.856	52.31
228.09	40.31
228.324	41.31
228.559	47.31
228.793	65.31
229.027	61.31
229.262	81.31
229.496	67.31
229.73	66.31
229.964	76.31
230.199	75.31
230.433	77.31
230.667	75.31
230.901	77.31
231.136	75.31
231.37	76.31
231.604	73.31
231.838	81.31
232.072	77.31
232.306	74.31
232.541	66.31
232.775	89.31
233.009	91.31
233.243	93.31
233.477	87.31
233.711	85.31
233.945	89.31
234.179	71.31
234.413	85.31
234.647	81.31
234.881	78.31
235.115	66.31
235.349	78.31
235.583	81.31
235.817	77.31
236.051	76.31
236.285	87.31
236.519	66.31
236.753	77.31
236.987	74.31
237.221	81.31
237.455	73.31
237.689	75.31
237.922	67.31
238.156	76.31
238.39	73.31
238.624	82.31
238.858	85.31
239.091	71.31
239.325	82.31
239.559	67.31
239.793	60.31
240.027	63.31
240.26	74.31
240.494	74.31
240.728	64.31
240.961	64.31
241.195	74.31
241.429	65.31
241.662	80.31
241.896	61.31
242.13	74.31
242.363	76.31
242.597	66.31
242.83	70.31
243.064	84.31
243.298	85.31
243.531	87.31
243.765	66.31
243.998	77.31
244.232	75.31
244.465	83.31
244.699	67.31
244.932	86.31
245.166	81.31
245.399	69.31
245.633	72.31
245.866	74.31
246.099	86.31
246.333	64.31
246.566	79.31
246.8	79.31
247.033	72.31
247.266	60.31
247.5	86.31
247.733	66.31
247.966	78.31
248.2	69.31
248.433	73.31
248.666	83.31
248.899	65.31
249.133	69.31
249.366	77.31
249.599	83.31
249.832	98.31
250.066	81.31
250.299	94.31
250.532	81.31
250.765	81.31
250.998	73.31
251.231	81.31
251.465	79.31
251.698	81.31
251.931	80.31
252.164	64.31
252.397	95.31
252.63	70.31
252.863	86.31
253.096	75.31
253.329	73.31
253.562	85.31
253.795	84.31
254.028	76.31
254.261	95.31
254.494	88.31
254.727	76.31
254.96	82.31
255.193	81.31
255.426	81.31
255.659	64.31
255.892	73.31
256.124	64.31
256.357	76.31
256.59	71.31
256.823	94.31
257.056	77.31
257.289	89.31
257.521	65.31
257.754	82.31
257.987	75.31
258.22	83.31
258.452	67.31
258.685	74.31
258.918	76.31
259.151	81.31
259.383	80.31
259.616	77.31
259.849	87.31
260.081	75.31
260.314	70.31
260.547	77.31
260.779	71.31
261.012	82.31
261.244	80.31
261.477	72.31
261.71	75.31
261.942	88.31
262.175	87.31
262.407	93.31
262.64	81.31
262.872	93.31
263.105	90.31
263.337	89.31
263.57	86.31
263.802	72.31
264.035	86.31
264.267	72.31
264.499	87.31
264.732	80.31
264.964	85.31
265.197	83.31
265.429	80.31
265.661	82.31
265.894	79.31
266.126	96.31
266.358	83.31
266.591	79.31
266.823	79.31
267.055	69.31
267.287	79.31
267.52	78.31
267.752	83.31
267.984	78.31
268.216	87.31
268.448	65.31
268.681	77.31
268.913	89.31
269.145	90.31
269.377	88.31
269.609	80.31
269.841	86.31
270.073	71.31
270.306	68.31
270.538	85.31
270.77	101.31
271.002	61.31
271.234	75.31
271.466	82.31
271.698	72.31
271.93	83.31
272.162	91.31
272.394	81.31
272.626	71.31
272.858	94.31
273.09	93.31
273.322	76.31
273.553	83.31
273.785	73.31
274.017	70.31
274.249	74.31
274.481	89.31
274.713	81.31
274.945	63.31
275.176	73.31
275.408	74.31
275.64	90.31
275.872	68.31
276.104	72.31
276.335	75.31
276.567	88.31
276.799	85.31
277.031	88.31
277.262	81.31
277.494	81.31
277.726	87.31
277.957	87.31
278.189	91.31
278.421	76.31
278.652	86.31
278.884	91.31
279.115	79.31
279.347	78.31
279.579	73.31
279.81	81.31
280.042	86.31
280.273	88.31
280.505	85.31
280.736	78.31
280.968	80.31
281.199	86.31
281.431	79.31
281.662	74.31
281.894	81.31
282.125	79.31
282.356	85.31
282.588	88.31
282.819	84.31
283.051	80.31
283.282	95.31
283.513	83.31
283.745	94.31
283.976	83.31
284.207	78.31
284.439	70.31
284.67	89.31
284.901	73.31
285.132	95.31
285.364	90.31
285.595	82.31
285.826	78.31
286.057	79.31
286.288	84.31
286.52	77.31
286.751	73.31
286.982	73.31
287.213	80.31
287.444	83.31
287.675	80.31
287.906	82.31
288.138	74.31
288.369	86.31
288.6	78.31
288.831	86.31
289.062	72.31
289.293	96.31
289.524	89.31
289.755	99.31
289.986	87.31
290.217	75.31
290.448	75.31
290.679	86.31
290.91	85.31
291.141	81.31
291.371	80.31
291.602	91.31
291.833	95.31
292.064	93.31
292.295	87.31
292.526	76.31
292.757	82.31
292.987	86.31
293.218	94.31
293.449	84.31
293.68	89.31
293.91	69.31
294.141	84.31
294.372	89.31
294.603	87.31
294.833	82.31
295.064	79.31
295.295	85.31
295.525	72.31
295.756	86.31
295.987	93.31
296.217	90.31
296.448	86.31
296.679	86.31
296.909	82.31
297.14	89.31
297.37	87.31
297.601	94.31
297.831	81.31
298.062	94.31
298.292	79.31
298.523	92.31
298.753	85.31
298.984	91.31
299.214	74.31
299.445	74.31
299.675	81.31
299.905	105.31
300.136	94.31
300.366	89.31
300.597	90.31
300.827	90.31
301.057	81.31
301.288	88.31
301.518	92.31
301.748	75.31
301.979	93.31
302.209	91.31
302.439	74.31
302.669	81.31
302.9	96.31
303.13	82.31
303.36	93.31
303.59	90.31
303.82	89.31
304.051	71.31
304.281	77.31
304.511	90.31
304.741	82.31
304.971	74.31
305.201	82.31
305.431	82.31
305.661	82.31
305.891	92.31
306.121	95.31
306.352	96.31
306.582	86.31
306.812	73.31
307.042	86.31
307.272	83.31
307.502	72.31
307.731	95.31
307.961	81.31
308.191	80.31
308.421	82.31
308.651	93.31
308.881	93.31
309.111	93.31
309.341	87.31
309.571	86.31
309.8	78.31
310.03	70.31
310.26	78.31
310.49	81.31
310.72	81.31
310.949	95.31
311.179	67.31
311.409	71.31
311.639	94.31
311.868	81.31
312.098	81.31
312.328	90.31
312.557	85.31
312.787	89.31
313.017	86.31
313.246	79.31
313.476	85.31
313.706	90.31
313.935	83.31
314.165	99.31
314.394	90.31
314.624	93.31
314.853	99.31
315.083	85.31
315.312	84.31
315.542	81.31
315.771	75.31
316.001	80.31
316.23	87.31
316.46	84.31
316.689	78.31
316.919	83.31
317.148	85.31
317.377	105.31
317.607	80.31
317.836	93.31
318.065	101.31
318.295	97.31
318.524	95.31
318.753	95.31
318.983	78.31
319.212	82.31
319.441	75.31
319.67	80.31
319.9	75.31
320.129	81.31
320.358	88.31
320.587	86.31
320.816	88.31
321.046	93.31
321.275	89.31
321.504	71.31
321.733	71.31
321.962	58.31
322.191	83.31
322.42	90.31
322.649	79.31
322.878	75.31
323.108	77.31
323.337	112.31
323.566	102.31
323.795	84.31
324.024	90.31
324.253	82.31
324.482	89.31
324.71	74.31
324.939	88.31
325.168	98.31
325.397	88.31
325.626	86.31
325.855	83.31
326.084	91.31
326.313	86.31
326.542	78.31
326.77	81.31
326.999	82.31
327.228	69.31
327.457	75.31
327.686	93.31
327.914	97.31
328.143	93.31
328.372	74.31
328.6	96.31
328.829	91.31
329.058	90.31
329.287	98.31
329.515	80.31
329.744	81.31
329.972	68.31
330.201	82.31
330.43	96.31
330.658	90.31
330.887	74.31
331.115	83.31
331.344	74.31
331.572	79.31
331.801	63.31
332.03	91.31
332.258	90.31
332.486	83.31
332.715	74.31
332.943	81.31
333.172	73.31
333.4	81.31
333.629	72.31
333.857	95.31
334.085	93.31
334.314	76.31
334.542	80.31
334.771	80.31
334.999	77.31
335.227	98.31
335.455	85.31
335.684	96.31
335.912	68.31
336.14	90.31
336.369	91.31
336.597	74.31
336.825	75.31
337.053	102.31
337.281	85.31
337.51	81.31
337.738	102.31
337.966	72.31
338.194	83.31
338.422	90.31
338.65	89.31
338.878	83.31
339.106	83.31
339.334	93.31
339.562	73.31
339.79	83.31
340.018	68.31
340.246	95.31
340.474	75.31
340.702	68.31
340.93	74.31
341.158	93.31
341.386	93.31
341.614	73.31
341.842	85.31
342.07	81.31
342.298	80.31
342.526	69.31
342.754	83.31
342.981	75.31
343.209	98.31
343.437	95.31
343.665	89.31
343.893	78.31
344.12	82.31
344.348	84.31
344.576	89.31
344.804	87.31
345.031	91.31
345.259	74.31
345.487	94.31
345.714	71.31
345.942	82.31
346.17	71.31
346.397	89.31
346.625	99.31
346.853	82.31
347.08	91.31
347.308	93.31
347.535	79.31
347.763	86.31
347.99	83.31
348.218	91.31
348.445	79.31
348.673	87.31
348.9	71.31
349.128	76.31
349.355	91.31
349.583	95.31
349.81	89.31
350.037	91.31
350.265	64.31
350.492	87.31
350.72	69.31
350.947	93.31
351.174	80.31
351.402	86.31
351.629	84.31
351.856	86.31
352.083	86.31
352.311	93.31
352.538	98.31
352.765	79.31
352.992	92.31
353.22	77.31
353.447	74.31
353.674	73.31
353.901	91.31
354.128	90.31
354.355	104.31
354.583	78.31
354.81	81.31
355.037	67.31
355.264	64.31
355.491	101.31
355.718	90.31
355.945	81.31
356.172	77.31
356.399	75.31
356.626	91.31
356.853	100.31
357.08	88.31
357.307	92.31
357.534	76.31
357.761	87.31
357.988	95.31
358.215	87.31
358.441	94.31
358.668	85.31
358.895	92.31
359.122	84.31
359.349	80.31
359.576	86.31
359.802	68.31
360.029	77.31
360.256	77.31
360.483	74.31
360.709	88.31
360.936	89.31
361.163	93.31
361.39	83.31
361.616	78.31
361.843	99.31
362.07	75.31
362.296	94.31
362.523	83.31
362.749	98.31
362.976	92.31
363.203	106.31
363.429	98.31
363.656	100.31
363.882	74.31
364.109	100.31
364.335	105.31
364.562	109.31
364.788	95.31
365.015	87.31
365.241	78.31
365.468	83.31
365.694	75.31
365.92	79.31
366.147	89.31
366.373	77.31
366.599	82.31
366.826	85.31
367.052	61.31
367.278	80.31
367.505	84.31
367.731	107.31
367.957	82.31
368.184	80.31
368.41	85.31
368.636	96.31
368.862	88.31
369.089	85.31
369.315	105.31
369.541	81.31
369.767	83.31
369.993	93.31
370.219	80.31
370.445	92.31
370.672	93.31
370.898	86.31
371.124	88.31
371.35	81.31
371.576	73.31
371.802	79.31
372.028	75.31
372.254	92.31
372.48	79.31
372.706	85.31
372.932	88.31
373.158	83.31
373.384	105.31
373.61	106.31
373.835	101.31
374.061	86.31
374.287	88.31
374.513	100.31
374.739	104.31
374.965	78.31
375.191	95.31
375.416	72.31
375.642	83.31
375.868	87.31
376.094	89.31
376.319	81.31
376.545	82.31
376.771	85.31
376.997	83.31
377.222	93.31
377.448	67.31
377.674	80.31
377.899	79.31
378.125	68.31
378.35	77.31
378.576	89.31
378.802	70.31
379.027	83.31
379.253	75.31
379.478	75.31
379.704	75.31
379.929	88.31
380.155	84.31
380.38	86.31
380.606	88.31
380.831	76.31
381.057	77.31
381.282	99.31
381.507	84.31
381.733	90.31
381.958	85.31
382.184	97.31
382.409	93.31
382.634	90.31
382.86	77.31
383.085	83.31
383.31	96.31
383.535	81.31
383.761	88.31
383.986	99.31
384.211	82.31
384.436	96.31
384.662	90.31
384.887	85.31
385.112	93.31
385.337	83.31
385.562	83.31
385.787	76.31
386.013	89.31
386.238	81.31
386.463	80.31
386.688	102.31
386.913	104.31
387.138	70.31
387.363	85.31
387.588	86.31
387.813	88.31
388.038	89.31
388.263	83.31
388.488	81.31
388.713	83.31
388.938	89.31
389.163	78.31
389.387	93.31
389.612	81.31
389.837	81.31
390.062	85.31
390.287	84.31
390.512	82.31
390.736	79.31
390.961	79.31
391.186	87.31
391.411	95.31
391.636	84.31
391.86	81.31
392.085	88.31
392.31	75.31
392.534	104.31
392.759	100.31
392.984	118.31
393.208	177.31
393.433	264.31
393.658	207.31
393.882	113.31
394.107	87.31
394.331	103.31
394.556	107.31
394.78	92.31
395.005	98.31
395.229	93.31
395.454	110.31
395.678	107.31
395.903	114.31
396.127	119.31
396.352	143.31
396.576	133.31
396.801	203.31
397.025	225.31
397.249	115.31
397.474	106.31
397.698	87.31
397.922	95.31
398.147	75.31
398.371	84.31
398.595	92.31
398.82	77.31
399.044	84.31
399.268	89.31
399.492	88.31
399.717	86.31
399.941	91.31
400.165	68.31
400.389	73.31
400.613	79.31
400.837	84.31
401.062	65.31
401.286	90.31
401.51	82.31
401.734	89.31
401.958	87.31
402.182	75.31
402.406	91.31
402.63	86.31
402.854	90.31
403.078	76.31
403.302	81.31
403.526	101.31
403.75	76.31
403.974	76.31
404.198	104.31
404.422	117.31
404.645	136.31
404.869	126.31
405.093	107.31
405.317	93.31
405.541	74.31
405.765	75.31
405.988	83.31
406.212	97.31
406.436	82.31
406.66	94.31
406.883	83.31
407.107	85.31
407.331	74.31
407.555	87.31
407.778	98.31
408.002	116.31
408.226	90.31
408.449	77.31
408.673	83.31
408.896	87.31
409.12	73.31
409.344	89.31
409.567	78.31
409.791	88.31
410.014	89.31
410.238	89.31
410.461	82.31
410.685	76.31
410.908	67.31
411.132	91.31
411.355	84.31
411.578	88.31
411.802	90.31
412.025	65.31
412.249	97.31
412.472	91.31
412.695	82.31
412.919	82.31
413.142	96.31
413.365	85.31
413.589	80.31
413.812	88.31
414.035	86.31
414.258	80.31
414.482	75.31
414.705	63.31
414.928	81.31
415.151	79.31
415.374	85.31
415.597	80.31
415.821	89.31
416.044	87.31
416.267	78.31
416.49	81.31
416.713	85.31
416.936	81.31
417.159	85.31
417.382	82.31
417.605	76.31
417.828	81.31
418.051	75.31
418.274	72.31
418.497	78.31
418.72	79.31
418.943	83.31
419.166	74.31
419.389	86.31
419.611	79.31
419.834	86.31
420.057	85.31
420.28	82.31
420.503	75.31
420.726	89.31
420.948	83.31
421.171	88.31
421.394	90.31
421.617	105.31
421.839	118.31
422.062	113.31
422.285	155.31
422.507	231.31
422.73	346.31
422.953	314.31
423.175	176.31
423.398	111.31
423.621	93.31
423.843	94.31
424.066	95.31
424.288	80.31
424.511	84.31
424.733	86.31
424.956	88.31
425.178	89.31
425.401	98.31
425.623	84.31
425.846	91.31
426.068	79.31
426.291	81.31
426.513	94.31
426.735	73.31
426.958	80.31
427.18	91.31
427.402	96.31
427.625	81.31
427.847	86.31
428.069	85.31
428.292	113.31
428.514	131.31
428.736	76.31
428.958	110.31
429.181	108.31
429.403	73.31
429.625	87.31
429.847	103.31
430.069	144.31
430.292	138.31
430.514	134.31
430.736	128.31
430.958	118.31
431.18	100.31
431.402	78.31
431.624	77.31
431.846	116.31
432.068	126.31
432.29	103.31
432.512	89.31
432.734	74.31
432.956	69.31
433.178	97.31
433.4	85.31
433.622	70.31
433.844	79.31
434.066	75.31
434.287	82.31
434.509	88.31
434.731	71.31
434.953	67.31
435.175	82.31
435.397	88.31
435.618	81.31
435.84	83.31
436.062	70.31
436.284	83.31
436.505	81.31
436.727	79.31
436.949	82.31
437.17	93.31
437.392	74.31
437.614	73.31
437.835	100.31
438.057	79.31
438.278	74.31
438.5	89.31
438.721	72.31
438.943	69.31
439.165	61.31
439.386	76.31
439.608	98.31
439.829	73.31
440.05	87.31
440.272	81.31
440.493	97.31
440.715	97.31
440.936	88.31
441.158	74.31
441.379	80.31
441.6	73.31
441.822	81.31
442.043	74.31
442.264	95.31
442.486	119.31
442.707	158.31
442.928	100.31
443.149	114.31
443.371	133.31
443.592	209.31
443.813	183.31
444.034	100.31
444.255	88.31
444.476	75.31
444.698	85.31
444.919	90.31
445.14	186.31
445.361	196.31
445.582	249.31
445.803	209.31
446.024	99.31
446.245	104.31
446.466	87.31
446.687	81.31
446.908	73.31
447.129	85.31
447.35	79.31
447.571	73.31
447.792	75.31
448.013	71.31
448.234	90.31
448.455	70.31
448.675	83.31
448.896	84.31
449.117	88.31
449.338	83.31
449.559	72.31
449.779	79.31
450	73.31
450.221	79.31
450.442	88.31
450.662	86.31
450.883	85.31
451.104	85.31
451.324	71.31
451.545	78.31
451.766	73.31
451.986	69.31
452.207	70.31
452.428	78.31
452.648	97.31
452.869	95.31
453.089	93.31
453.31	70.31
453.53	81.31
453.751	81.31
453.971	73.31
454.192	80.31
454.412	75.31
454.633	88.31
454.853	90.31
455.073	87.31
455.294	79.31
455.514	94.31
455.734	65.31
455.955	81.31
456.175	70.31
456.395	73.31
456.616	87.31
456.836	85.31
457.056	86.31
457.276	71.31
457.497	73.31
457.717	88.31
457.937	93.31
458.157	120.31
458.377	98.31
458.598	109.31
458.818	112.31
459.038	96.31
459.258	102.31
459.478	84.31
459.698	74.31
459.918	79.31
460.138	81.31
460.358	76.31
460.578	94.31
460.798	114.31
461.018	112.31
461.238	89.31
461.458	85.31
461.678	73.31
461.898	93.31
462.118	85.31
462.338	79.31
462.558	85.31
462.777	82.31
462.997	103.31
463.217	80.31
463.437	73.31
463.657	76.31
463.876	90.31
464.096	84.31
464.316	92.31
464.536	83.31
464.755	82.31
464.975	85.31
465.195	77.31
465.414	97.31
465.634	78.31
465.854	88.31
466.073	70.31
466.293	89.31
466.512	89.31
466.732	69.31
466.951	90.31
467.171	79.31
467.391	95.31
467.61	93.31
467.829	85.31
468.049	99.31
468.268	89.31
468.488	79.31
468.707	97.31
468.927	86.31
469.146	92.31
469.365	88.31
469.585	91.31
469.804	79.31
470.023	97.31
470.243	87.31
470.462	87.31
470.681	97.31
470.901	90.31
471.12	87.31
471.339	92.31
471.558	73.31
471.777	82.31
471.997	89.31
472.216	74.31
472.435	91.31
472.654	79.31
472.873	77.31
473.092	88.31
473.311	81.31
473.53	92.31
473.749	86.31
473.968	83.31
474.187	82.31
474.406	76.31
474.625	85.31
474.844	73.31
475.063	67.31
475.282	78.31
475.501	75.31
475.72	89.31
475.939	93.31
476.158	84.31
476.377	79.31
476.596	89.31
476.814	82.31
477.033	105.31
477.252	73.31
477.471	78.31
477.69	92.31
477.908	92.31
478.127	72.31
478.346	73.31
478.564	73.31
478.783	91.31
479.002	74.31
479.22	94.31
479.439	103.31
479.658	83.31
479.876	85.31
480.095	85.31
480.313	85.31
480.532	80.31
480.751	79.31
480.969	93.31
481.188	87.31
481.406	89.31
481.624	76.31
481.843	69.31
482.061	81.31
482.28	81.31
482.498	87.31
482.717	86.31
482.935	78.31
483.153	87.31
483.372	96.31
483.59	91.31
483.808	98.31
484.027	86.31
484.245	92.31
484.463	82.31
484.681	84.31
484.9	94.31
485.118	101.31
485.336	82.31
485.554	100.31
485.772	89.31
485.99	79.31
486.209	87.31
486.427	95.31
486.645	86.31
486.863	74.31
487.081	78.31
487.299	95.31
487.517	83.31
487.735	95.31
487.953	131.31
488.171	125.31
488.389	91.31
488.607	90.31
488.825	76.31
489.043	75.31
489.261	75.31
489.479	81.31
489.696	82.31
489.914	97.31
490.132	82.31
490.35	89.31
490.568	87.31
490.786	90.31
491.003	86.31
491.221	74.31
491.439	79.31
491.657	88.31
491.874	83.31
492.092	97.31
492.31	87.31
492.527	83.31
492.745	83.31
492.963	93.31
493.18	73.31
493.398	90.31
493.615	76.31
493.833	85.31
494.05	95.31
494.268	82.31
494.485	95.31
494.703	90.31
494.92	88.31
495.138	89.31
495.355	99.31
495.573	83.31
495.79	91.31
496.008	98.31
496.225	84.31
496.442	77.31
496.66	93.31
496.877	88.31
497.094	81.31
497.312	96.31
497.529	83.31
497.746	90.31
497.963	94.31
498.181	74.31
498.398	87.31
498.615	78.31
498.832	76.31
499.049	85.31
499.267	76.31
499.484	75.31
499.701	86.31
499.918	87.31
500.135	90.31
500.352	92.31
500.569	91.31
500.786	89.31
501.003	81.31
501.22	95.31
501.437	85.31
501.654	75.31
501.871	75.31
502.088	78.31
502.305	99.31
502.522	90.31
502.739	86.31
502.956	79.31
503.172	81.31
503.389	88.31
503.606	86.31
503.823	90.31
504.04	102.31
504.256	117.31
504.473	115.31
504.69	79.31
504.907	82.31
505.123	85.31
505.34	76.31
505.557	85.31
505.773	98.31
505.99	85.31
506.207	78.31
506.423	89.31
506.64	78.31
506.856	86.31
507.073	77.31
507.289	74.31
507.506	80.31
507.722	82.31
507.939	83.31
508.155	83.31
508.372	86.31
508.588	95.31
508.805	76.31
509.021	90.31
509.238	89.31
509.454	79.31
509.67	80.31
509.887	73.31
510.103	90.31
510.319	85.31
510.536	89.31
510.752	88.31
510.968	76.31
511.184	74.31
511.401	86.31
511.617	82.31
511.833	94.31
512.049	77.31
512.265	96.31
512.481	81.31
512.698	80.31
512.914	100.31
513.13	75.31
513.346	84.31
513.562	93.31
513.778	99.31
513.994	95.31
514.21	88.31
514.426	79.31
514.642	73.31
514.858	76.31
515.074	83.31
515.29	90.31
515.506	80.31
515.721	85.31
515.937	93.31
516.153	83.31
516.369	83.31
516.585	82.31
516.801	90.31
517.016	82.31
517.232	84.31
517.448	90.31
517.664	90.31
517.879	84.31
518.095	87.31
518.311	90.31
518.527	107.31
518.742	86.31
