Data from HP_2_HRD10591_00038.txt Node
Date: Mon Jan 19 14:16:20 EST 2026
User: Yrep
Spectrometer: HR+D1059
Trigger mode: 1
Integration Time (sec): 1.000000E-1
Scans to average: 1
Electric dark correction enabled: true
Nonlinearity correction enabled: false
Boxcar width: 0
XAxis mode: Wavelengths
Number of Pixels in Spectrum: 2048
>>>>>Begin Spectral Data<<<<<
223.165	-24.56
223.4	-24.56
223.635	-24.56
223.869	-14.56
224.104	-17.56
224.338	-11.56
224.573	-10.56
224.808	-11.56
225.042	19.44
225.277	-8.56
225.511	-18.56
225.746	-4.56
225.98	-7.56
226.215	-2.56
226.449	23.44
226.683	21.44
226.918	42.44
227.152	25.44
227.387	23.44
227.621	23.44
227.856	28.44
228.09	32.44
228.324	49.44
228.559	51.44
228.793	59.44
229.027	61.44
229.262	59.44
229.496	61.44
229.73	65.44
229.964	65.44
230.199	70.44
230.433	76.44
230.667	71.44
230.901	69.44
231.136	81.44
231.37	65.44
231.604	79.44
231.838	70.44
232.072	70.44
232.306	68.44
232.541	73.44
232.775	75.44
233.009	74.44
233.243	72.44
233.477	83.44
233.711	77.44
233.945	77.44
234.179	74.44
234.413	70.44
234.647	67.44
234.881	77.44
235.115	79.44
235.349	68.44
235.583	84.44
235.817	76.44
236.051	82.44
236.285	73.44
236.519	61.44
236.753	72.44
236.987	71.44
237.221	62.44
237.455	76.44
237.689	78.44
237.922	80.44
238.156	80.44
238.39	70.44
238.624	69.44
238.858	69.44
239.091	63.44
239.325	69.44
239.559	70.44
239.793	75.44
240.027	71.44
240.26	70.44
240.494	67.44
240.728	74.44
240.961	79.44
241.195	82.44
241.429	73.44
241.662	79.44
241.896	75.44
242.13	80.44
242.363	79.44
242.597	79.44
242.83	67.44
243.064	77.44
243.298	75.44
243.531	63.44
243.765	66.44
243.998	69.44
244.232	73.44
244.465	66.44
244.699	75.44
244.932	80.44
245.166	81.44
245.399	72.44
245.633	87.44
245.866	75.44
246.099	83.44
246.333	69.44
246.566	69.44
246.8	75.44
247.033	61.44
247.266	73.44
247.5	63.44
247.733	75.44
247.966	84.44
248.2	71.44
248.433	72.44
248.666	80.44
248.899	74.44
249.133	77.44
249.366	70.44
249.599	72.44
249.832	78.44
250.066	66.44
250.299	79.44
250.532	92.44
250.765	79.44
250.998	74.44
251.231	92.44
251.465	71.44
251.698	71.44
251.931	60.44
252.164	75.44
252.397	69.44
252.63	77.44
252.863	72.44
253.096	84.44
253.329	93.44
253.562	79.44
253.795	78.44
254.028	80.44
254.261	73.44
254.494	71.44
254.727	63.44
254.96	85.44
255.193	71.44
255.426	65.44
255.659	81.44
255.892	70.44
256.124	69.44
256.357	67.44
256.59	68.44
256.823	73.44
257.056	82.44
257.289	73.44
257.521	85.44
257.754	79.44
257.987	91.44
258.22	79.44
258.452	68.44
258.685	87.44
258.918	79.44
259.151	76.44
259.383	85.44
259.616	62.44
259.849	58.44
260.081	78.44
260.314	81.44
260.547	67.44
260.779	88.44
261.012	84.44
261.244	69.44
261.477	77.44
261.71	79.44
261.942	70.44
262.175	77.44
262.407	71.44
262.64	78.44
262.872	73.44
263.105	83.44
263.337	82.44
263.57	71.44
263.802	81.44
264.035	81.44
264.267	84.44
264.499	70.44
264.732	59.44
264.964	59.44
265.197	74.44
265.429	76.44
265.661	61.44
265.894	79.44
266.126	74.44
266.358	71.44
266.591	75.44
266.823	69.44
267.055	72.44
267.287	68.44
267.52	75.44
267.752	83.44
267.984	80.44
268.216	66.44
268.448	82.44
268.681	78.44
268.913	64.44
269.145	80.44
269.377	83.44
269.609	71.44
269.841	77.44
270.073	95.44
270.306	77.44
270.538	67.44
270.77	83.44
271.002	84.44
271.234	73.44
271.466	81.44
271.698	82.44
271.93	81.44
272.162	83.44
272.394	78.44
272.626	76.44
272.858	85.44
273.09	76.44
273.322	75.44
273.553	87.44
273.785	85.44
274.017	76.44
274.249	89.44
274.481	84.44
274.713	83.44
274.945	73.44
275.176	83.44
275.408	82.44
275.64	70.44
275.872	98.44
276.104	70.44
276.335	89.44
276.567	89.44
276.799	82.44
277.031	70.44
277.262	77.44
277.494	86.44
277.726	93.44
277.957	86.44
278.189	72.44
278.421	87.44
278.652	88.44
278.884	63.44
279.115	76.44
279.347	86.44
279.579	84.44
279.81	90.44
280.042	79.44
280.273	83.44
280.505	81.44
280.736	77.44
280.968	76.44
281.199	83.44
281.431	73.44
281.662	76.44
281.894	81.44
282.125	75.44
282.356	66.44
282.588	79.44
282.819	91.44
283.051	78.44
283.282	82.44
283.513	86.44
283.745	82.44
283.976	81.44
284.207	69.44
284.439	69.44
284.67	82.44
284.901	91.44
285.132	79.44
285.364	105.44
285.595	71.44
285.826	65.44
286.057	93.44
286.288	75.44
286.52	81.44
286.751	69.44
286.982	84.44
287.213	80.44
287.444	71.44
287.675	73.44
287.906	83.44
288.138	89.44
288.369	85.44
288.6	88.44
288.831	84.44
289.062	93.44
289.293	91.44
289.524	77.44
289.755	79.44
289.986	68.44
290.217	63.44
290.448	69.44
290.679	67.44
290.91	84.44
291.141	83.44
291.371	91.44
291.602	57.44
291.833	82.44
292.064	69.44
292.295	63.44
292.526	83.44
292.757	91.44
292.987	84.44
293.218	89.44
293.449	83.44
293.68	81.44
293.91	69.44
294.141	83.44
294.372	89.44
294.603	81.44
294.833	82.44
295.064	81.44
295.295	85.44
295.525	84.44
295.756	81.44
295.987	86.44
296.217	87.44
296.448	94.44
296.679	83.44
296.909	78.44
297.14	73.44
297.37	80.44
297.601	81.44
297.831	72.44
298.062	72.44
298.292	90.44
298.523	78.44
298.753	87.44
298.984	90.44
299.214	88.44
299.445	71.44
299.675	87.44
299.905	82.44
300.136	74.44
300.366	81.44
300.597	87.44
300.827	82.44
301.057	78.44
301.288	69.44
301.518	71.44
301.748	77.44
301.979	96.44
302.209	69.44
302.439	86.44
302.669	74.44
302.9	93.44
303.13	79.44
303.36	85.44
303.59	74.44
303.82	81.44
304.051	85.44
304.281	91.44
304.511	87.44
304.741	85.44
304.971	87.44
305.201	99.44
305.431	84.44
305.661	97.44
305.891	87.44
306.121	83.44
306.352	69.44
306.582	90.44
306.812	86.44
307.042	71.44
307.272	92.44
307.502	80.44
307.731	91.44
307.961	83.44
308.191	89.44
308.421	93.44
308.651	85.44
308.881	83.44
309.111	90.44
309.341	106.44
309.571	99.44
309.8	86.44
310.03	90.44
310.26	87.44
310.49	81.44
310.72	84.44
310.949	88.44
311.179	89.44
311.409	73.44
311.639	90.44
311.868	94.44
312.098	79.44
312.328	91.44
312.557	78.44
312.787	82.44
313.017	66.44
313.246	87.44
313.476	77.44
313.706	73.44
313.935	101.44
314.165	91.44
314.394	81.44
314.624	85.44
314.853	91.44
315.083	86.44
315.312	84.44
315.542	81.44
315.771	95.44
316.001	81.44
316.23	86.44
316.46	77.44
316.689	75.44
316.919	107.44
317.148	58.44
317.377	74.44
317.607	83.44
317.836	82.44
318.065	94.44
318.295	75.44
318.524	79.44
318.753	78.44
318.983	86.44
319.212	89.44
319.441	86.44
319.67	87.44
319.9	79.44
320.129	79.44
320.358	77.44
320.587	86.44
320.816	82.44
321.046	89.44
321.275	80.44
321.504	68.44
321.733	86.44
321.962	92.44
322.191	79.44
322.42	81.44
322.649	82.44
322.878	85.44
323.108	87.44
323.337	83.44
323.566	81.44
323.795	77.44
324.024	89.44
324.253	82.44
324.482	77.44
324.71	80.44
324.939	80.44
325.168	82.44
325.397	81.44
325.626	81.44
325.855	80.44
326.084	69.44
326.313	87.44
326.542	67.44
326.77	79.44
326.999	81.44
327.228	94.44
327.457	102.44
327.686	83.44
327.914	85.44
328.143	95.44
328.372	69.44
328.6	90.44
328.829	72.44
329.058	82.44
329.287	85.44
329.515	71.44
329.744	69.44
329.972	77.44
330.201	90.44
330.43	75.44
330.658	91.44
330.887	74.44
331.115	85.44
331.344	80.44
331.572	74.44
331.801	76.44
332.03	87.44
332.258	67.44
332.486	77.44
332.715	89.44
332.943	76.44
333.172	89.44
333.4	84.44
333.629	69.44
333.857	85.44
334.085	86.44
334.314	90.44
334.542	86.44
334.771	86.44
334.999	99.44
335.227	93.44
335.455	97.44
335.684	89.44
335.912	86.44
336.14	92.44
336.369	89.44
336.597	102.44
336.825	89.44
337.053	79.44
337.281	85.44
337.51	84.44
337.738	74.44
337.966	74.44
338.194	83.44
338.422	98.44
338.65	94.44
338.878	98.44
339.106	79.44
339.334	73.44
339.562	80.44
339.79	68.44
340.018	86.44
340.246	75.44
340.474	79.44
340.702	96.44
340.93	84.44
341.158	85.44
341.386	73.44
341.614	67.44
341.842	85.44
342.07	71.44
342.298	72.44
342.526	91.44
342.754	86.44
342.981	88.44
343.209	94.44
343.437	101.44
343.665	82.44
343.893	89.44
344.12	89.44
344.348	98.44
344.576	93.44
344.804	103.44
345.031	99.44
345.259	68.44
345.487	82.44
345.714	81.44
345.942	69.44
346.17	100.44
346.397	87.44
346.625	86.44
346.853	81.44
347.08	76.44
347.308	85.44
347.535	91.44
347.763	100.44
347.99	98.44
348.218	90.44
348.445	81.44
348.673	77.44
348.9	93.44
349.128	91.44
349.355	83.44
349.583	90.44
349.81	69.44
350.037	79.44
350.265	86.44
350.492	80.44
350.72	74.44
350.947	85.44
351.174	83.44
351.402	75.44
351.629	91.44
351.856	85.44
352.083	77.44
352.311	77.44
352.538	87.44
352.765	75.44
352.992	94.44
353.22	87.44
353.447	75.44
353.674	69.44
353.901	86.44
354.128	83.44
354.355	69.44
354.583	73.44
354.81	78.44
355.037	90.44
355.264	78.44
355.491	79.44
355.718	92.44
355.945	93.44
356.172	77.44
356.399	91.44
356.626	89.44
356.853	95.44
357.08	79.44
357.307	91.44
357.534	78.44
357.761	91.44
357.988	87.44
358.215	84.44
358.441	89.44
358.668	80.44
358.895	91.44
359.122	107.44
359.349	91.44
359.576	79.44
359.802	84.44
360.029	97.44
360.256	83.44
360.483	91.44
360.709	81.44
360.936	81.44
361.163	95.44
361.39	94.44
361.616	96.44
361.843	99.44
362.07	110.44
362.296	107.44
362.523	109.44
362.749	94.44
362.976	98.44
363.203	123.44
363.429	100.44
363.656	89.44
363.882	104.44
364.109	118.44
364.335	139.44
364.562	131.44
364.788	109.44
365.015	91.44
365.241	90.44
365.468	90.44
365.694	94.44
365.92	89.44
366.147	93.44
366.373	66.44
366.599	90.44
366.826	82.44
367.052	86.44
367.278	79.44
367.505	74.44
367.731	99.44
367.957	80.44
368.184	76.44
368.41	93.44
368.636	89.44
368.862	85.44
369.089	80.44
369.315	82.44
369.541	76.44
369.767	63.44
369.993	89.44
370.219	73.44
370.445	76.44
370.672	89.44
370.898	85.44
371.124	91.44
371.35	73.44
371.576	92.44
371.802	101.44
372.028	90.44
372.254	92.44
372.48	76.44
372.706	95.44
372.932	92.44
373.158	77.44
373.384	94.44
373.61	107.44
373.835	113.44
374.061	90.44
374.287	90.44
374.513	98.44
374.739	102.44
374.965	113.44
375.191	91.44
375.416	94.44
375.642	88.44
375.868	97.44
376.094	89.44
376.319	70.44
376.545	86.44
376.771	84.44
376.997	83.44
377.222	81.44
377.448	74.44
377.674	77.44
377.899	83.44
378.125	75.44
378.35	83.44
378.576	87.44
378.802	81.44
379.027	82.44
379.253	78.44
379.478	85.44
379.704	77.44
379.929	87.44
380.155	100.44
380.38	107.44
380.606	87.44
380.831	83.44
381.057	83.44
381.282	78.44
381.507	98.44
381.733	100.44
381.958	92.44
382.184	94.44
382.409	86.44
382.634	101.44
382.86	106.44
383.085	107.44
383.31	96.44
383.535	95.44
383.761	102.44
383.986	111.44
384.211	91.44
384.436	90.44
384.662	93.44
384.887	91.44
385.112	85.44
385.337	89.44
385.562	96.44
385.787	91.44
386.013	94.44
386.238	83.44
386.463	94.44
386.688	85.44
386.913	69.44
387.138	86.44
387.363	98.44
387.588	80.44
387.813	92.44
388.038	100.44
388.263	89.44
388.488	79.44
388.713	93.44
388.938	88.44
389.163	84.44
389.387	84.44
389.612	79.44
389.837	100.44
390.062	86.44
390.287	81.44
390.512	96.44
390.736	91.44
390.961	105.44
391.186	79.44
391.411	86.44
391.636	72.44
391.86	101.44
392.085	97.44
392.31	84.44
392.534	94.44
392.759	114.44
392.984	160.44
393.208	272.44
393.433	383.44
393.658	309.44
393.882	141.44
394.107	109.44
394.331	125.44
394.556	129.44
394.78	107.44
395.005	105.44
395.229	96.44
395.454	96.44
395.678	101.44
395.903	138.44
396.127	161.44
396.352	187.44
396.576	193.44
396.801	282.44
397.025	305.44
397.249	203.44
397.474	118.44
397.698	119.44
397.922	87.44
398.147	84.44
398.371	83.44
398.595	84.44
398.82	85.44
399.044	83.44
399.268	83.44
399.492	88.44
399.717	91.44
399.941	84.44
400.165	95.44
400.389	88.44
400.613	97.44
400.837	75.44
401.062	87.44
401.286	89.44
401.51	97.44
401.734	82.44
401.958	84.44
402.182	89.44
402.406	90.44
402.63	94.44
402.854	81.44
403.078	99.44
403.302	105.44
403.526	91.44
403.75	82.44
403.974	111.44
404.198	137.44
404.422	205.44
404.645	208.44
404.869	189.44
405.093	119.44
405.317	95.44
405.541	94.44
405.765	93.44
405.988	85.44
406.212	75.44
406.436	82.44
406.66	88.44
406.883	91.44
407.107	99.44
407.331	112.44
407.555	109.44
407.778	112.44
408.002	114.44
408.226	84.44
408.449	74.44
408.673	73.44
408.896	78.44
409.12	78.44
409.344	98.44
409.567	94.44
409.791	97.44
410.014	100.44
410.238	94.44
410.461	81.44
410.685	81.44
410.908	95.44
411.132	75.44
411.355	65.44
411.578	77.44
411.802	82.44
412.025	71.44
412.249	98.44
412.472	94.44
412.695	83.44
412.919	81.44
413.142	77.44
413.365	86.44
413.589	91.44
413.812	78.44
414.035	65.44
414.258	82.44
414.482	90.44
414.705	78.44
414.928	88.44
415.151	85.44
415.374	86.44
415.597	83.44
415.821	78.44
416.044	77.44
416.267	83.44
416.49	76.44
416.713	80.44
416.936	81.44
417.159	89.44
417.382	85.44
417.605	92.44
417.828	81.44
418.051	82.44
418.274	77.44
418.497	88.44
418.72	81.44
418.943	74.44
419.166	78.44
419.389	80.44
419.611	83.44
419.834	88.44
420.057	91.44
420.28	83.44
420.503	102.44
420.726	91.44
420.948	87.44
421.171	89.44
421.394	111.44
421.617	111.44
421.839	159.44
422.062	154.44
422.285	211.44
422.507	379.44
422.73	571.44
422.953	537.44
423.175	283.44
423.398	169.44
423.621	130.44
423.843	113.44
424.066	97.44
424.288	89.44
424.511	74.44
424.733	91.44
424.956	102.44
425.178	88.44
425.401	93.44
425.623	83.44
425.846	93.44
426.068	84.44
426.291	75.44
426.513	78.44
426.735	93.44
426.958	92.44
427.18	87.44
427.402	90.44
427.625	83.44
427.847	85.44
428.069	102.44
428.292	137.44
428.514	173.44
428.736	140.44
428.958	158.44
429.181	149.44
429.403	105.44
429.625	105.44
429.847	145.44
430.069	198.44
430.292	261.44
430.514	220.44
430.736	174.44
430.958	173.44
431.18	118.44
431.402	92.44
431.624	109.44
431.846	134.44
432.068	169.44
432.29	114.44
432.512	87.44
432.734	89.44
432.956	94.44
433.178	101.44
433.4	88.44
433.622	81.44
433.844	97.44
434.066	78.44
434.287	81.44
434.509	86.44
434.731	83.44
434.953	71.44
435.175	81.44
435.397	82.44
435.618	75.44
435.84	79.44
436.062	110.44
436.284	89.44
436.505	83.44
436.727	78.44
436.949	76.44
437.17	84.44
437.392	93.44
437.614	82.44
437.835	81.44
438.057	81.44
438.278	89.44
438.5	92.44
438.721	79.44
438.943	85.44
439.165	85.44
439.386	80.44
439.608	85.44
439.829	81.44
440.05	95.44
440.272	79.44
440.493	75.44
440.715	91.44
440.936	86.44
441.158	79.44
441.379	92.44
441.6	93.44
441.822	93.44
442.043	98.44
442.264	115.44
442.486	155.44
442.707	216.44
442.928	149.44
443.149	119.44
443.371	196.44
443.592	348.44
443.813	309.44
444.034	126.44
444.255	94.44
444.476	85.44
444.698	97.44
444.919	113.44
445.14	194.44
445.361	262.44
445.582	425.44
445.803	361.44
446.024	150.44
446.245	105.44
446.466	69.44
446.687	89.44
446.908	74.44
447.129	91.44
447.35	85.44
447.571	77.44
447.792	72.44
448.013	84.44
448.234	85.44
448.455	93.44
448.675	67.44
448.896	77.44
449.117	98.44
449.338	95.44
449.559	79.44
449.779	81.44
450	80.44
450.221	81.44
450.442	90.44
450.662	86.44
450.883	77.44
451.104	67.44
451.324	72.44
451.545	94.44
451.766	76.44
451.986	91.44
452.207	86.44
452.428	81.44
452.648	77.44
452.869	103.44
453.089	95.44
453.31	94.44
453.53	73.44
453.751	90.44
453.971	77.44
454.192	79.44
454.412	75.44
454.633	78.44
454.853	92.44
455.073	89.44
455.294	67.44
455.514	100.44
455.734	95.44
455.955	79.44
456.175	77.44
456.395	81.44
456.616	62.44
456.836	89.44
457.056	85.44
457.276	92.44
457.497	87.44
457.717	93.44
457.937	125.44
458.157	128.44
458.377	154.44
458.598	125.44
458.818	139.44
459.038	98.44
459.258	80.44
459.478	86.44
459.698	91.44
459.918	86.44
460.138	87.44
460.358	85.44
460.578	100.44
460.798	152.44
461.018	143.44
461.238	96.44
461.458	79.44
461.678	85.44
461.898	98.44
462.118	88.44
462.338	85.44
462.558	71.44
462.777	63.44
462.997	79.44
463.217	92.44
463.437	80.44
463.657	77.44
463.876	78.44
464.096	89.44
464.316	75.44
464.536	76.44
464.755	83.44
464.975	85.44
465.195	79.44
465.414	80.44
465.634	86.44
465.854	78.44
466.073	69.44
466.293	92.44
466.512	81.44
466.732	80.44
466.951	84.44
467.171	94.44
467.391	65.44
467.61	81.44
467.829	86.44
468.049	94.44
468.268	66.44
468.488	77.44
468.707	87.44
468.927	69.44
469.146	86.44
469.365	77.44
469.585	79.44
469.804	89.44
470.023	92.44
470.243	77.44
470.462	84.44
470.681	83.44
470.901	75.44
471.12	87.44
471.339	85.44
471.558	81.44
471.777	70.44
471.997	83.44
472.216	92.44
472.435	92.44
472.654	79.44
472.873	69.44
473.092	72.44
473.311	71.44
473.53	83.44
473.749	95.44
473.968	93.44
474.187	82.44
474.406	73.44
474.625	83.44
474.844	83.44
475.063	95.44
475.282	71.44
475.501	96.44
475.72	83.44
475.939	75.44
476.158	80.44
476.377	91.44
476.596	77.44
476.814	84.44
477.033	70.44
477.252	87.44
477.471	83.44
477.69	78.44
477.908	80.44
478.127	96.44
478.346	98.44
478.564	89.44
478.783	81.44
479.002	75.44
479.22	89.44
479.439	79.44
479.658	77.44
479.876	79.44
480.095	73.44
480.313	86.44
480.532	95.44
480.751	79.44
480.969	90.44
481.188	84.44
481.406	102.44
481.624	86.44
481.843	87.44
482.061	95.44
482.28	73.44
482.498	82.44
482.717	79.44
482.935	83.44
483.153	85.44
483.372	91.44
483.59	101.44
483.808	79.44
484.027	79.44
484.245	93.44
484.463	77.44
484.681	94.44
484.9	81.44
485.118	95.44
485.336	89.44
485.554	96.44
485.772	103.44
485.99	100.44
486.209	87.44
486.427	86.44
486.645	93.44
486.863	98.44
487.081	93.44
487.299	93.44
487.517	103.44
487.735	125.44
487.953	173.44
488.171	187.44
488.389	100.44
488.607	91.44
488.825	89.44
489.043	87.44
489.261	94.44
489.479	86.44
489.696	85.44
489.914	94.44
490.132	85.44
490.35	77.44
490.568	91.44
490.786	82.44
491.003	78.44
491.221	92.44
491.439	96.44
491.657	92.44
491.874	97.44
492.092	88.44
492.31	83.44
492.527	87.44
492.745	82.44
492.963	94.44
493.18	89.44
493.398	89.44
493.615	81.44
493.833	79.44
494.05	86.44
494.268	94.44
494.485	89.44
494.703	93.44
494.92	84.44
495.138	88.44
495.355	89.44
495.573	82.44
495.79	94.44
496.008	91.44
496.225	84.44
496.442	101.44
496.66	94.44
496.877	92.44
497.094	89.44
497.312	87.44
497.529	81.44
497.746	89.44
497.963	102.44
498.181	88.44
498.398	95.44
498.615	97.44
498.832	87.44
499.049	94.44
499.267	87.44
499.484	90.44
499.701	96.44
499.918	69.44
500.135	100.44
500.352	87.44
500.569	82.44
500.786	76.44
501.003	89.44
501.22	85.44
501.437	82.44
501.654	98.44
501.871	91.44
502.088	79.44
502.305	77.44
502.522	100.44
502.739	91.44
502.956	84.44
503.172	92.44
503.389	89.44
503.606	87.44
503.823	97.44
504.04	94.44
504.256	145.44
504.473	146.44
504.69	99.44
504.907	97.44
505.123	86.44
505.34	87.44
505.557	98.44
505.773	91.44
505.99	86.44
506.207	84.44
506.423	90.44
506.64	91.44
506.856	81.44
507.073	90.44
507.289	85.44
507.506	100.44
507.722	99.44
507.939	79.44
508.155	77.44
508.372	83.44
508.588	82.44
508.805	86.44
509.021	74.44
509.238	84.44
509.454	99.44
509.67	88.44
509.887	85.44
510.103	83.44
510.319	86.44
510.536	83.44
510.752	83.44
510.968	93.44
511.184	84.44
511.401	78.44
511.617	102.44
511.833	90.44
512.049	91.44
512.265	102.44
512.481	77.44
512.698	87.44
512.914	84.44
513.13	80.44
513.346	92.44
513.562	89.44
513.778	69.44
513.994	85.44
514.21	78.44
514.426	78.44
514.642	91.44
514.858	86.44
515.074	100.44
515.29	87.44
515.506	85.44
515.721	84.44
515.937	91.44
516.153	97.44
516.369	84.44
516.585	84.44
516.801	91.44
517.016	93.44
517.232	101.44
517.448	98.44
517.664	93.44
517.879	89.44
518.095	86.44
