Data from HP_2_HRD10591_00046.txt Node
Date: Mon Jan 19 14:16:24 EST 2026
User: Yrep
Spectrometer: HR+D1059
Trigger mode: 1
Integration Time (sec): 1.000000E-1
Scans to average: 1
Electric dark correction enabled: true
Nonlinearity correction enabled: false
Boxcar width: 0
XAxis mode: Wavelengths
Number of Pixels in Spectrum: 2048
>>>>>Begin Spectral Data<<<<<
223.165	-15.19
223.4	-15.19
223.635	-15.19
223.869	-18.19
224.104	-13.19
224.338	-2.19
224.573	-18.19
224.808	-21.19
225.042	-10.19
225.277	-6.19
225.511	0.81
225.746	1.81
225.98	0.81
226.215	1.81
226.449	16.81
226.683	11.81
226.918	18.81
227.152	51.81
227.387	41.81
227.621	37.81
227.856	38.81
228.09	40.81
228.324	50.81
228.559	61.81
228.793	63.81
229.027	53.81
229.262	65.81
229.496	57.81
229.73	63.81
229.964	61.81
230.199	72.81
230.433	59.81
230.667	71.81
230.901	73.81
231.136	71.81
231.37	83.81
231.604	78.81
231.838	74.81
232.072	73.81
232.306	77.81
232.541	75.81
232.775	80.81
233.009	77.81
233.243	70.81
233.477	89.81
233.711	74.81
233.945	76.81
234.179	81.81
234.413	78.81
234.647	72.81
234.881	75.81
235.115	69.81
235.349	82.81
235.583	78.81
235.817	84.81
236.051	61.81
236.285	81.81
236.519	84.81
236.753	84.81
236.987	75.81
237.221	75.81
237.455	81.81
237.689	73.81
237.922	63.81
238.156	82.81
238.39	78.81
238.624	81.81
238.858	77.81
239.091	81.81
239.325	97.81
239.559	75.81
239.793	89.81
240.027	69.81
240.26	76.81
240.494	75.81
240.728	63.81
240.961	74.81
241.195	73.81
241.429	73.81
241.662	74.81
241.896	71.81
242.13	75.81
242.363	74.81
242.597	69.81
242.83	85.81
243.064	88.81
243.298	76.81
243.531	73.81
243.765	87.81
243.998	74.81
244.232	75.81
244.465	76.81
244.699	66.81
244.932	65.81
245.166	79.81
245.399	75.81
245.633	59.81
245.866	85.81
246.099	70.81
246.333	68.81
246.566	93.81
246.8	82.81
247.033	71.81
247.266	68.81
247.5	78.81
247.733	86.81
247.966	81.81
248.2	72.81
248.433	62.81
248.666	86.81
248.899	73.81
249.133	78.81
249.366	77.81
249.599	66.81
249.832	75.81
250.066	89.81
250.299	65.81
250.532	72.81
250.765	59.81
250.998	85.81
251.231	76.81
251.465	81.81
251.698	76.81
251.931	78.81
252.164	74.81
252.397	84.81
252.63	79.81
252.863	83.81
253.096	75.81
253.329	79.81
253.562	89.81
253.795	79.81
254.028	81.81
254.261	74.81
254.494	88.81
254.727	83.81
254.96	87.81
255.193	71.81
255.426	84.81
255.659	63.81
255.892	85.81
256.124	88.81
256.357	80.81
256.59	72.81
256.823	69.81
257.056	81.81
257.289	81.81
257.521	68.81
257.754	80.81
257.987	73.81
258.22	70.81
258.452	79.81
258.685	77.81
258.918	79.81
259.151	71.81
259.383	75.81
259.616	62.81
259.849	77.81
260.081	85.81
260.314	77.81
260.547	88.81
260.779	86.81
261.012	79.81
261.244	81.81
261.477	88.81
261.71	61.81
261.942	79.81
262.175	69.81
262.407	79.81
262.64	88.81
262.872	79.81
263.105	72.81
263.337	82.81
263.57	77.81
263.802	70.81
264.035	80.81
264.267	76.81
264.499	74.81
264.732	91.81
264.964	79.81
265.197	84.81
265.429	83.81
265.661	87.81
265.894	75.81
266.126	75.81
266.358	74.81
266.591	77.81
266.823	85.81
267.055	86.81
267.287	85.81
267.52	99.81
267.752	86.81
267.984	76.81
268.216	89.81
268.448	78.81
268.681	93.81
268.913	102.81
269.145	75.81
269.377	77.81
269.609	73.81
269.841	75.81
270.073	78.81
270.306	71.81
270.538	74.81
270.77	89.81
271.002	81.81
271.234	74.81
271.466	85.81
271.698	93.81
271.93	89.81
272.162	63.81
272.394	89.81
272.626	90.81
272.858	74.81
273.09	92.81
273.322	87.81
273.553	79.81
273.785	88.81
274.017	76.81
274.249	87.81
274.481	71.81
274.713	85.81
274.945	70.81
275.176	76.81
275.408	90.81
275.64	94.81
275.872	71.81
276.104	71.81
276.335	87.81
276.567	81.81
276.799	81.81
277.031	79.81
277.262	82.81
277.494	82.81
277.726	84.81
277.957	74.81
278.189	89.81
278.421	81.81
278.652	85.81
278.884	84.81
279.115	91.81
279.347	74.81
279.579	71.81
279.81	87.81
280.042	79.81
280.273	93.81
280.505	82.81
280.736	77.81
280.968	91.81
281.199	87.81
281.431	83.81
281.662	83.81
281.894	92.81
282.125	87.81
282.356	85.81
282.588	92.81
282.819	80.81
283.051	79.81
283.282	84.81
283.513	90.81
283.745	83.81
283.976	87.81
284.207	86.81
284.439	80.81
284.67	86.81
284.901	86.81
285.132	84.81
285.364	73.81
285.595	87.81
285.826	89.81
286.057	71.81
286.288	75.81
286.52	83.81
286.751	86.81
286.982	79.81
287.213	55.81
287.444	94.81
287.675	100.81
287.906	83.81
288.138	93.81
288.369	83.81
288.6	79.81
288.831	90.81
289.062	83.81
289.293	78.81
289.524	84.81
289.755	90.81
289.986	74.81
290.217	71.81
290.448	81.81
290.679	82.81
290.91	87.81
291.141	89.81
291.371	88.81
291.602	88.81
291.833	73.81
292.064	75.81
292.295	70.81
292.526	91.81
292.757	89.81
292.987	87.81
293.218	90.81
293.449	82.81
293.68	94.81
293.91	82.81
294.141	85.81
294.372	75.81
294.603	80.81
294.833	79.81
295.064	79.81
295.295	88.81
295.525	81.81
295.756	94.81
295.987	86.81
296.217	76.81
296.448	87.81
296.679	80.81
296.909	89.81
297.14	81.81
297.37	92.81
297.601	79.81
297.831	86.81
298.062	74.81
298.292	71.81
298.523	92.81
298.753	85.81
298.984	89.81
299.214	90.81
299.445	83.81
299.675	81.81
299.905	88.81
300.136	81.81
300.366	75.81
300.597	88.81
300.827	82.81
301.057	66.81
301.288	73.81
301.518	81.81
301.748	81.81
301.979	108.81
302.209	83.81
302.439	82.81
302.669	78.81
302.9	73.81
303.13	85.81
303.36	75.81
303.59	79.81
303.82	80.81
304.051	65.81
304.281	79.81
304.511	92.81
304.741	85.81
304.971	85.81
305.201	82.81
305.431	77.81
305.661	76.81
305.891	74.81
306.121	87.81
306.352	95.81
306.582	79.81
306.812	82.81
307.042	84.81
307.272	82.81
307.502	89.81
307.731	79.81
307.961	88.81
308.191	90.81
308.421	77.81
308.651	81.81
308.881	82.81
309.111	89.81
309.341	87.81
309.571	100.81
309.8	76.81
310.03	74.81
310.26	68.81
310.49	78.81
310.72	85.81
310.949	89.81
311.179	81.81
311.409	76.81
311.639	92.81
311.868	89.81
312.098	73.81
312.328	91.81
312.557	74.81
312.787	79.81
313.017	99.81
313.246	89.81
313.476	71.81
313.706	101.81
313.935	70.81
314.165	74.81
314.394	80.81
314.624	87.81
314.853	87.81
315.083	78.81
315.312	89.81
315.542	81.81
315.771	94.81
316.001	86.81
316.23	96.81
316.46	87.81
316.689	85.81
316.919	75.81
317.148	80.81
317.377	92.81
317.607	69.81
317.836	91.81
318.065	97.81
318.295	84.81
318.524	81.81
318.753	86.81
318.983	76.81
319.212	85.81
319.441	96.81
319.67	86.81
319.9	74.81
320.129	77.81
320.358	85.81
320.587	72.81
320.816	73.81
321.046	80.81
321.275	90.81
321.504	93.81
321.733	96.81
321.962	81.81
322.191	94.81
322.42	86.81
322.649	73.81
322.878	87.81
323.108	72.81
323.337	68.81
323.566	88.81
323.795	105.81
324.024	97.81
324.253	96.81
324.482	80.81
324.71	96.81
324.939	93.81
325.168	87.81
325.397	90.81
325.626	94.81
325.855	100.81
326.084	87.81
326.313	81.81
326.542	79.81
326.77	89.81
326.999	74.81
327.228	77.81
327.457	91.81
327.686	102.81
327.914	84.81
328.143	71.81
328.372	87.81
328.6	83.81
328.829	98.81
329.058	75.81
329.287	105.81
329.515	90.81
329.744	87.81
329.972	82.81
330.201	77.81
330.43	85.81
330.658	88.81
330.887	67.81
331.115	84.81
331.344	77.81
331.572	86.81
331.801	85.81
332.03	93.81
332.258	74.81
332.486	79.81
332.715	73.81
332.943	83.81
333.172	90.81
333.4	84.81
333.629	86.81
333.857	95.81
334.085	80.81
334.314	74.81
334.542	74.81
334.771	89.81
334.999	88.81
335.227	81.81
335.455	79.81
335.684	86.81
335.912	90.81
336.14	83.81
336.369	83.81
336.597	74.81
336.825	79.81
337.053	91.81
337.281	94.81
337.51	73.81
337.738	78.81
337.966	70.81
338.194	86.81
338.422	84.81
338.65	84.81
338.878	86.81
339.106	85.81
339.334	81.81
339.562	93.81
339.79	86.81
340.018	93.81
340.246	93.81
340.474	90.81
340.702	84.81
340.93	85.81
341.158	86.81
341.386	86.81
341.614	82.81
341.842	90.81
342.07	86.81
342.298	82.81
342.526	82.81
342.754	83.81
342.981	89.81
343.209	83.81
343.437	89.81
343.665	83.81
343.893	87.81
344.12	88.81
344.348	82.81
344.576	86.81
344.804	86.81
345.031	90.81
345.259	86.81
345.487	75.81
345.714	100.81
345.942	70.81
346.17	82.81
346.397	83.81
346.625	87.81
346.853	95.81
347.08	87.81
347.308	92.81
347.535	78.81
347.763	91.81
347.99	88.81
348.218	89.81
348.445	84.81
348.673	81.81
348.9	82.81
349.128	73.81
349.355	75.81
349.583	79.81
349.81	83.81
350.037	80.81
350.265	97.81
350.492	83.81
350.72	66.81
350.947	74.81
351.174	80.81
351.402	84.81
351.629	88.81
351.856	85.81
352.083	79.81
352.311	74.81
352.538	79.81
352.765	95.81
352.992	94.81
353.22	89.81
353.447	85.81
353.674	83.81
353.901	83.81
354.128	71.81
354.355	82.81
354.583	87.81
354.81	95.81
355.037	70.81
355.264	86.81
355.491	73.81
355.718	74.81
355.945	74.81
356.172	81.81
356.399	81.81
356.626	81.81
356.853	88.81
357.08	89.81
357.307	94.81
357.534	81.81
357.761	84.81
357.988	85.81
358.215	74.81
358.441	88.81
358.668	90.81
358.895	79.81
359.122	83.81
359.349	76.81
359.576	87.81
359.802	88.81
360.029	71.81
360.256	77.81
360.483	90.81
360.709	75.81
360.936	93.81
361.163	92.81
361.39	90.81
361.616	74.81
361.843	89.81
362.07	81.81
362.296	81.81
362.523	86.81
362.749	105.81
362.976	92.81
363.203	98.81
363.429	83.81
363.656	78.81
363.882	79.81
364.109	87.81
364.335	91.81
364.562	90.81
364.788	87.81
365.015	90.81
365.241	95.81
365.468	78.81
365.694	90.81
365.92	98.81
366.147	82.81
366.373	80.81
366.599	79.81
366.826	91.81
367.052	82.81
367.278	84.81
367.505	97.81
367.731	91.81
367.957	80.81
368.184	77.81
368.41	81.81
368.636	83.81
368.862	65.81
369.089	86.81
369.315	94.81
369.541	86.81
369.767	84.81
369.993	82.81
370.219	85.81
370.445	86.81
370.672	89.81
370.898	87.81
371.124	89.81
371.35	82.81
371.576	88.81
371.802	85.81
372.028	87.81
372.254	79.81
372.48	86.81
372.706	85.81
372.932	85.81
373.158	80.81
373.384	93.81
373.61	93.81
373.835	99.81
374.061	87.81
374.287	84.81
374.513	82.81
374.739	81.81
374.965	87.81
375.191	86.81
375.416	93.81
375.642	98.81
375.868	91.81
376.094	102.81
376.319	81.81
376.545	81.81
376.771	97.81
376.997	81.81
377.222	81.81
377.448	82.81
377.674	73.81
377.899	84.81
378.125	89.81
378.35	75.81
378.576	93.81
378.802	70.81
379.027	84.81
379.253	80.81
379.478	80.81
379.704	85.81
379.929	72.81
380.155	89.81
380.38	79.81
380.606	84.81
380.831	83.81
381.057	68.81
381.282	89.81
381.507	87.81
381.733	87.81
381.958	89.81
382.184	84.81
382.409	87.81
382.634	97.81
382.86	89.81
383.085	85.81
383.31	82.81
383.535	80.81
383.761	81.81
383.986	95.81
384.211	87.81
384.436	81.81
384.662	69.81
384.887	81.81
385.112	86.81
385.337	79.81
385.562	71.81
385.787	81.81
386.013	80.81
386.238	80.81
386.463	82.81
386.688	97.81
386.913	86.81
387.138	75.81
387.363	87.81
387.588	83.81
387.813	81.81
388.038	103.81
388.263	97.81
388.488	92.81
388.713	91.81
388.938	89.81
389.163	65.81
389.387	81.81
389.612	100.81
389.837	93.81
390.062	80.81
390.287	96.81
390.512	69.81
390.736	75.81
390.961	82.81
391.186	91.81
391.411	78.81
391.636	80.81
391.86	89.81
392.085	105.81
392.31	85.81
392.534	89.81
392.759	89.81
392.984	90.81
393.208	111.81
393.433	145.81
393.658	124.81
393.882	102.81
394.107	95.81
394.331	83.81
394.556	84.81
394.78	102.81
395.005	73.81
395.229	79.81
395.454	76.81
395.678	96.81
395.903	91.81
396.127	100.81
396.352	97.81
396.576	98.81
396.801	120.81
397.025	112.81
397.249	100.81
397.474	92.81
397.698	79.81
397.922	94.81
398.147	79.81
398.371	81.81
398.595	76.81
398.82	87.81
399.044	97.81
399.268	77.81
399.492	97.81
399.717	92.81
399.941	83.81
400.165	78.81
400.389	88.81
400.613	87.81
400.837	82.81
401.062	91.81
401.286	73.81
401.51	79.81
401.734	74.81
401.958	82.81
402.182	81.81
402.406	77.81
402.63	83.81
402.854	99.81
403.078	81.81
403.302	86.81
403.526	93.81
403.75	79.81
403.974	83.81
404.198	87.81
404.422	107.81
404.645	112.81
404.869	88.81
405.093	87.81
405.317	85.81
405.541	89.81
405.765	92.81
405.988	89.81
406.212	77.81
406.436	84.81
406.66	73.81
406.883	90.81
407.107	80.81
407.331	74.81
407.555	85.81
407.778	98.81
408.002	101.81
408.226	89.81
408.449	82.81
408.673	79.81
408.896	80.81
409.12	91.81
409.344	91.81
409.567	76.81
409.791	83.81
410.014	80.81
410.238	87.81
410.461	67.81
410.685	89.81
410.908	74.81
411.132	85.81
411.355	73.81
411.578	82.81
411.802	79.81
412.025	84.81
412.249	84.81
412.472	73.81
412.695	75.81
412.919	87.81
413.142	82.81
413.365	92.81
413.589	81.81
413.812	83.81
414.035	93.81
414.258	93.81
414.482	83.81
414.705	88.81
414.928	90.81
415.151	97.81
415.374	89.81
415.597	83.81
415.821	91.81
416.044	79.81
416.267	82.81
416.49	74.81
416.713	85.81
416.936	102.81
417.159	84.81
417.382	84.81
417.605	84.81
417.828	84.81
418.051	91.81
418.274	79.81
418.497	87.81
418.72	84.81
418.943	93.81
419.166	82.81
419.389	85.81
419.611	81.81
419.834	82.81
420.057	81.81
420.28	77.81
420.503	80.81
420.726	75.81
420.948	73.81
421.171	96.81
421.394	94.81
421.617	82.81
421.839	80.81
422.062	88.81
422.285	113.81
422.507	150.81
422.73	180.81
422.953	161.81
423.175	125.81
423.398	85.81
423.621	90.81
423.843	79.81
424.066	82.81
424.288	91.81
424.511	83.81
424.733	81.81
424.956	90.81
425.178	87.81
425.401	85.81
425.623	78.81
425.846	89.81
426.068	78.81
426.291	81.81
426.513	97.81
426.735	92.81
426.958	83.81
427.18	79.81
427.402	99.81
427.625	87.81
427.847	81.81
428.069	83.81
428.292	86.81
428.514	93.81
428.736	97.81
428.958	98.81
429.181	91.81
429.403	89.81
429.625	101.81
429.847	89.81
430.069	109.81
430.292	122.81
430.514	117.81
430.736	106.81
430.958	103.81
431.18	91.81
431.402	88.81
431.624	100.81
431.846	95.81
432.068	101.81
432.29	94.81
432.512	93.81
432.734	82.81
432.956	77.81
433.178	78.81
433.4	83.81
433.622	93.81
433.844	98.81
434.066	82.81
434.287	83.81
434.509	76.81
434.731	101.81
434.953	89.81
435.175	86.81
435.397	88.81
435.618	84.81
435.84	85.81
436.062	82.81
436.284	103.81
436.505	91.81
436.727	87.81
436.949	75.81
437.17	82.81
437.392	72.81
437.614	79.81
437.835	90.81
438.057	81.81
438.278	62.81
438.5	79.81
438.721	74.81
438.943	71.81
439.165	87.81
439.386	90.81
439.608	79.81
439.829	80.81
440.05	91.81
440.272	91.81
440.493	88.81
440.715	85.81
440.936	86.81
441.158	97.81
441.379	85.81
441.6	85.81
441.822	84.81
442.043	72.81
442.264	76.81
442.486	90.81
442.707	107.81
442.928	81.81
443.149	87.81
443.371	105.81
443.592	142.81
443.813	121.81
444.034	99.81
444.255	85.81
444.476	90.81
444.698	71.81
444.919	88.81
445.14	169.81
445.361	137.81
445.582	157.81
445.803	138.81
446.024	89.81
446.245	71.81
446.466	81.81
446.687	78.81
446.908	73.81
447.129	88.81
447.35	85.81
447.571	87.81
447.792	81.81
448.013	83.81
448.234	86.81
448.455	65.81
448.675	85.81
448.896	73.81
449.117	97.81
449.338	89.81
449.559	89.81
449.779	76.81
450	84.81
450.221	58.81
450.442	73.81
450.662	86.81
450.883	80.81
451.104	85.81
451.324	73.81
451.545	78.81
451.766	75.81
451.986	81.81
452.207	79.81
452.428	86.81
452.648	105.81
452.869	90.81
453.089	86.81
453.31	97.81
453.53	91.81
453.751	90.81
453.971	78.81
454.192	87.81
454.412	91.81
454.633	77.81
454.853	81.81
455.073	79.81
455.294	83.81
455.514	86.81
455.734	89.81
455.955	79.81
456.175	77.81
456.395	79.81
456.616	73.81
456.836	83.81
457.056	81.81
457.276	80.81
457.497	78.81
457.717	88.81
457.937	87.81
458.157	86.81
458.377	69.81
458.598	80.81
458.818	93.81
459.038	83.81
459.258	89.81
459.478	80.81
459.698	80.81
459.918	89.81
460.138	81.81
460.358	97.81
460.578	89.81
460.798	94.81
461.018	105.81
461.238	80.81
461.458	81.81
461.678	82.81
461.898	89.81
462.118	85.81
462.338	87.81
462.558	75.81
462.777	74.81
462.997	86.81
463.217	65.81
463.437	74.81
463.657	75.81
463.876	86.81
464.096	79.81
464.316	80.81
464.536	83.81
464.755	85.81
464.975	85.81
465.195	81.81
465.414	77.81
465.634	83.81
465.854	77.81
466.073	73.81
466.293	77.81
466.512	88.81
466.732	89.81
466.951	82.81
467.171	73.81
467.391	89.81
467.61	97.81
467.829	73.81
468.049	78.81
468.268	85.81
468.488	83.81
468.707	87.81
468.927	87.81
469.146	80.81
469.365	71.81
469.585	79.81
469.804	75.81
470.023	86.81
470.243	67.81
470.462	71.81
470.681	66.81
470.901	75.81
471.12	89.81
471.339	90.81
471.558	80.81
471.777	68.81
471.997	78.81
472.216	88.81
472.435	86.81
472.654	81.81
472.873	81.81
473.092	76.81
473.311	71.81
473.53	79.81
473.749	79.81
473.968	86.81
474.187	85.81
474.406	83.81
474.625	90.81
474.844	86.81
475.063	71.81
475.282	76.81
475.501	76.81
475.72	75.81
475.939	75.81
476.158	91.81
476.377	74.81
476.596	85.81
476.814	69.81
477.033	89.81
477.252	93.81
477.471	71.81
477.69	70.81
477.908	83.81
478.127	92.81
478.346	82.81
478.564	81.81
478.783	81.81
479.002	73.81
479.22	81.81
479.439	96.81
479.658	85.81
479.876	79.81
480.095	87.81
480.313	76.81
480.532	89.81
480.751	82.81
480.969	84.81
481.188	90.81
481.406	76.81
481.624	93.81
481.843	79.81
482.061	88.81
482.28	75.81
482.498	89.81
482.717	87.81
482.935	77.81
483.153	94.81
483.372	84.81
483.59	81.81
483.808	81.81
484.027	95.81
484.245	85.81
484.463	79.81
484.681	83.81
484.9	85.81
485.118	93.81
485.336	79.81
485.554	83.81
485.772	74.81
485.99	73.81
486.209	76.81
486.427	87.81
486.645	83.81
486.863	83.81
487.081	84.81
487.299	91.81
487.517	83.81
487.735	103.81
487.953	109.81
488.171	99.81
488.389	104.81
488.607	93.81
488.825	81.81
489.043	90.81
489.261	72.81
489.479	78.81
489.696	86.81
489.914	65.81
490.132	70.81
490.35	59.81
490.568	81.81
490.786	99.81
491.003	82.81
491.221	79.81
491.439	78.81
491.657	88.81
491.874	87.81
492.092	88.81
492.31	83.81
492.527	78.81
492.745	94.81
492.963	85.81
493.18	107.81
493.398	75.81
493.615	94.81
493.833	83.81
494.05	79.81
494.268	81.81
494.485	76.81
494.703	86.81
494.92	78.81
495.138	83.81
495.355	90.81
495.573	76.81
495.79	81.81
496.008	94.81
496.225	85.81
496.442	87.81
496.66	89.81
496.877	80.81
497.094	87.81
497.312	96.81
497.529	73.81
497.746	93.81
497.963	76.81
498.181	88.81
498.398	86.81
498.615	74.81
498.832	96.81
499.049	75.81
499.267	84.81
499.484	85.81
499.701	89.81
499.918	102.81
500.135	92.81
500.352	86.81
500.569	75.81
500.786	76.81
501.003	74.81
501.22	79.81
501.437	91.81
501.654	99.81
501.871	78.81
502.088	83.81
502.305	83.81
502.522	84.81
502.739	98.81
502.956	74.81
503.172	87.81
503.389	89.81
503.606	82.81
503.823	87.81
504.04	82.81
504.256	94.81
504.473	97.81
504.69	97.81
504.907	81.81
505.123	86.81
505.34	76.81
505.557	82.81
505.773	85.81
505.99	93.81
506.207	76.81
506.423	92.81
506.64	85.81
506.856	88.81
507.073	79.81
507.289	81.81
507.506	74.81
507.722	75.81
507.939	90.81
508.155	82.81
508.372	81.81
508.588	103.81
508.805	78.81
509.021	87.81
509.238	95.81
509.454	82.81
509.67	85.81
509.887	79.81
510.103	63.81
510.319	94.81
510.536	86.81
510.752	87.81
510.968	73.81
511.184	74.81
511.401	90.81
511.617	90.81
511.833	71.81
512.049	89.81
512.265	65.81
512.481	78.81
512.698	82.81
512.914	82.81
513.13	83.81
513.346	83.81
513.562	89.81
513.778	77.81
513.994	104.81
514.21	91.81
514.426	73.81
514.642	87.81
514.858	87.81
515.074	81.81
515.29	70.81
515.506	83.81
515.721	74.81
515.937	85.81
516.153	83.81
516.369	90.81
516.585	90.81
516.801	72.81
517.016	75.81
517.232	77.81
517.448	87.81
517.664	87.81
517.879	86.81
518.095	87.81
518.311	90.81
518.527	74.81
518.742	95.81
518.958	94.81
519.173	113.81
519.389	106.81
