Data from HP_2_HRD10591_00028.txt Node
Date: Mon Jan 19 14:16:15 EST 2026
User: Yrep
Spectrometer: HR+D1059
Trigger mode: 1
Integration Time (sec): 1.000000E-1
Scans to average: 1
Electric dark correction enabled: true
Nonlinearity correction enabled: false
Boxcar width: 0
XAxis mode: Wavelengths
Number of Pixels in Spectrum: 2048
>>>>>Begin Spectral Data<<<<<
223.165	-20.31
223.4	-20.31
223.635	-20.31
223.869	-27.31
224.104	-14.31
224.338	-10.31
224.573	-29.31
224.808	2.69
225.042	-10.31
225.277	2.69
225.511	-13.31
225.746	0.69
225.98	-1.31
226.215	12.69
226.449	34.69
226.683	40.69
226.918	10.69
227.152	21.69
227.387	22.69
227.621	45.69
227.856	58.69
228.09	43.69
228.324	39.69
228.559	52.69
228.793	64.69
229.027	54.69
229.262	72.69
229.496	58.69
229.73	74.69
229.964	65.69
230.199	76.69
230.433	72.69
230.667	81.69
230.901	62.69
231.136	73.69
231.37	68.69
231.604	80.69
231.838	80.69
232.072	70.69
232.306	76.69
232.541	80.69
232.775	72.69
233.009	79.69
233.243	73.69
233.477	65.69
233.711	73.69
233.945	70.69
234.179	71.69
234.413	79.69
234.647	90.69
234.881	78.69
235.115	75.69
235.349	75.69
235.583	73.69
235.817	60.69
236.051	60.69
236.285	82.69
236.519	74.69
236.753	78.69
236.987	66.69
237.221	61.69
237.455	66.69
237.689	68.69
237.922	69.69
238.156	78.69
238.39	74.69
238.624	71.69
238.858	69.69
239.091	71.69
239.325	80.69
239.559	74.69
239.793	82.69
240.027	78.69
240.26	79.69
240.494	82.69
240.728	64.69
240.961	64.69
241.195	73.69
241.429	73.69
241.662	75.69
241.896	59.69
242.13	70.69
242.363	70.69
242.597	66.69
242.83	69.69
243.064	74.69
243.298	86.69
243.531	81.69
243.765	69.69
243.998	62.69
244.232	76.69
244.465	66.69
244.699	75.69
244.932	66.69
245.166	72.69
245.399	77.69
245.633	66.69
245.866	72.69
246.099	80.69
246.333	72.69
246.566	78.69
246.8	70.69
247.033	79.69
247.266	68.69
247.5	74.69
247.733	76.69
247.966	57.69
248.2	74.69
248.433	74.69
248.666	92.69
248.899	70.69
249.133	88.69
249.366	65.69
249.599	82.69
249.832	86.69
250.066	79.69
250.299	72.69
250.532	89.69
250.765	69.69
250.998	75.69
251.231	72.69
251.465	78.69
251.698	58.69
251.931	92.69
252.164	87.69
252.397	88.69
252.63	69.69
252.863	67.69
253.096	57.69
253.329	63.69
253.562	73.69
253.795	72.69
254.028	76.69
254.261	75.69
254.494	67.69
254.727	80.69
254.96	79.69
255.193	84.69
255.426	85.69
255.659	74.69
255.892	81.69
256.124	85.69
256.357	79.69
256.59	80.69
256.823	58.69
257.056	83.69
257.289	78.69
257.521	86.69
257.754	85.69
257.987	78.69
258.22	72.69
258.452	66.69
258.685	68.69
258.918	84.69
259.151	71.69
259.383	65.69
259.616	83.69
259.849	72.69
260.081	85.69
260.314	80.69
260.547	68.69
260.779	86.69
261.012	87.69
261.244	85.69
261.477	81.69
261.71	80.69
261.942	78.69
262.175	75.69
262.407	68.69
262.64	69.69
262.872	85.69
263.105	74.69
263.337	82.69
263.57	76.69
263.802	97.69
264.035	81.69
264.267	81.69
264.499	72.69
264.732	85.69
264.964	72.69
265.197	70.69
265.429	84.69
265.661	79.69
265.894	70.69
266.126	81.69
266.358	74.69
266.591	88.69
266.823	65.69
267.055	87.69
267.287	81.69
267.52	70.69
267.752	85.69
267.984	78.69
268.216	86.69
268.448	73.69
268.681	95.69
268.913	96.69
269.145	80.69
269.377	99.69
269.609	75.69
269.841	79.69
270.073	73.69
270.306	80.69
270.538	76.69
270.77	79.69
271.002	72.69
271.234	76.69
271.466	87.69
271.698	79.69
271.93	79.69
272.162	87.69
272.394	74.69
272.626	63.69
272.858	82.69
273.09	88.69
273.322	71.69
273.553	81.69
273.785	85.69
274.017	77.69
274.249	96.69
274.481	77.69
274.713	73.69
274.945	87.69
275.176	81.69
275.408	77.69
275.64	81.69
275.872	75.69
276.104	82.69
276.335	82.69
276.567	89.69
276.799	72.69
277.031	86.69
277.262	66.69
277.494	78.69
277.726	77.69
277.957	84.69
278.189	80.69
278.421	73.69
278.652	91.69
278.884	72.69
279.115	101.69
279.347	76.69
279.579	82.69
279.81	78.69
280.042	78.69
280.273	73.69
280.505	69.69
280.736	74.69
280.968	79.69
281.199	78.69
281.431	68.69
281.662	78.69
281.894	93.69
282.125	91.69
282.356	89.69
282.588	70.69
282.819	82.69
283.051	72.69
283.282	61.69
283.513	72.69
283.745	78.69
283.976	84.69
284.207	70.69
284.439	92.69
284.67	79.69
284.901	80.69
285.132	80.69
285.364	86.69
285.595	84.69
285.826	86.69
286.057	85.69
286.288	73.69
286.52	73.69
286.751	89.69
286.982	98.69
287.213	89.69
287.444	86.69
287.675	76.69
287.906	88.69
288.138	72.69
288.369	77.69
288.6	80.69
288.831	84.69
289.062	80.69
289.293	96.69
289.524	78.69
289.755	83.69
289.986	84.69
290.217	82.69
290.448	68.69
290.679	96.69
290.91	80.69
291.141	79.69
291.371	87.69
291.602	78.69
291.833	76.69
292.064	80.69
292.295	87.69
292.526	70.69
292.757	92.69
292.987	79.69
293.218	82.69
293.449	80.69
293.68	76.69
293.91	77.69
294.141	81.69
294.372	80.69
294.603	98.69
294.833	93.69
295.064	82.69
295.295	66.69
295.525	90.69
295.756	77.69
295.987	86.69
296.217	79.69
296.448	86.69
296.679	74.69
296.909	76.69
297.14	90.69
297.37	80.69
297.601	72.69
297.831	80.69
298.062	83.69
298.292	98.69
298.523	74.69
298.753	72.69
298.984	92.69
299.214	79.69
299.445	84.69
299.675	98.69
299.905	70.69
300.136	82.69
300.366	90.69
300.597	78.69
300.827	83.69
301.057	86.69
301.288	73.69
301.518	85.69
301.748	88.69
301.979	95.69
302.209	77.69
302.439	78.69
302.669	86.69
302.9	89.69
303.13	92.69
303.36	80.69
303.59	82.69
303.82	85.69
304.051	96.69
304.281	92.69
304.511	101.69
304.741	80.69
304.971	81.69
305.201	88.69
305.431	76.69
305.661	86.69
305.891	80.69
306.121	82.69
306.352	69.69
306.582	90.69
306.812	78.69
307.042	84.69
307.272	75.69
307.502	76.69
307.731	69.69
307.961	87.69
308.191	92.69
308.421	100.69
308.651	94.69
308.881	94.69
309.111	98.69
309.341	90.69
309.571	85.69
309.8	92.69
310.03	80.69
310.26	75.69
310.49	78.69
310.72	83.69
310.949	78.69
311.179	85.69
311.409	82.69
311.639	69.69
311.868	77.69
312.098	75.69
312.328	72.69
312.557	100.69
312.787	80.69
313.017	105.69
313.246	85.69
313.476	81.69
313.706	66.69
313.935	72.69
314.165	91.69
314.394	102.69
314.624	88.69
314.853	90.69
315.083	79.69
315.312	86.69
315.542	88.69
315.771	79.69
316.001	91.69
316.23	87.69
316.46	71.69
316.689	79.69
316.919	74.69
317.148	94.69
317.377	84.69
317.607	75.69
317.836	91.69
318.065	101.69
318.295	80.69
318.524	74.69
318.753	86.69
318.983	100.69
319.212	79.69
319.441	86.69
319.67	80.69
319.9	89.69
320.129	86.69
320.358	85.69
320.587	94.69
320.816	92.69
321.046	82.69
321.275	81.69
321.504	95.69
321.733	86.69
321.962	80.69
322.191	73.69
322.42	72.69
322.649	89.69
322.878	80.69
323.108	92.69
323.337	82.69
323.566	91.69
323.795	76.69
324.024	86.69
324.253	84.69
324.482	87.69
324.71	85.69
324.939	96.69
325.168	81.69
325.397	78.69
325.626	85.69
325.855	84.69
326.084	87.69
326.313	82.69
326.542	95.69
326.77	82.69
326.999	89.69
327.228	73.69
327.457	88.69
327.686	82.69
327.914	87.69
328.143	73.69
328.372	90.69
328.6	78.69
328.829	88.69
329.058	80.69
329.287	77.69
329.515	87.69
329.744	108.69
329.972	92.69
330.201	93.69
330.43	82.69
330.658	72.69
330.887	80.69
331.115	78.69
331.344	83.69
331.572	77.69
331.801	78.69
332.03	82.69
332.258	92.69
332.486	85.69
332.715	71.69
332.943	82.69
333.172	82.69
333.4	79.69
333.629	89.69
333.857	88.69
334.085	87.69
334.314	92.69
334.542	83.69
334.771	88.69
334.999	109.69
335.227	100.69
335.455	70.69
335.684	96.69
335.912	95.69
336.14	89.69
336.369	65.69
336.597	87.69
336.825	82.69
337.053	83.69
337.281	88.69
337.51	85.69
337.738	85.69
337.966	84.69
338.194	79.69
338.422	91.69
338.65	77.69
338.878	72.69
339.106	71.69
339.334	73.69
339.562	95.69
339.79	76.69
340.018	93.69
340.246	96.69
340.474	85.69
340.702	73.69
340.93	66.69
341.158	70.69
341.386	84.69
341.614	91.69
341.842	80.69
342.07	73.69
342.298	89.69
342.526	79.69
342.754	77.69
342.981	79.69
343.209	89.69
343.437	99.69
343.665	86.69
343.893	92.69
344.12	84.69
344.348	84.69
344.576	96.69
344.804	84.69
345.031	73.69
345.259	70.69
345.487	73.69
345.714	87.69
345.942	92.69
346.17	83.69
346.397	82.69
346.625	87.69
346.853	100.69
347.08	78.69
347.308	87.69
347.535	74.69
347.763	79.69
347.99	91.69
348.218	75.69
348.445	87.69
348.673	90.69
348.9	78.69
349.128	84.69
349.355	80.69
349.583	89.69
349.81	89.69
350.037	73.69
350.265	87.69
350.492	81.69
350.72	86.69
350.947	89.69
351.174	84.69
351.402	84.69
351.629	84.69
351.856	81.69
352.083	92.69
352.311	85.69
352.538	78.69
352.765	87.69
352.992	90.69
353.22	82.69
353.447	84.69
353.674	83.69
353.901	91.69
354.128	96.69
354.355	78.69
354.583	78.69
354.81	85.69
355.037	85.69
355.264	84.69
355.491	66.69
355.718	76.69
355.945	100.69
356.172	81.69
356.399	85.69
356.626	88.69
356.853	90.69
357.08	77.69
357.307	81.69
357.534	89.69
357.761	87.69
357.988	95.69
358.215	88.69
358.441	86.69
358.668	83.69
358.895	88.69
359.122	92.69
359.349	86.69
359.576	85.69
359.802	94.69
360.029	84.69
360.256	85.69
360.483	76.69
360.709	87.69
360.936	95.69
361.163	80.69
361.39	92.69
361.616	83.69
361.843	90.69
362.07	101.69
362.296	85.69
362.523	100.69
362.749	75.69
362.976	103.69
363.203	106.69
363.429	84.69
363.656	100.69
363.882	73.69
364.109	106.69
364.335	111.69
364.562	114.69
364.788	86.69
365.015	100.69
365.241	90.69
365.468	82.69
365.694	87.69
365.92	82.69
366.147	96.69
366.373	69.69
366.599	89.69
366.826	84.69
367.052	73.69
367.278	100.69
367.505	89.69
367.731	88.69
367.957	77.69
368.184	86.69
368.41	82.69
368.636	88.69
368.862	88.69
369.089	81.69
369.315	78.69
369.541	76.69
369.767	81.69
369.993	76.69
370.219	90.69
370.445	79.69
370.672	86.69
370.898	89.69
371.124	84.69
371.35	103.69
371.576	90.69
371.802	90.69
372.028	90.69
372.254	92.69
372.48	80.69
372.706	88.69
372.932	88.69
373.158	97.69
373.384	87.69
373.61	79.69
373.835	90.69
374.061	84.69
374.287	82.69
374.513	92.69
374.739	81.69
374.965	85.69
375.191	93.69
375.416	93.69
375.642	93.69
375.868	77.69
376.094	94.69
376.319	90.69
376.545	66.69
376.771	88.69
376.997	90.69
377.222	62.69
377.448	71.69
377.674	82.69
377.899	82.69
378.125	73.69
378.35	87.69
378.576	71.69
378.802	71.69
379.027	80.69
379.253	100.69
379.478	81.69
379.704	86.69
379.929	84.69
380.155	82.69
380.38	68.69
380.606	86.69
380.831	78.69
381.057	81.69
381.282	81.69
381.507	85.69
381.733	89.69
381.958	81.69
382.184	82.69
382.409	85.69
382.634	84.69
382.86	86.69
383.085	82.69
383.31	80.69
383.535	85.69
383.761	94.69
383.986	80.69
384.211	90.69
384.436	80.69
384.662	100.69
384.887	77.69
385.112	99.69
385.337	88.69
385.562	77.69
385.787	91.69
386.013	89.69
386.238	74.69
386.463	69.69
386.688	94.69
386.913	76.69
387.138	98.69
387.363	82.69
387.588	88.69
387.813	89.69
388.038	84.69
388.263	73.69
388.488	86.69
388.713	81.69
388.938	68.69
389.163	85.69
389.387	82.69
389.612	82.69
389.837	92.69
390.062	94.69
390.287	87.69
390.512	91.69
390.736	92.69
390.961	93.69
391.186	78.69
391.411	84.69
391.636	90.69
391.86	99.69
392.085	78.69
392.31	86.69
392.534	85.69
392.759	99.69
392.984	128.69
393.208	161.69
393.433	201.69
393.658	173.69
393.882	110.69
394.107	97.69
394.331	103.69
394.556	116.69
394.78	97.69
395.005	98.69
395.229	85.69
395.454	81.69
395.678	93.69
395.903	97.69
396.127	133.69
396.352	109.69
396.576	132.69
396.801	148.69
397.025	176.69
397.249	135.69
397.474	103.69
397.698	100.69
397.922	79.69
398.147	84.69
398.371	86.69
398.595	74.69
398.82	83.69
399.044	72.69
399.268	94.69
399.492	72.69
399.717	86.69
399.941	63.69
400.165	85.69
400.389	79.69
400.613	74.69
400.837	78.69
401.062	90.69
401.286	65.69
401.51	79.69
401.734	85.69
401.958	90.69
402.182	82.69
402.406	82.69
402.63	74.69
402.854	73.69
403.078	74.69
403.302	89.69
403.526	74.69
403.75	90.69
403.974	97.69
404.198	95.69
404.422	137.69
404.645	155.69
404.869	124.69
405.093	91.69
405.317	83.69
405.541	86.69
405.765	80.69
405.988	75.69
406.212	77.69
406.436	95.69
406.66	86.69
406.883	75.69
407.107	81.69
407.331	77.69
407.555	89.69
407.778	95.69
408.002	90.69
408.226	80.69
408.449	79.69
408.673	95.69
408.896	80.69
409.12	92.69
409.344	85.69
409.567	93.69
409.791	110.69
410.014	84.69
410.238	92.69
410.461	81.69
410.685	77.69
410.908	80.69
411.132	87.69
411.355	95.69
411.578	89.69
411.802	66.69
412.025	92.69
412.249	82.69
412.472	92.69
412.695	73.69
412.919	94.69
413.142	97.69
413.365	89.69
413.589	84.69
413.812	67.69
414.035	87.69
414.258	88.69
414.482	83.69
414.705	79.69
414.928	84.69
415.151	100.69
415.374	66.69
415.597	86.69
415.821	83.69
416.044	80.69
416.267	78.69
416.49	66.69
416.713	95.69
416.936	74.69
417.159	85.69
417.382	66.69
417.605	80.69
417.828	83.69
418.051	92.69
418.274	88.69
418.497	86.69
418.72	76.69
418.943	97.69
419.166	74.69
419.389	66.69
419.611	84.69
419.834	78.69
420.057	84.69
420.28	97.69
420.503	87.69
420.726	80.69
420.948	84.69
421.171	90.69
421.394	77.69
421.617	101.69
421.839	110.69
422.062	110.69
422.285	153.69
422.507	229.69
422.73	355.69
422.953	308.69
423.175	194.69
423.398	118.69
423.621	97.69
423.843	101.69
424.066	71.69
424.288	90.69
424.511	110.69
424.733	89.69
424.956	77.69
425.178	89.69
425.401	80.69
425.623	71.69
425.846	82.69
426.068	78.69
426.291	78.69
426.513	77.69
426.735	67.69
426.958	73.69
427.18	84.69
427.402	101.69
427.625	92.69
427.847	99.69
428.069	92.69
428.292	112.69
428.514	113.69
428.736	95.69
428.958	116.69
429.181	120.69
429.403	88.69
429.625	85.69
429.847	113.69
430.069	147.69
430.292	176.69
430.514	162.69
430.736	126.69
430.958	122.69
431.18	101.69
431.402	77.69
431.624	94.69
431.846	121.69
432.068	108.69
432.29	100.69
432.512	86.69
432.734	75.69
432.956	87.69
433.178	101.69
433.4	85.69
433.622	88.69
433.844	88.69
434.066	80.69
434.287	89.69
434.509	80.69
434.731	94.69
434.953	82.69
435.175	85.69
435.397	87.69
435.618	92.69
435.84	88.69
436.062	73.69
436.284	84.69
436.505	95.69
436.727	78.69
436.949	75.69
437.17	85.69
437.392	86.69
437.614	83.69
437.835	93.69
438.057	72.69
438.278	81.69
438.5	94.69
438.721	68.69
438.943	79.69
439.165	81.69
439.386	72.69
439.608	79.69
439.829	80.69
440.05	88.69
440.272	87.69
440.493	93.69
440.715	83.69
440.936	80.69
441.158	64.69
441.379	71.69
441.6	89.69
441.822	72.69
442.043	72.69
442.264	98.69
442.486	130.69
442.707	154.69
442.928	106.69
443.149	95.69
443.371	128.69
443.592	229.69
443.813	198.69
444.034	114.69
444.255	91.69
444.476	90.69
444.698	90.69
444.919	102.69
445.14	173.69
445.361	195.69
445.582	259.69
445.803	222.69
446.024	110.69
446.245	92.69
446.466	94.69
446.687	73.69
446.908	85.69
447.129	86.69
447.35	78.69
447.571	84.69
447.792	85.69
448.013	80.69
448.234	76.69
448.455	88.69
448.675	69.69
448.896	83.69
449.117	80.69
449.338	94.69
449.559	80.69
449.779	71.69
450	88.69
450.221	80.69
450.442	68.69
450.662	83.69
450.883	86.69
451.104	80.69
451.324	73.69
451.545	76.69
451.766	78.69
451.986	94.69
452.207	86.69
452.428	79.69
452.648	82.69
452.869	86.69
453.089	77.69
453.31	82.69
453.53	80.69
453.751	75.69
453.971	72.69
454.192	75.69
454.412	74.69
454.633	80.69
454.853	80.69
455.073	84.69
455.294	86.69
455.514	92.69
455.734	82.69
455.955	90.69
456.175	84.69
456.395	78.69
456.616	79.69
456.836	90.69
457.056	85.69
457.276	91.69
457.497	85.69
457.717	75.69
457.937	93.69
458.157	101.69
458.377	104.69
458.598	104.69
458.818	102.69
459.038	79.69
459.258	85.69
459.478	81.69
459.698	62.69
459.918	72.69
460.138	80.69
460.358	85.69
460.578	100.69
460.798	122.69
461.018	115.69
461.238	87.69
461.458	91.69
461.678	80.69
461.898	76.69
462.118	80.69
462.338	99.69
462.558	84.69
462.777	94.69
462.997	84.69
463.217	84.69
463.437	87.69
463.657	67.69
463.876	86.69
464.096	75.69
464.316	68.69
464.536	80.69
464.755	98.69
464.975	70.69
465.195	91.69
465.414	88.69
465.634	79.69
465.854	85.69
466.073	74.69
466.293	72.69
466.512	111.69
466.732	81.69
466.951	77.69
467.171	78.69
467.391	83.69
467.61	88.69
467.829	80.69
468.049	81.69
468.268	86.69
468.488	69.69
468.707	75.69
468.927	75.69
469.146	89.69
469.365	91.69
469.585	84.69
469.804	73.69
470.023	74.69
470.243	88.69
470.462	93.69
470.681	73.69
470.901	94.69
471.12	84.69
471.339	81.69
471.558	73.69
471.777	77.69
471.997	75.69
472.216	83.69
472.435	71.69
472.654	84.69
472.873	85.69
473.092	101.69
473.311	87.69
473.53	74.69
473.749	96.69
473.968	81.69
474.187	70.69
474.406	88.69
474.625	78.69
474.844	81.69
475.063	95.69
475.282	101.69
475.501	73.69
475.72	88.69
475.939	94.69
476.158	83.69
476.377	74.69
476.596	70.69
476.814	89.69
477.033	91.69
477.252	94.69
477.471	76.69
477.69	87.69
477.908	98.69
478.127	89.69
478.346	97.69
478.564	87.69
478.783	88.69
479.002	75.69
479.22	86.69
479.439	73.69
479.658	76.69
479.876	67.69
480.095	68.69
480.313	64.69
480.532	78.69
480.751	80.69
480.969	88.69
481.188	97.69
481.406	83.69
481.624	83.69
481.843	85.69
482.061	75.69
482.28	87.69
482.498	82.69
482.717	89.69
482.935	78.69
483.153	95.69
483.372	85.69
483.59	85.69
483.808	81.69
484.027	85.69
484.245	89.69
484.463	93.69
484.681	92.69
484.9	88.69
485.118	95.69
485.336	97.69
485.554	80.69
485.772	84.69
485.99	92.69
486.209	84.69
486.427	79.69
486.645	88.69
486.863	93.69
487.081	88.69
487.299	78.69
487.517	81.69
487.735	112.69
487.953	134.69
488.171	136.69
488.389	83.69
488.607	88.69
488.825	83.69
489.043	86.69
489.261	90.69
489.479	101.69
489.696	72.69
489.914	90.69
490.132	86.69
490.35	84.69
490.568	82.69
490.786	90.69
491.003	98.69
491.221	89.69
491.439	73.69
491.657	74.69
491.874	88.69
492.092	108.69
492.31	82.69
492.527	89.69
492.745	88.69
492.963	77.69
493.18	90.69
493.398	103.69
493.615	70.69
493.833	96.69
494.05	86.69
494.268	87.69
494.485	87.69
494.703	93.69
494.92	84.69
495.138	84.69
495.355	83.69
495.573	83.69
495.79	85.69
496.008	84.69
496.225	97.69
496.442	96.69
496.66	84.69
496.877	79.69
497.094	92.69
497.312	87.69
497.529	94.69
497.746	80.69
497.963	88.69
498.181	91.69
498.398	100.69
498.615	100.69
498.832	80.69
499.049	81.69
499.267	89.69
499.484	87.69
499.701	82.69
499.918	84.69
500.135	88.69
500.352	93.69
500.569	73.69
500.786	84.69
501.003	90.69
501.22	77.69
501.437	78.69
501.654	90.69
501.871	91.69
502.088	73.69
502.305	93.69
502.522	92.69
502.739	82.69
502.956	79.69
503.172	84.69
503.389	78.69
503.606	100.69
503.823	83.69
504.04	86.69
504.256	127.69
504.473	108.69
504.69	94.69
504.907	97.69
505.123	83.69
505.34	100.69
505.557	84.69
505.773	77.69
505.99	89.69
506.207	81.69
506.423	85.69
506.64	82.69
506.856	95.69
507.073	85.69
507.289	108.69
507.506	92.69
507.722	82.69
507.939	83.69
508.155	77.69
508.372	87.69
508.588	74.69
508.805	98.69
509.021	95.69
509.238	89.69
509.454	83.69
509.67	70.69
509.887	86.69
510.103	80.69
510.319	89.69
510.536	93.69
510.752	73.69
510.968	93.69
511.184	77.69
511.401	85.69
511.617	89.69
511.833	94.69
512.049	91.69
512.265	84.69
512.481	90.69
512.698	82.69
512.914	92.69
513.13	72.69
513.346	86.69
513.562	80.69
513.778	100.69
513.994	59.69
514.21	87.69
514.426	89.69
514.642	85.69
514.858	88.69
515.074	101.69
515.29	89.69
515.506	89.69
515.721	95.69
515.937	75.69
516.153	97.69
516.369	92.69
516.585	90.69
516.801	84.69
517.016	84.69
517.232	103.69
517.448	110.69
517.664	93.69
517.879	93.69
518.095	90.69
518.311	82.69
518.527	103.69
518.742	104.69
