Data from HP_2_HRD10591_00047.txt Node
Date: Mon Jan 19 14:16:24 EST 2026
User: Yrep
Spectrometer: HR+D1059
Trigger mode: 1
Integration Time (sec): 1.000000E-1
Scans to average: 1
Electric dark correction enabled: true
Nonlinearity correction enabled: false
Boxcar width: 0
XAxis mode: Wavelengths
Number of Pixels in Spectrum: 2048
>>>>>Begin Spectral Data<<<<<
223.165	-21.56
223.4	-21.56
223.635	-21.56
223.869	-36.56
224.104	-34.56
224.338	-22.56
224.573	-13.56
224.808	-4.56
225.042	-10.56
225.277	-10.56
225.511	-6.56
225.746	4.44
225.98	20.44
226.215	13.44
226.449	26.44
226.683	27.44
226.918	34.44
227.152	34.44
227.387	35.44
227.621	41.44
227.856	42.44
228.09	52.44
228.324	51.44
228.559	50.44
228.793	57.44
229.027	63.44
229.262	68.44
229.496	62.44
229.73	78.44
229.964	90.44
230.199	74.44
230.433	63.44
230.667	58.44
230.901	55.44
231.136	77.44
231.37	75.44
231.604	71.44
231.838	59.44
232.072	74.44
232.306	88.44
232.541	71.44
232.775	75.44
233.009	95.44
233.243	78.44
233.477	79.44
233.711	65.44
233.945	77.44
234.179	73.44
234.413	76.44
234.647	83.44
234.881	79.44
235.115	74.44
235.349	79.44
235.583	69.44
235.817	71.44
236.051	62.44
236.285	67.44
236.519	67.44
236.753	76.44
236.987	67.44
237.221	80.44
237.455	67.44
237.689	78.44
237.922	87.44
238.156	74.44
238.39	85.44
238.624	75.44
238.858	70.44
239.091	61.44
239.325	60.44
239.559	74.44
239.793	78.44
240.027	76.44
240.26	74.44
240.494	61.44
240.728	78.44
240.961	72.44
241.195	75.44
241.429	66.44
241.662	73.44
241.896	86.44
242.13	70.44
242.363	100.44
242.597	66.44
242.83	74.44
243.064	72.44
243.298	55.44
243.531	79.44
243.765	75.44
243.998	75.44
244.232	74.44
244.465	64.44
244.699	85.44
244.932	65.44
245.166	74.44
245.399	65.44
245.633	71.44
245.866	69.44
246.099	67.44
246.333	86.44
246.566	74.44
246.8	75.44
247.033	80.44
247.266	66.44
247.5	79.44
247.733	68.44
247.966	69.44
248.2	85.44
248.433	74.44
248.666	76.44
248.899	77.44
249.133	81.44
249.366	74.44
249.599	73.44
249.832	74.44
250.066	81.44
250.299	74.44
250.532	75.44
250.765	75.44
250.998	78.44
251.231	78.44
251.465	70.44
251.698	69.44
251.931	65.44
252.164	56.44
252.397	71.44
252.63	72.44
252.863	81.44
253.096	74.44
253.329	73.44
253.562	76.44
253.795	75.44
254.028	87.44
254.261	73.44
254.494	83.44
254.727	83.44
254.96	80.44
255.193	83.44
255.426	88.44
255.659	81.44
255.892	83.44
256.124	79.44
256.357	76.44
256.59	76.44
256.823	77.44
257.056	68.44
257.289	84.44
257.521	77.44
257.754	66.44
257.987	77.44
258.22	69.44
258.452	78.44
258.685	81.44
258.918	75.44
259.151	76.44
259.383	97.44
259.616	83.44
259.849	78.44
260.081	75.44
260.314	75.44
260.547	71.44
260.779	75.44
261.012	69.44
261.244	88.44
261.477	73.44
261.71	74.44
261.942	66.44
262.175	80.44
262.407	89.44
262.64	74.44
262.872	77.44
263.105	85.44
263.337	90.44
263.57	82.44
263.802	97.44
264.035	67.44
264.267	75.44
264.499	86.44
264.732	85.44
264.964	74.44
265.197	86.44
265.429	95.44
265.661	69.44
265.894	89.44
266.126	76.44
266.358	73.44
266.591	83.44
266.823	81.44
267.055	85.44
267.287	90.44
267.52	74.44
267.752	70.44
267.984	59.44
268.216	65.44
268.448	86.44
268.681	75.44
268.913	69.44
269.145	75.44
269.377	83.44
269.609	75.44
269.841	71.44
270.073	77.44
270.306	64.44
270.538	83.44
270.77	72.44
271.002	72.44
271.234	88.44
271.466	94.44
271.698	84.44
271.93	85.44
272.162	87.44
272.394	79.44
272.626	72.44
272.858	80.44
273.09	61.44
273.322	71.44
273.553	70.44
273.785	81.44
274.017	80.44
274.249	85.44
274.481	82.44
274.713	95.44
274.945	82.44
275.176	72.44
275.408	80.44
275.64	86.44
275.872	89.44
276.104	82.44
276.335	61.44
276.567	71.44
276.799	76.44
277.031	83.44
277.262	81.44
277.494	90.44
277.726	79.44
277.957	74.44
278.189	69.44
278.421	74.44
278.652	68.44
278.884	80.44
279.115	76.44
279.347	76.44
279.579	71.44
279.81	85.44
280.042	93.44
280.273	84.44
280.505	97.44
280.736	77.44
280.968	83.44
281.199	87.44
281.431	86.44
281.662	82.44
281.894	83.44
282.125	74.44
282.356	73.44
282.588	75.44
282.819	85.44
283.051	83.44
283.282	71.44
283.513	81.44
283.745	81.44
283.976	86.44
284.207	75.44
284.439	71.44
284.67	78.44
284.901	65.44
285.132	85.44
285.364	86.44
285.595	73.44
285.826	76.44
286.057	84.44
286.288	83.44
286.52	81.44
286.751	86.44
286.982	81.44
287.213	79.44
287.444	89.44
287.675	93.44
287.906	85.44
288.138	81.44
288.369	81.44
288.6	84.44
288.831	78.44
289.062	62.44
289.293	85.44
289.524	95.44
289.755	90.44
289.986	73.44
290.217	74.44
290.448	80.44
290.679	79.44
290.91	95.44
291.141	83.44
291.371	80.44
291.602	80.44
291.833	76.44
292.064	67.44
292.295	82.44
292.526	66.44
292.757	85.44
292.987	79.44
293.218	79.44
293.449	82.44
293.68	81.44
293.91	85.44
294.141	96.44
294.372	71.44
294.603	85.44
294.833	71.44
295.064	81.44
295.295	84.44
295.525	87.44
295.756	86.44
295.987	75.44
296.217	75.44
296.448	73.44
296.679	96.44
296.909	79.44
297.14	84.44
297.37	85.44
297.601	82.44
297.831	95.44
298.062	89.44
298.292	87.44
298.523	72.44
298.753	83.44
298.984	89.44
299.214	89.44
299.445	85.44
299.675	82.44
299.905	74.44
300.136	79.44
300.366	73.44
300.597	85.44
300.827	100.44
301.057	78.44
301.288	78.44
301.518	78.44
301.748	65.44
301.979	93.44
302.209	80.44
302.439	72.44
302.669	93.44
302.9	87.44
303.13	90.44
303.36	101.44
303.59	82.44
303.82	73.44
304.051	80.44
304.281	84.44
304.511	76.44
304.741	66.44
304.971	87.44
305.201	79.44
305.431	79.44
305.661	90.44
305.891	82.44
306.121	74.44
306.352	82.44
306.582	70.44
306.812	89.44
307.042	94.44
307.272	75.44
307.502	81.44
307.731	91.44
307.961	91.44
308.191	77.44
308.421	93.44
308.651	75.44
308.881	98.44
309.111	84.44
309.341	87.44
309.571	98.44
309.8	109.44
310.03	90.44
310.26	93.44
310.49	87.44
310.72	78.44
310.949	92.44
311.179	82.44
311.409	75.44
311.639	85.44
311.868	94.44
312.098	85.44
312.328	82.44
312.557	86.44
312.787	82.44
313.017	80.44
313.246	79.44
313.476	79.44
313.706	84.44
313.935	72.44
314.165	75.44
314.394	73.44
314.624	72.44
314.853	69.44
315.083	76.44
315.312	71.44
315.542	95.44
315.771	86.44
316.001	95.44
316.23	82.44
316.46	88.44
316.689	74.44
316.919	79.44
317.148	81.44
317.377	97.44
317.607	69.44
317.836	87.44
318.065	75.44
318.295	74.44
318.524	73.44
318.753	75.44
318.983	65.44
319.212	78.44
319.441	87.44
319.67	71.44
319.9	81.44
320.129	84.44
320.358	97.44
320.587	82.44
320.816	88.44
321.046	74.44
321.275	89.44
321.504	82.44
321.733	85.44
321.962	89.44
322.191	79.44
322.42	74.44
322.649	95.44
322.878	93.44
323.108	82.44
323.337	102.44
323.566	91.44
323.795	87.44
324.024	80.44
324.253	87.44
324.482	84.44
324.71	85.44
324.939	93.44
325.168	81.44
325.397	84.44
325.626	86.44
325.855	85.44
326.084	67.44
326.313	84.44
326.542	93.44
326.77	98.44
326.999	84.44
327.228	77.44
327.457	61.44
327.686	85.44
327.914	93.44
328.143	84.44
328.372	75.44
328.6	71.44
328.829	86.44
329.058	85.44
329.287	89.44
329.515	93.44
329.744	74.44
329.972	87.44
330.201	81.44
330.43	95.44
330.658	86.44
330.887	67.44
331.115	89.44
331.344	77.44
331.572	92.44
331.801	89.44
332.03	77.44
332.258	95.44
332.486	89.44
332.715	83.44
332.943	87.44
333.172	79.44
333.4	85.44
333.629	78.44
333.857	85.44
334.085	76.44
334.314	75.44
334.542	81.44
334.771	85.44
334.999	96.44
335.227	69.44
335.455	91.44
335.684	92.44
335.912	80.44
336.14	70.44
336.369	81.44
336.597	87.44
336.825	78.44
337.053	101.44
337.281	78.44
337.51	76.44
337.738	86.44
337.966	75.44
338.194	81.44
338.422	86.44
338.65	86.44
338.878	86.44
339.106	81.44
339.334	70.44
339.562	89.44
339.79	84.44
340.018	85.44
340.246	98.44
340.474	86.44
340.702	79.44
340.93	73.44
341.158	79.44
341.386	82.44
341.614	81.44
341.842	92.44
342.07	83.44
342.298	75.44
342.526	84.44
342.754	87.44
342.981	88.44
343.209	96.44
343.437	97.44
343.665	84.44
343.893	84.44
344.12	76.44
344.348	83.44
344.576	87.44
344.804	72.44
345.031	95.44
345.259	83.44
345.487	76.44
345.714	87.44
345.942	80.44
346.17	85.44
346.397	74.44
346.625	72.44
346.853	78.44
347.08	99.44
347.308	77.44
347.535	84.44
347.763	98.44
347.99	80.44
348.218	87.44
348.445	64.44
348.673	85.44
348.9	73.44
349.128	91.44
349.355	94.44
349.583	74.44
349.81	85.44
350.037	81.44
350.265	73.44
350.492	86.44
350.72	96.44
350.947	93.44
351.174	93.44
351.402	76.44
351.629	77.44
351.856	91.44
352.083	87.44
352.311	85.44
352.538	80.44
352.765	98.44
352.992	95.44
353.22	83.44
353.447	82.44
353.674	87.44
353.901	86.44
354.128	82.44
354.355	70.44
354.583	83.44
354.81	88.44
355.037	80.44
355.264	72.44
355.491	89.44
355.718	79.44
355.945	86.44
356.172	83.44
356.399	79.44
356.626	74.44
356.853	86.44
357.08	88.44
357.307	75.44
357.534	89.44
357.761	91.44
357.988	87.44
358.215	87.44
358.441	88.44
358.668	89.44
358.895	85.44
359.122	75.44
359.349	95.44
359.576	89.44
359.802	84.44
360.029	95.44
360.256	81.44
360.483	86.44
360.709	87.44
360.936	85.44
361.163	88.44
361.39	79.44
361.616	76.44
361.843	73.44
362.07	81.44
362.296	85.44
362.523	91.44
362.749	82.44
362.976	76.44
363.203	93.44
363.429	95.44
363.656	74.44
363.882	78.44
364.109	79.44
364.335	88.44
364.562	87.44
364.788	81.44
365.015	93.44
365.241	93.44
365.468	94.44
365.694	92.44
365.92	87.44
366.147	74.44
366.373	93.44
366.599	79.44
366.826	90.44
367.052	93.44
367.278	88.44
367.505	86.44
367.731	95.44
367.957	96.44
368.184	88.44
368.41	82.44
368.636	78.44
368.862	83.44
369.089	73.44
369.315	80.44
369.541	85.44
369.767	93.44
369.993	83.44
370.219	87.44
370.445	98.44
370.672	90.44
370.898	86.44
371.124	79.44
371.35	89.44
371.576	96.44
371.802	82.44
372.028	97.44
372.254	92.44
372.48	78.44
372.706	90.44
372.932	82.44
373.158	75.44
373.384	89.44
373.61	75.44
373.835	84.44
374.061	85.44
374.287	93.44
374.513	87.44
374.739	81.44
374.965	96.44
375.191	75.44
375.416	74.44
375.642	90.44
375.868	82.44
376.094	70.44
376.319	67.44
376.545	78.44
376.771	83.44
376.997	86.44
377.222	69.44
377.448	89.44
377.674	73.44
377.899	79.44
378.125	67.44
378.35	85.44
378.576	74.44
378.802	74.44
379.027	90.44
379.253	88.44
379.478	83.44
379.704	89.44
379.929	85.44
380.155	86.44
380.38	89.44
380.606	80.44
380.831	78.44
381.057	97.44
381.282	73.44
381.507	82.44
381.733	85.44
381.958	88.44
382.184	80.44
382.409	82.44
382.634	73.44
382.86	82.44
383.085	89.44
383.31	84.44
383.535	89.44
383.761	75.44
383.986	83.44
384.211	82.44
384.436	74.44
384.662	85.44
384.887	71.44
385.112	80.44
385.337	65.44
385.562	82.44
385.787	98.44
386.013	88.44
386.238	93.44
386.463	83.44
386.688	99.44
386.913	90.44
387.138	85.44
387.363	88.44
387.588	95.44
387.813	77.44
388.038	85.44
388.263	87.44
388.488	82.44
388.713	82.44
388.938	89.44
389.163	83.44
389.387	87.44
389.612	79.44
389.837	93.44
390.062	76.44
390.287	67.44
390.512	84.44
390.736	93.44
390.961	76.44
391.186	82.44
391.411	81.44
391.636	79.44
391.86	83.44
392.085	69.44
392.31	74.44
392.534	79.44
392.759	87.44
392.984	90.44
393.208	113.44
393.433	121.44
393.658	110.44
393.882	86.44
394.107	97.44
394.331	84.44
394.556	78.44
394.78	75.44
395.005	81.44
395.229	84.44
395.454	71.44
395.678	78.44
395.903	86.44
396.127	77.44
396.352	91.44
396.576	90.44
396.801	118.44
397.025	127.44
397.249	87.44
397.474	102.44
397.698	88.44
397.922	81.44
398.147	85.44
398.371	84.44
398.595	81.44
398.82	82.44
399.044	85.44
399.268	74.44
399.492	73.44
399.717	80.44
399.941	66.44
400.165	81.44
400.389	76.44
400.613	78.44
400.837	76.44
401.062	82.44
401.286	83.44
401.51	82.44
401.734	81.44
401.958	84.44
402.182	87.44
402.406	89.44
402.63	85.44
402.854	70.44
403.078	93.44
403.302	78.44
403.526	81.44
403.75	81.44
403.974	86.44
404.198	82.44
404.422	100.44
404.645	102.44
404.869	96.44
405.093	92.44
405.317	80.44
405.541	89.44
405.765	84.44
405.988	77.44
406.212	66.44
406.436	74.44
406.66	83.44
406.883	86.44
407.107	89.44
407.331	91.44
407.555	84.44
407.778	83.44
408.002	80.44
408.226	80.44
408.449	87.44
408.673	95.44
408.896	90.44
409.12	69.44
409.344	65.44
409.567	82.44
409.791	89.44
410.014	73.44
410.238	77.44
410.461	93.44
410.685	81.44
410.908	97.44
411.132	87.44
411.355	84.44
411.578	84.44
411.802	79.44
412.025	75.44
412.249	83.44
412.472	77.44
412.695	72.44
412.919	88.44
413.142	78.44
413.365	85.44
413.589	78.44
413.812	85.44
414.035	83.44
414.258	78.44
414.482	76.44
414.705	80.44
414.928	86.44
415.151	85.44
415.374	87.44
415.597	76.44
415.821	86.44
416.044	99.44
416.267	79.44
416.49	78.44
416.713	76.44
416.936	71.44
417.159	69.44
417.382	81.44
417.605	72.44
417.828	79.44
418.051	73.44
418.274	79.44
418.497	81.44
418.72	95.44
418.943	80.44
419.166	81.44
419.389	89.44
419.611	70.44
419.834	80.44
420.057	86.44
420.28	87.44
420.503	73.44
420.726	85.44
420.948	85.44
421.171	79.44
421.394	87.44
421.617	79.44
421.839	90.44
422.062	85.44
422.285	97.44
422.507	129.44
422.73	168.44
422.953	154.44
423.175	116.44
423.398	97.44
423.621	93.44
423.843	80.44
424.066	82.44
424.288	81.44
424.511	88.44
424.733	76.44
424.956	71.44
425.178	85.44
425.401	83.44
425.623	85.44
425.846	87.44
426.068	88.44
426.291	84.44
426.513	64.44
426.735	82.44
426.958	87.44
427.18	65.44
427.402	74.44
427.625	87.44
427.847	69.44
428.069	82.44
428.292	94.44
428.514	99.44
428.736	87.44
428.958	96.44
429.181	98.44
429.403	81.44
429.625	91.44
429.847	81.44
430.069	98.44
430.292	112.44
430.514	100.44
430.736	85.44
430.958	97.44
431.18	58.44
431.402	72.44
431.624	87.44
431.846	81.44
432.068	98.44
432.29	80.44
432.512	81.44
432.734	83.44
432.956	85.44
433.178	74.44
433.4	69.44
433.622	85.44
433.844	84.44
434.066	74.44
434.287	74.44
434.509	66.44
434.731	73.44
434.953	72.44
435.175	83.44
435.397	83.44
435.618	78.44
435.84	97.44
436.062	94.44
436.284	80.44
436.505	83.44
436.727	81.44
436.949	71.44
437.17	81.44
437.392	86.44
437.614	77.44
437.835	64.44
438.057	69.44
438.278	77.44
438.5	67.44
438.721	81.44
438.943	78.44
439.165	83.44
439.386	74.44
439.608	66.44
439.829	79.44
440.05	90.44
440.272	80.44
440.493	95.44
440.715	86.44
440.936	96.44
441.158	88.44
441.379	76.44
441.6	74.44
441.822	87.44
442.043	87.44
442.264	86.44
442.486	83.44
442.707	106.44
442.928	91.44
443.149	83.44
443.371	100.44
443.592	123.44
443.813	112.44
444.034	87.44
444.255	97.44
444.476	79.44
444.698	82.44
444.919	81.44
445.14	155.44
445.361	133.44
445.582	140.44
445.803	123.44
446.024	94.44
446.245	89.44
446.466	74.44
446.687	93.44
446.908	83.44
447.129	87.44
447.35	67.44
447.571	90.44
447.792	67.44
448.013	75.44
448.234	90.44
448.455	79.44
448.675	83.44
448.896	84.44
449.117	86.44
449.338	75.44
449.559	81.44
449.779	81.44
450	81.44
450.221	77.44
450.442	74.44
450.662	72.44
450.883	78.44
451.104	73.44
451.324	59.44
451.545	81.44
451.766	87.44
451.986	69.44
452.207	86.44
452.428	74.44
452.648	71.44
452.869	73.44
453.089	74.44
453.31	87.44
453.53	77.44
453.751	83.44
453.971	73.44
454.192	64.44
454.412	70.44
454.633	75.44
454.853	78.44
455.073	87.44
455.294	85.44
455.514	81.44
455.734	75.44
455.955	73.44
456.175	76.44
456.395	71.44
456.616	67.44
456.836	62.44
457.056	79.44
457.276	84.44
457.497	77.44
457.717	77.44
457.937	80.44
458.157	77.44
458.377	74.44
458.598	95.44
458.818	86.44
459.038	82.44
459.258	67.44
459.478	57.44
459.698	73.44
459.918	74.44
460.138	75.44
460.358	82.44
460.578	66.44
460.798	66.44
461.018	87.44
461.238	74.44
461.458	88.44
461.678	70.44
461.898	87.44
462.118	88.44
462.338	91.44
462.558	81.44
462.777	62.44
462.997	83.44
463.217	79.44
463.437	57.44
463.657	91.44
463.876	62.44
464.096	82.44
464.316	70.44
464.536	82.44
464.755	85.44
464.975	70.44
465.195	67.44
465.414	75.44
465.634	67.44
465.854	73.44
466.073	73.44
466.293	79.44
466.512	87.44
466.732	70.44
466.951	75.44
467.171	79.44
467.391	83.44
467.61	101.44
467.829	92.44
468.049	69.44
468.268	82.44
468.488	74.44
468.707	76.44
468.927	70.44
469.146	75.44
469.365	71.44
469.585	88.44
469.804	65.44
470.023	83.44
470.243	66.44
470.462	76.44
470.681	67.44
470.901	97.44
471.12	82.44
471.339	85.44
471.558	85.44
471.777	87.44
471.997	84.44
472.216	97.44
472.435	81.44
472.654	73.44
472.873	73.44
473.092	89.44
473.311	79.44
473.53	74.44
473.749	81.44
473.968	82.44
474.187	91.44
474.406	81.44
474.625	72.44
474.844	67.44
475.063	76.44
475.282	95.44
475.501	78.44
475.72	91.44
475.939	75.44
476.158	70.44
476.377	78.44
476.596	88.44
476.814	65.44
477.033	83.44
477.252	79.44
477.471	94.44
477.69	97.44
477.908	71.44
478.127	83.44
478.346	87.44
478.564	97.44
478.783	82.44
479.002	91.44
479.22	68.44
479.439	75.44
479.658	75.44
479.876	75.44
480.095	93.44
480.313	82.44
480.532	79.44
480.751	91.44
480.969	89.44
481.188	83.44
481.406	98.44
481.624	86.44
481.843	82.44
482.061	89.44
482.28	86.44
482.498	82.44
482.717	65.44
482.935	90.44
483.153	89.44
483.372	87.44
483.59	94.44
483.808	87.44
484.027	96.44
484.245	64.44
484.463	86.44
484.681	89.44
484.9	80.44
485.118	89.44
485.336	80.44
485.554	78.44
485.772	69.44
485.99	84.44
486.209	92.44
486.427	86.44
486.645	90.44
486.863	81.44
487.081	89.44
487.299	67.44
487.517	73.44
487.735	70.44
487.953	96.44
488.171	98.44
488.389	70.44
488.607	91.44
488.825	85.44
489.043	90.44
489.261	83.44
489.479	86.44
489.696	75.44
489.914	96.44
490.132	95.44
490.35	82.44
490.568	79.44
490.786	79.44
491.003	82.44
491.221	75.44
491.439	75.44
491.657	85.44
491.874	87.44
492.092	78.44
492.31	86.44
492.527	93.44
492.745	81.44
492.963	63.44
493.18	83.44
493.398	86.44
493.615	95.44
493.833	83.44
494.05	93.44
494.268	76.44
494.485	76.44
494.703	81.44
494.92	75.44
495.138	81.44
495.355	79.44
495.573	87.44
495.79	75.44
496.008	91.44
496.225	83.44
496.442	94.44
496.66	82.44
496.877	77.44
497.094	86.44
497.312	81.44
497.529	95.44
497.746	79.44
497.963	73.44
498.181	92.44
498.398	81.44
498.615	81.44
498.832	57.44
499.049	89.44
499.267	78.44
499.484	93.44
499.701	82.44
499.918	83.44
500.135	88.44
500.352	92.44
500.569	75.44
500.786	79.44
501.003	88.44
501.22	71.44
501.437	78.44
501.654	97.44
501.871	83.44
502.088	87.44
502.305	88.44
502.522	98.44
502.739	89.44
502.956	78.44
503.172	75.44
503.389	70.44
503.606	76.44
503.823	87.44
504.04	97.44
504.256	91.44
504.473	104.44
504.69	89.44
504.907	101.44
505.123	95.44
505.34	77.44
505.557	75.44
505.773	81.44
505.99	79.44
506.207	74.44
506.423	95.44
506.64	81.44
506.856	86.44
507.073	81.44
507.289	86.44
507.506	82.44
507.722	75.44
507.939	75.44
508.155	79.44
508.372	85.44
508.588	81.44
508.805	92.44
509.021	86.44
509.238	85.44
509.454	75.44
509.67	88.44
509.887	88.44
510.103	87.44
510.319	85.44
510.536	77.44
510.752	75.44
510.968	85.44
511.184	76.44
511.401	86.44
511.617	92.44
511.833	75.44
512.049	93.44
512.265	80.44
512.481	90.44
512.698	85.44
512.914	82.44
513.13	84.44
513.346	88.44
513.562	91.44
513.778	89.44
513.994	77.44
514.21	85.44
514.426	98.44
514.642	76.44
514.858	76.44
515.074	86.44
515.29	90.44
515.506	83.44
515.721	79.44
515.937	93.44
516.153	86.44
516.369	93.44
516.585	70.44
516.801	79.44
517.016	88.44
517.232	71.44
517.448	75.44
517.664	86.44
517.879	82.44
518.095	88.44
518.311	77.44
518.527	73.44
518.742	85.44
518.958	78.44
519.173	101.44
519.389	86.44
519.605	87.44
519.82	75.44
