Data from HP_2_HRD10591_00037.txt Node
Date: Mon Jan 19 14:16:19 EST 2026
User: Yrep
Spectrometer: HR+D1059
Trigger mode: 1
Integration Time (sec): 1.000000E-1
Scans to average: 1
Electric dark correction enabled: true
Nonlinearity correction enabled: false
Boxcar width: 0
XAxis mode: Wavelengths
Number of Pixels in Spectrum: 2048
>>>>>Begin Spectral Data<<<<<
223.165	-6.75
223.4	-6.75
223.635	-6.75
223.869	-17.75
224.104	-25.75
224.338	-12.75
224.573	-13.75
224.808	-19.75
225.042	-17.75
225.277	-14.75
225.511	-4.75
225.746	6.25
225.98	17.25
226.215	9.25
226.449	33.25
226.683	27.25
226.918	24.25
227.152	16.25
227.387	39.25
227.621	43.25
227.856	55.25
228.09	53.25
228.324	49.25
228.559	47.25
228.793	57.25
229.027	78.25
229.262	76.25
229.496	82.25
229.73	87.25
229.964	80.25
230.199	73.25
230.433	82.25
230.667	82.25
230.901	90.25
231.136	80.25
231.37	96.25
231.604	79.25
231.838	77.25
232.072	101.25
232.306	94.25
232.541	95.25
232.775	86.25
233.009	80.25
233.243	84.25
233.477	90.25
233.711	95.25
233.945	89.25
234.179	69.25
234.413	81.25
234.647	77.25
234.881	78.25
235.115	93.25
235.349	78.25
235.583	86.25
235.817	88.25
236.051	80.25
236.285	85.25
236.519	80.25
236.753	68.25
236.987	73.25
237.221	81.25
237.455	77.25
237.689	81.25
237.922	79.25
238.156	82.25
238.39	96.25
238.624	86.25
238.858	79.25
239.091	74.25
239.325	78.25
239.559	80.25
239.793	71.25
240.027	93.25
240.26	78.25
240.494	86.25
240.728	72.25
240.961	72.25
241.195	70.25
241.429	93.25
241.662	64.25
241.896	82.25
242.13	73.25
242.363	95.25
242.597	72.25
242.83	85.25
243.064	96.25
243.298	78.25
243.531	81.25
243.765	82.25
243.998	76.25
244.232	70.25
244.465	79.25
244.699	80.25
244.932	91.25
245.166	77.25
245.399	90.25
245.633	63.25
245.866	79.25
246.099	76.25
246.333	88.25
246.566	78.25
246.8	88.25
247.033	82.25
247.266	85.25
247.5	68.25
247.733	84.25
247.966	88.25
248.2	88.25
248.433	80.25
248.666	85.25
248.899	94.25
249.133	73.25
249.366	100.25
249.599	73.25
249.832	74.25
250.066	85.25
250.299	83.25
250.532	67.25
250.765	73.25
250.998	84.25
251.231	75.25
251.465	68.25
251.698	85.25
251.931	76.25
252.164	89.25
252.397	90.25
252.63	95.25
252.863	80.25
253.096	88.25
253.329	92.25
253.562	93.25
253.795	89.25
254.028	79.25
254.261	91.25
254.494	80.25
254.727	98.25
254.96	72.25
255.193	72.25
255.426	73.25
255.659	78.25
255.892	81.25
256.124	85.25
256.357	88.25
256.59	89.25
256.823	87.25
257.056	77.25
257.289	80.25
257.521	72.25
257.754	74.25
257.987	89.25
258.22	85.25
258.452	92.25
258.685	79.25
258.918	103.25
259.151	65.25
259.383	84.25
259.616	81.25
259.849	83.25
260.081	94.25
260.314	80.25
260.547	78.25
260.779	85.25
261.012	74.25
261.244	65.25
261.477	84.25
261.71	84.25
261.942	97.25
262.175	92.25
262.407	78.25
262.64	92.25
262.872	86.25
263.105	89.25
263.337	103.25
263.57	93.25
263.802	83.25
264.035	76.25
264.267	81.25
264.499	103.25
264.732	74.25
264.964	91.25
265.197	79.25
265.429	79.25
265.661	88.25
265.894	91.25
266.126	87.25
266.358	85.25
266.591	86.25
266.823	91.25
267.055	91.25
267.287	86.25
267.52	80.25
267.752	99.25
267.984	94.25
268.216	96.25
268.448	96.25
268.681	96.25
268.913	88.25
269.145	81.25
269.377	80.25
269.609	85.25
269.841	99.25
270.073	91.25
270.306	99.25
270.538	90.25
270.77	88.25
271.002	93.25
271.234	80.25
271.466	85.25
271.698	87.25
271.93	88.25
272.162	85.25
272.394	87.25
272.626	95.25
272.858	93.25
273.09	93.25
273.322	86.25
273.553	81.25
273.785	84.25
274.017	86.25
274.249	86.25
274.481	95.25
274.713	83.25
274.945	91.25
275.176	84.25
275.408	99.25
275.64	83.25
275.872	84.25
276.104	90.25
276.335	80.25
276.567	91.25
276.799	97.25
277.031	71.25
277.262	80.25
277.494	86.25
277.726	79.25
277.957	88.25
278.189	104.25
278.421	93.25
278.652	84.25
278.884	76.25
279.115	86.25
279.347	88.25
279.579	97.25
279.81	86.25
280.042	101.25
280.273	81.25
280.505	83.25
280.736	78.25
280.968	105.25
281.199	89.25
281.431	86.25
281.662	88.25
281.894	88.25
282.125	87.25
282.356	95.25
282.588	75.25
282.819	73.25
283.051	66.25
283.282	101.25
283.513	90.25
283.745	95.25
283.976	89.25
284.207	82.25
284.439	71.25
284.67	89.25
284.901	98.25
285.132	90.25
285.364	84.25
285.595	77.25
285.826	84.25
286.057	86.25
286.288	83.25
286.52	82.25
286.751	85.25
286.982	84.25
287.213	74.25
287.444	88.25
287.675	92.25
287.906	81.25
288.138	96.25
288.369	104.25
288.6	83.25
288.831	72.25
289.062	92.25
289.293	87.25
289.524	85.25
289.755	82.25
289.986	94.25
290.217	100.25
290.448	85.25
290.679	90.25
290.91	89.25
291.141	101.25
291.371	77.25
291.602	78.25
291.833	74.25
292.064	91.25
292.295	76.25
292.526	97.25
292.757	98.25
292.987	75.25
293.218	89.25
293.449	94.25
293.68	94.25
293.91	100.25
294.141	93.25
294.372	82.25
294.603	97.25
294.833	100.25
295.064	92.25
295.295	76.25
295.525	89.25
295.756	108.25
295.987	84.25
296.217	91.25
296.448	80.25
296.679	92.25
296.909	82.25
297.14	101.25
297.37	112.25
297.601	94.25
297.831	89.25
298.062	97.25
298.292	97.25
298.523	109.25
298.753	78.25
298.984	88.25
299.214	88.25
299.445	93.25
299.675	92.25
299.905	98.25
300.136	98.25
300.366	100.25
300.597	94.25
300.827	112.25
301.057	94.25
301.288	107.25
301.518	88.25
301.748	85.25
301.979	98.25
302.209	97.25
302.439	102.25
302.669	88.25
302.9	95.25
303.13	90.25
303.36	88.25
303.59	88.25
303.82	86.25
304.051	92.25
304.281	88.25
304.511	88.25
304.741	93.25
304.971	92.25
305.201	101.25
305.431	94.25
305.661	82.25
305.891	82.25
306.121	95.25
306.352	91.25
306.582	105.25
306.812	94.25
307.042	96.25
307.272	95.25
307.502	94.25
307.731	92.25
307.961	102.25
308.191	104.25
308.421	112.25
308.651	95.25
308.881	93.25
309.111	124.25
309.341	110.25
309.571	104.25
309.8	92.25
310.03	90.25
310.26	93.25
310.49	99.25
310.72	93.25
310.949	85.25
311.179	86.25
311.409	89.25
311.639	86.25
311.868	96.25
312.098	86.25
312.328	83.25
312.557	81.25
312.787	83.25
313.017	90.25
313.246	83.25
313.476	89.25
313.706	100.25
313.935	89.25
314.165	78.25
314.394	90.25
314.624	84.25
314.853	86.25
315.083	96.25
315.312	80.25
315.542	80.25
315.771	104.25
316.001	106.25
316.23	93.25
316.46	97.25
316.689	98.25
316.919	83.25
317.148	104.25
317.377	95.25
317.607	90.25
317.836	82.25
318.065	94.25
318.295	96.25
318.524	95.25
318.753	94.25
318.983	104.25
319.212	99.25
319.441	87.25
319.67	81.25
319.9	82.25
320.129	83.25
320.358	93.25
320.587	76.25
320.816	81.25
321.046	110.25
321.275	94.25
321.504	99.25
321.733	82.25
321.962	92.25
322.191	77.25
322.42	80.25
322.649	99.25
322.878	94.25
323.108	105.25
323.337	98.25
323.566	92.25
323.795	105.25
324.024	84.25
324.253	79.25
324.482	88.25
324.71	104.25
324.939	96.25
325.168	94.25
325.397	104.25
325.626	102.25
325.855	79.25
326.084	89.25
326.313	76.25
326.542	88.25
326.77	92.25
326.999	104.25
327.228	106.25
327.457	90.25
327.686	101.25
327.914	76.25
328.143	97.25
328.372	92.25
328.6	82.25
328.829	100.25
329.058	92.25
329.287	88.25
329.515	97.25
329.744	104.25
329.972	97.25
330.201	86.25
330.43	92.25
330.658	99.25
330.887	102.25
331.115	81.25
331.344	99.25
331.572	99.25
331.801	98.25
332.03	86.25
332.258	96.25
332.486	92.25
332.715	88.25
332.943	73.25
333.172	82.25
333.4	81.25
333.629	98.25
333.857	82.25
334.085	88.25
334.314	83.25
334.542	92.25
334.771	94.25
334.999	114.25
335.227	94.25
335.455	104.25
335.684	103.25
335.912	109.25
336.14	93.25
336.369	95.25
336.597	88.25
336.825	99.25
337.053	98.25
337.281	104.25
337.51	98.25
337.738	98.25
337.966	90.25
338.194	89.25
338.422	97.25
338.65	91.25
338.878	84.25
339.106	103.25
339.334	104.25
339.562	77.25
339.79	94.25
340.018	100.25
340.246	102.25
340.474	94.25
340.702	96.25
340.93	92.25
341.158	90.25
341.386	79.25
341.614	88.25
341.842	100.25
342.07	86.25
342.298	88.25
342.526	93.25
342.754	108.25
342.981	86.25
343.209	95.25
343.437	112.25
343.665	93.25
343.893	94.25
344.12	97.25
344.348	95.25
344.576	102.25
344.804	97.25
345.031	116.25
345.259	100.25
345.487	81.25
345.714	98.25
345.942	90.25
346.17	82.25
346.397	89.25
346.625	88.25
346.853	92.25
347.08	89.25
347.308	74.25
347.535	101.25
347.763	79.25
347.99	84.25
348.218	94.25
348.445	80.25
348.673	101.25
348.9	90.25
349.128	105.25
349.355	106.25
349.583	89.25
349.81	93.25
350.037	92.25
350.265	89.25
350.492	122.25
350.72	102.25
350.947	98.25
351.174	85.25
351.402	93.25
351.629	97.25
351.856	89.25
352.083	95.25
352.311	81.25
352.538	96.25
352.765	101.25
352.992	108.25
353.22	91.25
353.447	93.25
353.674	83.25
353.901	80.25
354.128	92.25
354.355	97.25
354.583	90.25
354.81	89.25
355.037	92.25
355.264	96.25
355.491	84.25
355.718	100.25
355.945	97.25
356.172	97.25
356.399	91.25
356.626	101.25
356.853	94.25
357.08	106.25
357.307	90.25
357.534	94.25
357.761	103.25
357.988	99.25
358.215	106.25
358.441	97.25
358.668	84.25
358.895	88.25
359.122	96.25
359.349	96.25
359.576	96.25
359.802	89.25
360.029	95.25
360.256	93.25
360.483	81.25
360.709	100.25
360.936	108.25
361.163	98.25
361.39	104.25
361.616	98.25
361.843	94.25
362.07	100.25
362.296	121.25
362.523	120.25
362.749	117.25
362.976	116.25
363.203	129.25
363.429	118.25
363.656	97.25
363.882	109.25
364.109	133.25
364.335	150.25
364.562	145.25
364.788	129.25
365.015	107.25
365.241	94.25
365.468	96.25
365.694	99.25
365.92	89.25
366.147	91.25
366.373	96.25
366.599	86.25
366.826	79.25
367.052	104.25
367.278	103.25
367.505	83.25
367.731	83.25
367.957	91.25
368.184	86.25
368.41	89.25
368.636	102.25
368.862	100.25
369.089	81.25
369.315	86.25
369.541	97.25
369.767	83.25
369.993	99.25
370.219	97.25
370.445	81.25
370.672	101.25
370.898	103.25
371.124	103.25
371.35	90.25
371.576	100.25
371.802	96.25
372.028	93.25
372.254	113.25
372.48	97.25
372.706	89.25
372.932	101.25
373.158	101.25
373.384	108.25
373.61	123.25
373.835	110.25
374.061	102.25
374.287	83.25
374.513	91.25
374.739	116.25
374.965	111.25
375.191	106.25
375.416	101.25
375.642	110.25
375.868	96.25
376.094	85.25
376.319	96.25
376.545	83.25
376.771	92.25
376.997	105.25
377.222	102.25
377.448	89.25
377.674	89.25
377.899	106.25
378.125	88.25
378.35	104.25
378.576	76.25
378.802	100.25
379.027	107.25
379.253	104.25
379.478	95.25
379.704	91.25
379.929	89.25
380.155	95.25
380.38	94.25
380.606	78.25
380.831	97.25
381.057	95.25
381.282	97.25
381.507	95.25
381.733	99.25
381.958	106.25
382.184	105.25
382.409	98.25
382.634	111.25
382.86	91.25
383.085	100.25
383.31	113.25
383.535	113.25
383.761	106.25
383.986	122.25
384.211	101.25
384.436	112.25
384.662	95.25
384.887	86.25
385.112	89.25
385.337	109.25
385.562	108.25
385.787	98.25
386.013	117.25
386.238	100.25
386.463	93.25
386.688	116.25
386.913	97.25
387.138	87.25
387.363	100.25
387.588	121.25
387.813	116.25
388.038	119.25
388.263	104.25
388.488	107.25
388.713	85.25
388.938	106.25
389.163	94.25
389.387	76.25
389.612	97.25
389.837	110.25
390.062	83.25
390.287	97.25
390.512	98.25
390.736	95.25
390.961	103.25
391.186	105.25
391.411	88.25
391.636	98.25
391.86	97.25
392.085	104.25
392.31	107.25
392.534	124.25
392.759	138.25
392.984	192.25
393.208	325.25
393.433	497.25
393.658	381.25
393.882	174.25
394.107	124.25
394.331	144.25
394.556	157.25
394.78	121.25
395.005	110.25
395.229	93.25
395.454	109.25
395.678	120.25
395.903	169.25
396.127	186.25
396.352	232.25
396.576	212.25
396.801	335.25
397.025	387.25
397.249	212.25
397.474	144.25
397.698	104.25
397.922	103.25
398.147	102.25
398.371	105.25
398.595	101.25
398.82	99.25
399.044	103.25
399.268	96.25
399.492	98.25
399.717	95.25
399.941	75.25
400.165	110.25
400.389	96.25
400.613	91.25
400.837	90.25
401.062	108.25
401.286	92.25
401.51	97.25
401.734	89.25
401.958	91.25
402.182	97.25
402.406	91.25
402.63	102.25
402.854	93.25
403.078	105.25
403.302	90.25
403.526	100.25
403.75	101.25
403.974	87.25
404.198	129.25
404.422	177.25
404.645	221.25
404.869	171.25
405.093	130.25
405.317	101.25
405.541	100.25
405.765	90.25
405.988	89.25
406.212	99.25
406.436	94.25
406.66	101.25
406.883	89.25
407.107	91.25
407.331	77.25
407.555	107.25
407.778	119.25
408.002	137.25
408.226	100.25
408.449	81.25
408.673	92.25
408.896	97.25
409.12	98.25
409.344	95.25
409.567	107.25
409.791	124.25
410.014	94.25
410.238	116.25
410.461	112.25
410.685	98.25
410.908	109.25
411.132	89.25
411.355	98.25
411.578	102.25
411.802	100.25
412.025	98.25
412.249	96.25
412.472	86.25
412.695	93.25
412.919	83.25
413.142	98.25
413.365	102.25
413.589	85.25
413.812	96.25
414.035	97.25
414.258	88.25
414.482	89.25
414.705	98.25
414.928	93.25
415.151	85.25
415.374	98.25
415.597	83.25
415.821	100.25
416.044	91.25
416.267	109.25
416.49	86.25
416.713	87.25
416.936	83.25
417.159	89.25
417.382	90.25
417.605	92.25
417.828	84.25
418.051	97.25
418.274	81.25
418.497	109.25
418.72	96.25
418.943	92.25
419.166	89.25
419.389	92.25
419.611	95.25
419.834	89.25
420.057	96.25
420.28	96.25
420.503	111.25
420.726	108.25
420.948	100.25
421.171	112.25
421.394	125.25
421.617	142.25
421.839	140.25
422.062	146.25
422.285	214.25
422.507	425.25
422.73	676.25
422.953	611.25
423.175	282.25
423.398	153.25
423.621	133.25
423.843	113.25
424.066	96.25
424.288	124.25
424.511	102.25
424.733	97.25
424.956	105.25
425.178	86.25
425.401	105.25
425.623	100.25
425.846	98.25
426.068	108.25
426.291	109.25
426.513	102.25
426.735	106.25
426.958	101.25
427.18	96.25
427.402	102.25
427.625	102.25
427.847	91.25
428.069	120.25
428.292	167.25
428.514	185.25
428.736	157.25
428.958	163.25
429.181	177.25
429.403	140.25
429.625	108.25
429.847	167.25
430.069	234.25
430.292	277.25
430.514	256.25
430.736	183.25
430.958	202.25
431.18	121.25
431.402	105.25
431.624	122.25
431.846	161.25
432.068	196.25
432.29	124.25
432.512	101.25
432.734	103.25
432.956	108.25
433.178	110.25
433.4	97.25
433.622	94.25
433.844	95.25
434.066	106.25
434.287	109.25
434.509	84.25
434.731	102.25
434.953	98.25
435.175	90.25
435.397	82.25
435.618	117.25
435.84	92.25
436.062	86.25
436.284	92.25
436.505	89.25
436.727	93.25
436.949	100.25
437.17	90.25
437.392	81.25
437.614	89.25
437.835	87.25
438.057	88.25
438.278	90.25
438.5	103.25
438.721	85.25
438.943	92.25
439.165	86.25
439.386	88.25
439.608	89.25
439.829	95.25
440.05	88.25
440.272	86.25
440.493	104.25
440.715	89.25
440.936	88.25
441.158	97.25
441.379	96.25
441.6	88.25
441.822	106.25
442.043	106.25
442.264	107.25
442.486	167.25
442.707	232.25
442.928	155.25
443.149	135.25
443.371	219.25
443.592	376.25
443.813	318.25
444.034	136.25
444.255	98.25
444.476	106.25
444.698	108.25
444.919	118.25
445.14	200.25
445.361	278.25
445.582	441.25
445.803	388.25
446.024	162.25
446.245	111.25
446.466	100.25
446.687	95.25
446.908	97.25
447.129	82.25
447.35	101.25
447.571	87.25
447.792	93.25
448.013	96.25
448.234	88.25
448.455	90.25
448.675	88.25
448.896	83.25
449.117	81.25
449.338	84.25
449.559	105.25
449.779	89.25
450	93.25
450.221	87.25
450.442	87.25
450.662	105.25
450.883	91.25
451.104	96.25
451.324	90.25
451.545	78.25
451.766	105.25
451.986	99.25
452.207	86.25
452.428	90.25
452.648	108.25
452.869	97.25
453.089	114.25
453.31	92.25
453.53	104.25
453.751	89.25
453.971	82.25
454.192	90.25
454.412	90.25
454.633	101.25
454.853	86.25
455.073	105.25
455.294	83.25
455.514	87.25
455.734	94.25
455.955	88.25
456.175	97.25
456.395	93.25
456.616	93.25
456.836	90.25
457.056	93.25
457.276	96.25
457.497	85.25
457.717	114.25
457.937	120.25
458.157	134.25
458.377	140.25
458.598	141.25
458.818	150.25
459.038	119.25
459.258	101.25
459.478	91.25
459.698	88.25
459.918	93.25
460.138	91.25
460.358	89.25
460.578	106.25
460.798	165.25
461.018	161.25
461.238	106.25
461.458	83.25
461.678	97.25
461.898	100.25
462.118	80.25
462.338	87.25
462.558	88.25
462.777	101.25
462.997	98.25
463.217	102.25
463.437	90.25
463.657	105.25
463.876	83.25
464.096	93.25
464.316	89.25
464.536	99.25
464.755	97.25
464.975	114.25
465.195	104.25
465.414	93.25
465.634	104.25
465.854	94.25
466.073	91.25
466.293	85.25
466.512	89.25
466.732	90.25
466.951	87.25
467.171	85.25
467.391	79.25
467.61	94.25
467.829	93.25
468.049	85.25
468.268	98.25
468.488	93.25
468.707	103.25
468.927	95.25
469.146	94.25
469.365	92.25
469.585	93.25
469.804	100.25
470.023	84.25
470.243	84.25
470.462	86.25
470.681	96.25
470.901	93.25
471.12	96.25
471.339	104.25
471.558	82.25
471.777	88.25
471.997	80.25
472.216	102.25
472.435	97.25
472.654	102.25
472.873	92.25
473.092	86.25
473.311	86.25
473.53	89.25
473.749	84.25
473.968	98.25
474.187	87.25
474.406	92.25
474.625	103.25
474.844	96.25
475.063	89.25
475.282	98.25
475.501	92.25
475.72	81.25
475.939	86.25
476.158	92.25
476.377	94.25
476.596	84.25
476.814	90.25
477.033	94.25
477.252	96.25
477.471	105.25
477.69	87.25
477.908	89.25
478.127	83.25
478.346	94.25
478.564	91.25
478.783	105.25
479.002	92.25
479.22	87.25
479.439	98.25
479.658	86.25
479.876	89.25
480.095	98.25
480.313	106.25
480.532	83.25
480.751	95.25
480.969	93.25
481.188	90.25
481.406	97.25
481.624	88.25
481.843	101.25
482.061	103.25
482.28	93.25
482.498	97.25
482.717	98.25
482.935	90.25
483.153	109.25
483.372	84.25
483.59	94.25
483.808	95.25
484.027	86.25
484.245	91.25
484.463	113.25
484.681	112.25
484.9	93.25
485.118	100.25
485.336	86.25
485.554	110.25
485.772	96.25
485.99	94.25
486.209	95.25
486.427	94.25
486.645	96.25
486.863	102.25
487.081	105.25
487.299	105.25
487.517	112.25
487.735	132.25
487.953	193.25
488.171	182.25
488.389	103.25
488.607	98.25
488.825	85.25
489.043	102.25
489.261	91.25
489.479	74.25
489.696	86.25
489.914	96.25
490.132	103.25
490.35	99.25
490.568	105.25
490.786	95.25
491.003	93.25
491.221	88.25
491.439	95.25
491.657	93.25
491.874	87.25
492.092	88.25
492.31	87.25
492.527	90.25
492.745	92.25
492.963	84.25
493.18	101.25
493.398	93.25
493.615	101.25
493.833	85.25
494.05	89.25
494.268	86.25
494.485	100.25
494.703	97.25
494.92	100.25
495.138	95.25
495.355	94.25
495.573	93.25
495.79	101.25
496.008	93.25
496.225	93.25
496.442	106.25
496.66	105.25
496.877	101.25
497.094	104.25
497.312	101.25
497.529	97.25
497.746	92.25
497.963	109.25
498.181	98.25
498.398	102.25
498.615	107.25
498.832	94.25
499.049	94.25
499.267	95.25
499.484	112.25
499.701	100.25
499.918	96.25
500.135	96.25
500.352	109.25
500.569	102.25
500.786	101.25
501.003	96.25
501.22	95.25
501.437	95.25
501.654	104.25
501.871	81.25
502.088	94.25
502.305	97.25
502.522	106.25
502.739	110.25
502.956	104.25
503.172	95.25
503.389	88.25
503.606	104.25
503.823	100.25
504.04	117.25
504.256	148.25
504.473	154.25
504.69	118.25
504.907	102.25
505.123	108.25
505.34	107.25
505.557	100.25
505.773	88.25
505.99	102.25
506.207	98.25
506.423	92.25
506.64	109.25
506.856	76.25
507.073	95.25
507.289	88.25
507.506	96.25
507.722	97.25
507.939	71.25
508.155	103.25
508.372	105.25
508.588	88.25
508.805	94.25
509.021	100.25
509.238	89.25
509.454	96.25
509.67	80.25
509.887	82.25
510.103	119.25
510.319	97.25
510.536	106.25
510.752	78.25
510.968	90.25
511.184	100.25
511.401	108.25
511.617	96.25
511.833	92.25
512.049	107.25
512.265	92.25
512.481	95.25
512.698	100.25
512.914	99.25
513.13	99.25
513.346	89.25
513.562	102.25
513.778	83.25
513.994	93.25
514.21	98.25
514.426	88.25
514.642	90.25
514.858	94.25
