Data from HP_2_HRD10591_00003.txt Node
Date: Mon Jan 19 14:16:02 EST 2026
User: Yrep
Spectrometer: HR+D1059
Trigger mode: 1
Integration Time (sec): 1.000000E-1
Scans to average: 1
Electric dark correction enabled: true
Nonlinearity correction enabled: false
Boxcar width: 0
XAxis mode: Wavelengths
Number of Pixels in Spectrum: 2048
>>>>>Begin Spectral Data<<<<<
223.165	-10.75
223.4	-10.75
223.635	-10.75
223.869	-22.75
224.104	-18.75
224.338	-11.75
224.573	-16.75
224.808	-13.75
225.042	-6.75
225.277	-5.75
225.511	-1.75
225.746	9.25
225.98	0.25
226.215	11.25
226.449	17.25
226.683	30.25
226.918	11.25
227.152	29.25
227.387	45.25
227.621	55.25
227.856	53.25
228.09	61.25
228.324	52.25
228.559	58.25
228.793	61.25
229.027	71.25
229.262	55.25
229.496	71.25
229.73	70.25
229.964	71.25
230.199	80.25
230.433	79.25
230.667	75.25
230.901	79.25
231.136	87.25
231.37	85.25
231.604	94.25
231.838	84.25
232.072	79.25
232.306	81.25
232.541	95.25
232.775	91.25
233.009	89.25
233.243	89.25
233.477	66.25
233.711	79.25
233.945	92.25
234.179	91.25
234.413	79.25
234.647	75.25
234.881	79.25
235.115	77.25
235.349	77.25
235.583	85.25
235.817	64.25
236.051	81.25
236.285	69.25
236.519	90.25
236.753	79.25
236.987	71.25
237.221	70.25
237.455	83.25
237.689	73.25
237.922	87.25
238.156	96.25
238.39	79.25
238.624	75.25
238.858	83.25
239.091	76.25
239.325	80.25
239.559	65.25
239.793	73.25
240.027	74.25
240.26	78.25
240.494	92.25
240.728	96.25
240.961	86.25
241.195	87.25
241.429	80.25
241.662	77.25
241.896	75.25
242.13	81.25
242.363	77.25
242.597	75.25
242.83	87.25
243.064	97.25
243.298	74.25
243.531	84.25
243.765	87.25
243.998	77.25
244.232	82.25
244.465	96.25
244.699	84.25
244.932	94.25
245.166	80.25
245.399	75.25
245.633	92.25
245.866	90.25
246.099	70.25
246.333	90.25
246.566	71.25
246.8	84.25
247.033	78.25
247.266	82.25
247.5	85.25
247.733	89.25
247.966	81.25
248.2	85.25
248.433	88.25
248.666	69.25
248.899	91.25
249.133	79.25
249.366	79.25
249.599	91.25
249.832	78.25
250.066	85.25
250.299	77.25
250.532	79.25
250.765	82.25
250.998	75.25
251.231	72.25
251.465	93.25
251.698	90.25
251.931	92.25
252.164	81.25
252.397	75.25
252.63	95.25
252.863	85.25
253.096	95.25
253.329	95.25
253.562	75.25
253.795	88.25
254.028	85.25
254.261	80.25
254.494	74.25
254.727	89.25
254.96	77.25
255.193	81.25
255.426	84.25
255.659	98.25
255.892	89.25
256.124	91.25
256.357	93.25
256.59	93.25
256.823	86.25
257.056	83.25
257.289	74.25
257.521	74.25
257.754	87.25
257.987	90.25
258.22	87.25
258.452	81.25
258.685	82.25
258.918	77.25
259.151	93.25
259.383	79.25
259.616	75.25
259.849	76.25
260.081	88.25
260.314	79.25
260.547	98.25
260.779	87.25
261.012	80.25
261.244	91.25
261.477	86.25
261.71	89.25
261.942	81.25
262.175	99.25
262.407	103.25
262.64	84.25
262.872	86.25
263.105	93.25
263.337	78.25
263.57	83.25
263.802	99.25
264.035	86.25
264.267	81.25
264.499	95.25
264.732	79.25
264.964	94.25
265.197	81.25
265.429	91.25
265.661	87.25
265.894	77.25
266.126	77.25
266.358	88.25
266.591	102.25
266.823	92.25
267.055	77.25
267.287	95.25
267.52	86.25
267.752	91.25
267.984	95.25
268.216	80.25
268.448	77.25
268.681	83.25
268.913	102.25
269.145	91.25
269.377	104.25
269.609	95.25
269.841	100.25
270.073	88.25
270.306	75.25
270.538	78.25
270.77	97.25
271.002	87.25
271.234	101.25
271.466	110.25
271.698	89.25
271.93	92.25
272.162	78.25
272.394	95.25
272.626	77.25
272.858	92.25
273.09	102.25
273.322	82.25
273.553	89.25
273.785	71.25
274.017	90.25
274.249	95.25
274.481	95.25
274.713	95.25
274.945	85.25
275.176	93.25
275.408	99.25
275.64	99.25
275.872	91.25
276.104	84.25
276.335	84.25
276.567	99.25
276.799	90.25
277.031	93.25
277.262	94.25
277.494	87.25
277.726	92.25
277.957	87.25
278.189	89.25
278.421	92.25
278.652	89.25
278.884	95.25
279.115	82.25
279.347	91.25
279.579	103.25
279.81	87.25
280.042	84.25
280.273	89.25
280.505	96.25
280.736	90.25
280.968	97.25
281.199	89.25
281.431	83.25
281.662	87.25
281.894	91.25
282.125	90.25
282.356	79.25
282.588	88.25
282.819	79.25
283.051	91.25
283.282	96.25
283.513	88.25
283.745	97.25
283.976	98.25
284.207	95.25
284.439	99.25
284.67	107.25
284.901	103.25
285.132	113.25
285.364	95.25
285.595	102.25
285.826	88.25
286.057	79.25
286.288	88.25
286.52	93.25
286.751	84.25
286.982	82.25
287.213	87.25
287.444	92.25
287.675	85.25
287.906	106.25
288.138	88.25
288.369	96.25
288.6	88.25
288.831	85.25
289.062	77.25
289.293	103.25
289.524	81.25
289.755	99.25
289.986	87.25
290.217	89.25
290.448	99.25
290.679	89.25
290.91	85.25
291.141	85.25
291.371	99.25
291.602	93.25
291.833	80.25
292.064	99.25
292.295	97.25
292.526	74.25
292.757	81.25
292.987	77.25
293.218	79.25
293.449	86.25
293.68	80.25
293.91	83.25
294.141	97.25
294.372	99.25
294.603	87.25
294.833	80.25
295.064	95.25
295.295	82.25
295.525	80.25
295.756	90.25
295.987	87.25
296.217	99.25
296.448	82.25
296.679	99.25
296.909	89.25
297.14	91.25
297.37	76.25
297.601	77.25
297.831	87.25
298.062	95.25
298.292	84.25
298.523	79.25
298.753	97.25
298.984	78.25
299.214	79.25
299.445	87.25
299.675	93.25
299.905	112.25
300.136	92.25
300.366	100.25
300.597	113.25
300.827	104.25
301.057	99.25
301.288	91.25
301.518	88.25
301.748	89.25
301.979	105.25
302.209	105.25
302.439	102.25
302.669	90.25
302.9	87.25
303.13	77.25
303.36	88.25
303.59	93.25
303.82	102.25
304.051	85.25
304.281	77.25
304.511	101.25
304.741	93.25
304.971	88.25
305.201	99.25
305.431	79.25
305.661	91.25
305.891	90.25
306.121	91.25
306.352	95.25
306.582	81.25
306.812	84.25
307.042	97.25
307.272	95.25
307.502	92.25
307.731	100.25
307.961	115.25
308.191	104.25
308.421	101.25
308.651	103.25
308.881	95.25
309.111	99.25
309.341	115.25
309.571	96.25
309.8	91.25
310.03	87.25
310.26	103.25
310.49	86.25
310.72	75.25
310.949	100.25
311.179	86.25
311.409	85.25
311.639	71.25
311.868	88.25
312.098	88.25
312.328	108.25
312.557	89.25
312.787	105.25
313.017	91.25
313.246	95.25
313.476	92.25
313.706	75.25
313.935	90.25
314.165	93.25
314.394	93.25
314.624	100.25
314.853	100.25
315.083	84.25
315.312	103.25
315.542	97.25
315.771	87.25
316.001	101.25
316.23	109.25
316.46	89.25
316.689	80.25
316.919	111.25
317.148	92.25
317.377	78.25
317.607	95.25
317.836	103.25
318.065	113.25
318.295	86.25
318.524	99.25
318.753	91.25
318.983	84.25
319.212	91.25
319.441	96.25
319.67	91.25
319.9	92.25
320.129	100.25
320.358	96.25
320.587	83.25
320.816	96.25
321.046	100.25
321.275	92.25
321.504	91.25
321.733	100.25
321.962	81.25
322.191	85.25
322.42	91.25
322.649	97.25
322.878	105.25
323.108	94.25
323.337	87.25
323.566	96.25
323.795	110.25
324.024	95.25
324.253	92.25
324.482	87.25
324.71	87.25
324.939	87.25
325.168	89.25
325.397	99.25
325.626	101.25
325.855	95.25
326.084	81.25
326.313	99.25
326.542	82.25
326.77	94.25
326.999	96.25
327.228	104.25
327.457	93.25
327.686	98.25
327.914	106.25
328.143	106.25
328.372	106.25
328.6	93.25
328.829	87.25
329.058	92.25
329.287	86.25
329.515	93.25
329.744	100.25
329.972	83.25
330.201	103.25
330.43	111.25
330.658	95.25
330.887	107.25
331.115	96.25
331.344	90.25
331.572	96.25
331.801	95.25
332.03	88.25
332.258	85.25
332.486	85.25
332.715	88.25
332.943	86.25
333.172	88.25
333.4	75.25
333.629	83.25
333.857	91.25
334.085	95.25
334.314	84.25
334.542	103.25
334.771	85.25
334.999	107.25
335.227	109.25
335.455	100.25
335.684	106.25
335.912	120.25
336.14	107.25
336.369	115.25
336.597	104.25
336.825	101.25
337.053	87.25
337.281	101.25
337.51	91.25
337.738	103.25
337.966	95.25
338.194	118.25
338.422	88.25
338.65	79.25
338.878	95.25
339.106	103.25
339.334	105.25
339.562	91.25
339.79	92.25
340.018	91.25
340.246	98.25
340.474	89.25
340.702	88.25
340.93	100.25
341.158	107.25
341.386	104.25
341.614	107.25
341.842	98.25
342.07	98.25
342.298	94.25
342.526	84.25
342.754	91.25
342.981	87.25
343.209	91.25
343.437	104.25
343.665	97.25
343.893	96.25
344.12	104.25
344.348	98.25
344.576	97.25
344.804	104.25
345.031	103.25
345.259	104.25
345.487	91.25
345.714	109.25
345.942	93.25
346.17	84.25
346.397	96.25
346.625	95.25
346.853	85.25
347.08	99.25
347.308	101.25
347.535	94.25
347.763	99.25
347.99	91.25
348.218	107.25
348.445	94.25
348.673	94.25
348.9	90.25
349.128	90.25
349.355	105.25
349.583	99.25
349.81	88.25
350.037	92.25
350.265	88.25
350.492	81.25
350.72	95.25
350.947	91.25
351.174	88.25
351.402	99.25
351.629	83.25
351.856	83.25
352.083	93.25
352.311	78.25
352.538	96.25
352.765	103.25
352.992	96.25
353.22	89.25
353.447	107.25
353.674	81.25
353.901	96.25
354.128	99.25
354.355	100.25
354.583	90.25
354.81	84.25
355.037	97.25
355.264	93.25
355.491	90.25
355.718	94.25
355.945	100.25
356.172	94.25
356.399	90.25
356.626	92.25
356.853	111.25
357.08	113.25
357.307	111.25
357.534	90.25
357.761	93.25
357.988	103.25
358.215	107.25
358.441	107.25
358.668	99.25
358.895	99.25
359.122	94.25
359.349	96.25
359.576	94.25
359.802	96.25
360.029	97.25
360.256	98.25
360.483	99.25
360.709	95.25
360.936	100.25
361.163	96.25
361.39	91.25
361.616	91.25
361.843	113.25
362.07	110.25
362.296	124.25
362.523	129.25
362.749	143.25
362.976	160.25
363.203	155.25
363.429	122.25
363.656	129.25
363.882	117.25
364.109	155.25
364.335	169.25
364.562	170.25
364.788	150.25
365.015	116.25
365.241	104.25
365.468	104.25
365.694	102.25
365.92	97.25
366.147	103.25
366.373	87.25
366.599	110.25
366.826	91.25
367.052	95.25
367.278	103.25
367.505	110.25
367.731	105.25
367.957	97.25
368.184	99.25
368.41	98.25
368.636	96.25
368.862	99.25
369.089	98.25
369.315	92.25
369.541	88.25
369.767	84.25
369.993	94.25
370.219	96.25
370.445	97.25
370.672	103.25
370.898	86.25
371.124	104.25
371.35	97.25
371.576	87.25
371.802	103.25
372.028	95.25
372.254	107.25
372.48	102.25
372.706	101.25
372.932	108.25
373.158	93.25
373.384	108.25
373.61	123.25
373.835	117.25
374.061	103.25
374.287	95.25
374.513	113.25
374.739	111.25
374.965	110.25
375.191	112.25
375.416	108.25
375.642	104.25
375.868	104.25
376.094	98.25
376.319	98.25
376.545	97.25
376.771	93.25
376.997	97.25
377.222	91.25
377.448	99.25
377.674	95.25
377.899	109.25
378.125	86.25
378.35	95.25
378.576	82.25
378.802	96.25
379.027	94.25
379.253	95.25
379.478	97.25
379.704	89.25
379.929	103.25
380.155	86.25
380.38	98.25
380.606	90.25
380.831	106.25
381.057	98.25
381.282	94.25
381.507	105.25
381.733	104.25
381.958	115.25
382.184	113.25
382.409	119.25
382.634	123.25
382.86	114.25
383.085	103.25
383.31	115.25
383.535	105.25
383.761	108.25
383.986	108.25
384.211	94.25
384.436	103.25
384.662	95.25
384.887	102.25
385.112	105.25
385.337	107.25
385.562	121.25
385.787	99.25
386.013	117.25
386.238	112.25
386.463	108.25
386.688	111.25
386.913	99.25
387.138	113.25
387.363	120.25
387.588	117.25
387.813	116.25
388.038	110.25
388.263	117.25
388.488	102.25
388.713	109.25
388.938	95.25
389.163	114.25
389.387	95.25
389.612	93.25
389.837	91.25
390.062	96.25
390.287	109.25
390.512	110.25
390.736	101.25
390.961	100.25
391.186	113.25
391.411	90.25
391.636	105.25
391.86	112.25
392.085	110.25
392.31	123.25
392.534	125.25
392.759	146.25
392.984	226.25
393.208	349.25
393.433	474.25
393.658	359.25
393.882	171.25
394.107	129.25
394.331	160.25
394.556	163.25
394.78	127.25
395.005	125.25
395.229	109.25
395.454	120.25
395.678	133.25
395.903	162.25
396.127	206.25
396.352	218.25
396.576	227.25
396.801	344.25
397.025	365.25
397.249	232.25
397.474	157.25
397.698	138.25
397.922	110.25
398.147	91.25
398.371	105.25
398.595	102.25
398.82	92.25
399.044	105.25
399.268	99.25
399.492	100.25
399.717	95.25
399.941	104.25
400.165	94.25
400.389	103.25
400.613	90.25
400.837	94.25
401.062	93.25
401.286	93.25
401.51	106.25
401.734	97.25
401.958	86.25
402.182	93.25
402.406	111.25
402.63	111.25
402.854	102.25
403.078	73.25
403.302	112.25
403.526	111.25
403.75	126.25
403.974	139.25
404.198	185.25
404.422	245.25
404.645	275.25
404.869	228.25
405.093	171.25
405.317	126.25
405.541	119.25
405.765	98.25
405.988	103.25
406.212	94.25
406.436	94.25
406.66	118.25
406.883	96.25
407.107	97.25
407.331	108.25
407.555	113.25
407.778	122.25
408.002	135.25
408.226	115.25
408.449	92.25
408.673	97.25
408.896	105.25
409.12	101.25
409.344	102.25
409.567	101.25
409.791	139.25
410.014	127.25
410.238	123.25
410.461	98.25
410.685	99.25
410.908	88.25
411.132	116.25
411.355	107.25
411.578	115.25
411.802	91.25
412.025	101.25
412.249	91.25
412.472	87.25
412.695	96.25
412.919	89.25
413.142	102.25
413.365	110.25
413.589	92.25
413.812	91.25
414.035	78.25
414.258	103.25
414.482	97.25
414.705	93.25
414.928	68.25
415.151	97.25
415.374	101.25
415.597	86.25
415.821	78.25
416.044	98.25
416.267	93.25
416.49	102.25
416.713	88.25
416.936	105.25
417.159	97.25
417.382	96.25
417.605	101.25
417.828	123.25
418.051	102.25
418.274	99.25
418.497	92.25
418.72	104.25
418.943	100.25
419.166	108.25
419.389	100.25
419.611	103.25
419.834	104.25
420.057	110.25
420.28	99.25
420.503	110.25
420.726	108.25
420.948	120.25
421.171	111.25
421.394	131.25
421.617	176.25
421.839	176.25
422.062	216.25
422.285	318.25
422.507	539.25
422.73	748.25
422.953	709.25
423.175	402.25
423.398	229.25
423.621	177.25
423.843	145.25
424.066	119.25
424.288	117.25
424.511	118.25
424.733	103.25
424.956	123.25
425.178	108.25
425.401	96.25
425.623	97.25
425.846	104.25
426.068	110.25
426.291	93.25
426.513	100.25
426.735	105.25
426.958	102.25
427.18	99.25
427.402	121.25
427.625	97.25
427.847	107.25
428.069	126.25
428.292	199.25
428.514	231.25
428.736	154.25
428.958	210.25
429.181	197.25
429.403	132.25
429.625	136.25
429.847	182.25
430.069	277.25
430.292	325.25
430.514	308.25
430.736	225.25
430.958	240.25
431.18	132.25
431.402	115.25
431.624	141.25
431.846	180.25
432.068	222.25
432.29	136.25
432.512	107.25
432.734	105.25
432.956	105.25
433.178	108.25
433.4	91.25
433.622	100.25
433.844	97.25
434.066	91.25
434.287	99.25
434.509	91.25
434.731	86.25
434.953	101.25
435.175	102.25
435.397	105.25
435.618	101.25
435.84	100.25
436.062	107.25
436.284	104.25
436.505	107.25
436.727	113.25
436.949	105.25
437.17	92.25
437.392	81.25
437.614	104.25
437.835	91.25
438.057	97.25
438.278	101.25
438.5	99.25
438.721	92.25
438.943	85.25
439.165	105.25
439.386	86.25
439.608	92.25
439.829	92.25
440.05	102.25
440.272	82.25
440.493	98.25
440.715	111.25
440.936	113.25
441.158	105.25
441.379	94.25
441.6	105.25
441.822	104.25
442.043	120.25
442.264	141.25
442.486	231.25
442.707	313.25
442.928	221.25
443.149	183.25
443.371	303.25
443.592	507.25
443.813	411.25
444.034	159.25
444.255	123.25
444.476	100.25
444.698	123.25
444.919	130.25
445.14	256.25
445.361	333.25
445.582	596.25
445.803	497.25
446.024	213.25
446.245	137.25
446.466	103.25
446.687	111.25
446.908	97.25
447.129	96.25
447.35	84.25
447.571	91.25
447.792	94.25
448.013	93.25
448.234	96.25
448.455	93.25
448.675	94.25
448.896	95.25
449.117	105.25
449.338	90.25
449.559	102.25
449.779	94.25
450	92.25
450.221	86.25
450.442	96.25
450.662	94.25
450.883	92.25
451.104	104.25
451.324	116.25
451.545	103.25
451.766	100.25
451.986	91.25
452.207	105.25
452.428	106.25
452.648	104.25
452.869	122.25
453.089	111.25
453.31	96.25
453.53	112.25
453.751	103.25
453.971	87.25
454.192	93.25
454.412	92.25
454.633	98.25
454.853	102.25
455.073	102.25
455.294	98.25
455.514	84.25
455.734	99.25
455.955	101.25
456.175	94.25
456.395	111.25
456.616	97.25
456.836	105.25
457.056	92.25
457.276	97.25
457.497	107.25
457.717	117.25
457.937	135.25
458.157	170.25
458.377	193.25
458.598	173.25
458.818	177.25
459.038	137.25
459.258	104.25
459.478	99.25
459.698	95.25
459.918	101.25
460.138	104.25
460.358	99.25
460.578	121.25
460.798	184.25
461.018	198.25
461.238	97.25
461.458	112.25
461.678	102.25
461.898	94.25
462.118	93.25
462.338	87.25
462.558	98.25
462.777	89.25
462.997	93.25
463.217	77.25
463.437	93.25
463.657	78.25
463.876	94.25
464.096	87.25
464.316	93.25
464.536	95.25
464.755	86.25
464.975	90.25
465.195	104.25
465.414	91.25
465.634	90.25
465.854	93.25
466.073	83.25
466.293	93.25
466.512	88.25
466.732	87.25
466.951	95.25
467.171	90.25
467.391	96.25
467.61	97.25
467.829	90.25
468.049	111.25
468.268	106.25
468.488	86.25
468.707	105.25
468.927	103.25
469.146	92.25
469.365	87.25
469.585	93.25
469.804	97.25
470.023	96.25
470.243	91.25
470.462	99.25
470.681	95.25
470.901	89.25
471.12	90.25
471.339	97.25
471.558	96.25
471.777	94.25
471.997	88.25
472.216	101.25
472.435	92.25
472.654	85.25
472.873	107.25
473.092	101.25
473.311	89.25
473.53	110.25
473.749	107.25
473.968	101.25
474.187	100.25
474.406	88.25
474.625	95.25
474.844	104.25
475.063	89.25
475.282	91.25
475.501	101.25
475.72	106.25
475.939	96.25
476.158	99.25
476.377	100.25
476.596	111.25
476.814	99.25
477.033	109.25
477.252	101.25
477.471	108.25
477.69	95.25
477.908	106.25
478.127	103.25
478.346	94.25
478.564	94.25
478.783	107.25
479.002	107.25
479.22	97.25
479.439	83.25
479.658	98.25
479.876	91.25
480.095	103.25
480.313	104.25
480.532	97.25
480.751	101.25
480.969	115.25
481.188	93.25
481.406	103.25
481.624	104.25
481.843	99.25
482.061	84.25
482.28	117.25
482.498	107.25
482.717	99.25
482.935	105.25
483.153	101.25
483.372	94.25
483.59	103.25
483.808	93.25
484.027	91.25
484.245	92.25
484.463	97.25
484.681	120.25
484.9	112.25
485.118	103.25
485.336	96.25
485.554	123.25
485.772	107.25
485.99	98.25
486.209	99.25
486.427	100.25
486.645	105.25
486.863	105.25
487.081	105.25
487.299	103.25
487.517	118.25
487.735	158.25
487.953	256.25
488.171	229.25
488.389	132.25
488.607	99.25
488.825	98.25
489.043	101.25
489.261	103.25
489.479	107.25
489.696	108.25
489.914	87.25
490.132	113.25
490.35	99.25
490.568	95.25
490.786	101.25
491.003	107.25
491.221	91.25
491.439	99.25
491.657	101.25
491.874	109.25
492.092	102.25
492.31	117.25
492.527	95.25
492.745	101.25
492.963	96.25
493.18	111.25
493.398	97.25
493.615	109.25
493.833	103.25
494.05	98.25
494.268	115.25
494.485	92.25
494.703	107.25
494.92	100.25
495.138	99.25
495.355	108.25
495.573	97.25
495.79	100.25
496.008	103.25
496.225	110.25
496.442	106.25
496.66	104.25
496.877	108.25
497.094	104.25
497.312	110.25
497.529	97.25
497.746	85.25
497.963	116.25
498.181	110.25
498.398	123.25
498.615	103.25
498.832	102.25
499.049	100.25
499.267	109.25
499.484	96.25
499.701	95.25
499.918	91.25
500.135	100.25
500.352	106.25
500.569	106.25
500.786	105.25
501.003	88.25
501.22	101.25
501.437	107.25
501.654	122.25
501.871	95.25
502.088	105.25
502.305	101.25
502.522	110.25
502.739	104.25
502.956	97.25
503.172	103.25
503.389	104.25
503.606	101.25
503.823	115.25
504.04	141.25
504.256	188.25
504.473	197.25
504.69	133.25
504.907	107.25
505.123	97.25
505.34	94.25
505.557	104.25
505.773	85.25
505.99	104.25
506.207	103.25
506.423	98.25
506.64	104.25
506.856	105.25
507.073	104.25
507.289	93.25
507.506	110.25
507.722	81.25
507.939	99.25
508.155	103.25
508.372	99.25
508.588	99.25
508.805	106.25
509.021	107.25
509.238	92.25
509.454	78.25
509.67	88.25
509.887	97.25
510.103	107.25
510.319	107.25
510.536	108.25
510.752	97.25
510.968	114.25
511.184	104.25
511.401	105.25
511.617	112.25
511.833	97.25
512.049	93.25
512.265	108.25
512.481	107.25
512.698	121.25
512.914	104.25
