Data from HP_2_HRD10591_00017.txt Node
Date: Mon Jan 19 14:16:09 EST 2026
User: Yrep
Spectrometer: HR+D1059
Trigger mode: 1
Integration Time (sec): 1.000000E-1
Scans to average: 1
Electric dark correction enabled: true
Nonlinearity correction enabled: false
Boxcar width: 0
XAxis mode: Wavelengths
Number of Pixels in Spectrum: 2048
>>>>>Begin Spectral Data<<<<<
223.165	-21.25
223.4	-21.25
223.635	-21.25
223.869	-20.25
224.104	-16.25
224.338	-12.25
224.573	-10.25
224.808	-8.25
225.042	0.75
225.277	-11.25
225.511	-7.25
225.746	-6.25
225.98	1.75
226.215	7.75
226.449	28.75
226.683	23.75
226.918	32.75
227.152	17.75
227.387	42.75
227.621	42.75
227.856	50.75
228.09	55.75
228.324	60.75
228.559	57.75
228.793	59.75
229.027	63.75
229.262	76.75
229.496	59.75
229.73	73.75
229.964	65.75
230.199	78.75
230.433	65.75
230.667	77.75
230.901	71.75
231.136	76.75
231.37	74.75
231.604	81.75
231.838	68.75
232.072	89.75
232.306	84.75
232.541	83.75
232.775	86.75
233.009	77.75
233.243	101.75
233.477	83.75
233.711	80.75
233.945	70.75
234.179	79.75
234.413	79.75
234.647	89.75
234.881	92.75
235.115	83.75
235.349	83.75
235.583	71.75
235.817	83.75
236.051	73.75
236.285	85.75
236.519	78.75
236.753	82.75
236.987	74.75
237.221	76.75
237.455	69.75
237.689	81.75
237.922	84.75
238.156	75.75
238.39	69.75
238.624	75.75
238.858	76.75
239.091	68.75
239.325	76.75
239.559	74.75
239.793	70.75
240.027	82.75
240.26	76.75
240.494	78.75
240.728	77.75
240.961	92.75
241.195	63.75
241.429	67.75
241.662	78.75
241.896	71.75
242.13	85.75
242.363	79.75
242.597	86.75
242.83	77.75
243.064	77.75
243.298	82.75
243.531	59.75
243.765	79.75
243.998	82.75
244.232	76.75
244.465	77.75
244.699	71.75
244.932	80.75
245.166	62.75
245.399	74.75
245.633	76.75
245.866	86.75
246.099	85.75
246.333	98.75
246.566	75.75
246.8	80.75
247.033	71.75
247.266	73.75
247.5	80.75
247.733	76.75
247.966	69.75
248.2	75.75
248.433	69.75
248.666	83.75
248.899	73.75
249.133	83.75
249.366	74.75
249.599	76.75
249.832	77.75
250.066	103.75
250.299	89.75
250.532	77.75
250.765	89.75
250.998	77.75
251.231	85.75
251.465	79.75
251.698	85.75
251.931	81.75
252.164	90.75
252.397	68.75
252.63	78.75
252.863	65.75
253.096	84.75
253.329	80.75
253.562	67.75
253.795	85.75
254.028	75.75
254.261	81.75
254.494	83.75
254.727	76.75
254.96	77.75
255.193	85.75
255.426	83.75
255.659	87.75
255.892	75.75
256.124	84.75
256.357	85.75
256.59	84.75
256.823	84.75
257.056	84.75
257.289	76.75
257.521	66.75
257.754	75.75
257.987	69.75
258.22	76.75
258.452	71.75
258.685	83.75
258.918	91.75
259.151	70.75
259.383	83.75
259.616	69.75
259.849	76.75
260.081	91.75
260.314	82.75
260.547	85.75
260.779	78.75
261.012	82.75
261.244	76.75
261.477	91.75
261.71	68.75
261.942	85.75
262.175	91.75
262.407	76.75
262.64	74.75
262.872	88.75
263.105	72.75
263.337	83.75
263.57	87.75
263.802	79.75
264.035	80.75
264.267	77.75
264.499	87.75
264.732	86.75
264.964	69.75
265.197	88.75
265.429	72.75
265.661	86.75
265.894	73.75
266.126	87.75
266.358	82.75
266.591	84.75
266.823	90.75
267.055	73.75
267.287	82.75
267.52	71.75
267.752	83.75
267.984	78.75
268.216	79.75
268.448	93.75
268.681	83.75
268.913	74.75
269.145	82.75
269.377	65.75
269.609	93.75
269.841	73.75
270.073	99.75
270.306	89.75
270.538	77.75
270.77	90.75
271.002	90.75
271.234	89.75
271.466	83.75
271.698	75.75
271.93	86.75
272.162	93.75
272.394	88.75
272.626	81.75
272.858	101.75
273.09	85.75
273.322	81.75
273.553	81.75
273.785	92.75
274.017	83.75
274.249	88.75
274.481	70.75
274.713	80.75
274.945	87.75
275.176	74.75
275.408	77.75
275.64	91.75
275.872	81.75
276.104	87.75
276.335	80.75
276.567	78.75
276.799	88.75
277.031	76.75
277.262	92.75
277.494	92.75
277.726	84.75
277.957	71.75
278.189	77.75
278.421	96.75
278.652	93.75
278.884	87.75
279.115	77.75
279.347	83.75
279.579	92.75
279.81	73.75
280.042	81.75
280.273	89.75
280.505	81.75
280.736	76.75
280.968	92.75
281.199	71.75
281.431	85.75
281.662	88.75
281.894	82.75
282.125	96.75
282.356	90.75
282.588	83.75
282.819	92.75
283.051	77.75
283.282	81.75
283.513	88.75
283.745	91.75
283.976	84.75
284.207	77.75
284.439	72.75
284.67	88.75
284.901	95.75
285.132	86.75
285.364	98.75
285.595	99.75
285.826	81.75
286.057	81.75
286.288	91.75
286.52	96.75
286.751	83.75
286.982	95.75
287.213	78.75
287.444	85.75
287.675	100.75
287.906	102.75
288.138	88.75
288.369	89.75
288.6	91.75
288.831	90.75
289.062	86.75
289.293	77.75
289.524	75.75
289.755	80.75
289.986	88.75
290.217	86.75
290.448	92.75
290.679	82.75
290.91	88.75
291.141	83.75
291.371	100.75
291.602	86.75
291.833	89.75
292.064	89.75
292.295	80.75
292.526	91.75
292.757	72.75
292.987	89.75
293.218	95.75
293.449	93.75
293.68	73.75
293.91	62.75
294.141	80.75
294.372	89.75
294.603	95.75
294.833	95.75
295.064	105.75
295.295	87.75
295.525	75.75
295.756	91.75
295.987	74.75
296.217	94.75
296.448	91.75
296.679	77.75
296.909	87.75
297.14	83.75
297.37	96.75
297.601	81.75
297.831	86.75
298.062	91.75
298.292	88.75
298.523	100.75
298.753	81.75
298.984	90.75
299.214	79.75
299.445	93.75
299.675	99.75
299.905	104.75
300.136	85.75
300.366	92.75
300.597	79.75
300.827	88.75
301.057	102.75
301.288	101.75
301.518	97.75
301.748	81.75
301.979	105.75
302.209	95.75
302.439	88.75
302.669	87.75
302.9	87.75
303.13	85.75
303.36	69.75
303.59	91.75
303.82	85.75
304.051	91.75
304.281	97.75
304.511	86.75
304.741	86.75
304.971	81.75
305.201	69.75
305.431	82.75
305.661	95.75
305.891	91.75
306.121	95.75
306.352	100.75
306.582	83.75
306.812	88.75
307.042	99.75
307.272	103.75
307.502	90.75
307.731	95.75
307.961	99.75
308.191	102.75
308.421	103.75
308.651	85.75
308.881	99.75
309.111	98.75
309.341	107.75
309.571	94.75
309.8	87.75
310.03	84.75
310.26	97.75
310.49	88.75
310.72	100.75
310.949	87.75
311.179	86.75
311.409	81.75
311.639	91.75
311.868	98.75
312.098	77.75
312.328	100.75
312.557	81.75
312.787	72.75
313.017	101.75
313.246	98.75
313.476	82.75
313.706	85.75
313.935	92.75
314.165	90.75
314.394	85.75
314.624	98.75
314.853	89.75
315.083	94.75
315.312	101.75
315.542	92.75
315.771	86.75
316.001	100.75
316.23	95.75
316.46	97.75
316.689	88.75
316.919	85.75
317.148	98.75
317.377	99.75
317.607	98.75
317.836	85.75
318.065	94.75
318.295	91.75
318.524	89.75
318.753	94.75
318.983	85.75
319.212	90.75
319.441	88.75
319.67	89.75
319.9	90.75
320.129	84.75
320.358	97.75
320.587	94.75
320.816	83.75
321.046	91.75
321.275	87.75
321.504	84.75
321.733	85.75
321.962	100.75
322.191	91.75
322.42	87.75
322.649	91.75
322.878	93.75
323.108	91.75
323.337	81.75
323.566	103.75
323.795	68.75
324.024	92.75
324.253	95.75
324.482	91.75
324.71	103.75
324.939	88.75
325.168	79.75
325.397	74.75
325.626	87.75
325.855	103.75
326.084	90.75
326.313	89.75
326.542	89.75
326.77	91.75
326.999	84.75
327.228	85.75
327.457	78.75
327.686	100.75
327.914	103.75
328.143	92.75
328.372	93.75
328.6	98.75
328.829	87.75
329.058	76.75
329.287	88.75
329.515	89.75
329.744	73.75
329.972	101.75
330.201	90.75
330.43	84.75
330.658	83.75
330.887	86.75
331.115	98.75
331.344	79.75
331.572	88.75
331.801	76.75
332.03	81.75
332.258	99.75
332.486	101.75
332.715	92.75
332.943	87.75
333.172	93.75
333.4	93.75
333.629	84.75
333.857	93.75
334.085	99.75
334.314	94.75
334.542	100.75
334.771	102.75
334.999	90.75
335.227	92.75
335.455	95.75
335.684	103.75
335.912	109.75
336.14	107.75
336.369	106.75
336.597	89.75
336.825	95.75
337.053	90.75
337.281	88.75
337.51	99.75
337.738	77.75
337.966	84.75
338.194	91.75
338.422	83.75
338.65	89.75
338.878	103.75
339.106	95.75
339.334	89.75
339.562	84.75
339.79	94.75
340.018	91.75
340.246	88.75
340.474	81.75
340.702	99.75
340.93	88.75
341.158	81.75
341.386	85.75
341.614	88.75
341.842	99.75
342.07	99.75
342.298	86.75
342.526	88.75
342.754	77.75
342.981	104.75
343.209	93.75
343.437	96.75
343.665	95.75
343.893	102.75
344.12	107.75
344.348	95.75
344.576	103.75
344.804	87.75
345.031	107.75
345.259	90.75
345.487	87.75
345.714	85.75
345.942	77.75
346.17	99.75
346.397	90.75
346.625	100.75
346.853	102.75
347.08	79.75
347.308	83.75
347.535	86.75
347.763	97.75
347.99	99.75
348.218	89.75
348.445	87.75
348.673	83.75
348.9	81.75
349.128	88.75
349.355	92.75
349.583	93.75
349.81	87.75
350.037	95.75
350.265	98.75
350.492	90.75
350.72	82.75
350.947	90.75
351.174	78.75
351.402	87.75
351.629	91.75
351.856	85.75
352.083	87.75
352.311	83.75
352.538	96.75
352.765	84.75
352.992	95.75
353.22	69.75
353.447	98.75
353.674	89.75
353.901	95.75
354.128	85.75
354.355	88.75
354.583	83.75
354.81	96.75
355.037	91.75
355.264	111.75
355.491	100.75
355.718	87.75
355.945	99.75
356.172	96.75
356.399	98.75
356.626	84.75
356.853	99.75
357.08	105.75
357.307	90.75
357.534	98.75
357.761	91.75
357.988	92.75
358.215	90.75
358.441	91.75
358.668	94.75
358.895	88.75
359.122	89.75
359.349	91.75
359.576	83.75
359.802	84.75
360.029	87.75
360.256	102.75
360.483	91.75
360.709	92.75
360.936	101.75
361.163	89.75
361.39	95.75
361.616	105.75
361.843	92.75
362.07	96.75
362.296	98.75
362.523	89.75
362.749	102.75
362.976	124.75
363.203	138.75
363.429	117.75
363.656	92.75
363.882	101.75
364.109	143.75
364.335	137.75
364.562	132.75
364.788	117.75
365.015	117.75
365.241	90.75
365.468	87.75
365.694	94.75
365.92	80.75
366.147	73.75
366.373	98.75
366.599	97.75
366.826	101.75
367.052	87.75
367.278	110.75
367.505	85.75
367.731	89.75
367.957	88.75
368.184	80.75
368.41	97.75
368.636	85.75
368.862	72.75
369.089	89.75
369.315	104.75
369.541	90.75
369.767	89.75
369.993	83.75
370.219	87.75
370.445	101.75
370.672	87.75
370.898	92.75
371.124	88.75
371.35	77.75
371.576	92.75
371.802	98.75
372.028	108.75
372.254	94.75
372.48	88.75
372.706	99.75
372.932	98.75
373.158	93.75
373.384	104.75
373.61	106.75
373.835	108.75
374.061	93.75
374.287	86.75
374.513	97.75
374.739	107.75
374.965	92.75
375.191	90.75
375.416	99.75
375.642	82.75
375.868	97.75
376.094	107.75
376.319	95.75
376.545	81.75
376.771	76.75
376.997	87.75
377.222	87.75
377.448	84.75
377.674	102.75
377.899	88.75
378.125	88.75
378.35	86.75
378.576	82.75
378.802	85.75
379.027	80.75
379.253	89.75
379.478	76.75
379.704	84.75
379.929	84.75
380.155	103.75
380.38	79.75
380.606	95.75
380.831	96.75
381.057	96.75
381.282	91.75
381.507	105.75
381.733	88.75
381.958	90.75
382.184	104.75
382.409	98.75
382.634	97.75
382.86	112.75
383.085	92.75
383.31	98.75
383.535	101.75
383.761	100.75
383.986	101.75
384.211	105.75
384.436	94.75
384.662	85.75
384.887	102.75
385.112	105.75
385.337	101.75
385.562	99.75
385.787	104.75
386.013	96.75
386.238	125.75
386.463	90.75
386.688	93.75
386.913	115.75
387.138	92.75
387.363	77.75
387.588	99.75
387.813	106.75
388.038	97.75
388.263	107.75
388.488	100.75
388.713	95.75
388.938	92.75
389.163	88.75
389.387	92.75
389.612	90.75
389.837	104.75
390.062	99.75
390.287	92.75
390.512	108.75
390.736	99.75
390.961	98.75
391.186	89.75
391.411	107.75
391.636	78.75
391.86	93.75
392.085	89.75
392.31	104.75
392.534	88.75
392.759	123.75
392.984	173.75
393.208	269.75
393.433	338.75
393.658	267.75
393.882	136.75
394.107	104.75
394.331	135.75
394.556	135.75
394.78	112.75
395.005	103.75
395.229	87.75
395.454	99.75
395.678	118.75
395.903	141.75
396.127	151.75
396.352	186.75
396.576	179.75
396.801	251.75
397.025	279.75
397.249	190.75
397.474	124.75
397.698	112.75
397.922	91.75
398.147	95.75
398.371	76.75
398.595	101.75
398.82	92.75
399.044	104.75
399.268	82.75
399.492	91.75
399.717	91.75
399.941	97.75
400.165	98.75
400.389	99.75
400.613	89.75
400.837	77.75
401.062	94.75
401.286	89.75
401.51	84.75
401.734	88.75
401.958	100.75
402.182	83.75
402.406	82.75
402.63	82.75
402.854	95.75
403.078	100.75
403.302	98.75
403.526	92.75
403.75	85.75
403.974	99.75
404.198	138.75
404.422	184.75
404.645	207.75
404.869	179.75
405.093	150.75
405.317	117.75
405.541	91.75
405.765	97.75
405.988	81.75
406.212	91.75
406.436	92.75
406.66	92.75
406.883	98.75
407.107	91.75
407.331	77.75
407.555	106.75
407.778	110.75
408.002	106.75
408.226	106.75
408.449	99.75
408.673	89.75
408.896	95.75
409.12	84.75
409.344	96.75
409.567	110.75
409.791	117.75
410.014	94.75
410.238	105.75
410.461	95.75
410.685	97.75
410.908	87.75
411.132	83.75
411.355	81.75
411.578	88.75
411.802	93.75
412.025	91.75
412.249	91.75
412.472	101.75
412.695	89.75
412.919	90.75
413.142	98.75
413.365	83.75
413.589	93.75
413.812	89.75
414.035	87.75
414.258	92.75
414.482	91.75
414.705	85.75
414.928	101.75
415.151	90.75
415.374	81.75
415.597	93.75
415.821	94.75
416.044	73.75
416.267	73.75
416.49	89.75
416.713	73.75
416.936	91.75
417.159	104.75
417.382	103.75
417.605	100.75
417.828	76.75
418.051	78.75
418.274	75.75
418.497	99.75
418.72	107.75
418.943	98.75
419.166	90.75
419.389	100.75
419.611	79.75
419.834	103.75
420.057	93.75
420.28	89.75
420.503	77.75
420.726	80.75
420.948	93.75
421.171	114.75
421.394	133.75
421.617	135.75
421.839	131.75
422.062	144.75
422.285	197.75
422.507	347.75
422.73	501.75
422.953	450.75
423.175	278.75
423.398	170.75
423.621	124.75
423.843	112.75
424.066	107.75
424.288	103.75
424.511	101.75
424.733	104.75
424.956	101.75
425.178	95.75
425.401	109.75
425.623	99.75
425.846	84.75
426.068	92.75
426.291	91.75
426.513	78.75
426.735	95.75
426.958	111.75
427.18	101.75
427.402	96.75
427.625	92.75
427.847	79.75
428.069	108.75
428.292	153.75
428.514	167.75
428.736	124.75
428.958	154.75
429.181	147.75
429.403	128.75
429.625	124.75
429.847	148.75
430.069	212.75
430.292	235.75
430.514	220.75
430.736	168.75
430.958	187.75
431.18	101.75
431.402	102.75
431.624	105.75
431.846	132.75
432.068	158.75
432.29	92.75
432.512	92.75
432.734	100.75
432.956	109.75
433.178	87.75
433.4	94.75
433.622	82.75
433.844	88.75
434.066	84.75
434.287	93.75
434.509	85.75
434.731	95.75
434.953	77.75
435.175	68.75
435.397	81.75
435.618	76.75
435.84	93.75
436.062	107.75
436.284	96.75
436.505	88.75
436.727	80.75
436.949	97.75
437.17	78.75
437.392	101.75
437.614	88.75
437.835	104.75
438.057	87.75
438.278	85.75
438.5	90.75
438.721	81.75
438.943	92.75
439.165	96.75
439.386	92.75
439.608	90.75
439.829	89.75
440.05	106.75
440.272	103.75
440.493	84.75
440.715	97.75
440.936	90.75
441.158	100.75
441.379	88.75
441.6	96.75
441.822	80.75
442.043	96.75
442.264	115.75
442.486	164.75
442.707	222.75
442.928	154.75
443.149	138.75
443.371	223.75
443.592	332.75
443.813	278.75
444.034	143.75
444.255	111.75
444.476	92.75
444.698	99.75
444.919	117.75
445.14	199.75
445.361	264.75
445.582	427.75
445.803	354.75
446.024	168.75
446.245	121.75
446.466	99.75
446.687	84.75
446.908	98.75
447.129	89.75
447.35	89.75
447.571	90.75
447.792	75.75
448.013	82.75
448.234	86.75
448.455	96.75
448.675	93.75
448.896	83.75
449.117	101.75
449.338	88.75
449.559	86.75
449.779	86.75
450	100.75
450.221	91.75
450.442	90.75
450.662	88.75
450.883	101.75
451.104	83.75
451.324	80.75
451.545	86.75
451.766	91.75
451.986	102.75
452.207	88.75
452.428	87.75
452.648	99.75
452.869	106.75
453.089	108.75
453.31	87.75
453.53	96.75
453.751	98.75
453.971	99.75
454.192	87.75
454.412	99.75
454.633	90.75
454.853	70.75
455.073	91.75
455.294	78.75
455.514	85.75
455.734	77.75
455.955	84.75
456.175	88.75
456.395	95.75
456.616	79.75
456.836	93.75
457.056	88.75
457.276	93.75
457.497	88.75
457.717	91.75
457.937	113.75
458.157	120.75
458.377	138.75
458.598	127.75
458.818	136.75
459.038	105.75
459.258	96.75
459.478	85.75
459.698	88.75
459.918	81.75
460.138	82.75
460.358	91.75
460.578	115.75
460.798	151.75
461.018	163.75
461.238	106.75
461.458	83.75
461.678	87.75
461.898	92.75
462.118	86.75
462.338	93.75
462.558	92.75
462.777	80.75
462.997	93.75
463.217	94.75
463.437	75.75
463.657	89.75
463.876	113.75
464.096	88.75
464.316	97.75
464.536	93.75
464.755	94.75
464.975	100.75
465.195	84.75
465.414	93.75
465.634	83.75
465.854	96.75
466.073	82.75
466.293	91.75
466.512	92.75
466.732	84.75
466.951	89.75
467.171	85.75
467.391	89.75
467.61	81.75
467.829	87.75
468.049	95.75
468.268	89.75
468.488	96.75
468.707	84.75
468.927	76.75
469.146	90.75
469.365	92.75
469.585	96.75
469.804	85.75
470.023	79.75
470.243	79.75
470.462	85.75
470.681	80.75
470.901	90.75
471.12	82.75
471.339	96.75
471.558	88.75
471.777	83.75
471.997	93.75
472.216	97.75
472.435	91.75
472.654	77.75
472.873	88.75
473.092	81.75
473.311	108.75
473.53	85.75
473.749	93.75
473.968	108.75
474.187	92.75
474.406	89.75
474.625	85.75
474.844	99.75
475.063	74.75
475.282	103.75
475.501	97.75
475.72	102.75
475.939	72.75
476.158	78.75
476.377	87.75
476.596	82.75
476.814	82.75
477.033	83.75
477.252	83.75
477.471	95.75
477.69	87.75
477.908	77.75
478.127	105.75
478.346	85.75
478.564	91.75
478.783	77.75
479.002	75.75
479.22	83.75
479.439	90.75
479.658	101.75
479.876	89.75
480.095	89.75
480.313	94.75
480.532	84.75
480.751	101.75
480.969	92.75
481.188	92.75
481.406	87.75
481.624	80.75
481.843	85.75
482.061	85.75
482.28	95.75
482.498	103.75
482.717	81.75
482.935	84.75
483.153	90.75
483.372	105.75
483.59	91.75
483.808	81.75
484.027	92.75
484.245	92.75
484.463	99.75
484.681	91.75
484.9	93.75
485.118	87.75
485.336	89.75
485.554	93.75
485.772	96.75
485.99	99.75
486.209	82.75
486.427	82.75
486.645	101.75
486.863	83.75
487.081	106.75
487.299	107.75
487.517	105.75
487.735	128.75
487.953	191.75
488.171	162.75
488.389	109.75
488.607	99.75
488.825	99.75
489.043	93.75
489.261	122.75
489.479	90.75
489.696	79.75
489.914	80.75
490.132	97.75
490.35	100.75
490.568	84.75
490.786	82.75
491.003	87.75
491.221	94.75
491.439	78.75
491.657	100.75
491.874	84.75
492.092	103.75
492.31	85.75
492.527	85.75
492.745	101.75
492.963	88.75
493.18	96.75
493.398	91.75
493.615	84.75
493.833	93.75
494.05	101.75
494.268	92.75
494.485	87.75
494.703	97.75
494.92	98.75
495.138	80.75
495.355	90.75
495.573	88.75
495.79	104.75
496.008	102.75
496.225	93.75
496.442	106.75
496.66	92.75
496.877	114.75
497.094	98.75
497.312	97.75
497.529	91.75
497.746	95.75
497.963	114.75
498.181	112.75
498.398	116.75
498.615	97.75
498.832	95.75
499.049	83.75
499.267	87.75
499.484	112.75
499.701	81.75
499.918	84.75
500.135	94.75
500.352	97.75
500.569	87.75
500.786	91.75
501.003	95.75
501.22	91.75
501.437	97.75
501.654	96.75
501.871	88.75
502.088	95.75
502.305	93.75
502.522	87.75
502.739	103.75
502.956	92.75
503.172	87.75
503.389	98.75
503.606	85.75
503.823	115.75
504.04	111.75
504.256	127.75
504.473	136.75
504.69	105.75
504.907	92.75
505.123	102.75
505.34	92.75
505.557	88.75
505.773	90.75
505.99	100.75
506.207	76.75
506.423	88.75
506.64	94.75
506.856	87.75
507.073	92.75
507.289	105.75
507.506	97.75
507.722	105.75
507.939	89.75
508.155	95.75
508.372	90.75
508.588	80.75
508.805	93.75
509.021	84.75
509.238	95.75
509.454	83.75
509.67	95.75
509.887	99.75
510.103	95.75
510.319	96.75
510.536	102.75
510.752	101.75
510.968	93.75
511.184	96.75
511.401	102.75
511.617	121.75
511.833	97.75
512.049	85.75
512.265	96.75
512.481	89.75
512.698	91.75
512.914	82.75
513.13	96.75
513.346	85.75
513.562	90.75
513.778	86.75
513.994	76.75
514.21	89.75
514.426	84.75
514.642	80.75
514.858	96.75
515.074	89.75
515.29	103.75
515.506	96.75
515.721	96.75
515.937	83.75
516.153	83.75
516.369	86.75
516.585	85.75
