Data from HP_2_HRD10591_00015.txt Node
Date: Mon Jan 19 14:16:08 EST 2026
User: Yrep
Spectrometer: HR+D1059
Trigger mode: 1
Integration Time (sec): 1.000000E-1
Scans to average: 1
Electric dark correction enabled: true
Nonlinearity correction enabled: false
Boxcar width: 0
XAxis mode: Wavelengths
Number of Pixels in Spectrum: 2048
>>>>>Begin Spectral Data<<<<<
223.165	-11.44
223.4	-11.44
223.635	-11.44
223.869	-14.44
224.104	-13.44
224.338	-5.44
224.573	-17.44
224.808	-9.44
225.042	4.56
225.277	-3.44
225.511	-10.44
225.746	-14.44
225.98	1.56
226.215	1.56
226.449	12.56
226.683	31.56
226.918	28.56
227.152	19.56
227.387	32.56
227.621	45.56
227.856	31.56
228.09	33.56
228.324	53.56
228.559	52.56
228.793	51.56
229.027	70.56
229.262	62.56
229.496	65.56
229.73	65.56
229.964	68.56
230.199	87.56
230.433	81.56
230.667	73.56
230.901	75.56
231.136	65.56
231.37	90.56
231.604	69.56
231.838	69.56
232.072	81.56
232.306	89.56
232.541	87.56
232.775	85.56
233.009	73.56
233.243	73.56
233.477	88.56
233.711	74.56
233.945	80.56
234.179	91.56
234.413	69.56
234.647	89.56
234.881	74.56
235.115	85.56
235.349	80.56
235.583	75.56
235.817	62.56
236.051	78.56
236.285	75.56
236.519	73.56
236.753	73.56
236.987	79.56
237.221	89.56
237.455	83.56
237.689	72.56
237.922	76.56
238.156	87.56
238.39	81.56
238.624	81.56
238.858	78.56
239.091	85.56
239.325	92.56
239.559	71.56
239.793	63.56
240.027	68.56
240.26	79.56
240.494	79.56
240.728	84.56
240.961	72.56
241.195	70.56
241.429	74.56
241.662	81.56
241.896	81.56
242.13	70.56
242.363	79.56
242.597	65.56
242.83	65.56
243.064	75.56
243.298	73.56
243.531	64.56
243.765	75.56
243.998	66.56
244.232	83.56
244.465	67.56
244.699	67.56
244.932	89.56
245.166	72.56
245.399	68.56
245.633	77.56
245.866	75.56
246.099	77.56
246.333	81.56
246.566	76.56
246.8	82.56
247.033	80.56
247.266	83.56
247.5	82.56
247.733	78.56
247.966	84.56
248.2	73.56
248.433	68.56
248.666	76.56
248.899	75.56
249.133	93.56
249.366	86.56
249.599	72.56
249.832	75.56
250.066	72.56
250.299	79.56
250.532	82.56
250.765	91.56
250.998	83.56
251.231	61.56
251.465	78.56
251.698	69.56
251.931	65.56
252.164	78.56
252.397	84.56
252.63	74.56
252.863	71.56
253.096	91.56
253.329	90.56
253.562	78.56
253.795	80.56
254.028	73.56
254.261	84.56
254.494	76.56
254.727	81.56
254.96	77.56
255.193	66.56
255.426	78.56
255.659	74.56
255.892	91.56
256.124	87.56
256.357	75.56
256.59	68.56
256.823	76.56
257.056	84.56
257.289	69.56
257.521	87.56
257.754	102.56
257.987	87.56
258.22	73.56
258.452	81.56
258.685	94.56
258.918	73.56
259.151	79.56
259.383	81.56
259.616	75.56
259.849	80.56
260.081	73.56
260.314	69.56
260.547	70.56
260.779	89.56
261.012	99.56
261.244	78.56
261.477	72.56
261.71	74.56
261.942	74.56
262.175	76.56
262.407	73.56
262.64	84.56
262.872	81.56
263.105	87.56
263.337	81.56
263.57	81.56
263.802	85.56
264.035	79.56
264.267	83.56
264.499	79.56
264.732	84.56
264.964	67.56
265.197	82.56
265.429	66.56
265.661	83.56
265.894	72.56
266.126	76.56
266.358	62.56
266.591	92.56
266.823	64.56
267.055	85.56
267.287	72.56
267.52	87.56
267.752	67.56
267.984	78.56
268.216	83.56
268.448	77.56
268.681	81.56
268.913	75.56
269.145	77.56
269.377	77.56
269.609	86.56
269.841	87.56
270.073	79.56
270.306	79.56
270.538	91.56
270.77	98.56
271.002	84.56
271.234	85.56
271.466	81.56
271.698	68.56
271.93	65.56
272.162	79.56
272.394	89.56
272.626	78.56
272.858	90.56
273.09	81.56
273.322	79.56
273.553	73.56
273.785	89.56
274.017	83.56
274.249	72.56
274.481	89.56
274.713	97.56
274.945	87.56
275.176	87.56
275.408	81.56
275.64	90.56
275.872	82.56
276.104	84.56
276.335	85.56
276.567	85.56
276.799	73.56
277.031	88.56
277.262	82.56
277.494	94.56
277.726	75.56
277.957	64.56
278.189	79.56
278.421	91.56
278.652	88.56
278.884	64.56
279.115	81.56
279.347	98.56
279.579	86.56
279.81	92.56
280.042	76.56
280.273	90.56
280.505	88.56
280.736	77.56
280.968	94.56
281.199	76.56
281.431	87.56
281.662	94.56
281.894	95.56
282.125	73.56
282.356	74.56
282.588	88.56
282.819	86.56
283.051	74.56
283.282	89.56
283.513	93.56
283.745	80.56
283.976	87.56
284.207	89.56
284.439	76.56
284.67	99.56
284.901	96.56
285.132	85.56
285.364	94.56
285.595	85.56
285.826	83.56
286.057	82.56
286.288	97.56
286.52	80.56
286.751	75.56
286.982	75.56
287.213	74.56
287.444	81.56
287.675	106.56
287.906	93.56
288.138	81.56
288.369	89.56
288.6	77.56
288.831	66.56
289.062	88.56
289.293	93.56
289.524	72.56
289.755	85.56
289.986	77.56
290.217	90.56
290.448	88.56
290.679	81.56
290.91	99.56
291.141	88.56
291.371	81.56
291.602	77.56
291.833	80.56
292.064	71.56
292.295	99.56
292.526	95.56
292.757	73.56
292.987	80.56
293.218	69.56
293.449	85.56
293.68	89.56
293.91	94.56
294.141	82.56
294.372	89.56
294.603	97.56
294.833	85.56
295.064	90.56
295.295	75.56
295.525	90.56
295.756	95.56
295.987	93.56
296.217	85.56
296.448	75.56
296.679	90.56
296.909	85.56
297.14	85.56
297.37	90.56
297.601	82.56
297.831	86.56
298.062	72.56
298.292	84.56
298.523	95.56
298.753	81.56
298.984	92.56
299.214	96.56
299.445	82.56
299.675	100.56
299.905	87.56
300.136	88.56
300.366	96.56
300.597	102.56
300.827	83.56
301.057	85.56
301.288	80.56
301.518	62.56
301.748	83.56
301.979	100.56
302.209	95.56
302.439	82.56
302.669	96.56
302.9	103.56
303.13	95.56
303.36	92.56
303.59	86.56
303.82	97.56
304.051	84.56
304.281	92.56
304.511	86.56
304.741	89.56
304.971	76.56
305.201	95.56
305.431	99.56
305.661	83.56
305.891	80.56
306.121	101.56
306.352	89.56
306.582	89.56
306.812	85.56
307.042	86.56
307.272	88.56
307.502	79.56
307.731	102.56
307.961	93.56
308.191	106.56
308.421	103.56
308.651	104.56
308.881	111.56
309.111	89.56
309.341	122.56
309.571	99.56
309.8	95.56
310.03	99.56
310.26	99.56
310.49	87.56
310.72	100.56
310.949	93.56
311.179	91.56
311.409	84.56
311.639	77.56
311.868	88.56
312.098	77.56
312.328	96.56
312.557	77.56
312.787	95.56
313.017	83.56
313.246	68.56
313.476	90.56
313.706	75.56
313.935	78.56
314.165	77.56
314.394	76.56
314.624	82.56
314.853	91.56
315.083	99.56
315.312	97.56
315.542	97.56
315.771	77.56
316.001	89.56
316.23	90.56
316.46	78.56
316.689	83.56
316.919	91.56
317.148	93.56
317.377	87.56
317.607	95.56
317.836	102.56
318.065	88.56
318.295	99.56
318.524	85.56
318.753	93.56
318.983	87.56
319.212	85.56
319.441	90.56
319.67	92.56
319.9	75.56
320.129	83.56
320.358	101.56
320.587	98.56
320.816	83.56
321.046	88.56
321.275	97.56
321.504	99.56
321.733	90.56
321.962	88.56
322.191	96.56
322.42	84.56
322.649	99.56
322.878	89.56
323.108	81.56
323.337	94.56
323.566	96.56
323.795	106.56
324.024	91.56
324.253	73.56
324.482	85.56
324.71	91.56
324.939	94.56
325.168	81.56
325.397	82.56
325.626	79.56
325.855	88.56
326.084	81.56
326.313	84.56
326.542	75.56
326.77	81.56
326.999	85.56
327.228	76.56
327.457	79.56
327.686	89.56
327.914	91.56
328.143	91.56
328.372	101.56
328.6	96.56
328.829	81.56
329.058	81.56
329.287	94.56
329.515	93.56
329.744	90.56
329.972	75.56
330.201	86.56
330.43	95.56
330.658	93.56
330.887	89.56
331.115	80.56
331.344	90.56
331.572	98.56
331.801	79.56
332.03	86.56
332.258	90.56
332.486	87.56
332.715	86.56
332.943	90.56
333.172	97.56
333.4	78.56
333.629	89.56
333.857	81.56
334.085	96.56
334.314	90.56
334.542	96.56
334.771	109.56
334.999	97.56
335.227	95.56
335.455	98.56
335.684	103.56
335.912	86.56
336.14	103.56
336.369	105.56
336.597	93.56
336.825	87.56
337.053	105.56
337.281	86.56
337.51	92.56
337.738	94.56
337.966	101.56
338.194	90.56
338.422	97.56
338.65	103.56
338.878	88.56
339.106	95.56
339.334	102.56
339.562	82.56
339.79	85.56
340.018	87.56
340.246	75.56
340.474	93.56
340.702	81.56
340.93	94.56
341.158	69.56
341.386	83.56
341.614	85.56
341.842	93.56
342.07	85.56
342.298	89.56
342.526	84.56
342.754	94.56
342.981	85.56
343.209	87.56
343.437	106.56
343.665	89.56
343.893	101.56
344.12	103.56
344.348	105.56
344.576	99.56
344.804	106.56
345.031	96.56
345.259	88.56
345.487	97.56
345.714	92.56
345.942	76.56
346.17	84.56
346.397	98.56
346.625	95.56
346.853	95.56
347.08	84.56
347.308	95.56
347.535	105.56
347.763	96.56
347.99	94.56
348.218	100.56
348.445	86.56
348.673	66.56
348.9	87.56
349.128	104.56
349.355	97.56
349.583	95.56
349.81	95.56
350.037	94.56
350.265	96.56
350.492	79.56
350.72	79.56
350.947	98.56
351.174	88.56
351.402	85.56
351.629	88.56
351.856	94.56
352.083	78.56
352.311	86.56
352.538	78.56
352.765	89.56
352.992	97.56
353.22	94.56
353.447	95.56
353.674	93.56
353.901	84.56
354.128	88.56
354.355	73.56
354.583	75.56
354.81	87.56
355.037	96.56
355.264	81.56
355.491	92.56
355.718	80.56
355.945	76.56
356.172	103.56
356.399	99.56
356.626	99.56
356.853	97.56
357.08	103.56
357.307	103.56
357.534	83.56
357.761	90.56
357.988	101.56
358.215	117.56
358.441	105.56
358.668	94.56
358.895	81.56
359.122	94.56
359.349	81.56
359.576	93.56
359.802	100.56
360.029	89.56
360.256	89.56
360.483	85.56
360.709	106.56
360.936	84.56
361.163	95.56
361.39	92.56
361.616	89.56
361.843	104.56
362.07	106.56
362.296	88.56
362.523	125.56
362.749	140.56
362.976	143.56
363.203	166.56
363.429	119.56
363.656	125.56
363.882	128.56
364.109	143.56
364.335	173.56
364.562	166.56
364.788	139.56
365.015	127.56
365.241	115.56
365.468	96.56
365.694	87.56
365.92	98.56
366.147	82.56
366.373	97.56
366.599	77.56
366.826	101.56
367.052	104.56
367.278	85.56
367.505	87.56
367.731	101.56
367.957	83.56
368.184	100.56
368.41	73.56
368.636	99.56
368.862	97.56
369.089	95.56
369.315	94.56
369.541	111.56
369.767	84.56
369.993	81.56
370.219	96.56
370.445	102.56
370.672	119.56
370.898	115.56
371.124	93.56
371.35	99.56
371.576	89.56
371.802	98.56
372.028	101.56
372.254	106.56
372.48	95.56
372.706	111.56
372.932	96.56
373.158	88.56
373.384	113.56
373.61	113.56
373.835	117.56
374.061	101.56
374.287	90.56
374.513	113.56
374.739	114.56
374.965	123.56
375.191	111.56
375.416	101.56
375.642	97.56
375.868	103.56
376.094	105.56
376.319	93.56
376.545	98.56
376.771	86.56
376.997	83.56
377.222	87.56
377.448	93.56
377.674	97.56
377.899	72.56
378.125	81.56
378.35	83.56
378.576	95.56
378.802	84.56
379.027	97.56
379.253	95.56
379.478	96.56
379.704	98.56
379.929	98.56
380.155	94.56
380.38	96.56
380.606	75.56
380.831	83.56
381.057	85.56
381.282	79.56
381.507	88.56
381.733	106.56
381.958	101.56
382.184	112.56
382.409	101.56
382.634	97.56
382.86	101.56
383.085	98.56
383.31	86.56
383.535	100.56
383.761	109.56
383.986	125.56
384.211	111.56
384.436	92.56
384.662	100.56
384.887	88.56
385.112	99.56
385.337	96.56
385.562	90.56
385.787	113.56
386.013	119.56
386.238	117.56
386.463	97.56
386.688	118.56
386.913	105.56
387.138	83.56
387.363	106.56
387.588	119.56
387.813	98.56
388.038	109.56
388.263	103.56
388.488	105.56
388.713	88.56
388.938	94.56
389.163	96.56
389.387	98.56
389.612	84.56
389.837	83.56
390.062	109.56
390.287	99.56
390.512	100.56
390.736	87.56
390.961	89.56
391.186	85.56
391.411	95.56
391.636	105.56
391.86	88.56
392.085	113.56
392.31	110.56
392.534	117.56
392.759	144.56
392.984	185.56
393.208	309.56
393.433	458.56
393.658	348.56
393.882	145.56
394.107	139.56
394.331	159.56
394.556	169.56
394.78	152.56
395.005	106.56
395.229	102.56
395.454	112.56
395.678	128.56
395.903	166.56
396.127	200.56
396.352	241.56
396.576	232.56
396.801	350.56
397.025	360.56
397.249	209.56
397.474	170.56
397.698	132.56
397.922	102.56
398.147	99.56
398.371	101.56
398.595	90.56
398.82	103.56
399.044	88.56
399.268	79.56
399.492	106.56
399.717	94.56
399.941	99.56
400.165	91.56
400.389	103.56
400.613	104.56
400.837	95.56
401.062	106.56
401.286	87.56
401.51	88.56
401.734	74.56
401.958	89.56
402.182	88.56
402.406	87.56
402.63	92.56
402.854	92.56
403.078	90.56
403.302	91.56
403.526	97.56
403.75	94.56
403.974	123.56
404.198	172.56
404.422	254.56
404.645	336.56
404.869	248.56
405.093	171.56
405.317	128.56
405.541	111.56
405.765	101.56
405.988	98.56
406.212	90.56
406.436	98.56
406.66	103.56
406.883	107.56
407.107	87.56
407.331	103.56
407.555	110.56
407.778	125.56
408.002	135.56
408.226	97.56
408.449	86.56
408.673	93.56
408.896	90.56
409.12	103.56
409.344	118.56
409.567	106.56
409.791	118.56
410.014	119.56
410.238	105.56
410.461	100.56
410.685	103.56
410.908	98.56
411.132	93.56
411.355	104.56
411.578	97.56
411.802	99.56
412.025	87.56
412.249	98.56
412.472	88.56
412.695	100.56
412.919	97.56
413.142	92.56
413.365	93.56
413.589	98.56
413.812	105.56
414.035	90.56
414.258	93.56
414.482	93.56
414.705	92.56
414.928	93.56
415.151	87.56
415.374	102.56
415.597	93.56
415.821	86.56
416.044	87.56
416.267	92.56
416.49	90.56
416.713	100.56
416.936	89.56
417.159	101.56
417.382	91.56
417.605	79.56
417.828	99.56
418.051	106.56
418.274	92.56
418.497	95.56
418.72	92.56
418.943	87.56
419.166	90.56
419.389	97.56
419.611	98.56
419.834	99.56
420.057	121.56
420.28	91.56
420.503	97.56
420.726	105.56
420.948	104.56
421.171	112.56
421.394	134.56
421.617	157.56
421.839	181.56
422.062	197.56
422.285	295.56
422.507	518.56
422.73	741.56
422.953	691.56
423.175	383.56
423.398	232.56
423.621	153.56
423.843	140.56
424.066	123.56
424.288	117.56
424.511	115.56
424.733	109.56
424.956	110.56
425.178	97.56
425.401	83.56
425.623	90.56
425.846	95.56
426.068	103.56
426.291	108.56
426.513	100.56
426.735	97.56
426.958	101.56
427.18	106.56
427.402	103.56
427.625	97.56
427.847	103.56
428.069	116.56
428.292	184.56
428.514	225.56
428.736	144.56
428.958	201.56
429.181	197.56
429.403	129.56
429.625	133.56
429.847	192.56
430.069	283.56
430.292	326.56
430.514	287.56
430.736	205.56
430.958	225.56
431.18	132.56
431.402	94.56
431.624	117.56
431.846	187.56
432.068	204.56
432.29	119.56
432.512	116.56
432.734	97.56
432.956	93.56
433.178	100.56
433.4	99.56
433.622	87.56
433.844	93.56
434.066	103.56
434.287	98.56
434.509	104.56
434.731	94.56
434.953	103.56
435.175	82.56
435.397	101.56
435.618	89.56
435.84	85.56
436.062	106.56
436.284	105.56
436.505	95.56
436.727	89.56
436.949	96.56
437.17	90.56
437.392	90.56
437.614	86.56
437.835	85.56
438.057	98.56
438.278	90.56
438.5	107.56
438.721	102.56
438.943	101.56
439.165	93.56
439.386	91.56
439.608	81.56
439.829	86.56
440.05	99.56
440.272	81.56
440.493	104.56
440.715	99.56
440.936	82.56
441.158	103.56
441.379	81.56
441.6	89.56
441.822	101.56
442.043	104.56
442.264	137.56
442.486	220.56
442.707	304.56
442.928	217.56
443.149	156.56
443.371	268.56
443.592	486.56
443.813	392.56
444.034	169.56
444.255	104.56
444.476	126.56
444.698	106.56
444.919	128.56
445.14	233.56
445.361	349.56
445.582	593.56
445.803	457.56
446.024	200.56
446.245	121.56
446.466	103.56
446.687	81.56
446.908	93.56
447.129	97.56
447.35	89.56
447.571	89.56
447.792	102.56
448.013	81.56
448.234	96.56
448.455	82.56
448.675	84.56
448.896	90.56
449.117	93.56
449.338	83.56
449.559	93.56
449.779	91.56
450	82.56
450.221	86.56
450.442	96.56
450.662	82.56
450.883	73.56
451.104	93.56
451.324	93.56
451.545	88.56
451.766	91.56
451.986	99.56
452.207	95.56
452.428	92.56
452.648	107.56
452.869	109.56
453.089	110.56
453.31	93.56
453.53	96.56
453.751	109.56
453.971	90.56
454.192	85.56
454.412	95.56
454.633	82.56
454.853	86.56
455.073	91.56
455.294	93.56
455.514	93.56
455.734	100.56
455.955	89.56
456.175	96.56
456.395	98.56
456.616	75.56
456.836	89.56
457.056	85.56
457.276	90.56
457.497	93.56
457.717	92.56
457.937	115.56
458.157	155.56
458.377	161.56
458.598	159.56
458.818	195.56
459.038	139.56
459.258	102.56
459.478	100.56
459.698	90.56
459.918	77.56
460.138	89.56
460.358	98.56
460.578	124.56
460.798	202.56
461.018	177.56
461.238	101.56
461.458	95.56
461.678	85.56
461.898	79.56
462.118	95.56
462.338	82.56
462.558	99.56
462.777	99.56
462.997	91.56
463.217	76.56
463.437	79.56
463.657	74.56
463.876	86.56
464.096	73.56
464.316	83.56
464.536	99.56
464.755	104.56
464.975	95.56
465.195	94.56
465.414	96.56
465.634	68.56
465.854	76.56
466.073	81.56
466.293	92.56
466.512	89.56
466.732	83.56
466.951	86.56
467.171	93.56
467.391	87.56
467.61	89.56
467.829	86.56
468.049	97.56
468.268	87.56
468.488	95.56
468.707	96.56
468.927	89.56
469.146	94.56
469.365	91.56
469.585	90.56
469.804	87.56
470.023	82.56
470.243	91.56
470.462	85.56
470.681	84.56
470.901	85.56
471.12	83.56
471.339	92.56
471.558	76.56
471.777	91.56
471.997	87.56
472.216	93.56
472.435	100.56
472.654	90.56
472.873	99.56
473.092	86.56
473.311	84.56
473.53	104.56
473.749	82.56
473.968	97.56
474.187	97.56
474.406	99.56
474.625	101.56
474.844	97.56
475.063	98.56
475.282	74.56
475.501	91.56
475.72	101.56
475.939	97.56
476.158	98.56
476.377	77.56
476.596	77.56
476.814	85.56
477.033	96.56
477.252	91.56
477.471	88.56
477.69	98.56
477.908	101.56
478.127	104.56
478.346	95.56
478.564	100.56
478.783	90.56
479.002	85.56
479.22	92.56
479.439	77.56
479.658	98.56
479.876	95.56
480.095	83.56
480.313	81.56
480.532	93.56
480.751	100.56
480.969	106.56
481.188	95.56
481.406	113.56
481.624	107.56
481.843	99.56
482.061	88.56
482.28	103.56
482.498	96.56
482.717	99.56
482.935	98.56
483.153	100.56
483.372	120.56
483.59	103.56
483.808	97.56
484.027	88.56
484.245	93.56
484.463	93.56
484.681	106.56
484.9	97.56
485.118	96.56
485.336	99.56
485.554	98.56
485.772	82.56
485.99	90.56
486.209	99.56
486.427	101.56
486.645	100.56
486.863	122.56
487.081	105.56
487.299	123.56
487.517	107.56
487.735	141.56
487.953	225.56
488.171	225.56
488.389	133.56
488.607	95.56
488.825	98.56
489.043	100.56
489.261	110.56
489.479	103.56
489.696	94.56
489.914	89.56
490.132	99.56
490.35	93.56
490.568	97.56
490.786	91.56
491.003	98.56
491.221	101.56
491.439	104.56
491.657	103.56
491.874	99.56
492.092	97.56
492.31	86.56
492.527	97.56
492.745	95.56
492.963	106.56
493.18	98.56
493.398	102.56
493.615	98.56
493.833	87.56
494.05	93.56
494.268	99.56
494.485	103.56
494.703	94.56
494.92	101.56
495.138	109.56
495.355	115.56
495.573	105.56
495.79	97.56
496.008	101.56
496.225	118.56
496.442	118.56
496.66	113.56
496.877	99.56
497.094	104.56
497.312	98.56
497.529	96.56
497.746	97.56
497.963	100.56
498.181	99.56
498.398	121.56
498.615	106.56
498.832	99.56
499.049	93.56
499.267	111.56
499.484	94.56
499.701	92.56
499.918	113.56
500.135	107.56
500.352	87.56
500.569	93.56
500.786	109.56
501.003	101.56
501.22	97.56
501.437	102.56
501.654	113.56
501.871	101.56
502.088	96.56
502.305	106.56
502.522	97.56
502.739	109.56
502.956	97.56
503.172	111.56
503.389	102.56
503.606	94.56
503.823	110.56
504.04	125.56
504.256	170.56
504.473	167.56
504.69	113.56
504.907	105.56
505.123	87.56
505.34	98.56
505.557	95.56
505.773	100.56
505.99	101.56
506.207	95.56
506.423	96.56
506.64	108.56
506.856	92.56
507.073	93.56
507.289	104.56
507.506	93.56
507.722	91.56
507.939	84.56
508.155	98.56
508.372	84.56
508.588	91.56
508.805	93.56
509.021	117.56
509.238	96.56
509.454	97.56
509.67	89.56
509.887	91.56
510.103	86.56
510.319	114.56
510.536	97.56
510.752	107.56
510.968	97.56
511.184	99.56
511.401	101.56
511.617	95.56
511.833	104.56
512.049	100.56
512.265	99.56
512.481	98.56
512.698	106.56
512.914	104.56
513.13	100.56
513.346	82.56
513.562	83.56
513.778	72.56
513.994	104.56
514.21	91.56
514.426	98.56
514.642	102.56
514.858	100.56
515.074	93.56
515.29	101.56
