Data from HP_2_HRD10591_00045.txt Node
Date: Mon Jan 19 14:16:23 EST 2026
User: Yrep
Spectrometer: HR+D1059
Trigger mode: 1
Integration Time (sec): 1.000000E-1
Scans to average: 1
Electric dark correction enabled: true
Nonlinearity correction enabled: false
Boxcar width: 0
XAxis mode: Wavelengths
Number of Pixels in Spectrum: 2048
>>>>>Begin Spectral Data<<<<<
223.165	-16.38
223.4	-16.38
223.635	-16.38
223.869	-16.38
224.104	-14.38
224.338	-12.38
224.573	-23.38
224.808	-22.38
225.042	-24.38
225.277	1.62
225.511	9.62
225.746	-7.38
225.98	11.62
226.215	17.62
226.449	13.62
226.683	15.62
226.918	27.62
227.152	39.62
227.387	40.62
227.621	53.62
227.856	46.62
228.09	45.62
228.324	52.62
228.559	53.62
228.793	58.62
229.027	56.62
229.262	72.62
229.496	61.62
229.73	81.62
229.964	76.62
230.199	61.62
230.433	66.62
230.667	71.62
230.901	90.62
231.136	93.62
231.37	84.62
231.604	83.62
231.838	82.62
232.072	94.62
232.306	80.62
232.541	66.62
232.775	80.62
233.009	73.62
233.243	80.62
233.477	82.62
233.711	75.62
233.945	64.62
234.179	84.62
234.413	84.62
234.647	81.62
234.881	70.62
235.115	90.62
235.349	79.62
235.583	81.62
235.817	61.62
236.051	82.62
236.285	80.62
236.519	74.62
236.753	74.62
236.987	75.62
237.221	69.62
237.455	85.62
237.689	74.62
237.922	65.62
238.156	70.62
238.39	74.62
238.624	70.62
238.858	66.62
239.091	79.62
239.325	92.62
239.559	66.62
239.793	86.62
240.027	74.62
240.26	70.62
240.494	71.62
240.728	80.62
240.961	76.62
241.195	62.62
241.429	66.62
241.662	67.62
241.896	87.62
242.13	76.62
242.363	73.62
242.597	87.62
242.83	83.62
243.064	67.62
243.298	60.62
243.531	71.62
243.765	75.62
243.998	67.62
244.232	88.62
244.465	79.62
244.699	78.62
244.932	70.62
245.166	83.62
245.399	78.62
245.633	86.62
245.866	71.62
246.099	79.62
246.333	74.62
246.566	88.62
246.8	82.62
247.033	84.62
247.266	69.62
247.5	82.62
247.733	87.62
247.966	84.62
248.2	78.62
248.433	87.62
248.666	70.62
248.899	82.62
249.133	74.62
249.366	71.62
249.599	74.62
249.832	75.62
250.066	75.62
250.299	70.62
250.532	82.62
250.765	78.62
250.998	85.62
251.231	91.62
251.465	85.62
251.698	80.62
251.931	71.62
252.164	83.62
252.397	60.62
252.63	82.62
252.863	85.62
253.096	71.62
253.329	79.62
253.562	75.62
253.795	84.62
254.028	76.62
254.261	70.62
254.494	89.62
254.727	91.62
254.96	81.62
255.193	84.62
255.426	102.62
255.659	86.62
255.892	79.62
256.124	76.62
256.357	68.62
256.59	87.62
256.823	86.62
257.056	87.62
257.289	81.62
257.521	77.62
257.754	82.62
257.987	64.62
258.22	92.62
258.452	69.62
258.685	76.62
258.918	75.62
259.151	81.62
259.383	69.62
259.616	83.62
259.849	83.62
260.081	85.62
260.314	86.62
260.547	88.62
260.779	81.62
261.012	77.62
261.244	82.62
261.477	86.62
261.71	75.62
261.942	70.62
262.175	100.62
262.407	102.62
262.64	81.62
262.872	77.62
263.105	74.62
263.337	76.62
263.57	77.62
263.802	86.62
264.035	84.62
264.267	88.62
264.499	83.62
264.732	97.62
264.964	80.62
265.197	70.62
265.429	76.62
265.661	75.62
265.894	83.62
266.126	86.62
266.358	80.62
266.591	94.62
266.823	82.62
267.055	88.62
267.287	62.62
267.52	77.62
267.752	85.62
267.984	79.62
268.216	69.62
268.448	75.62
268.681	70.62
268.913	60.62
269.145	82.62
269.377	86.62
269.609	87.62
269.841	80.62
270.073	92.62
270.306	82.62
270.538	86.62
270.77	85.62
271.002	85.62
271.234	78.62
271.466	76.62
271.698	62.62
271.93	64.62
272.162	86.62
272.394	74.62
272.626	78.62
272.858	80.62
273.09	88.62
273.322	83.62
273.553	62.62
273.785	83.62
274.017	64.62
274.249	82.62
274.481	78.62
274.713	80.62
274.945	77.62
275.176	92.62
275.408	95.62
275.64	97.62
275.872	79.62
276.104	82.62
276.335	94.62
276.567	84.62
276.799	76.62
277.031	92.62
277.262	90.62
277.494	82.62
277.726	91.62
277.957	84.62
278.189	102.62
278.421	90.62
278.652	94.62
278.884	83.62
279.115	97.62
279.347	73.62
279.579	78.62
279.81	82.62
280.042	82.62
280.273	86.62
280.505	83.62
280.736	79.62
280.968	75.62
281.199	80.62
281.431	88.62
281.662	99.62
281.894	76.62
282.125	82.62
282.356	84.62
282.588	83.62
282.819	78.62
283.051	81.62
283.282	88.62
283.513	74.62
283.745	77.62
283.976	84.62
284.207	77.62
284.439	86.62
284.67	100.62
284.901	76.62
285.132	84.62
285.364	83.62
285.595	90.62
285.826	78.62
286.057	62.62
286.288	83.62
286.52	72.62
286.751	91.62
286.982	82.62
287.213	87.62
287.444	83.62
287.675	79.62
287.906	69.62
288.138	75.62
288.369	70.62
288.6	82.62
288.831	76.62
289.062	91.62
289.293	103.62
289.524	88.62
289.755	77.62
289.986	76.62
290.217	64.62
290.448	85.62
290.679	73.62
290.91	83.62
291.141	86.62
291.371	86.62
291.602	91.62
291.833	84.62
292.064	68.62
292.295	79.62
292.526	84.62
292.757	90.62
292.987	98.62
293.218	90.62
293.449	74.62
293.68	86.62
293.91	80.62
294.141	86.62
294.372	98.62
294.603	74.62
294.833	71.62
295.064	68.62
295.295	87.62
295.525	76.62
295.756	84.62
295.987	92.62
296.217	87.62
296.448	82.62
296.679	82.62
296.909	87.62
297.14	94.62
297.37	86.62
297.601	80.62
297.831	86.62
298.062	94.62
298.292	78.62
298.523	87.62
298.753	84.62
298.984	94.62
299.214	86.62
299.445	74.62
299.675	85.62
299.905	96.62
300.136	69.62
300.366	67.62
300.597	74.62
300.827	87.62
301.057	86.62
301.288	81.62
301.518	82.62
301.748	83.62
301.979	94.62
302.209	96.62
302.439	75.62
302.669	84.62
302.9	84.62
303.13	90.62
303.36	87.62
303.59	74.62
303.82	82.62
304.051	75.62
304.281	90.62
304.511	82.62
304.741	71.62
304.971	80.62
305.201	89.62
305.431	90.62
305.661	86.62
305.891	102.62
306.121	84.62
306.352	82.62
306.582	93.62
306.812	80.62
307.042	70.62
307.272	72.62
307.502	92.62
307.731	80.62
307.961	86.62
308.191	96.62
308.421	89.62
308.651	70.62
308.881	76.62
309.111	77.62
309.341	80.62
309.571	87.62
309.8	84.62
310.03	89.62
310.26	81.62
310.49	93.62
310.72	80.62
310.949	71.62
311.179	80.62
311.409	82.62
311.639	72.62
311.868	94.62
312.098	85.62
312.328	85.62
312.557	79.62
312.787	83.62
313.017	70.62
313.246	90.62
313.476	77.62
313.706	82.62
313.935	89.62
314.165	84.62
314.394	84.62
314.624	85.62
314.853	97.62
315.083	82.62
315.312	77.62
315.542	97.62
315.771	89.62
316.001	88.62
316.23	87.62
316.46	89.62
316.689	94.62
316.919	79.62
317.148	87.62
317.377	93.62
317.607	90.62
317.836	77.62
318.065	74.62
318.295	68.62
318.524	83.62
318.753	94.62
318.983	92.62
319.212	81.62
319.441	92.62
319.67	91.62
319.9	91.62
320.129	83.62
320.358	58.62
320.587	92.62
320.816	95.62
321.046	77.62
321.275	85.62
321.504	90.62
321.733	75.62
321.962	92.62
322.191	91.62
322.42	67.62
322.649	60.62
322.878	94.62
323.108	79.62
323.337	81.62
323.566	82.62
323.795	83.62
324.024	86.62
324.253	84.62
324.482	90.62
324.71	95.62
324.939	87.62
325.168	83.62
325.397	95.62
325.626	83.62
325.855	84.62
326.084	98.62
326.313	76.62
326.542	73.62
326.77	104.62
326.999	73.62
327.228	103.62
327.457	99.62
327.686	87.62
327.914	98.62
328.143	78.62
328.372	81.62
328.6	87.62
328.829	87.62
329.058	91.62
329.287	75.62
329.515	79.62
329.744	91.62
329.972	103.62
330.201	73.62
330.43	79.62
330.658	78.62
330.887	85.62
331.115	93.62
331.344	87.62
331.572	82.62
331.801	93.62
332.03	84.62
332.258	70.62
332.486	80.62
332.715	105.62
332.943	75.62
333.172	75.62
333.4	71.62
333.629	88.62
333.857	86.62
334.085	84.62
334.314	87.62
334.542	73.62
334.771	82.62
334.999	86.62
335.227	78.62
335.455	80.62
335.684	96.62
335.912	78.62
336.14	73.62
336.369	80.62
336.597	82.62
336.825	84.62
337.053	78.62
337.281	86.62
337.51	71.62
337.738	84.62
337.966	76.62
338.194	86.62
338.422	72.62
338.65	91.62
338.878	79.62
339.106	69.62
339.334	89.62
339.562	84.62
339.79	94.62
340.018	96.62
340.246	69.62
340.474	86.62
340.702	97.62
340.93	86.62
341.158	74.62
341.386	69.62
341.614	73.62
341.842	78.62
342.07	86.62
342.298	70.62
342.526	89.62
342.754	86.62
342.981	76.62
343.209	79.62
343.437	87.62
343.665	80.62
343.893	86.62
344.12	73.62
344.348	76.62
344.576	90.62
344.804	88.62
345.031	83.62
345.259	71.62
345.487	98.62
345.714	68.62
345.942	91.62
346.17	71.62
346.397	93.62
346.625	87.62
346.853	91.62
347.08	89.62
347.308	84.62
347.535	90.62
347.763	76.62
347.99	95.62
348.218	83.62
348.445	78.62
348.673	83.62
348.9	86.62
349.128	84.62
349.355	86.62
349.583	73.62
349.81	62.62
350.037	78.62
350.265	91.62
350.492	84.62
350.72	89.62
350.947	93.62
351.174	82.62
351.402	71.62
351.629	84.62
351.856	74.62
352.083	84.62
352.311	80.62
352.538	77.62
352.765	95.62
352.992	80.62
353.22	87.62
353.447	94.62
353.674	84.62
353.901	85.62
354.128	80.62
354.355	82.62
354.583	95.62
354.81	92.62
355.037	88.62
355.264	67.62
355.491	85.62
355.718	81.62
355.945	86.62
356.172	88.62
356.399	81.62
356.626	81.62
356.853	71.62
357.08	82.62
357.307	90.62
357.534	84.62
357.761	87.62
357.988	90.62
358.215	93.62
358.441	80.62
358.668	79.62
358.895	60.62
359.122	78.62
359.349	81.62
359.576	90.62
359.802	104.62
360.029	98.62
360.256	81.62
360.483	87.62
360.709	81.62
360.936	89.62
361.163	84.62
361.39	84.62
361.616	71.62
361.843	73.62
362.07	86.62
362.296	88.62
362.523	92.62
362.749	88.62
362.976	91.62
363.203	97.62
363.429	88.62
363.656	86.62
363.882	80.62
364.109	103.62
364.335	99.62
364.562	92.62
364.788	80.62
365.015	80.62
365.241	85.62
365.468	82.62
365.694	76.62
365.92	91.62
366.147	80.62
366.373	87.62
366.599	74.62
366.826	74.62
367.052	85.62
367.278	81.62
367.505	81.62
367.731	88.62
367.957	91.62
368.184	84.62
368.41	78.62
368.636	77.62
368.862	87.62
369.089	84.62
369.315	76.62
369.541	85.62
369.767	98.62
369.993	70.62
370.219	87.62
370.445	86.62
370.672	93.62
370.898	95.62
371.124	86.62
371.35	70.62
371.576	79.62
371.802	98.62
372.028	82.62
372.254	88.62
372.48	86.62
372.706	74.62
372.932	75.62
373.158	82.62
373.384	82.62
373.61	105.62
373.835	90.62
374.061	79.62
374.287	85.62
374.513	82.62
374.739	71.62
374.965	80.62
375.191	92.62
375.416	94.62
375.642	84.62
375.868	76.62
376.094	91.62
376.319	74.62
376.545	80.62
376.771	81.62
376.997	88.62
377.222	90.62
377.448	79.62
377.674	83.62
377.899	95.62
378.125	86.62
378.35	88.62
378.576	94.62
378.802	73.62
379.027	80.62
379.253	79.62
379.478	85.62
379.704	85.62
379.929	77.62
380.155	82.62
380.38	85.62
380.606	82.62
380.831	90.62
381.057	87.62
381.282	70.62
381.507	81.62
381.733	85.62
381.958	98.62
382.184	83.62
382.409	98.62
382.634	98.62
382.86	72.62
383.085	81.62
383.31	85.62
383.535	79.62
383.761	77.62
383.986	84.62
384.211	94.62
384.436	86.62
384.662	86.62
384.887	76.62
385.112	89.62
385.337	82.62
385.562	79.62
385.787	88.62
386.013	76.62
386.238	91.62
386.463	77.62
386.688	99.62
386.913	82.62
387.138	72.62
387.363	82.62
387.588	86.62
387.813	74.62
388.038	79.62
388.263	82.62
388.488	83.62
388.713	85.62
388.938	71.62
389.163	83.62
389.387	77.62
389.612	82.62
389.837	75.62
390.062	82.62
390.287	84.62
390.512	78.62
390.736	80.62
390.961	91.62
391.186	86.62
391.411	75.62
391.636	83.62
391.86	75.62
392.085	82.62
392.31	80.62
392.534	92.62
392.759	90.62
392.984	94.62
393.208	120.62
393.433	133.62
393.658	115.62
393.882	94.62
394.107	86.62
394.331	95.62
394.556	94.62
394.78	92.62
395.005	73.62
395.229	81.62
395.454	95.62
395.678	90.62
395.903	67.62
396.127	101.62
396.352	94.62
396.576	111.62
396.801	115.62
397.025	132.62
397.249	118.62
397.474	85.62
397.698	90.62
397.922	96.62
398.147	78.62
398.371	79.62
398.595	84.62
398.82	72.62
399.044	88.62
399.268	89.62
399.492	89.62
399.717	81.62
399.941	76.62
400.165	96.62
400.389	66.62
400.613	82.62
400.837	76.62
401.062	89.62
401.286	87.62
401.51	90.62
401.734	68.62
401.958	85.62
402.182	63.62
402.406	85.62
402.63	80.62
402.854	75.62
403.078	82.62
403.302	84.62
403.526	84.62
403.75	80.62
403.974	85.62
404.198	91.62
404.422	108.62
404.645	124.62
404.869	94.62
405.093	90.62
405.317	74.62
405.541	92.62
405.765	83.62
405.988	78.62
406.212	68.62
406.436	77.62
406.66	76.62
406.883	68.62
407.107	82.62
407.331	90.62
407.555	89.62
407.778	93.62
408.002	114.62
408.226	94.62
408.449	75.62
408.673	65.62
408.896	77.62
409.12	93.62
409.344	87.62
409.567	88.62
409.791	87.62
410.014	94.62
410.238	89.62
410.461	73.62
410.685	80.62
410.908	92.62
411.132	88.62
411.355	88.62
411.578	91.62
411.802	85.62
412.025	80.62
412.249	89.62
412.472	79.62
412.695	90.62
412.919	87.62
413.142	77.62
413.365	79.62
413.589	80.62
413.812	79.62
414.035	88.62
414.258	83.62
414.482	70.62
414.705	88.62
414.928	87.62
415.151	71.62
415.374	86.62
415.597	80.62
415.821	93.62
416.044	87.62
416.267	85.62
416.49	76.62
416.713	94.62
416.936	73.62
417.159	85.62
417.382	75.62
417.605	70.62
417.828	83.62
418.051	84.62
418.274	76.62
418.497	82.62
418.72	75.62
418.943	77.62
419.166	86.62
419.389	87.62
419.611	87.62
419.834	82.62
420.057	73.62
420.28	75.62
420.503	76.62
420.726	91.62
420.948	87.62
421.171	95.62
421.394	82.62
421.617	79.62
421.839	89.62
422.062	103.62
422.285	113.62
422.507	155.62
422.73	198.62
422.953	185.62
423.175	129.62
423.398	117.62
423.621	96.62
423.843	82.62
424.066	78.62
424.288	80.62
424.511	81.62
424.733	77.62
424.956	72.62
425.178	85.62
425.401	89.62
425.623	92.62
425.846	79.62
426.068	63.62
426.291	82.62
426.513	96.62
426.735	97.62
426.958	90.62
427.18	90.62
427.402	79.62
427.625	100.62
427.847	94.62
428.069	93.62
428.292	105.62
428.514	99.62
428.736	97.62
428.958	93.62
429.181	90.62
429.403	85.62
429.625	85.62
429.847	105.62
430.069	113.62
430.292	105.62
430.514	119.62
430.736	90.62
430.958	107.62
431.18	81.62
431.402	92.62
431.624	86.62
431.846	96.62
432.068	101.62
432.29	86.62
432.512	85.62
432.734	79.62
432.956	76.62
433.178	78.62
433.4	86.62
433.622	79.62
433.844	98.62
434.066	72.62
434.287	80.62
434.509	79.62
434.731	82.62
434.953	91.62
435.175	72.62
435.397	77.62
435.618	75.62
435.84	82.62
436.062	82.62
436.284	88.62
436.505	92.62
436.727	98.62
436.949	79.62
437.17	75.62
437.392	78.62
437.614	92.62
437.835	68.62
438.057	89.62
438.278	89.62
438.5	76.62
438.721	89.62
438.943	78.62
439.165	74.62
439.386	88.62
439.608	94.62
439.829	98.62
440.05	91.62
440.272	85.62
440.493	87.62
440.715	80.62
440.936	89.62
441.158	97.62
441.379	88.62
441.6	81.62
441.822	76.62
442.043	81.62
442.264	76.62
442.486	115.62
442.707	113.62
442.928	99.62
443.149	91.62
443.371	106.62
443.592	136.62
443.813	136.62
444.034	92.62
444.255	96.62
444.476	88.62
444.698	86.62
444.919	85.62
445.14	156.62
445.361	145.62
445.582	157.62
445.803	145.62
446.024	102.62
446.245	101.62
446.466	87.62
446.687	68.62
446.908	77.62
447.129	82.62
447.35	91.62
447.571	84.62
447.792	95.62
448.013	67.62
448.234	79.62
448.455	84.62
448.675	85.62
448.896	78.62
449.117	76.62
449.338	88.62
449.559	87.62
449.779	72.62
450	82.62
450.221	85.62
450.442	82.62
450.662	80.62
450.883	86.62
451.104	96.62
451.324	81.62
451.545	76.62
451.766	72.62
451.986	88.62
452.207	96.62
452.428	76.62
452.648	87.62
452.869	75.62
453.089	74.62
453.31	84.62
453.53	77.62
453.751	79.62
453.971	77.62
454.192	74.62
454.412	84.62
454.633	73.62
454.853	89.62
455.073	91.62
455.294	81.62
455.514	85.62
455.734	78.62
455.955	83.62
456.175	76.62
456.395	74.62
456.616	77.62
456.836	75.62
457.056	76.62
457.276	72.62
457.497	80.62
457.717	84.62
457.937	92.62
458.157	104.62
458.377	102.62
458.598	97.62
458.818	82.62
459.038	83.62
459.258	90.62
459.478	93.62
459.698	82.62
459.918	88.62
460.138	84.62
460.358	76.62
460.578	86.62
460.798	91.62
461.018	107.62
461.238	82.62
461.458	77.62
461.678	75.62
461.898	91.62
462.118	90.62
462.338	90.62
462.558	97.62
462.777	73.62
462.997	75.62
463.217	84.62
463.437	84.62
463.657	85.62
463.876	82.62
464.096	98.62
464.316	97.62
464.536	82.62
464.755	86.62
464.975	71.62
465.195	95.62
465.414	99.62
465.634	96.62
465.854	98.62
466.073	79.62
466.293	96.62
466.512	79.62
466.732	66.62
466.951	67.62
467.171	82.62
467.391	74.62
467.61	83.62
467.829	76.62
468.049	82.62
468.268	80.62
468.488	87.62
468.707	80.62
468.927	95.62
469.146	90.62
469.365	84.62
469.585	72.62
469.804	82.62
470.023	80.62
470.243	77.62
470.462	88.62
470.681	76.62
470.901	65.62
471.12	82.62
471.339	69.62
471.558	84.62
471.777	86.62
471.997	99.62
472.216	100.62
472.435	88.62
472.654	94.62
472.873	87.62
473.092	73.62
473.311	88.62
473.53	76.62
473.749	88.62
473.968	90.62
474.187	79.62
474.406	77.62
474.625	95.62
474.844	82.62
475.063	88.62
475.282	82.62
475.501	81.62
475.72	83.62
475.939	73.62
476.158	74.62
476.377	80.62
476.596	82.62
476.814	83.62
477.033	77.62
477.252	74.62
477.471	84.62
477.69	77.62
477.908	88.62
478.127	86.62
478.346	87.62
478.564	89.62
478.783	74.62
479.002	73.62
479.22	91.62
479.439	88.62
479.658	84.62
479.876	98.62
480.095	94.62
480.313	85.62
480.532	78.62
480.751	102.62
480.969	80.62
481.188	86.62
481.406	99.62
481.624	74.62
481.843	76.62
482.061	91.62
482.28	92.62
482.498	72.62
482.717	71.62
482.935	102.62
483.153	77.62
483.372	82.62
483.59	75.62
483.808	85.62
484.027	87.62
484.245	84.62
484.463	100.62
484.681	91.62
484.9	94.62
485.118	74.62
485.336	73.62
485.554	95.62
485.772	86.62
485.99	87.62
486.209	83.62
486.427	73.62
486.645	74.62
486.863	84.62
487.081	66.62
487.299	91.62
487.517	92.62
487.735	97.62
487.953	98.62
488.171	105.62
488.389	97.62
488.607	82.62
488.825	98.62
489.043	84.62
489.261	107.62
489.479	81.62
489.696	80.62
489.914	90.62
490.132	82.62
490.35	90.62
490.568	78.62
490.786	75.62
491.003	81.62
491.221	82.62
491.439	85.62
491.657	82.62
491.874	91.62
492.092	90.62
492.31	72.62
492.527	82.62
492.745	81.62
492.963	82.62
493.18	82.62
493.398	83.62
493.615	97.62
493.833	77.62
494.05	91.62
494.268	90.62
494.485	82.62
494.703	90.62
494.92	94.62
495.138	87.62
495.355	87.62
495.573	91.62
495.79	80.62
496.008	90.62
496.225	86.62
496.442	88.62
496.66	85.62
496.877	75.62
497.094	94.62
497.312	89.62
497.529	79.62
497.746	86.62
497.963	75.62
498.181	82.62
498.398	87.62
498.615	86.62
498.832	78.62
499.049	84.62
499.267	89.62
499.484	81.62
499.701	85.62
499.918	78.62
500.135	86.62
500.352	84.62
500.569	91.62
500.786	80.62
501.003	70.62
501.22	86.62
501.437	78.62
501.654	97.62
501.871	82.62
502.088	88.62
502.305	72.62
502.522	79.62
502.739	95.62
502.956	84.62
503.172	87.62
503.389	72.62
503.606	90.62
503.823	89.62
504.04	111.62
504.256	100.62
504.473	98.62
504.69	85.62
504.907	79.62
505.123	94.62
505.34	91.62
505.557	94.62
505.773	96.62
505.99	92.62
506.207	86.62
506.423	82.62
506.64	72.62
506.856	80.62
507.073	72.62
507.289	91.62
507.506	79.62
507.722	84.62
507.939	79.62
508.155	90.62
508.372	71.62
508.588	60.62
508.805	95.62
509.021	70.62
509.238	88.62
509.454	89.62
509.67	84.62
509.887	70.62
510.103	100.62
510.319	82.62
510.536	82.62
510.752	78.62
510.968	75.62
511.184	80.62
511.401	67.62
511.617	82.62
511.833	80.62
512.049	85.62
512.265	84.62
512.481	79.62
512.698	81.62
512.914	88.62
513.13	90.62
513.346	92.62
513.562	79.62
513.778	103.62
513.994	78.62
514.21	69.62
514.426	89.62
514.642	79.62
514.858	83.62
515.074	80.62
515.29	86.62
515.506	92.62
515.721	99.62
515.937	77.62
516.153	80.62
516.369	86.62
516.585	88.62
516.801	63.62
517.016	80.62
517.232	89.62
517.448	72.62
517.664	85.62
517.879	85.62
518.095	90.62
518.311	78.62
518.527	88.62
518.742	81.62
518.958	101.62
519.173	110.62
519.389	97.62
