Data from HP_2_HRD10591_00043.txt Node
Date: Mon Jan 19 14:16:22 EST 2026
User: Yrep
Spectrometer: HR+D1059
Trigger mode: 1
Integration Time (sec): 1.000000E-1
Scans to average: 1
Electric dark correction enabled: true
Nonlinearity correction enabled: false
Boxcar width: 0
XAxis mode: Wavelengths
Number of Pixels in Spectrum: 2048
>>>>>Begin Spectral Data<<<<<
223.165	-2.25
223.4	-2.25
223.635	-2.25
223.869	-12.25
224.104	-13.25
224.338	-23.25
224.573	-21.25
224.808	-33.25
225.042	-8.25
225.277	-4.25
225.511	-2.25
225.746	10.75
225.98	8.75
226.215	8.75
226.449	22.75
226.683	25.75
226.918	22.75
227.152	20.75
227.387	22.75
227.621	42.75
227.856	42.75
228.09	50.75
228.324	53.75
228.559	66.75
228.793	59.75
229.027	69.75
229.262	71.75
229.496	62.75
229.73	69.75
229.964	61.75
230.199	82.75
230.433	79.75
230.667	83.75
230.901	87.75
231.136	88.75
231.37	75.75
231.604	89.75
231.838	82.75
232.072	81.75
232.306	90.75
232.541	79.75
232.775	68.75
233.009	91.75
233.243	84.75
233.477	84.75
233.711	93.75
233.945	91.75
234.179	79.75
234.413	86.75
234.647	75.75
234.881	79.75
235.115	76.75
235.349	91.75
235.583	68.75
235.817	78.75
236.051	85.75
236.285	78.75
236.519	70.75
236.753	85.75
236.987	71.75
237.221	73.75
237.455	87.75
237.689	76.75
237.922	79.75
238.156	72.75
238.39	80.75
238.624	89.75
238.858	66.75
239.091	75.75
239.325	72.75
239.559	64.75
239.793	72.75
240.027	85.75
240.26	67.75
240.494	80.75
240.728	84.75
240.961	82.75
241.195	76.75
241.429	76.75
241.662	66.75
241.896	65.75
242.13	82.75
242.363	79.75
242.597	92.75
242.83	84.75
243.064	80.75
243.298	89.75
243.531	75.75
243.765	78.75
243.998	93.75
244.232	71.75
244.465	70.75
244.699	78.75
244.932	87.75
245.166	78.75
245.399	85.75
245.633	85.75
245.866	83.75
246.099	74.75
246.333	66.75
246.566	71.75
246.8	81.75
247.033	90.75
247.266	94.75
247.5	77.75
247.733	78.75
247.966	85.75
248.2	86.75
248.433	86.75
248.666	82.75
248.899	79.75
249.133	69.75
249.366	79.75
249.599	76.75
249.832	73.75
250.066	77.75
250.299	91.75
250.532	90.75
250.765	77.75
250.998	78.75
251.231	101.75
251.465	89.75
251.698	84.75
251.931	75.75
252.164	77.75
252.397	81.75
252.63	98.75
252.863	74.75
253.096	89.75
253.329	85.75
253.562	87.75
253.795	71.75
254.028	85.75
254.261	73.75
254.494	74.75
254.727	77.75
254.96	72.75
255.193	71.75
255.426	80.75
255.659	78.75
255.892	79.75
256.124	90.75
256.357	77.75
256.59	80.75
256.823	85.75
257.056	83.75
257.289	79.75
257.521	74.75
257.754	77.75
257.987	77.75
258.22	71.75
258.452	79.75
258.685	85.75
258.918	71.75
259.151	89.75
259.383	97.75
259.616	69.75
259.849	86.75
260.081	90.75
260.314	87.75
260.547	68.75
260.779	86.75
261.012	83.75
261.244	78.75
261.477	77.75
261.71	71.75
261.942	79.75
262.175	71.75
262.407	76.75
262.64	89.75
262.872	89.75
263.105	66.75
263.337	85.75
263.57	79.75
263.802	75.75
264.035	86.75
264.267	83.75
264.499	85.75
264.732	82.75
264.964	91.75
265.197	79.75
265.429	91.75
265.661	84.75
265.894	76.75
266.126	83.75
266.358	88.75
266.591	83.75
266.823	97.75
267.055	83.75
267.287	93.75
267.52	72.75
267.752	74.75
267.984	88.75
268.216	82.75
268.448	89.75
268.681	95.75
268.913	78.75
269.145	72.75
269.377	96.75
269.609	86.75
269.841	87.75
270.073	85.75
270.306	87.75
270.538	90.75
270.77	87.75
271.002	90.75
271.234	83.75
271.466	75.75
271.698	74.75
271.93	104.75
272.162	79.75
272.394	91.75
272.626	84.75
272.858	71.75
273.09	90.75
273.322	83.75
273.553	85.75
273.785	89.75
274.017	75.75
274.249	90.75
274.481	89.75
274.713	98.75
274.945	87.75
275.176	81.75
275.408	89.75
275.64	78.75
275.872	78.75
276.104	76.75
276.335	71.75
276.567	92.75
276.799	88.75
277.031	92.75
277.262	90.75
277.494	89.75
277.726	77.75
277.957	99.75
278.189	89.75
278.421	81.75
278.652	80.75
278.884	98.75
279.115	106.75
279.347	102.75
279.579	82.75
279.81	77.75
280.042	86.75
280.273	85.75
280.505	74.75
280.736	89.75
280.968	90.75
281.199	92.75
281.431	83.75
281.662	81.75
281.894	70.75
282.125	80.75
282.356	85.75
282.588	87.75
282.819	91.75
283.051	83.75
283.282	75.75
283.513	82.75
283.745	90.75
283.976	83.75
284.207	74.75
284.439	85.75
284.67	96.75
284.901	89.75
285.132	80.75
285.364	79.75
285.595	85.75
285.826	89.75
286.057	102.75
286.288	87.75
286.52	75.75
286.751	79.75
286.982	93.75
287.213	78.75
287.444	97.75
287.675	88.75
287.906	87.75
288.138	84.75
288.369	102.75
288.6	81.75
288.831	88.75
289.062	91.75
289.293	94.75
289.524	79.75
289.755	84.75
289.986	78.75
290.217	80.75
290.448	79.75
290.679	97.75
290.91	100.75
291.141	89.75
291.371	78.75
291.602	89.75
291.833	88.75
292.064	98.75
292.295	86.75
292.526	80.75
292.757	94.75
292.987	79.75
293.218	69.75
293.449	84.75
293.68	99.75
293.91	99.75
294.141	98.75
294.372	96.75
294.603	90.75
294.833	88.75
295.064	84.75
295.295	78.75
295.525	89.75
295.756	94.75
295.987	94.75
296.217	93.75
296.448	83.75
296.679	89.75
296.909	102.75
297.14	91.75
297.37	103.75
297.601	76.75
297.831	89.75
298.062	80.75
298.292	82.75
298.523	90.75
298.753	69.75
298.984	76.75
299.214	75.75
299.445	87.75
299.675	97.75
299.905	101.75
300.136	90.75
300.366	94.75
300.597	73.75
300.827	92.75
301.057	98.75
301.288	85.75
301.518	89.75
301.748	75.75
301.979	95.75
302.209	86.75
302.439	89.75
302.669	85.75
302.9	76.75
303.13	88.75
303.36	59.75
303.59	84.75
303.82	93.75
304.051	91.75
304.281	89.75
304.511	99.75
304.741	97.75
304.971	83.75
305.201	110.75
305.431	86.75
305.661	75.75
305.891	87.75
306.121	82.75
306.352	85.75
306.582	99.75
306.812	96.75
307.042	94.75
307.272	91.75
307.502	96.75
307.731	69.75
307.961	80.75
308.191	97.75
308.421	105.75
308.651	96.75
308.881	91.75
309.111	98.75
309.341	106.75
309.571	85.75
309.8	79.75
310.03	90.75
310.26	89.75
310.49	86.75
310.72	79.75
310.949	86.75
311.179	84.75
311.409	82.75
311.639	78.75
311.868	91.75
312.098	75.75
312.328	92.75
312.557	91.75
312.787	92.75
313.017	99.75
313.246	79.75
313.476	87.75
313.706	78.75
313.935	100.75
314.165	87.75
314.394	85.75
314.624	82.75
314.853	85.75
315.083	84.75
315.312	80.75
315.542	94.75
315.771	88.75
316.001	83.75
316.23	97.75
316.46	82.75
316.689	93.75
316.919	94.75
317.148	79.75
317.377	99.75
317.607	84.75
317.836	92.75
318.065	92.75
318.295	100.75
318.524	89.75
318.753	111.75
318.983	84.75
319.212	81.75
319.441	93.75
319.67	75.75
319.9	83.75
320.129	93.75
320.358	71.75
320.587	86.75
320.816	84.75
321.046	88.75
321.275	91.75
321.504	83.75
321.733	94.75
321.962	91.75
322.191	85.75
322.42	98.75
322.649	85.75
322.878	92.75
323.108	88.75
323.337	81.75
323.566	87.75
323.795	85.75
324.024	83.75
324.253	86.75
324.482	91.75
324.71	83.75
324.939	86.75
325.168	93.75
325.397	87.75
325.626	87.75
325.855	83.75
326.084	92.75
326.313	87.75
326.542	79.75
326.77	88.75
326.999	93.75
327.228	85.75
327.457	90.75
327.686	82.75
327.914	94.75
328.143	76.75
328.372	85.75
328.6	92.75
328.829	84.75
329.058	103.75
329.287	93.75
329.515	79.75
329.744	93.75
329.972	94.75
330.201	97.75
330.43	93.75
330.658	69.75
330.887	73.75
331.115	91.75
331.344	76.75
331.572	83.75
331.801	96.75
332.03	99.75
332.258	91.75
332.486	92.75
332.715	88.75
332.943	98.75
333.172	90.75
333.4	85.75
333.629	87.75
333.857	77.75
334.085	83.75
334.314	75.75
334.542	89.75
334.771	93.75
334.999	85.75
335.227	104.75
335.455	95.75
335.684	98.75
335.912	94.75
336.14	94.75
336.369	87.75
336.597	85.75
336.825	98.75
337.053	85.75
337.281	91.75
337.51	86.75
337.738	86.75
337.966	85.75
338.194	89.75
338.422	94.75
338.65	86.75
338.878	84.75
339.106	79.75
339.334	88.75
339.562	69.75
339.79	95.75
340.018	89.75
340.246	101.75
340.474	93.75
340.702	93.75
340.93	76.75
341.158	76.75
341.386	92.75
341.614	84.75
341.842	88.75
342.07	88.75
342.298	82.75
342.526	99.75
342.754	85.75
342.981	78.75
343.209	80.75
343.437	99.75
343.665	84.75
343.893	103.75
344.12	97.75
344.348	101.75
344.576	97.75
344.804	83.75
345.031	85.75
345.259	95.75
345.487	93.75
345.714	90.75
345.942	89.75
346.17	98.75
346.397	83.75
346.625	104.75
346.853	86.75
347.08	79.75
347.308	102.75
347.535	89.75
347.763	78.75
347.99	87.75
348.218	93.75
348.445	95.75
348.673	99.75
348.9	99.75
349.128	93.75
349.355	87.75
349.583	92.75
349.81	84.75
350.037	93.75
350.265	90.75
350.492	82.75
350.72	80.75
350.947	97.75
351.174	83.75
351.402	76.75
351.629	83.75
351.856	76.75
352.083	94.75
352.311	95.75
352.538	102.75
352.765	91.75
352.992	74.75
353.22	90.75
353.447	96.75
353.674	94.75
353.901	95.75
354.128	94.75
354.355	80.75
354.583	80.75
354.81	91.75
355.037	84.75
355.264	89.75
355.491	89.75
355.718	96.75
355.945	97.75
356.172	100.75
356.399	78.75
356.626	84.75
356.853	97.75
357.08	92.75
357.307	79.75
357.534	92.75
357.761	88.75
357.988	97.75
358.215	95.75
358.441	94.75
358.668	98.75
358.895	92.75
359.122	101.75
359.349	101.75
359.576	93.75
359.802	87.75
360.029	90.75
360.256	99.75
360.483	87.75
360.709	92.75
360.936	96.75
361.163	93.75
361.39	75.75
361.616	93.75
361.843	91.75
362.07	88.75
362.296	99.75
362.523	97.75
362.749	97.75
362.976	126.75
363.203	120.75
363.429	109.75
363.656	88.75
363.882	97.75
364.109	117.75
364.335	126.75
364.562	124.75
364.788	98.75
365.015	97.75
365.241	89.75
365.468	90.75
365.694	89.75
365.92	87.75
366.147	86.75
366.373	82.75
366.599	74.75
366.826	73.75
367.052	82.75
367.278	102.75
367.505	97.75
367.731	97.75
367.957	81.75
368.184	78.75
368.41	91.75
368.636	87.75
368.862	94.75
369.089	91.75
369.315	90.75
369.541	82.75
369.767	82.75
369.993	99.75
370.219	89.75
370.445	86.75
370.672	90.75
370.898	95.75
371.124	83.75
371.35	75.75
371.576	105.75
371.802	80.75
372.028	87.75
372.254	97.75
372.48	86.75
372.706	89.75
372.932	89.75
373.158	95.75
373.384	102.75
373.61	94.75
373.835	90.75
374.061	83.75
374.287	91.75
374.513	92.75
374.739	79.75
374.965	91.75
375.191	87.75
375.416	90.75
375.642	103.75
375.868	101.75
376.094	80.75
376.319	94.75
376.545	96.75
376.771	103.75
376.997	84.75
377.222	77.75
377.448	98.75
377.674	89.75
377.899	81.75
378.125	73.75
378.35	95.75
378.576	86.75
378.802	101.75
379.027	82.75
379.253	82.75
379.478	82.75
379.704	80.75
379.929	90.75
380.155	90.75
380.38	82.75
380.606	93.75
380.831	76.75
381.057	93.75
381.282	73.75
381.507	94.75
381.733	86.75
381.958	97.75
382.184	83.75
382.409	97.75
382.634	103.75
382.86	92.75
383.085	87.75
383.31	83.75
383.535	101.75
383.761	111.75
383.986	108.75
384.211	95.75
384.436	93.75
384.662	101.75
384.887	95.75
385.112	83.75
385.337	96.75
385.562	91.75
385.787	96.75
386.013	103.75
386.238	94.75
386.463	104.75
386.688	98.75
386.913	90.75
387.138	86.75
387.363	88.75
387.588	84.75
387.813	104.75
388.038	99.75
388.263	94.75
388.488	91.75
388.713	80.75
388.938	98.75
389.163	86.75
389.387	87.75
389.612	89.75
389.837	89.75
390.062	85.75
390.287	88.75
390.512	99.75
390.736	82.75
390.961	95.75
391.186	105.75
391.411	89.75
391.636	89.75
391.86	102.75
392.085	85.75
392.31	87.75
392.534	101.75
392.759	94.75
392.984	138.75
393.208	205.75
393.433	315.75
393.658	245.75
393.882	108.75
394.107	109.75
394.331	115.75
394.556	138.75
394.78	104.75
395.005	82.75
395.229	89.75
395.454	90.75
395.678	102.75
395.903	119.75
396.127	136.75
396.352	161.75
396.576	137.75
396.801	214.75
397.025	238.75
397.249	149.75
397.474	121.75
397.698	91.75
397.922	94.75
398.147	94.75
398.371	86.75
398.595	97.75
398.82	89.75
399.044	95.75
399.268	86.75
399.492	90.75
399.717	98.75
399.941	95.75
400.165	98.75
400.389	88.75
400.613	93.75
400.837	87.75
401.062	78.75
401.286	74.75
401.51	80.75
401.734	98.75
401.958	101.75
402.182	81.75
402.406	73.75
402.63	96.75
402.854	84.75
403.078	91.75
403.302	83.75
403.526	98.75
403.75	80.75
403.974	93.75
404.198	113.75
404.422	134.75
404.645	154.75
404.869	127.75
405.093	96.75
405.317	80.75
405.541	89.75
405.765	93.75
405.988	85.75
406.212	95.75
406.436	87.75
406.66	94.75
406.883	84.75
407.107	80.75
407.331	93.75
407.555	97.75
407.778	110.75
408.002	119.75
408.226	78.75
408.449	97.75
408.673	101.75
408.896	95.75
409.12	89.75
409.344	76.75
409.567	89.75
409.791	111.75
410.014	109.75
410.238	93.75
410.461	92.75
410.685	97.75
410.908	95.75
411.132	97.75
411.355	84.75
411.578	80.75
411.802	94.75
412.025	83.75
412.249	80.75
412.472	87.75
412.695	88.75
412.919	84.75
413.142	78.75
413.365	85.75
413.589	92.75
413.812	69.75
414.035	89.75
414.258	85.75
414.482	99.75
414.705	95.75
414.928	91.75
415.151	92.75
415.374	94.75
415.597	98.75
415.821	83.75
416.044	79.75
416.267	93.75
416.49	92.75
416.713	72.75
416.936	88.75
417.159	77.75
417.382	76.75
417.605	90.75
417.828	90.75
418.051	92.75
418.274	90.75
418.497	95.75
418.72	98.75
418.943	82.75
419.166	99.75
419.389	89.75
419.611	90.75
419.834	99.75
420.057	86.75
420.28	96.75
420.503	104.75
420.726	96.75
420.948	91.75
421.171	102.75
421.394	95.75
421.617	127.75
421.839	119.75
422.062	124.75
422.285	185.75
422.507	292.75
422.73	449.75
422.953	393.75
423.175	227.75
423.398	129.75
423.621	108.75
423.843	95.75
424.066	88.75
424.288	96.75
424.511	103.75
424.733	102.75
424.956	88.75
425.178	95.75
425.401	84.75
425.623	87.75
425.846	100.75
426.068	93.75
426.291	85.75
426.513	72.75
426.735	91.75
426.958	90.75
427.18	107.75
427.402	88.75
427.625	77.75
427.847	98.75
428.069	101.75
428.292	131.75
428.514	150.75
428.736	121.75
428.958	131.75
429.181	137.75
429.403	100.75
429.625	98.75
429.847	121.75
430.069	171.75
430.292	212.75
430.514	193.75
430.736	144.75
430.958	145.75
431.18	110.75
431.402	85.75
431.624	99.75
431.846	134.75
432.068	140.75
432.29	92.75
432.512	76.75
432.734	75.75
432.956	89.75
433.178	86.75
433.4	82.75
433.622	83.75
433.844	102.75
434.066	93.75
434.287	86.75
434.509	80.75
434.731	93.75
434.953	80.75
435.175	79.75
435.397	100.75
435.618	85.75
435.84	92.75
436.062	78.75
436.284	97.75
436.505	90.75
436.727	80.75
436.949	93.75
437.17	95.75
437.392	86.75
437.614	89.75
437.835	80.75
438.057	76.75
438.278	79.75
438.5	97.75
438.721	98.75
438.943	101.75
439.165	93.75
439.386	78.75
439.608	94.75
439.829	82.75
440.05	89.75
440.272	81.75
440.493	94.75
440.715	85.75
440.936	88.75
441.158	98.75
441.379	73.75
441.6	87.75
441.822	102.75
442.043	79.75
442.264	103.75
442.486	141.75
442.707	180.75
442.928	141.75
443.149	114.75
443.371	155.75
443.592	266.75
443.813	218.75
444.034	101.75
444.255	107.75
444.476	97.75
444.698	97.75
444.919	98.75
445.14	170.75
445.361	218.75
445.582	294.75
445.803	247.75
446.024	129.75
446.245	97.75
446.466	93.75
446.687	102.75
446.908	73.75
447.129	80.75
447.35	82.75
447.571	75.75
447.792	93.75
448.013	80.75
448.234	76.75
448.455	88.75
448.675	84.75
448.896	82.75
449.117	78.75
449.338	80.75
449.559	83.75
449.779	87.75
450	76.75
450.221	82.75
450.442	71.75
450.662	85.75
450.883	91.75
451.104	85.75
451.324	106.75
451.545	92.75
451.766	97.75
451.986	96.75
452.207	86.75
452.428	65.75
452.648	94.75
452.869	89.75
453.089	101.75
453.31	93.75
453.53	95.75
453.751	75.75
453.971	81.75
454.192	80.75
454.412	86.75
454.633	100.75
454.853	94.75
455.073	90.75
455.294	100.75
455.514	92.75
455.734	91.75
455.955	97.75
456.175	82.75
456.395	79.75
456.616	84.75
456.836	85.75
457.056	93.75
457.276	89.75
457.497	85.75
457.717	95.75
457.937	118.75
458.157	104.75
458.377	118.75
458.598	113.75
458.818	116.75
459.038	94.75
459.258	97.75
459.478	76.75
459.698	80.75
459.918	99.75
460.138	75.75
460.358	71.75
460.578	105.75
460.798	141.75
461.018	132.75
461.238	97.75
461.458	97.75
461.678	76.75
461.898	90.75
462.118	93.75
462.338	85.75
462.558	92.75
462.777	97.75
462.997	86.75
463.217	98.75
463.437	85.75
463.657	87.75
463.876	85.75
464.096	80.75
464.316	85.75
464.536	76.75
464.755	91.75
464.975	110.75
465.195	91.75
465.414	95.75
465.634	87.75
465.854	94.75
466.073	81.75
466.293	78.75
466.512	92.75
466.732	83.75
466.951	83.75
467.171	91.75
467.391	90.75
467.61	93.75
467.829	98.75
468.049	98.75
468.268	96.75
468.488	87.75
468.707	85.75
468.927	103.75
469.146	93.75
469.365	83.75
469.585	92.75
469.804	106.75
470.023	99.75
470.243	97.75
470.462	77.75
470.681	73.75
470.901	74.75
471.12	84.75
471.339	89.75
471.558	86.75
471.777	79.75
471.997	84.75
472.216	80.75
472.435	94.75
472.654	90.75
472.873	92.75
473.092	84.75
473.311	97.75
473.53	93.75
473.749	92.75
473.968	94.75
474.187	84.75
474.406	76.75
474.625	93.75
474.844	87.75
475.063	94.75
475.282	97.75
475.501	84.75
475.72	87.75
475.939	78.75
476.158	74.75
476.377	89.75
476.596	92.75
476.814	89.75
477.033	80.75
477.252	94.75
477.471	83.75
477.69	98.75
477.908	86.75
478.127	88.75
478.346	79.75
478.564	77.75
478.783	78.75
479.002	91.75
479.22	69.75
479.439	93.75
479.658	89.75
479.876	83.75
480.095	98.75
480.313	82.75
480.532	89.75
480.751	105.75
480.969	86.75
481.188	85.75
481.406	95.75
481.624	104.75
481.843	89.75
482.061	87.75
482.28	104.75
482.498	85.75
482.717	86.75
482.935	101.75
483.153	92.75
483.372	93.75
483.59	104.75
483.808	75.75
484.027	82.75
484.245	102.75
484.463	86.75
484.681	89.75
484.9	93.75
485.118	97.75
485.336	91.75
485.554	87.75
485.772	80.75
485.99	96.75
486.209	86.75
486.427	83.75
486.645	106.75
486.863	99.75
487.081	94.75
487.299	89.75
487.517	96.75
487.735	108.75
487.953	147.75
488.171	155.75
488.389	95.75
488.607	90.75
488.825	86.75
489.043	81.75
489.261	87.75
489.479	97.75
489.696	92.75
489.914	89.75
490.132	82.75
490.35	99.75
490.568	95.75
490.786	85.75
491.003	99.75
491.221	97.75
491.439	85.75
491.657	99.75
491.874	91.75
492.092	92.75
492.31	101.75
492.527	89.75
492.745	102.75
492.963	99.75
493.18	97.75
493.398	106.75
493.615	83.75
493.833	85.75
494.05	95.75
494.268	77.75
494.485	93.75
494.703	87.75
494.92	85.75
495.138	89.75
495.355	83.75
495.573	87.75
495.79	90.75
496.008	95.75
496.225	90.75
496.442	86.75
496.66	82.75
496.877	100.75
497.094	99.75
497.312	82.75
497.529	94.75
497.746	96.75
497.963	100.75
498.181	98.75
498.398	90.75
498.615	96.75
498.832	105.75
499.049	99.75
499.267	103.75
499.484	99.75
499.701	98.75
499.918	105.75
500.135	95.75
500.352	104.75
500.569	85.75
500.786	92.75
501.003	97.75
501.22	97.75
501.437	95.75
501.654	93.75
501.871	90.75
502.088	80.75
502.305	98.75
502.522	86.75
502.739	94.75
502.956	106.75
503.172	98.75
503.389	75.75
503.606	99.75
503.823	85.75
504.04	109.75
504.256	125.75
504.473	119.75
504.69	106.75
504.907	99.75
505.123	92.75
505.34	86.75
505.557	91.75
505.773	91.75
505.99	90.75
506.207	85.75
506.423	87.75
506.64	88.75
506.856	98.75
507.073	97.75
507.289	92.75
507.506	98.75
507.722	94.75
507.939	80.75
508.155	103.75
508.372	93.75
508.588	92.75
508.805	92.75
509.021	92.75
509.238	89.75
509.454	84.75
509.67	76.75
509.887	96.75
510.103	84.75
510.319	92.75
510.536	109.75
510.752	94.75
510.968	90.75
511.184	77.75
511.401	94.75
511.617	95.75
511.833	104.75
512.049	103.75
512.265	89.75
512.481	88.75
512.698	86.75
512.914	88.75
513.13	89.75
513.346	84.75
513.562	94.75
513.778	96.75
513.994	94.75
514.21	92.75
514.426	89.75
514.642	97.75
514.858	83.75
515.074	88.75
515.29	95.75
515.506	93.75
515.721	96.75
515.937	106.75
516.153	87.75
516.369	84.75
516.585	98.75
516.801	94.75
517.016	100.75
517.232	92.75
517.448	97.75
517.664	91.75
517.879	85.75
