Data from HP_2_HRD10591_00006.txt Node
Date: Mon Jan 19 14:16:04 EST 2026
User: Yrep
Spectrometer: HR+D1059
Trigger mode: 1
Integration Time (sec): 1.000000E-1
Scans to average: 1
Electric dark correction enabled: true
Nonlinearity correction enabled: false
Boxcar width: 0
XAxis mode: Wavelengths
Number of Pixels in Spectrum: 2048
>>>>>Begin Spectral Data<<<<<
223.165	-13.62
223.4	-13.62
223.635	-13.62
223.869	-19.62
224.104	-15.62
224.338	-15.62
224.573	-19.62
224.808	-7.62
225.042	-9.62
225.277	6.38
225.511	-0.62
225.746	-18.62
225.98	12.38
226.215	12.38
226.449	3.38
226.683	23.38
226.918	25.38
227.152	37.38
227.387	40.38
227.621	41.38
227.856	44.38
228.09	44.38
228.324	44.38
228.559	45.38
228.793	61.38
229.027	62.38
229.262	61.38
229.496	66.38
229.73	72.38
229.964	81.38
230.199	70.38
230.433	65.38
230.667	69.38
230.901	82.38
231.136	77.38
231.37	82.38
231.604	91.38
231.838	98.38
232.072	78.38
232.306	76.38
232.541	86.38
232.775	93.38
233.009	66.38
233.243	78.38
233.477	78.38
233.711	82.38
233.945	76.38
234.179	88.38
234.413	76.38
234.647	87.38
234.881	74.38
235.115	72.38
235.349	82.38
235.583	79.38
235.817	69.38
236.051	69.38
236.285	68.38
236.519	68.38
236.753	73.38
236.987	73.38
237.221	78.38
237.455	58.38
237.689	81.38
237.922	88.38
238.156	78.38
238.39	61.38
238.624	92.38
238.858	76.38
239.091	78.38
239.325	75.38
239.559	67.38
239.793	70.38
240.027	81.38
240.26	76.38
240.494	78.38
240.728	79.38
240.961	72.38
241.195	77.38
241.429	73.38
241.662	74.38
241.896	81.38
242.13	85.38
242.363	77.38
242.597	85.38
242.83	100.38
243.064	67.38
243.298	77.38
243.531	83.38
243.765	72.38
243.998	91.38
244.232	83.38
244.465	77.38
244.699	75.38
244.932	75.38
245.166	74.38
245.399	72.38
245.633	77.38
245.866	72.38
246.099	80.38
246.333	76.38
246.566	67.38
246.8	72.38
247.033	77.38
247.266	69.38
247.5	83.38
247.733	88.38
247.966	77.38
248.2	89.38
248.433	88.38
248.666	75.38
248.899	77.38
249.133	81.38
249.366	88.38
249.599	77.38
249.832	86.38
250.066	77.38
250.299	79.38
250.532	68.38
250.765	78.38
250.998	73.38
251.231	88.38
251.465	88.38
251.698	73.38
251.931	84.38
252.164	94.38
252.397	87.38
252.63	85.38
252.863	83.38
253.096	91.38
253.329	81.38
253.562	69.38
253.795	83.38
254.028	84.38
254.261	73.38
254.494	70.38
254.727	79.38
254.96	89.38
255.193	69.38
255.426	80.38
255.659	75.38
255.892	85.38
256.124	91.38
256.357	81.38
256.59	93.38
256.823	72.38
257.056	82.38
257.289	72.38
257.521	84.38
257.754	66.38
257.987	86.38
258.22	90.38
258.452	85.38
258.685	98.38
258.918	93.38
259.151	79.38
259.383	86.38
259.616	88.38
259.849	90.38
260.081	94.38
260.314	81.38
260.547	68.38
260.779	94.38
261.012	79.38
261.244	82.38
261.477	100.38
261.71	96.38
261.942	72.38
262.175	78.38
262.407	69.38
262.64	74.38
262.872	82.38
263.105	80.38
263.337	83.38
263.57	81.38
263.802	97.38
264.035	87.38
264.267	81.38
264.499	83.38
264.732	96.38
264.964	79.38
265.197	70.38
265.429	87.38
265.661	95.38
265.894	72.38
266.126	74.38
266.358	74.38
266.591	86.38
266.823	80.38
267.055	83.38
267.287	90.38
267.52	80.38
267.752	77.38
267.984	78.38
268.216	67.38
268.448	79.38
268.681	80.38
268.913	87.38
269.145	83.38
269.377	70.38
269.609	77.38
269.841	77.38
270.073	90.38
270.306	86.38
270.538	107.38
270.77	78.38
271.002	88.38
271.234	95.38
271.466	89.38
271.698	88.38
271.93	85.38
272.162	82.38
272.394	94.38
272.626	75.38
272.858	78.38
273.09	87.38
273.322	74.38
273.553	81.38
273.785	94.38
274.017	84.38
274.249	71.38
274.481	77.38
274.713	75.38
274.945	83.38
275.176	73.38
275.408	73.38
275.64	85.38
275.872	68.38
276.104	106.38
276.335	80.38
276.567	94.38
276.799	92.38
277.031	73.38
277.262	87.38
277.494	80.38
277.726	82.38
277.957	86.38
278.189	71.38
278.421	84.38
278.652	74.38
278.884	80.38
279.115	87.38
279.347	83.38
279.579	85.38
279.81	84.38
280.042	72.38
280.273	89.38
280.505	84.38
280.736	71.38
280.968	79.38
281.199	89.38
281.431	96.38
281.662	78.38
281.894	78.38
282.125	78.38
282.356	83.38
282.588	90.38
282.819	84.38
283.051	82.38
283.282	76.38
283.513	66.38
283.745	82.38
283.976	92.38
284.207	87.38
284.439	82.38
284.67	85.38
284.901	79.38
285.132	100.38
285.364	87.38
285.595	89.38
285.826	86.38
286.057	102.38
286.288	88.38
286.52	82.38
286.751	76.38
286.982	83.38
287.213	88.38
287.444	83.38
287.675	85.38
287.906	90.38
288.138	83.38
288.369	111.38
288.6	101.38
288.831	85.38
289.062	80.38
289.293	86.38
289.524	72.38
289.755	88.38
289.986	71.38
290.217	84.38
290.448	100.38
290.679	76.38
290.91	85.38
291.141	87.38
291.371	85.38
291.602	94.38
291.833	77.38
292.064	85.38
292.295	76.38
292.526	96.38
292.757	77.38
292.987	84.38
293.218	77.38
293.449	75.38
293.68	82.38
293.91	85.38
294.141	86.38
294.372	81.38
294.603	92.38
294.833	88.38
295.064	78.38
295.295	83.38
295.525	92.38
295.756	90.38
295.987	88.38
296.217	74.38
296.448	75.38
296.679	82.38
296.909	79.38
297.14	89.38
297.37	86.38
297.601	84.38
297.831	91.38
298.062	84.38
298.292	86.38
298.523	95.38
298.753	96.38
298.984	96.38
299.214	90.38
299.445	81.38
299.675	83.38
299.905	90.38
300.136	106.38
300.366	98.38
300.597	95.38
300.827	93.38
301.057	91.38
301.288	92.38
301.518	96.38
301.748	100.38
301.979	100.38
302.209	88.38
302.439	77.38
302.669	77.38
302.9	63.38
303.13	73.38
303.36	87.38
303.59	86.38
303.82	107.38
304.051	99.38
304.281	79.38
304.511	78.38
304.741	75.38
304.971	92.38
305.201	100.38
305.431	74.38
305.661	88.38
305.891	97.38
306.121	103.38
306.352	82.38
306.582	81.38
306.812	72.38
307.042	80.38
307.272	84.38
307.502	88.38
307.731	89.38
307.961	97.38
308.191	107.38
308.421	92.38
308.651	83.38
308.881	82.38
309.111	84.38
309.341	91.38
309.571	106.38
309.8	76.38
310.03	88.38
310.26	89.38
310.49	83.38
310.72	87.38
310.949	83.38
311.179	81.38
311.409	76.38
311.639	86.38
311.868	90.38
312.098	97.38
312.328	86.38
312.557	84.38
312.787	68.38
313.017	84.38
313.246	95.38
313.476	93.38
313.706	79.38
313.935	84.38
314.165	86.38
314.394	88.38
314.624	79.38
314.853	92.38
315.083	87.38
315.312	97.38
315.542	86.38
315.771	96.38
316.001	87.38
316.23	82.38
316.46	82.38
316.689	81.38
316.919	89.38
317.148	79.38
317.377	83.38
317.607	86.38
317.836	83.38
318.065	98.38
318.295	100.38
318.524	90.38
318.753	86.38
318.983	84.38
319.212	91.38
319.441	88.38
319.67	74.38
319.9	95.38
320.129	92.38
320.358	91.38
320.587	87.38
320.816	92.38
321.046	83.38
321.275	85.38
321.504	85.38
321.733	86.38
321.962	101.38
322.191	100.38
322.42	96.38
322.649	93.38
322.878	100.38
323.108	95.38
323.337	82.38
323.566	86.38
323.795	93.38
324.024	94.38
324.253	96.38
324.482	79.38
324.71	105.38
324.939	97.38
325.168	94.38
325.397	76.38
325.626	91.38
325.855	98.38
326.084	78.38
326.313	77.38
326.542	95.38
326.77	91.38
326.999	79.38
327.228	81.38
327.457	85.38
327.686	88.38
327.914	78.38
328.143	92.38
328.372	90.38
328.6	92.38
328.829	86.38
329.058	79.38
329.287	92.38
329.515	86.38
329.744	96.38
329.972	85.38
330.201	92.38
330.43	94.38
330.658	84.38
330.887	96.38
331.115	94.38
331.344	91.38
331.572	89.38
331.801	91.38
332.03	89.38
332.258	79.38
332.486	97.38
332.715	87.38
332.943	96.38
333.172	86.38
333.4	101.38
333.629	100.38
333.857	100.38
334.085	91.38
334.314	96.38
334.542	90.38
334.771	92.38
334.999	86.38
335.227	92.38
335.455	96.38
335.684	115.38
335.912	87.38
336.14	94.38
336.369	94.38
336.597	88.38
336.825	91.38
337.053	96.38
337.281	92.38
337.51	96.38
337.738	94.38
337.966	86.38
338.194	80.38
338.422	104.38
338.65	85.38
338.878	87.38
339.106	84.38
339.334	80.38
339.562	83.38
339.79	96.38
340.018	86.38
340.246	70.38
340.474	90.38
340.702	78.38
340.93	99.38
341.158	84.38
341.386	78.38
341.614	96.38
341.842	78.38
342.07	104.38
342.298	103.38
342.526	97.38
342.754	88.38
342.981	94.38
343.209	85.38
343.437	102.38
343.665	91.38
343.893	100.38
344.12	103.38
344.348	92.38
344.576	99.38
344.804	95.38
345.031	105.38
345.259	95.38
345.487	98.38
345.714	98.38
345.942	88.38
346.17	100.38
346.397	84.38
346.625	91.38
346.853	87.38
347.08	78.38
347.308	89.38
347.535	86.38
347.763	96.38
347.99	89.38
348.218	88.38
348.445	91.38
348.673	88.38
348.9	94.38
349.128	91.38
349.355	93.38
349.583	98.38
349.81	72.38
350.037	77.38
350.265	89.38
350.492	92.38
350.72	78.38
350.947	86.38
351.174	95.38
351.402	82.38
351.629	81.38
351.856	96.38
352.083	88.38
352.311	77.38
352.538	93.38
352.765	84.38
352.992	85.38
353.22	92.38
353.447	84.38
353.674	89.38
353.901	98.38
354.128	83.38
354.355	99.38
354.583	89.38
354.81	101.38
355.037	103.38
355.264	90.38
355.491	75.38
355.718	82.38
355.945	72.38
356.172	81.38
356.399	91.38
356.626	88.38
356.853	90.38
357.08	93.38
357.307	103.38
357.534	84.38
357.761	88.38
357.988	89.38
358.215	100.38
358.441	98.38
358.668	102.38
358.895	89.38
359.122	84.38
359.349	92.38
359.576	85.38
359.802	88.38
360.029	79.38
360.256	101.38
360.483	83.38
360.709	84.38
360.936	95.38
361.163	102.38
361.39	93.38
361.616	97.38
361.843	97.38
362.07	104.38
362.296	102.38
362.523	114.38
362.749	116.38
362.976	131.38
363.203	135.38
363.429	113.38
363.656	118.38
363.882	119.38
364.109	128.38
364.335	130.38
364.562	145.38
364.788	120.38
365.015	92.38
365.241	102.38
365.468	105.38
365.694	86.38
365.92	90.38
366.147	82.38
366.373	91.38
366.599	84.38
366.826	88.38
367.052	88.38
367.278	97.38
367.505	89.38
367.731	99.38
367.957	104.38
368.184	95.38
368.41	98.38
368.636	95.38
368.862	86.38
369.089	78.38
369.315	82.38
369.541	94.38
369.767	93.38
369.993	94.38
370.219	90.38
370.445	85.38
370.672	92.38
370.898	79.38
371.124	75.38
371.35	99.38
371.576	85.38
371.802	96.38
372.028	109.38
372.254	96.38
372.48	96.38
372.706	93.38
372.932	86.38
373.158	77.38
373.384	101.38
373.61	92.38
373.835	110.38
374.061	94.38
374.287	103.38
374.513	85.38
374.739	105.38
374.965	117.38
375.191	94.38
375.416	90.38
375.642	99.38
375.868	103.38
376.094	97.38
376.319	90.38
376.545	84.38
376.771	115.38
376.997	79.38
377.222	92.38
377.448	82.38
377.674	96.38
377.899	100.38
378.125	98.38
378.35	78.38
378.576	100.38
378.802	88.38
379.027	90.38
379.253	71.38
379.478	86.38
379.704	70.38
379.929	85.38
380.155	81.38
380.38	90.38
380.606	89.38
380.831	93.38
381.057	100.38
381.282	88.38
381.507	94.38
381.733	90.38
381.958	92.38
382.184	93.38
382.409	107.38
382.634	112.38
382.86	116.38
383.085	105.38
383.31	88.38
383.535	105.38
383.761	97.38
383.986	100.38
384.211	108.38
384.436	96.38
384.662	80.38
384.887	93.38
385.112	84.38
385.337	91.38
385.562	103.38
385.787	85.38
386.013	104.38
386.238	96.38
386.463	88.38
386.688	110.38
386.913	92.38
387.138	98.38
387.363	89.38
387.588	101.38
387.813	88.38
388.038	92.38
388.263	90.38
388.488	101.38
388.713	107.38
388.938	109.38
389.163	98.38
389.387	83.38
389.612	92.38
389.837	85.38
390.062	101.38
390.287	84.38
390.512	88.38
390.736	91.38
390.961	83.38
391.186	97.38
391.411	93.38
391.636	100.38
391.86	83.38
392.085	97.38
392.31	98.38
392.534	109.38
392.759	100.38
392.984	150.38
393.208	261.38
393.433	349.38
393.658	277.38
393.882	130.38
394.107	112.38
394.331	128.38
394.556	154.38
394.78	116.38
395.005	105.38
395.229	99.38
395.454	101.38
395.678	101.38
395.903	143.38
396.127	169.38
396.352	178.38
396.576	181.38
396.801	259.38
397.025	297.38
397.249	174.38
397.474	124.38
397.698	119.38
397.922	101.38
398.147	90.38
398.371	84.38
398.595	94.38
398.82	85.38
399.044	86.38
399.268	107.38
399.492	104.38
399.717	102.38
399.941	100.38
400.165	95.38
400.389	93.38
400.613	91.38
400.837	85.38
401.062	95.38
401.286	97.38
401.51	93.38
401.734	87.38
401.958	81.38
402.182	91.38
402.406	74.38
402.63	88.38
402.854	83.38
403.078	97.38
403.302	95.38
403.526	106.38
403.75	105.38
403.974	122.38
404.198	141.38
404.422	218.38
404.645	258.38
404.869	217.38
405.093	160.38
405.317	103.38
405.541	101.38
405.765	99.38
405.988	81.38
406.212	85.38
406.436	96.38
406.66	110.38
406.883	97.38
407.107	81.38
407.331	98.38
407.555	103.38
407.778	112.38
408.002	108.38
408.226	101.38
408.449	92.38
408.673	75.38
408.896	92.38
409.12	99.38
409.344	96.38
409.567	84.38
409.791	116.38
410.014	102.38
410.238	112.38
410.461	93.38
410.685	83.38
410.908	72.38
411.132	98.38
411.355	92.38
411.578	89.38
411.802	96.38
412.025	96.38
412.249	88.38
412.472	90.38
412.695	91.38
412.919	98.38
413.142	98.38
413.365	100.38
413.589	94.38
413.812	83.38
414.035	101.38
414.258	88.38
414.482	92.38
414.705	74.38
414.928	84.38
415.151	88.38
415.374	89.38
415.597	101.38
415.821	90.38
416.044	80.38
416.267	92.38
416.49	90.38
416.713	86.38
416.936	105.38
417.159	93.38
417.382	89.38
417.605	91.38
417.828	86.38
418.051	91.38
418.274	104.38
418.497	93.38
418.72	92.38
418.943	96.38
419.166	87.38
419.389	88.38
419.611	89.38
419.834	97.38
420.057	81.38
420.28	101.38
420.503	107.38
420.726	99.38
420.948	104.38
421.171	97.38
421.394	131.38
421.617	143.38
421.839	140.38
422.062	172.38
422.285	229.38
422.507	376.38
422.73	540.38
422.953	498.38
423.175	297.38
423.398	181.38
423.621	142.38
423.843	138.38
424.066	119.38
424.288	105.38
424.511	115.38
424.733	109.38
424.956	98.38
425.178	103.38
425.401	98.38
425.623	99.38
425.846	87.38
426.068	94.38
426.291	99.38
426.513	84.38
426.735	94.38
426.958	102.38
427.18	89.38
427.402	90.38
427.625	105.38
427.847	101.38
428.069	95.38
428.292	160.38
428.514	170.38
428.736	145.38
428.958	168.38
429.181	173.38
429.403	112.38
429.625	116.38
429.847	150.38
430.069	222.38
430.292	258.38
430.514	235.38
430.736	167.38
430.958	188.38
431.18	118.38
431.402	105.38
431.624	122.38
431.846	163.38
432.068	194.38
432.29	112.38
432.512	83.38
432.734	106.38
432.956	90.38
433.178	87.38
433.4	91.38
433.622	111.38
433.844	77.38
434.066	89.38
434.287	92.38
434.509	79.38
434.731	100.38
434.953	94.38
435.175	101.38
435.397	89.38
435.618	103.38
435.84	80.38
436.062	84.38
436.284	88.38
436.505	85.38
436.727	102.38
436.949	89.38
437.17	81.38
437.392	74.38
437.614	87.38
437.835	89.38
438.057	82.38
438.278	89.38
438.5	92.38
438.721	81.38
438.943	90.38
439.165	93.38
439.386	82.38
439.608	76.38
439.829	88.38
440.05	85.38
440.272	99.38
440.493	73.38
440.715	90.38
440.936	92.38
441.158	82.38
441.379	113.38
441.6	96.38
441.822	99.38
442.043	101.38
442.264	102.38
442.486	173.38
442.707	222.38
442.928	175.38
443.149	155.38
443.371	218.38
443.592	376.38
443.813	303.38
444.034	151.38
444.255	109.38
444.476	92.38
444.698	98.38
444.919	100.38
445.14	226.38
445.361	286.38
445.582	429.38
445.803	338.38
446.024	160.38
446.245	114.38
446.466	82.38
446.687	95.38
446.908	91.38
447.129	83.38
447.35	96.38
447.571	98.38
447.792	77.38
448.013	79.38
448.234	85.38
448.455	93.38
448.675	77.38
448.896	86.38
449.117	89.38
449.338	87.38
449.559	84.38
449.779	80.38
450	81.38
450.221	97.38
450.442	77.38
450.662	85.38
450.883	73.38
451.104	111.38
451.324	96.38
451.545	75.38
451.766	93.38
451.986	88.38
452.207	90.38
452.428	101.38
452.648	94.38
452.869	97.38
453.089	108.38
453.31	93.38
453.53	82.38
453.751	97.38
453.971	90.38
454.192	84.38
454.412	77.38
454.633	94.38
454.853	83.38
455.073	91.38
455.294	92.38
455.514	91.38
455.734	79.38
455.955	100.38
456.175	98.38
456.395	99.38
456.616	102.38
456.836	92.38
457.056	100.38
457.276	88.38
457.497	73.38
457.717	89.38
457.937	114.38
458.157	142.38
458.377	141.38
458.598	145.38
458.818	132.38
459.038	112.38
459.258	96.38
459.478	84.38
459.698	83.38
459.918	79.38
460.138	84.38
460.358	99.38
460.578	105.38
460.798	159.38
461.018	167.38
461.238	95.38
461.458	79.38
461.678	87.38
461.898	87.38
462.118	97.38
462.338	103.38
462.558	91.38
462.777	82.38
462.997	88.38
463.217	101.38
463.437	90.38
463.657	84.38
463.876	74.38
464.096	92.38
464.316	84.38
464.536	92.38
464.755	75.38
464.975	92.38
465.195	84.38
465.414	88.38
465.634	87.38
465.854	74.38
466.073	76.38
466.293	84.38
466.512	83.38
466.732	80.38
466.951	88.38
467.171	85.38
467.391	71.38
467.61	77.38
467.829	93.38
468.049	73.38
468.268	86.38
468.488	93.38
468.707	96.38
468.927	90.38
469.146	91.38
469.365	99.38
469.585	84.38
469.804	95.38
470.023	89.38
470.243	102.38
470.462	107.38
470.681	80.38
470.901	95.38
471.12	86.38
471.339	83.38
471.558	88.38
471.777	81.38
471.997	76.38
472.216	88.38
472.435	91.38
472.654	84.38
472.873	81.38
473.092	76.38
473.311	84.38
473.53	90.38
473.749	92.38
473.968	90.38
474.187	84.38
474.406	105.38
474.625	75.38
474.844	88.38
475.063	100.38
475.282	92.38
475.501	86.38
475.72	86.38
475.939	91.38
476.158	93.38
476.377	88.38
476.596	86.38
476.814	85.38
477.033	93.38
477.252	95.38
477.471	96.38
477.69	90.38
477.908	89.38
478.127	87.38
478.346	83.38
478.564	91.38
478.783	90.38
479.002	81.38
479.22	97.38
479.439	97.38
479.658	102.38
479.876	88.38
480.095	92.38
480.313	83.38
480.532	89.38
480.751	86.38
480.969	85.38
481.188	86.38
481.406	102.38
481.624	100.38
481.843	98.38
482.061	90.38
482.28	81.38
482.498	91.38
482.717	76.38
482.935	83.38
483.153	100.38
483.372	91.38
483.59	88.38
483.808	88.38
484.027	101.38
484.245	98.38
484.463	100.38
484.681	92.38
484.9	99.38
485.118	96.38
485.336	93.38
485.554	89.38
485.772	77.38
485.99	103.38
486.209	84.38
486.427	95.38
486.645	106.38
486.863	84.38
487.081	109.38
487.299	114.38
487.517	100.38
487.735	129.38
487.953	192.38
488.171	196.38
488.389	114.38
488.607	84.38
488.825	95.38
489.043	102.38
489.261	83.38
489.479	93.38
489.696	101.38
489.914	102.38
490.132	90.38
490.35	90.38
490.568	90.38
490.786	79.38
491.003	87.38
491.221	91.38
491.439	89.38
491.657	91.38
491.874	99.38
492.092	86.38
492.31	89.38
492.527	89.38
492.745	101.38
492.963	97.38
493.18	97.38
493.398	94.38
493.615	86.38
493.833	91.38
494.05	88.38
494.268	92.38
494.485	93.38
494.703	114.38
494.92	87.38
495.138	99.38
495.355	90.38
495.573	109.38
495.79	105.38
496.008	97.38
496.225	105.38
496.442	102.38
496.66	91.38
496.877	100.38
497.094	102.38
497.312	102.38
497.529	102.38
497.746	101.38
497.963	90.38
498.181	103.38
498.398	91.38
498.615	104.38
498.832	79.38
499.049	105.38
499.267	104.38
499.484	107.38
499.701	93.38
499.918	106.38
500.135	105.38
500.352	101.38
500.569	87.38
500.786	93.38
501.003	96.38
501.22	95.38
501.437	93.38
501.654	100.38
501.871	93.38
502.088	88.38
502.305	86.38
502.522	94.38
502.739	97.38
502.956	98.38
503.172	98.38
503.389	91.38
503.606	98.38
503.823	89.38
504.04	106.38
504.256	135.38
504.473	146.38
504.69	109.38
504.907	96.38
505.123	92.38
505.34	113.38
505.557	104.38
505.773	86.38
505.99	100.38
506.207	85.38
506.423	92.38
506.64	94.38
506.856	97.38
507.073	90.38
507.289	100.38
507.506	102.38
507.722	101.38
507.939	103.38
508.155	82.38
508.372	76.38
508.588	81.38
508.805	98.38
509.021	83.38
509.238	102.38
509.454	107.38
509.67	87.38
509.887	104.38
510.103	100.38
510.319	106.38
510.536	104.38
510.752	81.38
510.968	98.38
511.184	101.38
511.401	94.38
511.617	93.38
511.833	108.38
512.049	103.38
512.265	93.38
512.481	95.38
512.698	97.38
512.914	82.38
513.13	94.38
513.346	77.38
513.562	77.38
513.778	93.38
513.994	99.38
514.21	86.38
514.426	85.38
514.642	85.38
514.858	103.38
515.074	92.38
515.29	98.38
515.506	89.38
515.721	99.38
515.937	91.38
516.153	89.38
516.369	84.38
