Data from HP_2_HRD10591_00010.txt Node
Date: Mon Jan 19 14:16:06 EST 2026
User: Yrep
Spectrometer: HR+D1059
Trigger mode: 1
Integration Time (sec): 1.000000E-1
Scans to average: 1
Electric dark correction enabled: true
Nonlinearity correction enabled: false
Boxcar width: 0
XAxis mode: Wavelengths
Number of Pixels in Spectrum: 2048
>>>>>Begin Spectral Data<<<<<
223.165	-6.88
223.4	-6.88
223.635	-6.88
223.869	-32.88
224.104	-11.88
224.338	-15.88
224.573	-4.88
224.808	0.12
225.042	-1.88
225.277	-0.88
225.511	6.12
225.746	-2.88
225.98	0.12
226.215	10.12
226.449	13.12
226.683	14.12
226.918	17.12
227.152	17.12
227.387	36.12
227.621	25.12
227.856	36.12
228.09	42.12
228.324	51.12
228.559	57.12
228.793	53.12
229.027	56.12
229.262	56.12
229.496	70.12
229.73	67.12
229.964	65.12
230.199	71.12
230.433	72.12
230.667	80.12
230.901	67.12
231.136	66.12
231.37	72.12
231.604	77.12
231.838	63.12
232.072	88.12
232.306	85.12
232.541	84.12
232.775	85.12
233.009	90.12
233.243	85.12
233.477	68.12
233.711	80.12
233.945	75.12
234.179	77.12
234.413	81.12
234.647	78.12
234.881	77.12
235.115	81.12
235.349	71.12
235.583	73.12
235.817	83.12
236.051	83.12
236.285	69.12
236.519	78.12
236.753	72.12
236.987	87.12
237.221	91.12
237.455	80.12
237.689	79.12
237.922	71.12
238.156	78.12
238.39	80.12
238.624	79.12
238.858	83.12
239.091	79.12
239.325	71.12
239.559	53.12
239.793	71.12
240.027	72.12
240.26	66.12
240.494	75.12
240.728	70.12
240.961	63.12
241.195	74.12
241.429	75.12
241.662	64.12
241.896	76.12
242.13	83.12
242.363	71.12
242.597	68.12
242.83	79.12
243.064	80.12
243.298	87.12
243.531	67.12
243.765	83.12
243.998	62.12
244.232	79.12
244.465	80.12
244.699	86.12
244.932	81.12
245.166	59.12
245.399	70.12
245.633	76.12
245.866	76.12
246.099	67.12
246.333	65.12
246.566	77.12
246.8	59.12
247.033	79.12
247.266	81.12
247.5	71.12
247.733	69.12
247.966	74.12
248.2	85.12
248.433	86.12
248.666	71.12
248.899	83.12
249.133	75.12
249.366	81.12
249.599	85.12
249.832	81.12
250.066	78.12
250.299	86.12
250.532	79.12
250.765	80.12
250.998	68.12
251.231	70.12
251.465	74.12
251.698	90.12
251.931	70.12
252.164	79.12
252.397	80.12
252.63	80.12
252.863	70.12
253.096	71.12
253.329	87.12
253.562	93.12
253.795	81.12
254.028	80.12
254.261	82.12
254.494	87.12
254.727	63.12
254.96	77.12
255.193	79.12
255.426	67.12
255.659	72.12
255.892	80.12
256.124	71.12
256.357	75.12
256.59	70.12
256.823	75.12
257.056	81.12
257.289	91.12
257.521	79.12
257.754	77.12
257.987	77.12
258.22	69.12
258.452	62.12
258.685	67.12
258.918	68.12
259.151	81.12
259.383	75.12
259.616	79.12
259.849	84.12
260.081	67.12
260.314	74.12
260.547	77.12
260.779	81.12
261.012	62.12
261.244	92.12
261.477	87.12
261.71	79.12
261.942	72.12
262.175	75.12
262.407	81.12
262.64	73.12
262.872	84.12
263.105	71.12
263.337	67.12
263.57	78.12
263.802	75.12
264.035	88.12
264.267	89.12
264.499	84.12
264.732	81.12
264.964	75.12
265.197	65.12
265.429	93.12
265.661	67.12
265.894	70.12
266.126	83.12
266.358	81.12
266.591	77.12
266.823	76.12
267.055	71.12
267.287	77.12
267.52	77.12
267.752	73.12
267.984	76.12
268.216	80.12
268.448	68.12
268.681	89.12
268.913	68.12
269.145	75.12
269.377	79.12
269.609	71.12
269.841	83.12
270.073	69.12
270.306	81.12
270.538	81.12
270.77	79.12
271.002	70.12
271.234	83.12
271.466	85.12
271.698	63.12
271.93	85.12
272.162	83.12
272.394	84.12
272.626	82.12
272.858	70.12
273.09	89.12
273.322	84.12
273.553	78.12
273.785	74.12
274.017	71.12
274.249	73.12
274.481	73.12
274.713	80.12
274.945	91.12
275.176	79.12
275.408	82.12
275.64	73.12
275.872	70.12
276.104	89.12
276.335	70.12
276.567	80.12
276.799	76.12
277.031	87.12
277.262	83.12
277.494	99.12
277.726	79.12
277.957	70.12
278.189	79.12
278.421	79.12
278.652	93.12
278.884	85.12
279.115	69.12
279.347	73.12
279.579	89.12
279.81	84.12
280.042	82.12
280.273	85.12
280.505	87.12
280.736	82.12
280.968	83.12
281.199	81.12
281.431	81.12
281.662	83.12
281.894	82.12
282.125	95.12
282.356	68.12
282.588	67.12
282.819	77.12
283.051	69.12
283.282	82.12
283.513	82.12
283.745	80.12
283.976	71.12
284.207	77.12
284.439	74.12
284.67	77.12
284.901	80.12
285.132	79.12
285.364	75.12
285.595	83.12
285.826	86.12
286.057	73.12
286.288	86.12
286.52	75.12
286.751	77.12
286.982	83.12
287.213	70.12
287.444	85.12
287.675	85.12
287.906	83.12
288.138	72.12
288.369	76.12
288.6	84.12
288.831	83.12
289.062	99.12
289.293	90.12
289.524	83.12
289.755	90.12
289.986	93.12
290.217	101.12
290.448	75.12
290.679	67.12
290.91	77.12
291.141	69.12
291.371	81.12
291.602	67.12
291.833	88.12
292.064	81.12
292.295	90.12
292.526	89.12
292.757	79.12
292.987	75.12
293.218	91.12
293.449	67.12
293.68	77.12
293.91	87.12
294.141	78.12
294.372	74.12
294.603	67.12
294.833	83.12
295.064	81.12
295.295	79.12
295.525	85.12
295.756	80.12
295.987	73.12
296.217	88.12
296.448	79.12
296.679	81.12
296.909	83.12
297.14	91.12
297.37	88.12
297.601	85.12
297.831	87.12
298.062	84.12
298.292	80.12
298.523	86.12
298.753	81.12
298.984	70.12
299.214	91.12
299.445	78.12
299.675	76.12
299.905	97.12
300.136	74.12
300.366	75.12
300.597	98.12
300.827	79.12
301.057	89.12
301.288	95.12
301.518	75.12
301.748	76.12
301.979	99.12
302.209	72.12
302.439	91.12
302.669	68.12
302.9	97.12
303.13	92.12
303.36	73.12
303.59	84.12
303.82	77.12
304.051	79.12
304.281	82.12
304.511	75.12
304.741	73.12
304.971	77.12
305.201	75.12
305.431	80.12
305.661	73.12
305.891	72.12
306.121	77.12
306.352	81.12
306.582	86.12
306.812	97.12
307.042	82.12
307.272	76.12
307.502	77.12
307.731	80.12
307.961	83.12
308.191	76.12
308.421	80.12
308.651	78.12
308.881	81.12
309.111	88.12
309.341	88.12
309.571	89.12
309.8	79.12
310.03	78.12
310.26	73.12
310.49	78.12
310.72	89.12
310.949	89.12
311.179	77.12
311.409	87.12
311.639	76.12
311.868	91.12
312.098	92.12
312.328	82.12
312.557	94.12
312.787	80.12
313.017	91.12
313.246	82.12
313.476	67.12
313.706	81.12
313.935	79.12
314.165	84.12
314.394	91.12
314.624	79.12
314.853	75.12
315.083	81.12
315.312	68.12
315.542	76.12
315.771	78.12
316.001	83.12
316.23	86.12
316.46	86.12
316.689	71.12
316.919	72.12
317.148	85.12
317.377	87.12
317.607	73.12
317.836	82.12
318.065	77.12
318.295	92.12
318.524	87.12
318.753	74.12
318.983	82.12
319.212	91.12
319.441	78.12
319.67	69.12
319.9	83.12
320.129	87.12
320.358	77.12
320.587	86.12
320.816	85.12
321.046	80.12
321.275	91.12
321.504	80.12
321.733	89.12
321.962	89.12
322.191	74.12
322.42	77.12
322.649	81.12
322.878	89.12
323.108	78.12
323.337	83.12
323.566	90.12
323.795	83.12
324.024	83.12
324.253	79.12
324.482	81.12
324.71	78.12
324.939	74.12
325.168	85.12
325.397	80.12
325.626	79.12
325.855	70.12
326.084	83.12
326.313	67.12
326.542	73.12
326.77	84.12
326.999	77.12
327.228	78.12
327.457	82.12
327.686	76.12
327.914	83.12
328.143	84.12
328.372	73.12
328.6	83.12
328.829	91.12
329.058	66.12
329.287	88.12
329.515	80.12
329.744	87.12
329.972	78.12
330.201	78.12
330.43	66.12
330.658	63.12
330.887	68.12
331.115	94.12
331.344	73.12
331.572	86.12
331.801	65.12
332.03	65.12
332.258	76.12
332.486	87.12
332.715	83.12
332.943	82.12
333.172	83.12
333.4	94.12
333.629	85.12
333.857	73.12
334.085	79.12
334.314	88.12
334.542	85.12
334.771	84.12
334.999	86.12
335.227	89.12
335.455	89.12
335.684	70.12
335.912	77.12
336.14	89.12
336.369	85.12
336.597	69.12
336.825	92.12
337.053	81.12
337.281	80.12
337.51	80.12
337.738	86.12
337.966	85.12
338.194	89.12
338.422	72.12
338.65	95.12
338.878	107.12
339.106	93.12
339.334	89.12
339.562	90.12
339.79	77.12
340.018	85.12
340.246	74.12
340.474	86.12
340.702	65.12
340.93	87.12
341.158	84.12
341.386	79.12
341.614	92.12
341.842	75.12
342.07	69.12
342.298	63.12
342.526	70.12
342.754	84.12
342.981	94.12
343.209	86.12
343.437	89.12
343.665	78.12
343.893	92.12
344.12	108.12
344.348	86.12
344.576	72.12
344.804	79.12
345.031	88.12
345.259	88.12
345.487	77.12
345.714	79.12
345.942	91.12
346.17	89.12
346.397	92.12
346.625	84.12
346.853	82.12
347.08	99.12
347.308	87.12
347.535	92.12
347.763	74.12
347.99	83.12
348.218	86.12
348.445	70.12
348.673	79.12
348.9	80.12
349.128	98.12
349.355	85.12
349.583	88.12
349.81	73.12
350.037	90.12
350.265	72.12
350.492	74.12
350.72	81.12
350.947	85.12
351.174	83.12
351.402	74.12
351.629	77.12
351.856	75.12
352.083	87.12
352.311	84.12
352.538	86.12
352.765	78.12
352.992	86.12
353.22	75.12
353.447	59.12
353.674	83.12
353.901	94.12
354.128	77.12
354.355	85.12
354.583	78.12
354.81	80.12
355.037	84.12
355.264	88.12
355.491	84.12
355.718	83.12
355.945	85.12
356.172	84.12
356.399	81.12
356.626	82.12
356.853	84.12
357.08	95.12
357.307	86.12
357.534	65.12
357.761	79.12
357.988	89.12
358.215	86.12
358.441	81.12
358.668	68.12
358.895	75.12
359.122	79.12
359.349	82.12
359.576	74.12
359.802	80.12
360.029	73.12
360.256	84.12
360.483	85.12
360.709	97.12
360.936	111.12
361.163	83.12
361.39	81.12
361.616	77.12
361.843	89.12
362.07	84.12
362.296	87.12
362.523	83.12
362.749	77.12
362.976	102.12
363.203	102.12
363.429	97.12
363.656	87.12
363.882	86.12
364.109	93.12
364.335	108.12
364.562	90.12
364.788	90.12
365.015	81.12
365.241	79.12
365.468	79.12
365.694	91.12
365.92	88.12
366.147	77.12
366.373	88.12
366.599	81.12
366.826	84.12
367.052	67.12
367.278	77.12
367.505	83.12
367.731	91.12
367.957	83.12
368.184	72.12
368.41	77.12
368.636	79.12
368.862	85.12
369.089	88.12
369.315	78.12
369.541	80.12
369.767	71.12
369.993	75.12
370.219	76.12
370.445	70.12
370.672	82.12
370.898	87.12
371.124	91.12
371.35	87.12
371.576	89.12
371.802	81.12
372.028	70.12
372.254	84.12
372.48	80.12
372.706	86.12
372.932	91.12
373.158	81.12
373.384	97.12
373.61	94.12
373.835	86.12
374.061	93.12
374.287	91.12
374.513	90.12
374.739	82.12
374.965	77.12
375.191	72.12
375.416	92.12
375.642	80.12
375.868	92.12
376.094	91.12
376.319	76.12
376.545	69.12
376.771	81.12
376.997	72.12
377.222	72.12
377.448	86.12
377.674	73.12
377.899	63.12
378.125	73.12
378.35	71.12
378.576	81.12
378.802	67.12
379.027	90.12
379.253	91.12
379.478	85.12
379.704	80.12
379.929	66.12
380.155	80.12
380.38	87.12
380.606	83.12
380.831	77.12
381.057	81.12
381.282	82.12
381.507	93.12
381.733	84.12
381.958	87.12
382.184	83.12
382.409	85.12
382.634	87.12
382.86	76.12
383.085	81.12
383.31	88.12
383.535	73.12
383.761	86.12
383.986	71.12
384.211	83.12
384.436	65.12
384.662	86.12
384.887	91.12
385.112	79.12
385.337	85.12
385.562	96.12
385.787	76.12
386.013	84.12
386.238	92.12
386.463	83.12
386.688	91.12
386.913	76.12
387.138	78.12
387.363	93.12
387.588	84.12
387.813	70.12
388.038	85.12
388.263	87.12
388.488	73.12
388.713	78.12
388.938	93.12
389.163	73.12
389.387	90.12
389.612	63.12
389.837	69.12
390.062	88.12
390.287	87.12
390.512	89.12
390.736	85.12
390.961	80.12
391.186	76.12
391.411	94.12
391.636	90.12
391.86	92.12
392.085	89.12
392.31	80.12
392.534	78.12
392.759	91.12
392.984	118.12
393.208	135.12
393.433	174.12
393.658	149.12
393.882	109.12
394.107	100.12
394.331	96.12
394.556	91.12
394.78	87.12
395.005	91.12
395.229	69.12
395.454	85.12
395.678	91.12
395.903	109.12
396.127	111.12
396.352	113.12
396.576	123.12
396.801	134.12
397.025	141.12
397.249	102.12
397.474	94.12
397.698	87.12
397.922	85.12
398.147	88.12
398.371	83.12
398.595	98.12
398.82	85.12
399.044	76.12
399.268	85.12
399.492	95.12
399.717	85.12
399.941	88.12
400.165	77.12
400.389	71.12
400.613	79.12
400.837	76.12
401.062	78.12
401.286	74.12
401.51	68.12
401.734	89.12
401.958	91.12
402.182	67.12
402.406	72.12
402.63	83.12
402.854	83.12
403.078	79.12
403.302	82.12
403.526	93.12
403.75	80.12
403.974	81.12
404.198	130.12
404.422	151.12
404.645	159.12
404.869	143.12
405.093	112.12
405.317	81.12
405.541	92.12
405.765	81.12
405.988	79.12
406.212	95.12
406.436	87.12
406.66	79.12
406.883	71.12
407.107	69.12
407.331	81.12
407.555	94.12
407.778	79.12
408.002	88.12
408.226	72.12
408.449	81.12
408.673	98.12
408.896	82.12
409.12	68.12
409.344	80.12
409.567	87.12
409.791	98.12
410.014	78.12
410.238	95.12
410.461	75.12
410.685	71.12
410.908	77.12
411.132	79.12
411.355	85.12
411.578	80.12
411.802	83.12
412.025	91.12
412.249	81.12
412.472	73.12
412.695	85.12
412.919	84.12
413.142	85.12
413.365	86.12
413.589	77.12
413.812	80.12
414.035	74.12
414.258	85.12
414.482	84.12
414.705	82.12
414.928	84.12
415.151	64.12
415.374	83.12
415.597	79.12
415.821	75.12
416.044	77.12
416.267	82.12
416.49	81.12
416.713	77.12
416.936	97.12
417.159	85.12
417.382	77.12
417.605	67.12
417.828	88.12
418.051	77.12
418.274	79.12
418.497	85.12
418.72	87.12
418.943	83.12
419.166	61.12
419.389	72.12
419.611	69.12
419.834	74.12
420.057	67.12
420.28	75.12
420.503	73.12
420.726	89.12
420.948	76.12
421.171	81.12
421.394	80.12
421.617	84.12
421.839	101.12
422.062	114.12
422.285	141.12
422.507	214.12
422.73	291.12
422.953	257.12
423.175	179.12
423.398	112.12
423.621	89.12
423.843	92.12
424.066	83.12
424.288	93.12
424.511	89.12
424.733	93.12
424.956	92.12
425.178	88.12
425.401	91.12
425.623	90.12
425.846	70.12
426.068	75.12
426.291	67.12
426.513	81.12
426.735	84.12
426.958	89.12
427.18	83.12
427.402	80.12
427.625	84.12
427.847	84.12
428.069	87.12
428.292	120.12
428.514	117.12
428.736	99.12
428.958	124.12
429.181	125.12
429.403	108.12
429.625	88.12
429.847	113.12
430.069	157.12
430.292	164.12
430.514	146.12
430.736	123.12
430.958	113.12
431.18	87.12
431.402	83.12
431.624	81.12
431.846	101.12
432.068	129.12
432.29	78.12
432.512	79.12
432.734	86.12
432.956	69.12
433.178	79.12
433.4	68.12
433.622	75.12
433.844	81.12
434.066	76.12
434.287	84.12
434.509	78.12
434.731	65.12
434.953	76.12
435.175	73.12
435.397	85.12
435.618	79.12
435.84	76.12
436.062	70.12
436.284	91.12
436.505	75.12
436.727	65.12
436.949	73.12
437.17	72.12
437.392	83.12
437.614	81.12
437.835	88.12
438.057	88.12
438.278	88.12
438.5	86.12
438.721	86.12
438.943	88.12
439.165	85.12
439.386	91.12
439.608	79.12
439.829	92.12
440.05	90.12
440.272	89.12
440.493	77.12
440.715	91.12
440.936	87.12
441.158	91.12
441.379	75.12
441.6	93.12
441.822	73.12
442.043	70.12
442.264	91.12
442.486	109.12
442.707	117.12
442.928	102.12
443.149	115.12
443.371	119.12
443.592	189.12
443.813	169.12
444.034	113.12
444.255	85.12
444.476	84.12
444.698	89.12
444.919	87.12
445.14	176.12
445.361	172.12
445.582	229.12
445.803	165.12
446.024	97.12
446.245	98.12
446.466	86.12
446.687	95.12
446.908	75.12
447.129	72.12
447.35	91.12
447.571	83.12
447.792	79.12
448.013	79.12
448.234	93.12
448.455	93.12
448.675	88.12
448.896	73.12
449.117	91.12
449.338	87.12
449.559	81.12
449.779	77.12
450	78.12
450.221	74.12
450.442	73.12
450.662	81.12
450.883	71.12
451.104	73.12
451.324	92.12
451.545	79.12
451.766	81.12
451.986	84.12
452.207	76.12
452.428	76.12
452.648	80.12
452.869	84.12
453.089	95.12
453.31	74.12
453.53	90.12
453.751	93.12
453.971	81.12
454.192	93.12
454.412	76.12
454.633	72.12
454.853	73.12
455.073	95.12
455.294	93.12
455.514	87.12
455.734	71.12
455.955	74.12
456.175	85.12
456.395	63.12
456.616	83.12
456.836	70.12
457.056	88.12
457.276	72.12
457.497	67.12
457.717	82.12
457.937	99.12
458.157	100.12
458.377	95.12
458.598	109.12
458.818	88.12
459.038	87.12
459.258	83.12
459.478	80.12
459.698	81.12
459.918	86.12
460.138	72.12
460.358	81.12
460.578	117.12
460.798	121.12
461.018	118.12
461.238	95.12
461.458	87.12
461.678	76.12
461.898	80.12
462.118	80.12
462.338	97.12
462.558	76.12
462.777	81.12
462.997	88.12
463.217	79.12
463.437	86.12
463.657	86.12
463.876	76.12
464.096	74.12
464.316	69.12
464.536	93.12
464.755	91.12
464.975	78.12
465.195	85.12
465.414	85.12
465.634	73.12
465.854	75.12
466.073	77.12
466.293	84.12
466.512	75.12
466.732	81.12
466.951	79.12
467.171	79.12
467.391	82.12
467.61	88.12
467.829	88.12
468.049	65.12
468.268	87.12
468.488	89.12
468.707	79.12
468.927	81.12
469.146	76.12
469.365	85.12
469.585	79.12
469.804	64.12
470.023	76.12
470.243	84.12
470.462	102.12
470.681	72.12
470.901	84.12
471.12	88.12
471.339	74.12
471.558	85.12
471.777	88.12
471.997	83.12
472.216	76.12
472.435	76.12
472.654	81.12
472.873	87.12
473.092	83.12
473.311	95.12
473.53	84.12
473.749	84.12
473.968	84.12
474.187	82.12
474.406	87.12
474.625	79.12
474.844	83.12
475.063	78.12
475.282	72.12
475.501	79.12
475.72	101.12
475.939	84.12
476.158	81.12
476.377	93.12
476.596	73.12
476.814	77.12
477.033	87.12
477.252	81.12
477.471	84.12
477.69	71.12
477.908	82.12
478.127	85.12
478.346	81.12
478.564	88.12
478.783	83.12
479.002	73.12
479.22	95.12
479.439	78.12
479.658	77.12
479.876	78.12
480.095	75.12
480.313	96.12
480.532	89.12
480.751	85.12
480.969	96.12
481.188	81.12
481.406	97.12
481.624	104.12
481.843	88.12
482.061	76.12
482.28	87.12
482.498	83.12
482.717	92.12
482.935	88.12
483.153	75.12
483.372	87.12
483.59	74.12
483.808	64.12
484.027	80.12
484.245	81.12
484.463	88.12
484.681	88.12
484.9	93.12
485.118	84.12
485.336	86.12
485.554	91.12
485.772	83.12
485.99	93.12
486.209	82.12
486.427	89.12
486.645	91.12
486.863	87.12
487.081	80.12
487.299	71.12
487.517	85.12
487.735	96.12
487.953	112.12
488.171	115.12
488.389	96.12
488.607	85.12
488.825	91.12
489.043	83.12
489.261	89.12
489.479	92.12
489.696	84.12
489.914	92.12
490.132	81.12
490.35	95.12
490.568	89.12
490.786	87.12
491.003	89.12
491.221	87.12
491.439	91.12
491.657	84.12
491.874	75.12
492.092	92.12
492.31	81.12
492.527	88.12
492.745	97.12
492.963	77.12
493.18	83.12
493.398	81.12
493.615	79.12
493.833	91.12
494.05	87.12
494.268	83.12
494.485	72.12
494.703	87.12
494.92	94.12
495.138	77.12
495.355	85.12
495.573	85.12
495.79	84.12
496.008	85.12
496.225	81.12
496.442	95.12
496.66	88.12
496.877	84.12
497.094	103.12
497.312	92.12
497.529	77.12
497.746	91.12
497.963	98.12
498.181	91.12
498.398	91.12
498.615	84.12
498.832	88.12
499.049	74.12
499.267	77.12
499.484	90.12
499.701	84.12
499.918	94.12
500.135	95.12
500.352	84.12
500.569	79.12
500.786	83.12
501.003	92.12
501.22	73.12
501.437	85.12
501.654	80.12
501.871	88.12
502.088	87.12
502.305	85.12
502.522	80.12
502.739	101.12
502.956	83.12
503.172	85.12
503.389	81.12
503.606	71.12
503.823	91.12
504.04	88.12
504.256	103.12
504.473	99.12
504.69	97.12
504.907	92.12
505.123	94.12
505.34	101.12
505.557	76.12
505.773	88.12
505.99	85.12
506.207	86.12
506.423	77.12
506.64	93.12
506.856	88.12
507.073	79.12
507.289	86.12
507.506	81.12
507.722	79.12
507.939	70.12
508.155	75.12
508.372	75.12
508.588	85.12
508.805	99.12
509.021	82.12
509.238	89.12
509.454	73.12
509.67	85.12
509.887	94.12
510.103	87.12
510.319	85.12
510.536	95.12
510.752	91.12
510.968	74.12
511.184	89.12
511.401	85.12
511.617	86.12
511.833	82.12
512.049	91.12
512.265	69.12
512.481	86.12
512.698	95.12
512.914	91.12
513.13	98.12
513.346	76.12
513.562	77.12
513.778	75.12
513.994	86.12
514.21	86.12
514.426	81.12
514.642	82.12
514.858	90.12
515.074	70.12
515.29	80.12
515.506	69.12
515.721	90.12
515.937	77.12
516.153	87.12
516.369	79.12
516.585	76.12
516.801	87.12
517.016	93.12
517.232	83.12
517.448	80.12
517.664	85.12
517.879	92.12
518.095	81.12
518.311	83.12
518.527	91.12
518.742	93.12
518.958	102.12
519.173	107.12
519.389	101.12
