Data from HP_2_HRD10591_00021.txt Node
Date: Mon Jan 19 14:16:11 EST 2026
User: Yrep
Spectrometer: HR+D1059
Trigger mode: 1
Integration Time (sec): 1.000000E-1
Scans to average: 1
Electric dark correction enabled: true
Nonlinearity correction enabled: false
Boxcar width: 0
XAxis mode: Wavelengths
Number of Pixels in Spectrum: 2048
>>>>>Begin Spectral Data<<<<<
223.165	-25
223.4	-25
223.635	-25
223.869	-12
224.104	-21
224.338	-18
224.573	-13
224.808	-7
225.042	-9
225.277	5
225.511	2
225.746	-8
225.98	12
226.215	4
226.449	9
226.683	20
226.918	28
227.152	33
227.387	44
227.621	46
227.856	63
228.09	52
228.324	59
228.559	53
228.793	63
229.027	71
229.262	71
229.496	63
229.73	75
229.964	86
230.199	87
230.433	73
230.667	77
230.901	78
231.136	89
231.37	83
231.604	88
231.838	91
232.072	88
232.306	89
232.541	93
232.775	84
233.009	89
233.243	79
233.477	85
233.711	77
233.945	95
234.179	90
234.413	81
234.647	77
234.881	88
235.115	73
235.349	72
235.583	95
235.817	88
236.051	85
236.285	73
236.519	84
236.753	95
236.987	96
237.221	76
237.455	95
237.689	93
237.922	81
238.156	70
238.39	79
238.624	77
238.858	77
239.091	81
239.325	79
239.559	69
239.793	68
240.027	90
240.26	84
240.494	76
240.728	83
240.961	73
241.195	83
241.429	77
241.662	76
241.896	63
242.13	78
242.363	76
242.597	90
242.83	73
243.064	85
243.298	86
243.531	80
243.765	75
243.998	71
244.232	76
244.465	89
244.699	92
244.932	82
245.166	94
245.399	68
245.633	65
245.866	80
246.099	75
246.333	83
246.566	78
246.8	79
247.033	78
247.266	87
247.5	79
247.733	66
247.966	99
248.2	85
248.433	89
248.666	80
248.899	87
249.133	83
249.366	76
249.599	82
249.832	75
250.066	79
250.299	82
250.532	65
250.765	87
250.998	88
251.231	83
251.465	80
251.698	73
251.931	86
252.164	72
252.397	67
252.63	75
252.863	79
253.096	82
253.329	74
253.562	86
253.795	87
254.028	74
254.261	75
254.494	90
254.727	81
254.96	100
255.193	72
255.426	84
255.659	86
255.892	83
256.124	93
256.357	83
256.59	88
256.823	87
257.056	86
257.289	87
257.521	93
257.754	86
257.987	85
258.22	89
258.452	91
258.685	76
258.918	75
259.151	86
259.383	87
259.616	84
259.849	93
260.081	88
260.314	83
260.547	78
260.779	90
261.012	101
261.244	85
261.477	88
261.71	87
261.942	91
262.175	88
262.407	87
262.64	95
262.872	86
263.105	81
263.337	93
263.57	87
263.802	105
264.035	75
264.267	78
264.499	81
264.732	84
264.964	69
265.197	81
265.429	81
265.661	79
265.894	79
266.126	91
266.358	92
266.591	63
266.823	85
267.055	73
267.287	89
267.52	100
267.752	89
267.984	99
268.216	92
268.448	87
268.681	103
268.913	82
269.145	81
269.377	85
269.609	85
269.841	89
270.073	83
270.306	92
270.538	96
270.77	87
271.002	85
271.234	95
271.466	87
271.698	72
271.93	91
272.162	96
272.394	81
272.626	79
272.858	81
273.09	80
273.322	88
273.553	77
273.785	85
274.017	87
274.249	76
274.481	82
274.713	66
274.945	80
275.176	92
275.408	92
275.64	93
275.872	91
276.104	93
276.335	90
276.567	83
276.799	107
277.031	90
277.262	88
277.494	99
277.726	97
277.957	94
278.189	81
278.421	91
278.652	90
278.884	96
279.115	99
279.347	93
279.579	86
279.81	83
280.042	76
280.273	83
280.505	99
280.736	96
280.968	73
281.199	94
281.431	102
281.662	90
281.894	100
282.125	88
282.356	84
282.588	87
282.819	97
283.051	93
283.282	84
283.513	94
283.745	85
283.976	103
284.207	102
284.439	84
284.67	95
284.901	95
285.132	84
285.364	98
285.595	98
285.826	80
286.057	81
286.288	92
286.52	77
286.751	105
286.982	88
287.213	93
287.444	91
287.675	101
287.906	96
288.138	91
288.369	83
288.6	90
288.831	88
289.062	94
289.293	93
289.524	88
289.755	93
289.986	95
290.217	96
290.448	94
290.679	92
290.91	96
291.141	98
291.371	84
291.602	94
291.833	67
292.064	88
292.295	99
292.526	90
292.757	91
292.987	93
293.218	85
293.449	96
293.68	90
293.91	89
294.141	81
294.372	90
294.603	76
294.833	84
295.064	82
295.295	99
295.525	92
295.756	81
295.987	83
296.217	81
296.448	88
296.679	71
296.909	89
297.14	79
297.37	79
297.601	89
297.831	82
298.062	94
298.292	76
298.523	89
298.753	89
298.984	93
299.214	102
299.445	101
299.675	89
299.905	77
300.136	95
300.366	101
300.597	94
300.827	73
301.057	87
301.288	88
301.518	97
301.748	81
301.979	100
302.209	90
302.439	107
302.669	81
302.9	87
303.13	94
303.36	88
303.59	84
303.82	101
304.051	89
304.281	99
304.511	95
304.741	101
304.971	100
305.201	83
305.431	97
305.661	96
305.891	95
306.121	90
306.352	99
306.582	98
306.812	87
307.042	69
307.272	89
307.502	94
307.731	97
307.961	103
308.191	92
308.421	93
308.651	89
308.881	93
309.111	88
309.341	98
309.571	100
309.8	95
310.03	88
310.26	90
310.49	80
310.72	93
310.949	91
311.179	80
311.409	85
311.639	87
311.868	87
312.098	87
312.328	89
312.557	90
312.787	86
313.017	86
313.246	98
313.476	86
313.706	92
313.935	93
314.165	91
314.394	83
314.624	96
314.853	110
315.083	91
315.312	83
315.542	102
315.771	80
316.001	77
316.23	87
316.46	94
316.689	97
316.919	93
317.148	94
317.377	101
317.607	93
317.836	87
318.065	94
318.295	100
318.524	91
318.753	95
318.983	100
319.212	103
319.441	75
319.67	88
319.9	96
320.129	87
320.358	100
320.587	89
320.816	84
321.046	91
321.275	83
321.504	91
321.733	89
321.962	95
322.191	101
322.42	101
322.649	94
322.878	82
323.108	91
323.337	83
323.566	99
323.795	81
324.024	92
324.253	93
324.482	91
324.71	82
324.939	99
325.168	92
325.397	103
325.626	89
325.855	96
326.084	81
326.313	85
326.542	93
326.77	93
326.999	87
327.228	81
327.457	100
327.686	91
327.914	100
328.143	102
328.372	107
328.6	95
328.829	87
329.058	85
329.287	95
329.515	78
329.744	88
329.972	87
330.201	77
330.43	99
330.658	90
330.887	81
331.115	89
331.344	103
331.572	82
331.801	87
332.03	90
332.258	96
332.486	100
332.715	81
332.943	95
333.172	88
333.4	84
333.629	102
333.857	87
334.085	84
334.314	90
334.542	80
334.771	104
334.999	99
335.227	97
335.455	90
335.684	95
335.912	90
336.14	99
336.369	100
336.597	91
336.825	91
337.053	99
337.281	85
337.51	90
337.738	87
337.966	97
338.194	94
338.422	77
338.65	81
338.878	91
339.106	89
339.334	85
339.562	99
339.79	82
340.018	95
340.246	79
340.474	94
340.702	95
340.93	91
341.158	84
341.386	93
341.614	86
341.842	96
342.07	109
342.298	95
342.526	82
342.754	86
342.981	105
343.209	98
343.437	103
343.665	79
343.893	86
344.12	108
344.348	98
344.576	94
344.804	93
345.031	92
345.259	89
345.487	103
345.714	89
345.942	91
346.17	95
346.397	93
346.625	78
346.853	80
347.08	81
347.308	85
347.535	85
347.763	84
347.99	93
348.218	90
348.445	95
348.673	88
348.9	100
349.128	104
349.355	88
349.583	91
349.81	91
350.037	94
350.265	84
350.492	78
350.72	86
350.947	87
351.174	96
351.402	77
351.629	91
351.856	80
352.083	82
352.311	96
352.538	89
352.765	115
352.992	97
353.22	104
353.447	89
353.674	96
353.901	71
354.128	86
354.355	79
354.583	96
354.81	83
355.037	87
355.264	90
355.491	87
355.718	90
355.945	76
356.172	94
356.399	104
356.626	103
356.853	87
357.08	108
357.307	96
357.534	87
357.761	84
357.988	79
358.215	103
358.441	97
358.668	100
358.895	97
359.122	104
359.349	96
359.576	93
359.802	87
360.029	87
360.256	80
360.483	89
360.709	92
360.936	109
361.163	110
361.39	84
361.616	88
361.843	97
362.07	78
362.296	105
362.523	103
362.749	106
362.976	109
363.203	119
363.429	107
363.656	115
363.882	101
364.109	123
364.335	116
364.562	128
364.788	113
365.015	104
365.241	86
365.468	82
365.694	93
365.92	89
366.147	98
366.373	75
366.599	95
366.826	91
367.052	86
367.278	87
367.505	89
367.731	92
367.957	95
368.184	87
368.41	95
368.636	81
368.862	79
369.089	88
369.315	80
369.541	75
369.767	77
369.993	96
370.219	85
370.445	87
370.672	84
370.898	80
371.124	75
371.35	99
371.576	93
371.802	86
372.028	102
372.254	106
372.48	104
372.706	104
372.932	93
373.158	107
373.384	96
373.61	91
373.835	83
374.061	93
374.287	87
374.513	105
374.739	100
374.965	87
375.191	85
375.416	103
375.642	87
375.868	100
376.094	91
376.319	88
376.545	80
376.771	105
376.997	104
377.222	89
377.448	81
377.674	97
377.899	95
378.125	74
378.35	96
378.576	115
378.802	89
379.027	91
379.253	88
379.478	88
379.704	92
379.929	103
380.155	85
380.38	88
380.606	91
380.831	96
381.057	96
381.282	90
381.507	86
381.733	105
381.958	82
382.184	105
382.409	104
382.634	78
382.86	95
383.085	96
383.31	99
383.535	109
383.761	94
383.986	95
384.211	87
384.436	86
384.662	102
384.887	89
385.112	87
385.337	96
385.562	83
385.787	100
386.013	99
386.238	108
386.463	89
386.688	112
386.913	89
387.138	88
387.363	68
387.588	106
387.813	85
388.038	111
388.263	79
388.488	84
388.713	93
388.938	103
389.163	79
389.387	87
389.612	95
389.837	91
390.062	85
390.287	107
390.512	94
390.736	99
390.961	73
391.186	80
391.411	92
391.636	100
391.86	91
392.085	91
392.31	107
392.534	100
392.759	110
392.984	131
393.208	164
393.433	195
393.658	168
393.882	115
394.107	105
394.331	109
394.556	116
394.78	115
395.005	86
395.229	109
395.454	97
395.678	105
395.903	114
396.127	124
396.352	131
396.576	135
396.801	159
397.025	175
397.249	128
397.474	130
397.698	105
397.922	85
398.147	90
398.371	92
398.595	97
398.82	80
399.044	79
399.268	98
399.492	86
399.717	80
399.941	90
400.165	103
400.389	80
400.613	96
400.837	94
401.062	96
401.286	92
401.51	83
401.734	89
401.958	93
402.182	93
402.406	77
402.63	99
402.854	92
403.078	91
403.302	92
403.526	96
403.75	99
403.974	107
404.198	102
404.422	140
404.645	142
404.869	129
405.093	92
405.317	99
405.541	91
405.765	93
405.988	102
406.212	101
406.436	99
406.66	84
406.883	92
407.107	95
407.331	93
407.555	96
407.778	121
408.002	100
408.226	95
408.449	106
408.673	78
408.896	82
409.12	102
409.344	92
409.567	106
409.791	93
410.014	90
410.238	104
410.461	89
410.685	104
410.908	87
411.132	100
411.355	90
411.578	94
411.802	104
412.025	76
412.249	95
412.472	83
412.695	74
412.919	103
413.142	108
413.365	103
413.589	89
413.812	86
414.035	91
414.258	94
414.482	96
414.705	101
414.928	91
415.151	97
415.374	96
415.597	81
415.821	95
416.044	92
416.267	78
416.49	94
416.713	86
416.936	99
417.159	97
417.382	95
417.605	85
417.828	79
418.051	97
418.274	86
418.497	97
418.72	103
418.943	77
419.166	83
419.389	85
419.611	97
419.834	89
420.057	97
420.28	96
420.503	102
420.726	94
420.948	95
421.171	104
421.394	86
421.617	118
421.839	134
422.062	128
422.285	164
422.507	249
422.73	299
422.953	262
423.175	190
423.398	158
423.621	117
423.843	114
424.066	111
424.288	104
424.511	92
424.733	104
424.956	90
425.178	109
425.401	91
425.623	93
425.846	85
426.068	87
426.291	88
426.513	88
426.735	102
426.958	80
427.18	103
427.402	102
427.625	100
427.847	97
428.069	103
428.292	122
428.514	124
428.736	109
428.958	119
429.181	131
429.403	104
429.625	97
429.847	119
430.069	161
430.292	170
430.514	157
430.736	111
430.958	113
431.18	99
431.402	103
431.624	110
431.846	116
432.068	134
432.29	97
432.512	85
432.734	92
432.956	78
433.178	100
433.4	78
433.622	92
433.844	101
434.066	82
434.287	85
434.509	88
434.731	97
434.953	85
435.175	100
435.397	98
435.618	88
435.84	99
436.062	94
436.284	85
436.505	97
436.727	91
436.949	93
437.17	93
437.392	84
437.614	88
437.835	100
438.057	106
438.278	102
438.5	107
438.721	94
438.943	91
439.165	76
439.386	91
439.608	88
439.829	87
440.05	101
440.272	92
440.493	87
440.715	94
440.936	107
441.158	103
441.379	84
441.6	87
441.822	90
442.043	79
442.264	105
442.486	141
442.707	153
442.928	99
443.149	110
443.371	149
443.592	217
443.813	192
444.034	111
444.255	103
444.476	92
444.698	87
444.919	92
445.14	176
445.361	201
445.582	258
445.803	217
446.024	126
446.245	99
446.466	94
446.687	93
446.908	78
447.129	94
447.35	89
447.571	95
447.792	102
448.013	86
448.234	77
448.455	95
448.675	95
448.896	94
449.117	73
449.338	92
449.559	89
449.779	75
450	94
450.221	102
450.442	95
450.662	93
450.883	93
451.104	84
451.324	81
451.545	99
451.766	93
451.986	80
452.207	87
452.428	91
452.648	92
452.869	99
453.089	104
453.31	90
453.53	77
453.751	110
453.971	103
454.192	96
454.412	94
454.633	93
454.853	88
455.073	77
455.294	93
455.514	102
455.734	88
455.955	91
456.175	85
456.395	86
456.616	92
456.836	91
457.056	87
457.276	70
457.497	82
457.717	93
457.937	109
458.157	124
458.377	128
458.598	127
458.818	118
459.038	108
459.258	91
459.478	103
459.698	84
459.918	95
460.138	89
460.358	94
460.578	97
460.798	136
461.018	131
461.238	96
461.458	92
461.678	94
461.898	75
462.118	89
462.338	91
462.558	91
462.777	95
462.997	80
463.217	92
463.437	77
463.657	99
463.876	93
464.096	105
464.316	73
464.536	80
464.755	98
464.975	85
465.195	95
465.414	93
465.634	92
465.854	84
466.073	85
466.293	95
466.512	66
466.732	96
466.951	105
467.171	91
467.391	100
467.61	94
467.829	79
468.049	105
468.268	94
468.488	88
468.707	91
468.927	93
469.146	80
469.365	105
469.585	101
469.804	79
470.023	87
470.243	89
470.462	90
470.681	85
470.901	90
471.12	90
471.339	88
471.558	83
471.777	85
471.997	89
472.216	83
472.435	89
472.654	96
472.873	78
473.092	81
473.311	86
473.53	88
473.749	96
473.968	99
474.187	90
474.406	89
474.625	107
474.844	78
475.063	88
475.282	102
475.501	89
475.72	108
475.939	92
476.158	87
476.377	98
476.596	91
476.814	87
477.033	80
477.252	94
477.471	89
477.69	96
477.908	85
478.127	75
478.346	82
478.564	91
478.783	80
479.002	91
479.22	89
479.439	92
479.658	91
479.876	92
480.095	82
480.313	92
480.532	102
480.751	106
480.969	96
481.188	104
481.406	86
481.624	97
481.843	101
482.061	87
482.28	95
482.498	95
482.717	95
482.935	96
483.153	102
483.372	86
483.59	92
483.808	87
484.027	100
484.245	99
484.463	111
484.681	113
484.9	88
485.118	100
485.336	79
485.554	97
485.772	86
485.99	100
486.209	101
486.427	83
486.645	94
486.863	109
487.081	101
487.299	89
487.517	98
487.735	127
487.953	143
488.171	140
488.389	94
488.607	85
488.825	97
489.043	91
489.261	96
489.479	89
489.696	99
489.914	83
490.132	97
490.35	82
490.568	106
490.786	87
491.003	74
491.221	97
491.439	99
491.657	89
491.874	75
492.092	89
492.31	99
492.527	80
492.745	89
492.963	108
493.18	100
493.398	94
493.615	102
493.833	83
494.05	92
494.268	98
494.485	83
494.703	91
494.92	93
495.138	70
495.355	89
495.573	91
495.79	93
496.008	91
496.225	97
496.442	109
496.66	101
496.877	82
497.094	98
497.312	90
497.529	104
497.746	91
497.963	108
498.181	93
498.398	119
498.615	100
498.832	91
499.049	87
499.267	93
499.484	88
499.701	86
499.918	90
500.135	101
500.352	93
500.569	98
500.786	97
501.003	90
501.22	102
501.437	98
501.654	95
501.871	103
502.088	99
502.305	109
502.522	89
502.739	99
502.956	89
503.172	105
503.389	99
503.606	97
503.823	102
504.04	112
504.256	109
504.473	139
504.69	98
504.907	92
505.123	112
505.34	86
505.557	96
505.773	88
505.99	90
506.207	106
506.423	96
506.64	88
506.856	80
507.073	87
507.289	85
507.506	92
507.722	93
507.939	86
508.155	84
508.372	88
508.588	96
508.805	89
509.021	90
509.238	87
509.454	93
509.67	101
509.887	95
510.103	107
510.319	95
510.536	104
510.752	97
510.968	89
511.184	94
511.401	87
511.617	90
511.833	91
512.049	95
512.265	99
512.481	89
512.698	95
512.914	100
513.13	87
513.346	92
513.562	98
513.778	85
513.994	84
514.21	95
514.426	84
514.642	85
514.858	98
515.074	101
515.29	103
515.506	105
515.721	79
515.937	92
516.153	80
516.369	85
516.585	85
516.801	84
517.016	91
517.232	85
517.448	101
517.664	101
517.879	94
518.095	102
518.311	97
518.527	93
518.742	126
518.958	123
519.173	148
519.389	111
519.605	98
519.82	102
520.036	104
520.251	78
520.467	98
520.682	105
520.898	96
521.113	96
521.329	88
521.544	99
521.76	115
521.975	92
522.19	90
522.406	79
522.621	100
522.836	100
523.052	96
523.267	99
523.482	91
523.698	98
523.913	85
524.128	94
524.343	98
524.559	91
524.774	107
524.989	109
525.204	92
525.419	90
525.634	89
525.849	107
526.064	121
526.28	195
526.495	276
526.71	292
526.925	207
527.14	247
527.355	221
527.57	123
527.785	118
527.999	92
528.214	103
528.429	100
528.644	92
528.859	83
529.074	96
529.289	87
529.503	91
529.718	93
529.933	99
530.148	102
530.363	96
530.577	91
530.792	109
531.007	90
531.221	92
531.436	86
531.651	84
531.865	96
532.08	93
532.295	94
532.509	121
532.724	98
532.938	119
533.153	91
533.367	106
533.582	106
533.796	111
534.011	109
534.225	113
534.44	118
534.654	106
534.868	117
535.083	156
535.297	132
535.511	106
535.726	110
535.94	121
536.154	107
536.369	108
536.583	108
536.797	102
537.011	104
537.225	104
537.44	103
537.654	106
537.868	107
538.082	102
538.296	108
538.51	97
538.724	103
538.938	90
539.153	105
539.367	109
539.581	92
539.795	104
540.009	107
540.222	91
540.436	100
540.65	101
540.864	92
541.078	119
541.292	103
541.506	108
541.72	111
541.934	102
542.147	102
542.361	91
542.575	87
542.789	105
543.002	91
543.216	112
543.43	99
543.644	113
543.857	97
544.071	120
544.285	117
544.498	99
544.712	102
544.925	124
545.139	100
545.352	103
545.566	95
545.779	104
545.993	108
546.206	119
546.42	119
546.633	118
546.847	115
547.06	112
547.274	129
547.487	146
547.7	154
547.914	153
548.127	163
548.34	170
548.554	153
548.767	178
548.98	183
549.193	169
549.407	164
549.62	166
549.833	181
550.046	197
550.259	212
550.473	201
550.686	213
550.899	237
551.112	247
551.325	267
551.538	280
551.751	271
551.964	249
552.177	244
552.39	249
552.603	260
552.816	243
553.029	259
553.242	237
553.455	259
553.667	283
553.88	271
554.093	274
554.306	295
554.519	297
554.732	272
554.944	284
555.157	265
555.37	247
555.583	251
555.795	239
556.008	223
556.221	208
556.433	207
556.646	202
556.859	199
557.071	190
557.284	161
557.496	184
557.709	162
557.921	159
558.134	169
558.346	207
558.559	183
558.771	186
558.984	273
559.196	324
559.409	202
559.621	290
559.833	215
560.046	250
560.258	210
560.47	222
560.683	148
560.895	120
561.107	107
561.32	121
561.532	112
561.744	119
561.956	107
562.168	109
562.381	125
562.593	97
562.805	106
563.017	105
563.229	121
563.441	107
563.653	101
563.865	102
564.077	104
564.289	102
564.501	126
564.713	116
564.925	111
565.137	100
565.349	93
565.561	103
565.773	104
565.985	83
566.197	109
566.408	105
566.62	94
566.832	99
567.044	113
567.255	88
567.467	102
567.679	102
567.891	93
568.102	92
568.314	95
568.526	105
568.737	113
568.949	103
569.161	106
569.372	102
569.584	103
569.795	121
570.007	112
570.218	109
570.43	109
570.641	98
570.853	110
571.064	112
571.276	103
571.487	94
571.698	94
571.91	107
572.121	87
572.333	113
572.544	95
572.755	97
572.966	109
573.178	103
573.389	106
573.6	95
573.811	106
574.023	111
574.234	94
574.445	108
574.656	104
574.867	108
575.078	97
575.289	105
575.501	97
575.712	89
575.923	87
576.134	96
576.345	109
576.556	100
576.767	111
576.978	95
577.188	89
577.399	95
577.61	95
577.821	102
578.032	103
578.243	119
578.454	123
578.665	119
578.875	111
579.086	101
579.297	102
579.508	103
579.718	86
579.929	92
580.14	101
580.35	123
580.561	109
580.772	105
580.982	104
581.193	93
581.403	95
581.614	112
581.825	106
582.035	103
582.246	94
582.456	106
