Data from HP_2_HRD10591_00031.txt Node
Date: Mon Jan 19 14:16:16 EST 2026
User: Yrep
Spectrometer: HR+D1059
Trigger mode: 1
Integration Time (sec): 1.000000E-1
Scans to average: 1
Electric dark correction enabled: true
Nonlinearity correction enabled: false
Boxcar width: 0
XAxis mode: Wavelengths
Number of Pixels in Spectrum: 2048
>>>>>Begin Spectral Data<<<<<
223.165	-20.56
223.4	-20.56
223.635	-20.56
223.869	-20.56
224.104	-25.56
224.338	-11.56
224.573	-3.56
224.808	-17.56
225.042	7.44
225.277	-4.56
225.511	-10.56
225.746	-5.56
225.98	0.44
226.215	7.44
226.449	14.44
226.683	19.44
226.918	38.44
227.152	32.44
227.387	32.44
227.621	36.44
227.856	55.44
228.09	52.44
228.324	53.44
228.559	58.44
228.793	57.44
229.027	65.44
229.262	81.44
229.496	81.44
229.73	70.44
229.964	67.44
230.199	77.44
230.433	72.44
230.667	88.44
230.901	101.44
231.136	80.44
231.37	92.44
231.604	84.44
231.838	80.44
232.072	86.44
232.306	90.44
232.541	78.44
232.775	85.44
233.009	94.44
233.243	88.44
233.477	80.44
233.711	76.44
233.945	68.44
234.179	72.44
234.413	69.44
234.647	68.44
234.881	78.44
235.115	78.44
235.349	76.44
235.583	92.44
235.817	76.44
236.051	81.44
236.285	83.44
236.519	84.44
236.753	71.44
236.987	75.44
237.221	82.44
237.455	93.44
237.689	92.44
237.922	77.44
238.156	76.44
238.39	77.44
238.624	76.44
238.858	80.44
239.091	84.44
239.325	81.44
239.559	77.44
239.793	81.44
240.027	88.44
240.26	73.44
240.494	71.44
240.728	72.44
240.961	74.44
241.195	83.44
241.429	88.44
241.662	77.44
241.896	80.44
242.13	72.44
242.363	82.44
242.597	66.44
242.83	75.44
243.064	75.44
243.298	74.44
243.531	71.44
243.765	69.44
243.998	78.44
244.232	68.44
244.465	66.44
244.699	78.44
244.932	64.44
245.166	66.44
245.399	81.44
245.633	69.44
245.866	78.44
246.099	70.44
246.333	73.44
246.566	68.44
246.8	73.44
247.033	80.44
247.266	76.44
247.5	72.44
247.733	87.44
247.966	64.44
248.2	80.44
248.433	84.44
248.666	86.44
248.899	73.44
249.133	79.44
249.366	82.44
249.599	83.44
249.832	84.44
250.066	91.44
250.299	85.44
250.532	82.44
250.765	82.44
250.998	93.44
251.231	76.44
251.465	88.44
251.698	78.44
251.931	76.44
252.164	70.44
252.397	88.44
252.63	84.44
252.863	87.44
253.096	83.44
253.329	92.44
253.562	73.44
253.795	92.44
254.028	91.44
254.261	78.44
254.494	90.44
254.727	86.44
254.96	83.44
255.193	79.44
255.426	74.44
255.659	71.44
255.892	74.44
256.124	97.44
256.357	75.44
256.59	94.44
256.823	84.44
257.056	79.44
257.289	73.44
257.521	102.44
257.754	65.44
257.987	97.44
258.22	91.44
258.452	100.44
258.685	74.44
258.918	76.44
259.151	85.44
259.383	73.44
259.616	84.44
259.849	79.44
260.081	84.44
260.314	86.44
260.547	84.44
260.779	99.44
261.012	92.44
261.244	84.44
261.477	97.44
261.71	81.44
261.942	85.44
262.175	84.44
262.407	80.44
262.64	84.44
262.872	84.44
263.105	86.44
263.337	84.44
263.57	92.44
263.802	80.44
264.035	98.44
264.267	83.44
264.499	76.44
264.732	89.44
264.964	73.44
265.197	87.44
265.429	81.44
265.661	99.44
265.894	98.44
266.126	98.44
266.358	85.44
266.591	86.44
266.823	83.44
267.055	82.44
267.287	77.44
267.52	79.44
267.752	94.44
267.984	74.44
268.216	87.44
268.448	79.44
268.681	84.44
268.913	93.44
269.145	87.44
269.377	90.44
269.609	93.44
269.841	92.44
270.073	93.44
270.306	84.44
270.538	75.44
270.77	80.44
271.002	72.44
271.234	88.44
271.466	74.44
271.698	84.44
271.93	80.44
272.162	83.44
272.394	84.44
272.626	82.44
272.858	82.44
273.09	74.44
273.322	82.44
273.553	77.44
273.785	79.44
274.017	82.44
274.249	82.44
274.481	84.44
274.713	90.44
274.945	80.44
275.176	86.44
275.408	91.44
275.64	89.44
275.872	94.44
276.104	78.44
276.335	93.44
276.567	78.44
276.799	86.44
277.031	88.44
277.262	88.44
277.494	89.44
277.726	90.44
277.957	72.44
278.189	85.44
278.421	82.44
278.652	89.44
278.884	76.44
279.115	82.44
279.347	82.44
279.579	77.44
279.81	80.44
280.042	76.44
280.273	81.44
280.505	89.44
280.736	91.44
280.968	78.44
281.199	70.44
281.431	88.44
281.662	86.44
281.894	84.44
282.125	70.44
282.356	74.44
282.588	80.44
282.819	80.44
283.051	77.44
283.282	83.44
283.513	92.44
283.745	79.44
283.976	96.44
284.207	86.44
284.439	94.44
284.67	82.44
284.901	89.44
285.132	88.44
285.364	84.44
285.595	92.44
285.826	89.44
286.057	90.44
286.288	83.44
286.52	90.44
286.751	85.44
286.982	84.44
287.213	89.44
287.444	87.44
287.675	78.44
287.906	73.44
288.138	90.44
288.369	75.44
288.6	87.44
288.831	78.44
289.062	76.44
289.293	77.44
289.524	92.44
289.755	82.44
289.986	86.44
290.217	81.44
290.448	83.44
290.679	84.44
290.91	91.44
291.141	87.44
291.371	83.44
291.602	86.44
291.833	98.44
292.064	73.44
292.295	84.44
292.526	92.44
292.757	90.44
292.987	84.44
293.218	89.44
293.449	86.44
293.68	78.44
293.91	85.44
294.141	83.44
294.372	87.44
294.603	91.44
294.833	83.44
295.064	75.44
295.295	75.44
295.525	82.44
295.756	81.44
295.987	92.44
296.217	77.44
296.448	87.44
296.679	103.44
296.909	98.44
297.14	98.44
297.37	81.44
297.601	100.44
297.831	97.44
298.062	85.44
298.292	92.44
298.523	89.44
298.753	100.44
298.984	74.44
299.214	84.44
299.445	92.44
299.675	104.44
299.905	92.44
300.136	96.44
300.366	86.44
300.597	84.44
300.827	97.44
301.057	90.44
301.288	88.44
301.518	87.44
301.748	93.44
301.979	84.44
302.209	84.44
302.439	91.44
302.669	79.44
302.9	86.44
303.13	86.44
303.36	76.44
303.59	86.44
303.82	77.44
304.051	85.44
304.281	84.44
304.511	98.44
304.741	100.44
304.971	81.44
305.201	94.44
305.431	90.44
305.661	88.44
305.891	78.44
306.121	84.44
306.352	91.44
306.582	80.44
306.812	70.44
307.042	87.44
307.272	84.44
307.502	86.44
307.731	97.44
307.961	84.44
308.191	98.44
308.421	82.44
308.651	89.44
308.881	88.44
309.111	78.44
309.341	90.44
309.571	100.44
309.8	98.44
310.03	91.44
310.26	88.44
310.49	83.44
310.72	86.44
310.949	80.44
311.179	85.44
311.409	96.44
311.639	77.44
311.868	104.44
312.098	96.44
312.328	82.44
312.557	85.44
312.787	88.44
313.017	74.44
313.246	83.44
313.476	90.44
313.706	102.44
313.935	93.44
314.165	85.44
314.394	94.44
314.624	90.44
314.853	96.44
315.083	89.44
315.312	97.44
315.542	69.44
315.771	66.44
316.001	99.44
316.23	84.44
316.46	94.44
316.689	87.44
316.919	84.44
317.148	96.44
317.377	91.44
317.607	96.44
317.836	86.44
318.065	97.44
318.295	83.44
318.524	92.44
318.753	90.44
318.983	93.44
319.212	82.44
319.441	85.44
319.67	82.44
319.9	101.44
320.129	86.44
320.358	82.44
320.587	82.44
320.816	90.44
321.046	74.44
321.275	93.44
321.504	89.44
321.733	86.44
321.962	88.44
322.191	100.44
322.42	84.44
322.649	85.44
322.878	81.44
323.108	87.44
323.337	101.44
323.566	93.44
323.795	89.44
324.024	93.44
324.253	88.44
324.482	90.44
324.71	88.44
324.939	85.44
325.168	76.44
325.397	80.44
325.626	96.44
325.855	86.44
326.084	79.44
326.313	86.44
326.542	80.44
326.77	74.44
326.999	95.44
327.228	85.44
327.457	85.44
327.686	74.44
327.914	81.44
328.143	100.44
328.372	88.44
328.6	93.44
328.829	84.44
329.058	98.44
329.287	74.44
329.515	78.44
329.744	83.44
329.972	90.44
330.201	96.44
330.43	88.44
330.658	89.44
330.887	91.44
331.115	93.44
331.344	76.44
331.572	89.44
331.801	97.44
332.03	89.44
332.258	105.44
332.486	86.44
332.715	109.44
332.943	89.44
333.172	77.44
333.4	65.44
333.629	86.44
333.857	78.44
334.085	94.44
334.314	77.44
334.542	78.44
334.771	93.44
334.999	88.44
335.227	85.44
335.455	90.44
335.684	93.44
335.912	82.44
336.14	80.44
336.369	88.44
336.597	85.44
336.825	74.44
337.053	75.44
337.281	96.44
337.51	98.44
337.738	84.44
337.966	87.44
338.194	80.44
338.422	92.44
338.65	86.44
338.878	89.44
339.106	84.44
339.334	90.44
339.562	79.44
339.79	84.44
340.018	81.44
340.246	99.44
340.474	93.44
340.702	85.44
340.93	96.44
341.158	79.44
341.386	93.44
341.614	92.44
341.842	89.44
342.07	82.44
342.298	79.44
342.526	87.44
342.754	86.44
342.981	95.44
343.209	80.44
343.437	95.44
343.665	79.44
343.893	85.44
344.12	85.44
344.348	81.44
344.576	77.44
344.804	89.44
345.031	82.44
345.259	77.44
345.487	87.44
345.714	83.44
345.942	83.44
346.17	83.44
346.397	92.44
346.625	82.44
346.853	81.44
347.08	75.44
347.308	94.44
347.535	84.44
347.763	90.44
347.99	87.44
348.218	81.44
348.445	90.44
348.673	76.44
348.9	84.44
349.128	100.44
349.355	93.44
349.583	84.44
349.81	90.44
350.037	84.44
350.265	92.44
350.492	96.44
350.72	81.44
350.947	90.44
351.174	83.44
351.402	80.44
351.629	86.44
351.856	101.44
352.083	82.44
352.311	68.44
352.538	88.44
352.765	84.44
352.992	94.44
353.22	78.44
353.447	87.44
353.674	82.44
353.901	77.44
354.128	102.44
354.355	83.44
354.583	86.44
354.81	88.44
355.037	96.44
355.264	91.44
355.491	88.44
355.718	76.44
355.945	68.44
356.172	87.44
356.399	82.44
356.626	94.44
356.853	81.44
357.08	92.44
357.307	100.44
357.534	89.44
357.761	86.44
357.988	89.44
358.215	96.44
358.441	85.44
358.668	92.44
358.895	89.44
359.122	72.44
359.349	89.44
359.576	84.44
359.802	92.44
360.029	82.44
360.256	76.44
360.483	81.44
360.709	86.44
360.936	89.44
361.163	90.44
361.39	94.44
361.616	84.44
361.843	83.44
362.07	92.44
362.296	88.44
362.523	82.44
362.749	102.44
362.976	85.44
363.203	92.44
363.429	82.44
363.656	79.44
363.882	90.44
364.109	90.44
364.335	99.44
364.562	84.44
364.788	92.44
365.015	90.44
365.241	83.44
365.468	92.44
365.694	83.44
365.92	80.44
366.147	69.44
366.373	98.44
366.599	87.44
366.826	94.44
367.052	81.44
367.278	93.44
367.505	92.44
367.731	87.44
367.957	84.44
368.184	84.44
368.41	69.44
368.636	80.44
368.862	96.44
369.089	102.44
369.315	85.44
369.541	82.44
369.767	75.44
369.993	85.44
370.219	99.44
370.445	87.44
370.672	85.44
370.898	88.44
371.124	88.44
371.35	85.44
371.576	86.44
371.802	91.44
372.028	96.44
372.254	88.44
372.48	89.44
372.706	88.44
372.932	97.44
373.158	90.44
373.384	91.44
373.61	84.44
373.835	98.44
374.061	81.44
374.287	87.44
374.513	92.44
374.739	90.44
374.965	85.44
375.191	85.44
375.416	105.44
375.642	84.44
375.868	98.44
376.094	92.44
376.319	95.44
376.545	93.44
376.771	80.44
376.997	73.44
377.222	82.44
377.448	83.44
377.674	96.44
377.899	85.44
378.125	84.44
378.35	88.44
378.576	83.44
378.802	90.44
379.027	88.44
379.253	87.44
379.478	82.44
379.704	96.44
379.929	96.44
380.155	74.44
380.38	83.44
380.606	78.44
380.831	86.44
381.057	95.44
381.282	94.44
381.507	94.44
381.733	89.44
381.958	88.44
382.184	78.44
382.409	79.44
382.634	84.44
382.86	85.44
383.085	89.44
383.31	90.44
383.535	89.44
383.761	96.44
383.986	96.44
384.211	89.44
384.436	72.44
384.662	89.44
384.887	87.44
385.112	77.44
385.337	84.44
385.562	69.44
385.787	86.44
386.013	91.44
386.238	87.44
386.463	78.44
386.688	87.44
386.913	84.44
387.138	89.44
387.363	88.44
387.588	93.44
387.813	79.44
388.038	103.44
388.263	88.44
388.488	87.44
388.713	97.44
388.938	92.44
389.163	103.44
389.387	79.44
389.612	86.44
389.837	81.44
390.062	94.44
390.287	86.44
390.512	90.44
390.736	95.44
390.961	90.44
391.186	92.44
391.411	85.44
391.636	64.44
391.86	78.44
392.085	77.44
392.31	93.44
392.534	83.44
392.759	86.44
392.984	97.44
393.208	113.44
393.433	118.44
393.658	119.44
393.882	94.44
394.107	90.44
394.331	93.44
394.556	95.44
394.78	83.44
395.005	93.44
395.229	98.44
395.454	77.44
395.678	86.44
395.903	96.44
396.127	92.44
396.352	89.44
396.576	100.44
396.801	122.44
397.025	120.44
397.249	114.44
397.474	87.44
397.698	91.44
397.922	86.44
398.147	87.44
398.371	91.44
398.595	89.44
398.82	79.44
399.044	76.44
399.268	80.44
399.492	85.44
399.717	87.44
399.941	92.44
400.165	91.44
400.389	78.44
400.613	89.44
400.837	79.44
401.062	90.44
401.286	82.44
401.51	102.44
401.734	90.44
401.958	87.44
402.182	78.44
402.406	89.44
402.63	81.44
402.854	84.44
403.078	86.44
403.302	79.44
403.526	90.44
403.75	92.44
403.974	85.44
404.198	82.44
404.422	102.44
404.645	118.44
404.869	100.44
405.093	89.44
405.317	86.44
405.541	86.44
405.765	93.44
405.988	97.44
406.212	84.44
406.436	91.44
406.66	90.44
406.883	85.44
407.107	90.44
407.331	83.44
407.555	85.44
407.778	90.44
408.002	109.44
408.226	76.44
408.449	86.44
408.673	86.44
408.896	91.44
409.12	98.44
409.344	101.44
409.567	86.44
409.791	78.44
410.014	82.44
410.238	80.44
410.461	89.44
410.685	94.44
410.908	76.44
411.132	77.44
411.355	85.44
411.578	92.44
411.802	69.44
412.025	82.44
412.249	87.44
412.472	87.44
412.695	87.44
412.919	84.44
413.142	89.44
413.365	82.44
413.589	76.44
413.812	95.44
414.035	87.44
414.258	84.44
414.482	104.44
414.705	92.44
414.928	84.44
415.151	96.44
415.374	92.44
415.597	81.44
415.821	79.44
416.044	77.44
416.267	86.44
416.49	79.44
416.713	90.44
416.936	79.44
417.159	85.44
417.382	67.44
417.605	81.44
417.828	79.44
418.051	85.44
418.274	73.44
418.497	88.44
418.72	74.44
418.943	84.44
419.166	100.44
419.389	74.44
419.611	89.44
419.834	90.44
420.057	98.44
420.28	97.44
420.503	89.44
420.726	100.44
420.948	76.44
421.171	97.44
421.394	86.44
421.617	83.44
421.839	93.44
422.062	92.44
422.285	120.44
422.507	146.44
422.73	180.44
422.953	173.44
423.175	134.44
423.398	112.44
423.621	104.44
423.843	90.44
424.066	90.44
424.288	87.44
424.511	90.44
424.733	83.44
424.956	82.44
425.178	78.44
425.401	94.44
425.623	89.44
425.846	84.44
426.068	88.44
426.291	71.44
426.513	87.44
426.735	98.44
426.958	106.44
427.18	89.44
427.402	74.44
427.625	89.44
427.847	92.44
428.069	93.44
428.292	96.44
428.514	88.44
428.736	100.44
428.958	95.44
429.181	99.44
429.403	96.44
429.625	89.44
429.847	109.44
430.069	102.44
430.292	109.44
430.514	100.44
430.736	98.44
430.958	106.44
431.18	101.44
431.402	92.44
431.624	83.44
431.846	112.44
432.068	104.44
432.29	89.44
432.512	93.44
432.734	82.44
432.956	91.44
433.178	88.44
433.4	84.44
433.622	93.44
433.844	84.44
434.066	61.44
434.287	67.44
434.509	90.44
434.731	81.44
434.953	75.44
435.175	88.44
435.397	65.44
435.618	88.44
435.84	82.44
436.062	76.44
436.284	92.44
436.505	81.44
436.727	80.44
436.949	82.44
437.17	83.44
437.392	80.44
437.614	88.44
437.835	77.44
438.057	88.44
438.278	75.44
438.5	82.44
438.721	87.44
438.943	88.44
439.165	94.44
439.386	83.44
439.608	85.44
439.829	92.44
440.05	76.44
440.272	93.44
440.493	88.44
440.715	84.44
440.936	84.44
441.158	89.44
441.379	90.44
441.6	83.44
441.822	69.44
442.043	79.44
442.264	101.44
442.486	102.44
442.707	106.44
442.928	96.44
443.149	78.44
443.371	114.44
443.592	138.44
443.813	139.44
444.034	84.44
444.255	75.44
444.476	76.44
444.698	100.44
444.919	74.44
445.14	164.44
445.361	122.44
445.582	155.44
445.803	138.44
446.024	93.44
446.245	104.44
446.466	82.44
446.687	84.44
446.908	91.44
447.129	81.44
447.35	91.44
447.571	96.44
447.792	82.44
448.013	90.44
448.234	92.44
448.455	59.44
448.675	97.44
448.896	84.44
449.117	86.44
449.338	85.44
449.559	98.44
449.779	89.44
450	80.44
450.221	82.44
450.442	72.44
450.662	85.44
450.883	93.44
451.104	83.44
451.324	61.44
451.545	86.44
451.766	96.44
451.986	88.44
452.207	82.44
452.428	73.44
452.648	103.44
452.869	98.44
453.089	85.44
453.31	82.44
453.53	72.44
453.751	86.44
453.971	86.44
454.192	91.44
454.412	79.44
454.633	87.44
454.853	88.44
455.073	100.44
455.294	95.44
455.514	92.44
455.734	93.44
455.955	86.44
456.175	83.44
456.395	91.44
456.616	91.44
456.836	88.44
457.056	77.44
457.276	93.44
457.497	85.44
457.717	92.44
457.937	96.44
458.157	82.44
458.377	102.44
458.598	94.44
458.818	100.44
459.038	90.44
459.258	89.44
459.478	87.44
459.698	93.44
459.918	100.44
460.138	88.44
460.358	78.44
460.578	86.44
460.798	100.44
461.018	108.44
461.238	76.44
461.458	74.44
461.678	73.44
461.898	88.44
462.118	82.44
462.338	70.44
462.558	88.44
462.777	79.44
462.997	79.44
463.217	78.44
463.437	100.44
463.657	80.44
463.876	92.44
464.096	77.44
464.316	76.44
464.536	87.44
464.755	89.44
464.975	82.44
465.195	77.44
465.414	84.44
465.634	73.44
465.854	92.44
466.073	76.44
466.293	91.44
466.512	72.44
466.732	78.44
466.951	92.44
467.171	92.44
467.391	86.44
467.61	81.44
467.829	94.44
468.049	80.44
468.268	74.44
468.488	76.44
468.707	71.44
468.927	92.44
469.146	100.44
469.365	82.44
469.585	85.44
469.804	92.44
470.023	77.44
470.243	101.44
470.462	107.44
470.681	86.44
470.901	91.44
471.12	77.44
471.339	82.44
471.558	96.44
471.777	74.44
471.997	84.44
472.216	94.44
472.435	84.44
472.654	88.44
472.873	94.44
473.092	88.44
473.311	78.44
473.53	90.44
473.749	98.44
473.968	87.44
474.187	96.44
474.406	64.44
474.625	71.44
474.844	75.44
475.063	87.44
475.282	86.44
475.501	82.44
475.72	99.44
475.939	88.44
476.158	91.44
476.377	80.44
476.596	82.44
476.814	79.44
477.033	87.44
477.252	92.44
477.471	68.44
477.69	98.44
477.908	76.44
478.127	88.44
478.346	85.44
478.564	89.44
478.783	92.44
479.002	88.44
479.22	72.44
479.439	92.44
479.658	87.44
479.876	95.44
480.095	72.44
480.313	91.44
480.532	88.44
480.751	105.44
480.969	81.44
481.188	71.44
481.406	84.44
481.624	100.44
481.843	82.44
482.061	95.44
482.28	93.44
482.498	83.44
482.717	86.44
482.935	77.44
483.153	83.44
483.372	84.44
483.59	86.44
483.808	83.44
484.027	87.44
484.245	98.44
484.463	102.44
484.681	89.44
484.9	86.44
485.118	97.44
485.336	91.44
485.554	84.44
485.772	85.44
485.99	92.44
486.209	94.44
486.427	81.44
486.645	91.44
486.863	94.44
487.081	94.44
487.299	85.44
487.517	90.44
487.735	97.44
487.953	101.44
488.171	107.44
488.389	74.44
488.607	96.44
488.825	94.44
489.043	91.44
489.261	103.44
489.479	101.44
489.696	70.44
489.914	73.44
490.132	92.44
490.35	91.44
490.568	86.44
490.786	81.44
491.003	84.44
491.221	75.44
491.439	88.44
491.657	84.44
491.874	92.44
492.092	94.44
492.31	70.44
492.527	86.44
492.745	92.44
492.963	71.44
493.18	80.44
493.398	90.44
493.615	80.44
493.833	90.44
494.05	86.44
494.268	81.44
494.485	80.44
494.703	89.44
494.92	90.44
495.138	99.44
495.355	68.44
495.573	94.44
495.79	84.44
496.008	99.44
496.225	75.44
496.442	87.44
496.66	92.44
496.877	97.44
497.094	99.44
497.312	99.44
497.529	79.44
497.746	92.44
497.963	82.44
498.181	89.44
498.398	103.44
498.615	73.44
498.832	85.44
499.049	88.44
499.267	82.44
499.484	76.44
499.701	82.44
499.918	82.44
500.135	85.44
500.352	89.44
500.569	93.44
500.786	86.44
501.003	97.44
501.22	94.44
501.437	83.44
501.654	89.44
501.871	78.44
502.088	94.44
502.305	92.44
502.522	82.44
502.739	78.44
502.956	82.44
503.172	92.44
503.389	90.44
503.606	94.44
503.823	82.44
504.04	89.44
504.256	98.44
504.473	95.44
504.69	73.44
504.907	83.44
505.123	75.44
505.34	88.44
505.557	84.44
505.773	80.44
505.99	84.44
506.207	86.44
506.423	91.44
506.64	77.44
506.856	104.44
507.073	75.44
507.289	92.44
507.506	92.44
507.722	83.44
507.939	83.44
508.155	84.44
508.372	73.44
508.588	92.44
508.805	77.44
509.021	90.44
509.238	78.44
509.454	77.44
509.67	94.44
509.887	96.44
510.103	101.44
510.319	78.44
510.536	84.44
510.752	93.44
510.968	82.44
511.184	90.44
511.401	84.44
511.617	87.44
511.833	88.44
512.049	78.44
512.265	89.44
512.481	84.44
512.698	94.44
512.914	96.44
513.13	84.44
513.346	77.44
513.562	78.44
513.778	101.44
513.994	82.44
514.21	102.44
514.426	89.44
514.642	97.44
514.858	88.44
515.074	82.44
515.29	95.44
515.506	74.44
515.721	92.44
515.937	81.44
516.153	75.44
516.369	93.44
516.585	82.44
516.801	98.44
517.016	85.44
517.232	86.44
517.448	98.44
517.664	93.44
517.879	76.44
518.095	89.44
518.311	88.44
518.527	89.44
518.742	95.44
518.958	113.44
