Data from HP_2_HRD10591_00036.txt Node
Date: Mon Jan 19 14:16:19 EST 2026
User: Yrep
Spectrometer: HR+D1059
Trigger mode: 1
Integration Time (sec): 1.000000E-1
Scans to average: 1
Electric dark correction enabled: true
Nonlinearity correction enabled: false
Boxcar width: 0
XAxis mode: Wavelengths
Number of Pixels in Spectrum: 2048
>>>>>Begin Spectral Data<<<<<
223.165	-24.94
223.4	-24.94
223.635	-24.94
223.869	-22.94
224.104	-29.94
224.338	-17.94
224.573	-12.94
224.808	-10.94
225.042	1.06
225.277	2.06
225.511	-7.94
225.746	11.06
225.98	20.06
226.215	14.06
226.449	21.06
226.683	16.06
226.918	15.06
227.152	27.06
227.387	42.06
227.621	31.06
227.856	47.06
228.09	58.06
228.324	68.06
228.559	62.06
228.793	72.06
229.027	63.06
229.262	65.06
229.496	61.06
229.73	67.06
229.964	74.06
230.199	79.06
230.433	78.06
230.667	78.06
230.901	75.06
231.136	88.06
231.37	86.06
231.604	74.06
231.838	87.06
232.072	84.06
232.306	85.06
232.541	92.06
232.775	83.06
233.009	87.06
233.243	80.06
233.477	87.06
233.711	93.06
233.945	93.06
234.179	92.06
234.413	77.06
234.647	86.06
234.881	79.06
235.115	78.06
235.349	74.06
235.583	87.06
235.817	74.06
236.051	89.06
236.285	87.06
236.519	94.06
236.753	88.06
236.987	87.06
237.221	58.06
237.455	66.06
237.689	78.06
237.922	76.06
238.156	73.06
238.39	78.06
238.624	82.06
238.858	61.06
239.091	72.06
239.325	73.06
239.559	78.06
239.793	67.06
240.027	67.06
240.26	68.06
240.494	86.06
240.728	79.06
240.961	78.06
241.195	77.06
241.429	72.06
241.662	83.06
241.896	68.06
242.13	82.06
242.363	70.06
242.597	75.06
242.83	82.06
243.064	78.06
243.298	91.06
243.531	77.06
243.765	84.06
243.998	82.06
244.232	82.06
244.465	92.06
244.699	79.06
244.932	80.06
245.166	68.06
245.399	70.06
245.633	68.06
245.866	76.06
246.099	76.06
246.333	79.06
246.566	73.06
246.8	75.06
247.033	76.06
247.266	83.06
247.5	73.06
247.733	65.06
247.966	80.06
248.2	78.06
248.433	73.06
248.666	88.06
248.899	89.06
249.133	85.06
249.366	71.06
249.599	85.06
249.832	83.06
250.066	82.06
250.299	85.06
250.532	83.06
250.765	68.06
250.998	82.06
251.231	87.06
251.465	78.06
251.698	83.06
251.931	74.06
252.164	80.06
252.397	85.06
252.63	71.06
252.863	79.06
253.096	78.06
253.329	90.06
253.562	73.06
253.795	86.06
254.028	78.06
254.261	103.06
254.494	78.06
254.727	87.06
254.96	86.06
255.193	77.06
255.426	75.06
255.659	84.06
255.892	78.06
256.124	87.06
256.357	71.06
256.59	69.06
256.823	89.06
257.056	93.06
257.289	91.06
257.521	73.06
257.754	77.06
257.987	72.06
258.22	86.06
258.452	85.06
258.685	84.06
258.918	91.06
259.151	82.06
259.383	85.06
259.616	78.06
259.849	75.06
260.081	79.06
260.314	85.06
260.547	85.06
260.779	83.06
261.012	81.06
261.244	86.06
261.477	81.06
261.71	77.06
261.942	82.06
262.175	67.06
262.407	83.06
262.64	88.06
262.872	84.06
263.105	85.06
263.337	91.06
263.57	79.06
263.802	85.06
264.035	85.06
264.267	80.06
264.499	90.06
264.732	99.06
264.964	86.06
265.197	96.06
265.429	83.06
265.661	75.06
265.894	86.06
266.126	99.06
266.358	90.06
266.591	83.06
266.823	77.06
267.055	65.06
267.287	80.06
267.52	91.06
267.752	95.06
267.984	85.06
268.216	77.06
268.448	73.06
268.681	84.06
268.913	89.06
269.145	80.06
269.377	104.06
269.609	74.06
269.841	86.06
270.073	93.06
270.306	90.06
270.538	76.06
270.77	76.06
271.002	72.06
271.234	79.06
271.466	94.06
271.698	90.06
271.93	68.06
272.162	73.06
272.394	89.06
272.626	88.06
272.858	71.06
273.09	80.06
273.322	97.06
273.553	74.06
273.785	92.06
274.017	75.06
274.249	99.06
274.481	69.06
274.713	73.06
274.945	85.06
275.176	90.06
275.408	75.06
275.64	93.06
275.872	87.06
276.104	88.06
276.335	81.06
276.567	95.06
276.799	87.06
277.031	94.06
277.262	84.06
277.494	77.06
277.726	77.06
277.957	82.06
278.189	76.06
278.421	89.06
278.652	89.06
278.884	82.06
279.115	84.06
279.347	78.06
279.579	87.06
279.81	69.06
280.042	87.06
280.273	86.06
280.505	72.06
280.736	76.06
280.968	72.06
281.199	82.06
281.431	82.06
281.662	80.06
281.894	78.06
282.125	83.06
282.356	79.06
282.588	102.06
282.819	74.06
283.051	86.06
283.282	93.06
283.513	95.06
283.745	79.06
283.976	88.06
284.207	89.06
284.439	91.06
284.67	92.06
284.901	97.06
285.132	103.06
285.364	85.06
285.595	98.06
285.826	92.06
286.057	87.06
286.288	87.06
286.52	100.06
286.751	79.06
286.982	91.06
287.213	95.06
287.444	97.06
287.675	78.06
287.906	76.06
288.138	87.06
288.369	80.06
288.6	83.06
288.831	83.06
289.062	82.06
289.293	72.06
289.524	97.06
289.755	92.06
289.986	77.06
290.217	89.06
290.448	75.06
290.679	78.06
290.91	99.06
291.141	85.06
291.371	77.06
291.602	79.06
291.833	80.06
292.064	95.06
292.295	97.06
292.526	76.06
292.757	99.06
292.987	93.06
293.218	91.06
293.449	90.06
293.68	89.06
293.91	90.06
294.141	91.06
294.372	88.06
294.603	80.06
294.833	94.06
295.064	87.06
295.295	74.06
295.525	94.06
295.756	75.06
295.987	80.06
296.217	91.06
296.448	86.06
296.679	86.06
296.909	92.06
297.14	102.06
297.37	99.06
297.601	94.06
297.831	75.06
298.062	92.06
298.292	82.06
298.523	87.06
298.753	83.06
298.984	88.06
299.214	95.06
299.445	95.06
299.675	94.06
299.905	84.06
300.136	82.06
300.366	92.06
300.597	89.06
300.827	96.06
301.057	92.06
301.288	75.06
301.518	90.06
301.748	78.06
301.979	96.06
302.209	97.06
302.439	86.06
302.669	93.06
302.9	76.06
303.13	74.06
303.36	87.06
303.59	89.06
303.82	80.06
304.051	82.06
304.281	87.06
304.511	89.06
304.741	97.06
304.971	74.06
305.201	106.06
305.431	85.06
305.661	92.06
305.891	93.06
306.121	84.06
306.352	87.06
306.582	82.06
306.812	83.06
307.042	104.06
307.272	94.06
307.502	87.06
307.731	101.06
307.961	85.06
308.191	99.06
308.421	81.06
308.651	89.06
308.881	86.06
309.111	83.06
309.341	71.06
309.571	93.06
309.8	78.06
310.03	99.06
310.26	86.06
310.49	96.06
310.72	92.06
310.949	85.06
311.179	79.06
311.409	79.06
311.639	84.06
311.868	91.06
312.098	101.06
312.328	86.06
312.557	91.06
312.787	92.06
313.017	86.06
313.246	75.06
313.476	95.06
313.706	88.06
313.935	69.06
314.165	90.06
314.394	91.06
314.624	80.06
314.853	82.06
315.083	79.06
315.312	83.06
315.542	89.06
315.771	85.06
316.001	95.06
316.23	98.06
316.46	89.06
316.689	102.06
316.919	85.06
317.148	90.06
317.377	91.06
317.607	84.06
317.836	85.06
318.065	89.06
318.295	85.06
318.524	91.06
318.753	96.06
318.983	89.06
319.212	86.06
319.441	90.06
319.67	69.06
319.9	97.06
320.129	74.06
320.358	92.06
320.587	74.06
320.816	90.06
321.046	88.06
321.275	92.06
321.504	71.06
321.733	79.06
321.962	100.06
322.191	87.06
322.42	98.06
322.649	84.06
322.878	91.06
323.108	86.06
323.337	100.06
323.566	84.06
323.795	99.06
324.024	83.06
324.253	93.06
324.482	72.06
324.71	94.06
324.939	86.06
325.168	93.06
325.397	87.06
325.626	95.06
325.855	87.06
326.084	89.06
326.313	92.06
326.542	80.06
326.77	93.06
326.999	78.06
327.228	80.06
327.457	102.06
327.686	88.06
327.914	93.06
328.143	80.06
328.372	87.06
328.6	92.06
328.829	105.06
329.058	83.06
329.287	87.06
329.515	98.06
329.744	81.06
329.972	96.06
330.201	86.06
330.43	98.06
330.658	79.06
330.887	91.06
331.115	83.06
331.344	89.06
331.572	82.06
331.801	82.06
332.03	83.06
332.258	83.06
332.486	78.06
332.715	82.06
332.943	89.06
333.172	89.06
333.4	88.06
333.629	91.06
333.857	81.06
334.085	79.06
334.314	83.06
334.542	94.06
334.771	88.06
334.999	98.06
335.227	97.06
335.455	94.06
335.684	108.06
335.912	92.06
336.14	97.06
336.369	88.06
336.597	78.06
336.825	72.06
337.053	84.06
337.281	91.06
337.51	100.06
337.738	85.06
337.966	86.06
338.194	84.06
338.422	89.06
338.65	77.06
338.878	85.06
339.106	78.06
339.334	85.06
339.562	93.06
339.79	96.06
340.018	95.06
340.246	77.06
340.474	85.06
340.702	73.06
340.93	72.06
341.158	86.06
341.386	89.06
341.614	84.06
341.842	73.06
342.07	97.06
342.298	90.06
342.526	71.06
342.754	95.06
342.981	81.06
343.209	93.06
343.437	94.06
343.665	69.06
343.893	75.06
344.12	80.06
344.348	84.06
344.576	71.06
344.804	100.06
345.031	83.06
345.259	87.06
345.487	83.06
345.714	89.06
345.942	82.06
346.17	85.06
346.397	93.06
346.625	89.06
346.853	86.06
347.08	73.06
347.308	87.06
347.535	86.06
347.763	90.06
347.99	90.06
348.218	82.06
348.445	92.06
348.673	75.06
348.9	97.06
349.128	92.06
349.355	94.06
349.583	93.06
349.81	88.06
350.037	97.06
350.265	89.06
350.492	91.06
350.72	78.06
350.947	86.06
351.174	75.06
351.402	78.06
351.629	107.06
351.856	91.06
352.083	98.06
352.311	98.06
352.538	84.06
352.765	76.06
352.992	96.06
353.22	87.06
353.447	90.06
353.674	90.06
353.901	88.06
354.128	90.06
354.355	96.06
354.583	82.06
354.81	77.06
355.037	88.06
355.264	97.06
355.491	84.06
355.718	89.06
355.945	77.06
356.172	82.06
356.399	101.06
356.626	78.06
356.853	95.06
357.08	93.06
357.307	94.06
357.534	87.06
357.761	83.06
357.988	93.06
358.215	92.06
358.441	99.06
358.668	95.06
358.895	97.06
359.122	95.06
359.349	89.06
359.576	88.06
359.802	90.06
360.029	94.06
360.256	89.06
360.483	96.06
360.709	85.06
360.936	89.06
361.163	81.06
361.39	89.06
361.616	88.06
361.843	83.06
362.07	100.06
362.296	92.06
362.523	101.06
362.749	89.06
362.976	92.06
363.203	96.06
363.429	97.06
363.656	80.06
363.882	97.06
364.109	87.06
364.335	118.06
364.562	107.06
364.788	99.06
365.015	91.06
365.241	88.06
365.468	80.06
365.694	85.06
365.92	93.06
366.147	82.06
366.373	81.06
366.599	103.06
366.826	94.06
367.052	97.06
367.278	84.06
367.505	77.06
367.731	91.06
367.957	92.06
368.184	91.06
368.41	95.06
368.636	88.06
368.862	92.06
369.089	89.06
369.315	94.06
369.541	77.06
369.767	89.06
369.993	93.06
370.219	81.06
370.445	88.06
370.672	91.06
370.898	94.06
371.124	89.06
371.35	85.06
371.576	72.06
371.802	84.06
372.028	85.06
372.254	75.06
372.48	89.06
372.706	83.06
372.932	93.06
373.158	90.06
373.384	100.06
373.61	82.06
373.835	85.06
374.061	58.06
374.287	81.06
374.513	75.06
374.739	92.06
374.965	85.06
375.191	90.06
375.416	108.06
375.642	79.06
375.868	90.06
376.094	90.06
376.319	90.06
376.545	90.06
376.771	94.06
376.997	73.06
377.222	85.06
377.448	80.06
377.674	83.06
377.899	93.06
378.125	78.06
378.35	85.06
378.576	94.06
378.802	85.06
379.027	86.06
379.253	85.06
379.478	93.06
379.704	85.06
379.929	82.06
380.155	69.06
380.38	88.06
380.606	92.06
380.831	88.06
381.057	72.06
381.282	89.06
381.507	85.06
381.733	78.06
381.958	90.06
382.184	73.06
382.409	81.06
382.634	97.06
382.86	84.06
383.085	87.06
383.31	88.06
383.535	95.06
383.761	80.06
383.986	79.06
384.211	95.06
384.436	76.06
384.662	87.06
384.887	85.06
385.112	87.06
385.337	88.06
385.562	78.06
385.787	93.06
386.013	88.06
386.238	88.06
386.463	74.06
386.688	73.06
386.913	82.06
387.138	99.06
387.363	102.06
387.588	99.06
387.813	87.06
388.038	88.06
388.263	80.06
388.488	78.06
388.713	93.06
388.938	76.06
389.163	78.06
389.387	84.06
389.612	82.06
389.837	85.06
390.062	85.06
390.287	93.06
390.512	105.06
390.736	83.06
390.961	94.06
391.186	87.06
391.411	84.06
391.636	85.06
391.86	82.06
392.085	88.06
392.31	90.06
392.534	106.06
392.759	96.06
392.984	98.06
393.208	108.06
393.433	123.06
393.658	116.06
393.882	106.06
394.107	102.06
394.331	102.06
394.556	96.06
394.78	106.06
395.005	91.06
395.229	102.06
395.454	77.06
395.678	93.06
395.903	103.06
396.127	110.06
396.352	97.06
396.576	110.06
396.801	123.06
397.025	142.06
397.249	97.06
397.474	104.06
397.698	85.06
397.922	88.06
398.147	91.06
398.371	76.06
398.595	82.06
398.82	78.06
399.044	91.06
399.268	85.06
399.492	80.06
399.717	79.06
399.941	89.06
400.165	83.06
400.389	78.06
400.613	86.06
400.837	95.06
401.062	81.06
401.286	76.06
401.51	98.06
401.734	82.06
401.958	82.06
402.182	85.06
402.406	89.06
402.63	86.06
402.854	79.06
403.078	89.06
403.302	73.06
403.526	103.06
403.75	93.06
403.974	93.06
404.198	79.06
404.422	100.06
404.645	106.06
404.869	108.06
405.093	102.06
405.317	91.06
405.541	93.06
405.765	90.06
405.988	83.06
406.212	91.06
406.436	82.06
406.66	88.06
406.883	83.06
407.107	77.06
407.331	88.06
407.555	84.06
407.778	88.06
408.002	88.06
408.226	82.06
408.449	79.06
408.673	92.06
408.896	80.06
409.12	104.06
409.344	88.06
409.567	97.06
409.791	72.06
410.014	82.06
410.238	84.06
410.461	78.06
410.685	86.06
410.908	85.06
411.132	80.06
411.355	87.06
411.578	99.06
411.802	91.06
412.025	87.06
412.249	81.06
412.472	87.06
412.695	83.06
412.919	81.06
413.142	86.06
413.365	75.06
413.589	84.06
413.812	100.06
414.035	87.06
414.258	89.06
414.482	83.06
414.705	79.06
414.928	80.06
415.151	71.06
415.374	103.06
415.597	85.06
415.821	87.06
416.044	94.06
416.267	102.06
416.49	78.06
416.713	78.06
416.936	80.06
417.159	85.06
417.382	90.06
417.605	94.06
417.828	92.06
418.051	86.06
418.274	89.06
418.497	78.06
418.72	92.06
418.943	73.06
419.166	83.06
419.389	82.06
419.611	93.06
419.834	91.06
420.057	74.06
420.28	79.06
420.503	93.06
420.726	94.06
420.948	85.06
421.171	83.06
421.394	82.06
421.617	89.06
421.839	94.06
422.062	103.06
422.285	131.06
422.507	165.06
422.73	219.06
422.953	187.06
423.175	129.06
423.398	99.06
423.621	96.06
423.843	93.06
424.066	81.06
424.288	74.06
424.511	89.06
424.733	94.06
424.956	73.06
425.178	86.06
425.401	97.06
425.623	61.06
425.846	91.06
426.068	78.06
426.291	82.06
426.513	99.06
426.735	79.06
426.958	83.06
427.18	91.06
427.402	78.06
427.625	73.06
427.847	78.06
428.069	100.06
428.292	111.06
428.514	98.06
428.736	74.06
428.958	107.06
429.181	109.06
429.403	105.06
429.625	87.06
429.847	104.06
430.069	113.06
430.292	128.06
430.514	111.06
430.736	102.06
430.958	105.06
431.18	103.06
431.402	89.06
431.624	87.06
431.846	113.06
432.068	110.06
432.29	93.06
432.512	85.06
432.734	94.06
432.956	73.06
433.178	90.06
433.4	71.06
433.622	78.06
433.844	65.06
434.066	100.06
434.287	82.06
434.509	81.06
434.731	94.06
434.953	90.06
435.175	91.06
435.397	79.06
435.618	82.06
435.84	70.06
436.062	93.06
436.284	77.06
436.505	70.06
436.727	71.06
436.949	75.06
437.17	75.06
437.392	84.06
437.614	74.06
437.835	89.06
438.057	76.06
438.278	90.06
438.5	87.06
438.721	84.06
438.943	85.06
439.165	80.06
439.386	89.06
439.608	84.06
439.829	81.06
440.05	92.06
440.272	87.06
440.493	75.06
440.715	100.06
440.936	85.06
441.158	91.06
441.379	85.06
441.6	82.06
441.822	86.06
442.043	105.06
442.264	92.06
442.486	106.06
442.707	107.06
442.928	122.06
443.149	94.06
443.371	106.06
443.592	138.06
443.813	153.06
444.034	95.06
444.255	90.06
444.476	94.06
444.698	91.06
444.919	93.06
445.14	166.06
445.361	146.06
445.582	146.06
445.803	138.06
446.024	89.06
446.245	92.06
446.466	74.06
446.687	81.06
446.908	70.06
447.129	95.06
447.35	94.06
447.571	82.06
447.792	89.06
448.013	80.06
448.234	82.06
448.455	88.06
448.675	96.06
448.896	84.06
449.117	91.06
449.338	74.06
449.559	84.06
449.779	85.06
450	83.06
450.221	99.06
450.442	73.06
450.662	89.06
450.883	94.06
451.104	80.06
451.324	87.06
451.545	84.06
451.766	77.06
451.986	65.06
452.207	88.06
452.428	92.06
452.648	94.06
452.869	93.06
453.089	97.06
453.31	70.06
453.53	87.06
453.751	92.06
453.971	75.06
454.192	74.06
454.412	85.06
454.633	87.06
454.853	70.06
455.073	94.06
455.294	83.06
455.514	95.06
455.734	75.06
455.955	93.06
456.175	76.06
456.395	88.06
456.616	90.06
456.836	83.06
457.056	81.06
457.276	90.06
457.497	88.06
457.717	92.06
457.937	73.06
458.157	99.06
458.377	107.06
458.598	96.06
458.818	77.06
459.038	94.06
459.258	85.06
459.478	80.06
459.698	84.06
459.918	86.06
460.138	83.06
460.358	91.06
460.578	85.06
460.798	103.06
461.018	107.06
461.238	79.06
461.458	89.06
461.678	89.06
461.898	74.06
462.118	87.06
462.338	81.06
462.558	90.06
462.777	82.06
462.997	74.06
463.217	65.06
463.437	93.06
463.657	70.06
463.876	70.06
464.096	92.06
464.316	81.06
464.536	76.06
464.755	87.06
464.975	96.06
465.195	101.06
465.414	86.06
465.634	84.06
465.854	85.06
466.073	97.06
466.293	74.06
466.512	74.06
466.732	81.06
466.951	87.06
467.171	72.06
467.391	93.06
467.61	95.06
467.829	94.06
468.049	105.06
468.268	80.06
468.488	85.06
468.707	93.06
468.927	90.06
469.146	73.06
469.365	92.06
469.585	89.06
469.804	81.06
470.023	93.06
470.243	89.06
470.462	93.06
470.681	93.06
470.901	92.06
471.12	71.06
471.339	83.06
471.558	75.06
471.777	76.06
471.997	93.06
472.216	86.06
472.435	75.06
472.654	76.06
472.873	83.06
473.092	83.06
473.311	85.06
473.53	84.06
473.749	89.06
473.968	86.06
474.187	92.06
474.406	71.06
474.625	86.06
474.844	81.06
475.063	87.06
475.282	96.06
475.501	75.06
475.72	92.06
475.939	80.06
476.158	93.06
476.377	83.06
476.596	92.06
476.814	77.06
477.033	86.06
477.252	85.06
477.471	74.06
477.69	83.06
477.908	86.06
478.127	103.06
478.346	93.06
478.564	97.06
478.783	94.06
479.002	89.06
479.22	85.06
479.439	95.06
479.658	89.06
479.876	85.06
480.095	88.06
480.313	89.06
480.532	93.06
480.751	81.06
480.969	84.06
481.188	98.06
481.406	83.06
481.624	71.06
481.843	79.06
482.061	78.06
482.28	80.06
482.498	86.06
482.717	95.06
482.935	73.06
483.153	77.06
483.372	90.06
483.59	89.06
483.808	81.06
484.027	92.06
484.245	92.06
484.463	88.06
484.681	86.06
484.9	87.06
485.118	93.06
485.336	84.06
485.554	100.06
485.772	85.06
485.99	82.06
486.209	94.06
486.427	101.06
486.645	81.06
486.863	85.06
487.081	90.06
487.299	93.06
487.517	82.06
487.735	103.06
487.953	107.06
488.171	103.06
488.389	100.06
488.607	88.06
488.825	87.06
489.043	95.06
489.261	86.06
489.479	85.06
489.696	85.06
489.914	93.06
490.132	102.06
490.35	86.06
490.568	92.06
490.786	95.06
491.003	94.06
491.221	94.06
491.439	99.06
491.657	84.06
491.874	86.06
492.092	90.06
492.31	90.06
492.527	97.06
492.745	73.06
492.963	100.06
493.18	81.06
493.398	90.06
493.615	92.06
493.833	77.06
494.05	78.06
494.268	81.06
494.485	97.06
494.703	81.06
494.92	98.06
495.138	83.06
495.355	95.06
495.573	92.06
495.79	97.06
496.008	85.06
496.225	81.06
496.442	103.06
496.66	87.06
496.877	90.06
497.094	85.06
497.312	73.06
497.529	80.06
497.746	80.06
497.963	93.06
498.181	84.06
498.398	82.06
498.615	89.06
498.832	85.06
499.049	87.06
499.267	96.06
499.484	89.06
499.701	100.06
499.918	96.06
500.135	89.06
500.352	93.06
500.569	80.06
500.786	87.06
501.003	83.06
501.22	87.06
501.437	99.06
501.654	83.06
501.871	73.06
502.088	88.06
502.305	98.06
502.522	87.06
502.739	81.06
502.956	84.06
503.172	73.06
503.389	87.06
503.606	84.06
503.823	105.06
504.04	78.06
504.256	95.06
504.473	103.06
504.69	105.06
504.907	92.06
505.123	100.06
505.34	87.06
505.557	97.06
505.773	83.06
505.99	80.06
506.207	87.06
506.423	83.06
506.64	80.06
506.856	88.06
507.073	83.06
507.289	88.06
507.506	82.06
507.722	91.06
507.939	87.06
508.155	98.06
508.372	80.06
508.588	81.06
508.805	90.06
509.021	106.06
509.238	87.06
509.454	80.06
509.67	81.06
509.887	72.06
510.103	86.06
510.319	95.06
510.536	88.06
510.752	89.06
510.968	78.06
511.184	99.06
511.401	90.06
511.617	95.06
511.833	94.06
512.049	104.06
512.265	84.06
512.481	94.06
512.698	83.06
512.914	91.06
513.13	115.06
513.346	93.06
513.562	97.06
513.778	93.06
513.994	79.06
514.21	79.06
514.426	77.06
514.642	95.06
514.858	87.06
515.074	75.06
515.29	98.06
515.506	87.06
515.721	86.06
515.937	86.06
516.153	91.06
516.369	85.06
516.585	86.06
516.801	82.06
517.016	91.06
517.232	93.06
517.448	93.06
517.664	84.06
517.879	89.06
518.095	84.06
518.311	85.06
518.527	90.06
518.742	78.06
