Data from HP_2_HRD10591_00026.txt Node
Date: Mon Jan 19 14:16:14 EST 2026
User: Yrep
Spectrometer: HR+D1059
Trigger mode: 1
Integration Time (sec): 1.000000E-1
Scans to average: 1
Electric dark correction enabled: true
Nonlinearity correction enabled: false
Boxcar width: 0
XAxis mode: Wavelengths
Number of Pixels in Spectrum: 2048
>>>>>Begin Spectral Data<<<<<
223.165	-25.44
223.4	-25.44
223.635	-25.44
223.869	-15.44
224.104	-3.44
224.338	-10.44
224.573	-7.44
224.808	-20.44
225.042	-4.44
225.277	-13.44
225.511	4.56
225.746	-4.44
225.98	18.56
226.215	7.56
226.449	11.56
226.683	7.56
226.918	22.56
227.152	32.56
227.387	27.56
227.621	30.56
227.856	35.56
228.09	35.56
228.324	58.56
228.559	36.56
228.793	58.56
229.027	58.56
229.262	74.56
229.496	69.56
229.73	62.56
229.964	67.56
230.199	66.56
230.433	71.56
230.667	81.56
230.901	75.56
231.136	68.56
231.37	82.56
231.604	78.56
231.838	77.56
232.072	88.56
232.306	76.56
232.541	73.56
232.775	72.56
233.009	79.56
233.243	70.56
233.477	70.56
233.711	85.56
233.945	94.56
234.179	86.56
234.413	69.56
234.647	67.56
234.881	79.56
235.115	80.56
235.349	85.56
235.583	82.56
235.817	78.56
236.051	61.56
236.285	68.56
236.519	90.56
236.753	58.56
236.987	80.56
237.221	79.56
237.455	67.56
237.689	64.56
237.922	72.56
238.156	78.56
238.39	78.56
238.624	59.56
238.858	69.56
239.091	75.56
239.325	78.56
239.559	66.56
239.793	72.56
240.027	65.56
240.26	78.56
240.494	66.56
240.728	60.56
240.961	72.56
241.195	66.56
241.429	73.56
241.662	79.56
241.896	67.56
242.13	85.56
242.363	72.56
242.597	80.56
242.83	68.56
243.064	70.56
243.298	69.56
243.531	71.56
243.765	77.56
243.998	65.56
244.232	70.56
244.465	72.56
244.699	78.56
244.932	74.56
245.166	78.56
245.399	79.56
245.633	69.56
245.866	82.56
246.099	70.56
246.333	75.56
246.566	82.56
246.8	81.56
247.033	66.56
247.266	64.56
247.5	74.56
247.733	54.56
247.966	72.56
248.2	73.56
248.433	64.56
248.666	80.56
248.899	78.56
249.133	80.56
249.366	82.56
249.599	60.56
249.832	79.56
250.066	82.56
250.299	74.56
250.532	108.56
250.765	65.56
250.998	64.56
251.231	64.56
251.465	89.56
251.698	61.56
251.931	86.56
252.164	84.56
252.397	77.56
252.63	72.56
252.863	75.56
253.096	72.56
253.329	84.56
253.562	83.56
253.795	89.56
254.028	87.56
254.261	79.56
254.494	76.56
254.727	71.56
254.96	70.56
255.193	72.56
255.426	72.56
255.659	77.56
255.892	88.56
256.124	72.56
256.357	78.56
256.59	84.56
256.823	70.56
257.056	86.56
257.289	72.56
257.521	66.56
257.754	77.56
257.987	72.56
258.22	85.56
258.452	69.56
258.685	84.56
258.918	80.56
259.151	78.56
259.383	80.56
259.616	76.56
259.849	72.56
260.081	75.56
260.314	78.56
260.547	80.56
260.779	72.56
261.012	75.56
261.244	74.56
261.477	80.56
261.71	80.56
261.942	83.56
262.175	80.56
262.407	82.56
262.64	68.56
262.872	68.56
263.105	78.56
263.337	94.56
263.57	77.56
263.802	74.56
264.035	75.56
264.267	85.56
264.499	73.56
264.732	95.56
264.964	80.56
265.197	74.56
265.429	77.56
265.661	90.56
265.894	80.56
266.126	75.56
266.358	86.56
266.591	79.56
266.823	80.56
267.055	68.56
267.287	84.56
267.52	83.56
267.752	81.56
267.984	83.56
268.216	83.56
268.448	82.56
268.681	81.56
268.913	80.56
269.145	81.56
269.377	56.56
269.609	82.56
269.841	89.56
270.073	85.56
270.306	85.56
270.538	88.56
270.77	87.56
271.002	80.56
271.234	78.56
271.466	70.56
271.698	83.56
271.93	87.56
272.162	79.56
272.394	61.56
272.626	76.56
272.858	76.56
273.09	72.56
273.322	86.56
273.553	85.56
273.785	66.56
274.017	72.56
274.249	78.56
274.481	74.56
274.713	72.56
274.945	92.56
275.176	84.56
275.408	80.56
275.64	89.56
275.872	74.56
276.104	86.56
276.335	79.56
276.567	71.56
276.799	93.56
277.031	86.56
277.262	73.56
277.494	72.56
277.726	82.56
277.957	72.56
278.189	77.56
278.421	78.56
278.652	82.56
278.884	82.56
279.115	77.56
279.347	72.56
279.579	82.56
279.81	78.56
280.042	84.56
280.273	89.56
280.505	91.56
280.736	86.56
280.968	81.56
281.199	83.56
281.431	82.56
281.662	84.56
281.894	81.56
282.125	90.56
282.356	87.56
282.588	79.56
282.819	85.56
283.051	70.56
283.282	74.56
283.513	96.56
283.745	83.56
283.976	72.56
284.207	70.56
284.439	77.56
284.67	80.56
284.901	81.56
285.132	92.56
285.364	84.56
285.595	79.56
285.826	78.56
286.057	73.56
286.288	87.56
286.52	91.56
286.751	92.56
286.982	84.56
287.213	69.56
287.444	84.56
287.675	80.56
287.906	82.56
288.138	78.56
288.369	88.56
288.6	95.56
288.831	79.56
289.062	81.56
289.293	79.56
289.524	67.56
289.755	84.56
289.986	73.56
290.217	72.56
290.448	82.56
290.679	86.56
290.91	86.56
291.141	89.56
291.371	81.56
291.602	76.56
291.833	78.56
292.064	85.56
292.295	74.56
292.526	80.56
292.757	68.56
292.987	92.56
293.218	72.56
293.449	86.56
293.68	80.56
293.91	81.56
294.141	90.56
294.372	87.56
294.603	88.56
294.833	84.56
295.064	80.56
295.295	88.56
295.525	76.56
295.756	74.56
295.987	67.56
296.217	78.56
296.448	74.56
296.679	86.56
296.909	71.56
297.14	68.56
297.37	94.56
297.601	90.56
297.831	103.56
298.062	75.56
298.292	73.56
298.523	72.56
298.753	91.56
298.984	103.56
299.214	86.56
299.445	89.56
299.675	96.56
299.905	80.56
300.136	81.56
300.366	82.56
300.597	89.56
300.827	85.56
301.057	81.56
301.288	78.56
301.518	81.56
301.748	95.56
301.979	99.56
302.209	75.56
302.439	69.56
302.669	90.56
302.9	86.56
303.13	82.56
303.36	82.56
303.59	85.56
303.82	82.56
304.051	75.56
304.281	84.56
304.511	77.56
304.741	80.56
304.971	74.56
305.201	62.56
305.431	74.56
305.661	77.56
305.891	77.56
306.121	86.56
306.352	91.56
306.582	72.56
306.812	78.56
307.042	68.56
307.272	87.56
307.502	88.56
307.731	70.56
307.961	81.56
308.191	86.56
308.421	79.56
308.651	65.56
308.881	83.56
309.111	80.56
309.341	74.56
309.571	73.56
309.8	81.56
310.03	88.56
310.26	86.56
310.49	80.56
310.72	52.56
310.949	77.56
311.179	77.56
311.409	90.56
311.639	80.56
311.868	80.56
312.098	85.56
312.328	82.56
312.557	76.56
312.787	70.56
313.017	82.56
313.246	84.56
313.476	71.56
313.706	96.56
313.935	75.56
314.165	85.56
314.394	95.56
314.624	83.56
314.853	80.56
315.083	85.56
315.312	82.56
315.542	82.56
315.771	97.56
316.001	74.56
316.23	75.56
316.46	82.56
316.689	81.56
316.919	75.56
317.148	83.56
317.377	86.56
317.607	70.56
317.836	85.56
318.065	90.56
318.295	86.56
318.524	88.56
318.753	79.56
318.983	80.56
319.212	82.56
319.441	60.56
319.67	85.56
319.9	78.56
320.129	67.56
320.358	95.56
320.587	86.56
320.816	91.56
321.046	75.56
321.275	87.56
321.504	85.56
321.733	93.56
321.962	96.56
322.191	87.56
322.42	97.56
322.649	81.56
322.878	85.56
323.108	79.56
323.337	80.56
323.566	90.56
323.795	75.56
324.024	80.56
324.253	77.56
324.482	86.56
324.71	82.56
324.939	81.56
325.168	75.56
325.397	76.56
325.626	89.56
325.855	89.56
326.084	77.56
326.313	76.56
326.542	85.56
326.77	84.56
326.999	71.56
327.228	79.56
327.457	74.56
327.686	79.56
327.914	85.56
328.143	81.56
328.372	71.56
328.6	71.56
328.829	87.56
329.058	98.56
329.287	79.56
329.515	82.56
329.744	78.56
329.972	65.56
330.201	68.56
330.43	72.56
330.658	80.56
330.887	73.56
331.115	72.56
331.344	97.56
331.572	94.56
331.801	69.56
332.03	82.56
332.258	89.56
332.486	83.56
332.715	79.56
332.943	70.56
333.172	90.56
333.4	73.56
333.629	75.56
333.857	64.56
334.085	81.56
334.314	71.56
334.542	82.56
334.771	79.56
334.999	69.56
335.227	86.56
335.455	78.56
335.684	81.56
335.912	80.56
336.14	87.56
336.369	75.56
336.597	86.56
336.825	81.56
337.053	70.56
337.281	83.56
337.51	82.56
337.738	104.56
337.966	73.56
338.194	77.56
338.422	96.56
338.65	91.56
338.878	86.56
339.106	78.56
339.334	86.56
339.562	78.56
339.79	80.56
340.018	79.56
340.246	82.56
340.474	89.56
340.702	85.56
340.93	74.56
341.158	84.56
341.386	79.56
341.614	78.56
341.842	78.56
342.07	69.56
342.298	77.56
342.526	76.56
342.754	80.56
342.981	78.56
343.209	80.56
343.437	82.56
343.665	87.56
343.893	84.56
344.12	82.56
344.348	89.56
344.576	63.56
344.804	70.56
345.031	93.56
345.259	94.56
345.487	81.56
345.714	93.56
345.942	72.56
346.17	70.56
346.397	73.56
346.625	74.56
346.853	81.56
347.08	91.56
347.308	87.56
347.535	79.56
347.763	79.56
347.99	77.56
348.218	85.56
348.445	83.56
348.673	72.56
348.9	80.56
349.128	94.56
349.355	81.56
349.583	82.56
349.81	87.56
350.037	73.56
350.265	73.56
350.492	82.56
350.72	80.56
350.947	68.56
351.174	86.56
351.402	82.56
351.629	76.56
351.856	86.56
352.083	64.56
352.311	90.56
352.538	89.56
352.765	85.56
352.992	99.56
353.22	81.56
353.447	82.56
353.674	77.56
353.901	87.56
354.128	83.56
354.355	72.56
354.583	84.56
354.81	81.56
355.037	97.56
355.264	86.56
355.491	87.56
355.718	76.56
355.945	92.56
356.172	84.56
356.399	77.56
356.626	72.56
356.853	84.56
357.08	72.56
357.307	83.56
357.534	83.56
357.761	78.56
357.988	82.56
358.215	71.56
358.441	72.56
358.668	84.56
358.895	84.56
359.122	86.56
359.349	77.56
359.576	83.56
359.802	88.56
360.029	78.56
360.256	77.56
360.483	79.56
360.709	93.56
360.936	77.56
361.163	65.56
361.39	80.56
361.616	78.56
361.843	83.56
362.07	98.56
362.296	79.56
362.523	84.56
362.749	92.56
362.976	80.56
363.203	81.56
363.429	66.56
363.656	86.56
363.882	82.56
364.109	98.56
364.335	95.56
364.562	84.56
364.788	94.56
365.015	87.56
365.241	72.56
365.468	94.56
365.694	85.56
365.92	84.56
366.147	76.56
366.373	77.56
366.599	77.56
366.826	78.56
367.052	80.56
367.278	92.56
367.505	84.56
367.731	80.56
367.957	77.56
368.184	82.56
368.41	78.56
368.636	82.56
368.862	80.56
369.089	81.56
369.315	92.56
369.541	83.56
369.767	88.56
369.993	78.56
370.219	77.56
370.445	88.56
370.672	75.56
370.898	73.56
371.124	75.56
371.35	82.56
371.576	88.56
371.802	77.56
372.028	85.56
372.254	86.56
372.48	82.56
372.706	80.56
372.932	77.56
373.158	92.56
373.384	80.56
373.61	86.56
373.835	90.56
374.061	90.56
374.287	75.56
374.513	81.56
374.739	74.56
374.965	88.56
375.191	82.56
375.416	85.56
375.642	84.56
375.868	101.56
376.094	75.56
376.319	80.56
376.545	79.56
376.771	75.56
376.997	93.56
377.222	81.56
377.448	89.56
377.674	78.56
377.899	86.56
378.125	80.56
378.35	83.56
378.576	90.56
378.802	72.56
379.027	85.56
379.253	82.56
379.478	90.56
379.704	74.56
379.929	85.56
380.155	77.56
380.38	82.56
380.606	67.56
380.831	84.56
381.057	84.56
381.282	63.56
381.507	71.56
381.733	78.56
381.958	81.56
382.184	73.56
382.409	76.56
382.634	86.56
382.86	82.56
383.085	89.56
383.31	89.56
383.535	88.56
383.761	92.56
383.986	71.56
384.211	84.56
384.436	85.56
384.662	84.56
384.887	69.56
385.112	86.56
385.337	84.56
385.562	74.56
385.787	72.56
386.013	75.56
386.238	86.56
386.463	80.56
386.688	87.56
386.913	60.56
387.138	86.56
387.363	76.56
387.588	73.56
387.813	95.56
388.038	76.56
388.263	84.56
388.488	77.56
388.713	88.56
388.938	79.56
389.163	87.56
389.387	78.56
389.612	82.56
389.837	73.56
390.062	75.56
390.287	80.56
390.512	89.56
390.736	87.56
390.961	86.56
391.186	84.56
391.411	75.56
391.636	92.56
391.86	75.56
392.085	79.56
392.31	67.56
392.534	74.56
392.759	80.56
392.984	90.56
393.208	94.56
393.433	101.56
393.658	93.56
393.882	79.56
394.107	81.56
394.331	77.56
394.556	93.56
394.78	72.56
395.005	78.56
395.229	98.56
395.454	81.56
395.678	66.56
395.903	86.56
396.127	85.56
396.352	93.56
396.576	90.56
396.801	108.56
397.025	110.56
397.249	94.56
397.474	89.56
397.698	86.56
397.922	78.56
398.147	88.56
398.371	65.56
398.595	80.56
398.82	70.56
399.044	75.56
399.268	78.56
399.492	72.56
399.717	72.56
399.941	92.56
400.165	73.56
400.389	76.56
400.613	82.56
400.837	84.56
401.062	97.56
401.286	78.56
401.51	92.56
401.734	72.56
401.958	87.56
402.182	76.56
402.406	83.56
402.63	80.56
402.854	75.56
403.078	93.56
403.302	82.56
403.526	77.56
403.75	94.56
403.974	83.56
404.198	68.56
404.422	79.56
404.645	96.56
404.869	84.56
405.093	94.56
405.317	71.56
405.541	76.56
405.765	78.56
405.988	75.56
406.212	78.56
406.436	91.56
406.66	88.56
406.883	93.56
407.107	97.56
407.331	65.56
407.555	89.56
407.778	91.56
408.002	74.56
408.226	90.56
408.449	89.56
408.673	94.56
408.896	73.56
409.12	70.56
409.344	74.56
409.567	88.56
409.791	76.56
410.014	77.56
410.238	80.56
410.461	82.56
410.685	86.56
410.908	84.56
411.132	90.56
411.355	84.56
411.578	90.56
411.802	66.56
412.025	86.56
412.249	78.56
412.472	69.56
412.695	79.56
412.919	80.56
413.142	77.56
413.365	75.56
413.589	80.56
413.812	73.56
414.035	91.56
414.258	80.56
414.482	77.56
414.705	82.56
414.928	81.56
415.151	77.56
415.374	80.56
415.597	69.56
415.821	79.56
416.044	77.56
416.267	78.56
416.49	83.56
416.713	80.56
416.936	86.56
417.159	80.56
417.382	78.56
417.605	79.56
417.828	95.56
418.051	80.56
418.274	80.56
418.497	74.56
418.72	89.56
418.943	76.56
419.166	78.56
419.389	80.56
419.611	66.56
419.834	78.56
420.057	76.56
420.28	79.56
420.503	75.56
420.726	72.56
420.948	75.56
421.171	84.56
421.394	90.56
421.617	104.56
421.839	76.56
422.062	81.56
422.285	100.56
422.507	121.56
422.73	146.56
422.953	138.56
423.175	92.56
423.398	76.56
423.621	78.56
423.843	86.56
424.066	81.56
424.288	78.56
424.511	70.56
424.733	82.56
424.956	78.56
425.178	85.56
425.401	85.56
425.623	90.56
425.846	81.56
426.068	81.56
426.291	84.56
426.513	73.56
426.735	85.56
426.958	73.56
427.18	80.56
427.402	76.56
427.625	105.56
427.847	77.56
428.069	81.56
428.292	88.56
428.514	92.56
428.736	81.56
428.958	86.56
429.181	98.56
429.403	83.56
429.625	70.56
429.847	86.56
430.069	92.56
430.292	90.56
430.514	80.56
430.736	76.56
430.958	88.56
431.18	84.56
431.402	82.56
431.624	93.56
431.846	79.56
432.068	71.56
432.29	81.56
432.512	88.56
432.734	85.56
432.956	84.56
433.178	85.56
433.4	85.56
433.622	84.56
433.844	89.56
434.066	78.56
434.287	74.56
434.509	62.56
434.731	86.56
434.953	75.56
435.175	79.56
435.397	80.56
435.618	83.56
435.84	78.56
436.062	68.56
436.284	79.56
436.505	72.56
436.727	84.56
436.949	87.56
437.17	81.56
437.392	85.56
437.614	82.56
437.835	82.56
438.057	73.56
438.278	84.56
438.5	81.56
438.721	85.56
438.943	71.56
439.165	84.56
439.386	98.56
439.608	86.56
439.829	81.56
440.05	81.56
440.272	82.56
440.493	86.56
440.715	70.56
440.936	80.56
441.158	64.56
441.379	85.56
441.6	90.56
441.822	83.56
442.043	72.56
442.264	76.56
442.486	81.56
442.707	101.56
442.928	84.56
443.149	84.56
443.371	97.56
443.592	113.56
443.813	117.56
444.034	98.56
444.255	83.56
444.476	63.56
444.698	78.56
444.919	81.56
445.14	146.56
445.361	127.56
445.582	110.56
445.803	120.56
446.024	66.56
446.245	74.56
446.466	87.56
446.687	88.56
446.908	66.56
447.129	94.56
447.35	84.56
447.571	73.56
447.792	73.56
448.013	77.56
448.234	83.56
448.455	76.56
448.675	85.56
448.896	72.56
449.117	76.56
449.338	90.56
449.559	78.56
449.779	90.56
450	68.56
450.221	82.56
450.442	61.56
450.662	96.56
450.883	76.56
451.104	71.56
451.324	64.56
451.545	84.56
451.766	88.56
451.986	89.56
452.207	74.56
452.428	94.56
452.648	98.56
452.869	86.56
453.089	67.56
453.31	73.56
453.53	72.56
453.751	74.56
453.971	95.56
454.192	66.56
454.412	83.56
454.633	83.56
454.853	84.56
455.073	69.56
455.294	68.56
455.514	73.56
455.734	82.56
455.955	74.56
456.175	70.56
456.395	68.56
456.616	79.56
456.836	78.56
457.056	80.56
457.276	81.56
457.497	85.56
457.717	86.56
457.937	79.56
458.157	88.56
458.377	87.56
458.598	88.56
458.818	86.56
459.038	94.56
459.258	86.56
459.478	84.56
459.698	74.56
459.918	92.56
460.138	77.56
460.358	96.56
460.578	92.56
460.798	94.56
461.018	96.56
461.238	97.56
461.458	88.56
461.678	88.56
461.898	74.56
462.118	76.56
462.338	87.56
462.558	75.56
462.777	78.56
462.997	81.56
463.217	81.56
463.437	67.56
463.657	86.56
463.876	83.56
464.096	95.56
464.316	87.56
464.536	86.56
464.755	77.56
464.975	90.56
465.195	84.56
465.414	70.56
465.634	74.56
465.854	90.56
466.073	78.56
466.293	84.56
466.512	71.56
466.732	78.56
466.951	91.56
467.171	73.56
467.391	69.56
467.61	77.56
467.829	72.56
468.049	88.56
468.268	97.56
468.488	70.56
468.707	68.56
468.927	84.56
469.146	73.56
469.365	72.56
469.585	84.56
469.804	90.56
470.023	70.56
470.243	80.56
470.462	74.56
470.681	86.56
470.901	80.56
471.12	72.56
471.339	72.56
471.558	79.56
471.777	81.56
471.997	65.56
472.216	76.56
472.435	75.56
472.654	69.56
472.873	78.56
473.092	85.56
473.311	71.56
473.53	77.56
473.749	87.56
473.968	93.56
474.187	82.56
474.406	72.56
474.625	80.56
474.844	74.56
475.063	94.56
475.282	84.56
475.501	76.56
475.72	97.56
475.939	86.56
476.158	85.56
476.377	82.56
476.596	86.56
476.814	87.56
477.033	73.56
477.252	84.56
477.471	85.56
477.69	82.56
477.908	70.56
478.127	101.56
478.346	77.56
478.564	89.56
478.783	86.56
479.002	78.56
479.22	80.56
479.439	89.56
479.658	80.56
479.876	82.56
480.095	68.56
480.313	90.56
480.532	72.56
480.751	88.56
480.969	79.56
481.188	93.56
481.406	76.56
481.624	78.56
481.843	80.56
482.061	84.56
482.28	85.56
482.498	82.56
482.717	87.56
482.935	96.56
483.153	69.56
483.372	88.56
483.59	88.56
483.808	85.56
484.027	89.56
484.245	75.56
484.463	86.56
484.681	79.56
484.9	84.56
485.118	78.56
485.336	82.56
485.554	75.56
485.772	81.56
485.99	82.56
486.209	79.56
486.427	80.56
486.645	89.56
486.863	76.56
487.081	75.56
487.299	76.56
487.517	85.56
487.735	96.56
487.953	89.56
488.171	95.56
488.389	70.56
488.607	87.56
488.825	66.56
489.043	87.56
489.261	78.56
489.479	85.56
489.696	81.56
489.914	87.56
490.132	80.56
490.35	73.56
490.568	90.56
490.786	85.56
491.003	74.56
491.221	81.56
491.439	92.56
491.657	89.56
491.874	78.56
492.092	85.56
492.31	76.56
492.527	77.56
492.745	88.56
492.963	97.56
493.18	82.56
493.398	69.56
493.615	79.56
493.833	86.56
494.05	86.56
494.268	80.56
494.485	88.56
494.703	90.56
494.92	83.56
495.138	81.56
495.355	73.56
495.573	90.56
495.79	85.56
496.008	82.56
496.225	79.56
496.442	68.56
496.66	88.56
496.877	80.56
497.094	80.56
497.312	79.56
497.529	89.56
497.746	85.56
497.963	93.56
498.181	74.56
498.398	81.56
498.615	85.56
498.832	73.56
499.049	85.56
499.267	70.56
499.484	84.56
499.701	106.56
499.918	79.56
500.135	78.56
500.352	68.56
500.569	67.56
500.786	83.56
501.003	99.56
501.22	98.56
501.437	75.56
501.654	73.56
501.871	81.56
502.088	85.56
502.305	76.56
502.522	80.56
502.739	89.56
502.956	60.56
503.172	87.56
503.389	74.56
503.606	92.56
503.823	82.56
504.04	80.56
504.256	94.56
504.473	97.56
504.69	75.56
504.907	71.56
505.123	70.56
505.34	83.56
505.557	67.56
505.773	72.56
505.99	89.56
506.207	82.56
506.423	79.56
506.64	82.56
506.856	85.56
507.073	82.56
507.289	74.56
507.506	85.56
507.722	74.56
507.939	74.56
508.155	71.56
508.372	77.56
508.588	84.56
508.805	83.56
509.021	79.56
509.238	84.56
509.454	77.56
509.67	86.56
509.887	80.56
510.103	93.56
510.319	75.56
510.536	78.56
510.752	94.56
510.968	88.56
511.184	72.56
511.401	72.56
511.617	85.56
511.833	81.56
512.049	101.56
512.265	81.56
512.481	82.56
512.698	87.56
512.914	89.56
513.13	87.56
513.346	89.56
513.562	84.56
513.778	80.56
513.994	91.56
514.21	80.56
514.426	79.56
514.642	87.56
514.858	84.56
515.074	94.56
515.29	76.56
515.506	71.56
515.721	85.56
515.937	77.56
516.153	87.56
516.369	84.56
516.585	76.56
516.801	85.56
517.016	81.56
517.232	82.56
517.448	86.56
517.664	77.56
517.879	70.56
518.095	89.56
518.311	89.56
518.527	88.56
518.742	73.56
518.958	83.56
519.173	105.56
519.389	87.56
519.605	82.56
519.82	82.56
520.036	75.56
