Data from HP_2_HRD10591_00041.txt Node
Date: Mon Jan 19 14:16:21 EST 2026
User: Yrep
Spectrometer: HR+D1059
Trigger mode: 1
Integration Time (sec): 1.000000E-1
Scans to average: 1
Electric dark correction enabled: true
Nonlinearity correction enabled: false
Boxcar width: 0
XAxis mode: Wavelengths
Number of Pixels in Spectrum: 2048
>>>>>Begin Spectral Data<<<<<
223.165	-21.25
223.4	-21.25
223.635	-21.25
223.869	-17.25
224.104	-11.25
224.338	-15.25
224.573	-12.25
224.808	-23.25
225.042	-8.25
225.277	-4.25
225.511	2.75
225.746	-9.25
225.98	0.75
226.215	8.75
226.449	26.75
226.683	25.75
226.918	35.75
227.152	21.75
227.387	36.75
227.621	38.75
227.856	47.75
228.09	47.75
228.324	38.75
228.559	52.75
228.793	64.75
229.027	62.75
229.262	61.75
229.496	64.75
229.73	68.75
229.964	65.75
230.199	60.75
230.433	65.75
230.667	77.75
230.901	72.75
231.136	88.75
231.37	68.75
231.604	80.75
231.838	80.75
232.072	76.75
232.306	86.75
232.541	75.75
232.775	80.75
233.009	86.75
233.243	84.75
233.477	74.75
233.711	71.75
233.945	74.75
234.179	79.75
234.413	78.75
234.647	85.75
234.881	61.75
235.115	79.75
235.349	76.75
235.583	77.75
235.817	71.75
236.051	93.75
236.285	75.75
236.519	88.75
236.753	87.75
236.987	68.75
237.221	83.75
237.455	74.75
237.689	72.75
237.922	66.75
238.156	82.75
238.39	72.75
238.624	77.75
238.858	80.75
239.091	72.75
239.325	78.75
239.559	68.75
239.793	73.75
240.027	77.75
240.26	74.75
240.494	72.75
240.728	80.75
240.961	82.75
241.195	64.75
241.429	79.75
241.662	68.75
241.896	62.75
242.13	76.75
242.363	92.75
242.597	73.75
242.83	61.75
243.064	66.75
243.298	73.75
243.531	73.75
243.765	88.75
243.998	77.75
244.232	83.75
244.465	88.75
244.699	92.75
244.932	82.75
245.166	72.75
245.399	82.75
245.633	87.75
245.866	73.75
246.099	63.75
246.333	73.75
246.566	69.75
246.8	77.75
247.033	72.75
247.266	78.75
247.5	80.75
247.733	72.75
247.966	87.75
248.2	68.75
248.433	70.75
248.666	77.75
248.899	76.75
249.133	71.75
249.366	71.75
249.599	79.75
249.832	72.75
250.066	76.75
250.299	69.75
250.532	65.75
250.765	76.75
250.998	73.75
251.231	68.75
251.465	84.75
251.698	89.75
251.931	71.75
252.164	64.75
252.397	80.75
252.63	82.75
252.863	81.75
253.096	67.75
253.329	76.75
253.562	94.75
253.795	73.75
254.028	73.75
254.261	64.75
254.494	69.75
254.727	89.75
254.96	84.75
255.193	58.75
255.426	82.75
255.659	64.75
255.892	91.75
256.124	84.75
256.357	75.75
256.59	72.75
256.823	70.75
257.056	75.75
257.289	75.75
257.521	79.75
257.754	88.75
257.987	71.75
258.22	78.75
258.452	96.75
258.685	80.75
258.918	75.75
259.151	80.75
259.383	83.75
259.616	87.75
259.849	79.75
260.081	87.75
260.314	64.75
260.547	75.75
260.779	85.75
261.012	73.75
261.244	72.75
261.477	86.75
261.71	74.75
261.942	75.75
262.175	73.75
262.407	88.75
262.64	62.75
262.872	81.75
263.105	93.75
263.337	75.75
263.57	70.75
263.802	71.75
264.035	69.75
264.267	70.75
264.499	75.75
264.732	74.75
264.964	80.75
265.197	71.75
265.429	76.75
265.661	80.75
265.894	85.75
266.126	97.75
266.358	91.75
266.591	81.75
266.823	82.75
267.055	84.75
267.287	78.75
267.52	78.75
267.752	75.75
267.984	86.75
268.216	81.75
268.448	82.75
268.681	77.75
268.913	84.75
269.145	74.75
269.377	69.75
269.609	68.75
269.841	81.75
270.073	84.75
270.306	92.75
270.538	73.75
270.77	63.75
271.002	93.75
271.234	96.75
271.466	67.75
271.698	78.75
271.93	90.75
272.162	88.75
272.394	108.75
272.626	79.75
272.858	78.75
273.09	80.75
273.322	80.75
273.553	78.75
273.785	88.75
274.017	79.75
274.249	73.75
274.481	84.75
274.713	85.75
274.945	86.75
275.176	69.75
275.408	92.75
275.64	86.75
275.872	79.75
276.104	85.75
276.335	77.75
276.567	86.75
276.799	74.75
277.031	87.75
277.262	82.75
277.494	89.75
277.726	86.75
277.957	89.75
278.189	88.75
278.421	77.75
278.652	86.75
278.884	76.75
279.115	83.75
279.347	81.75
279.579	87.75
279.81	85.75
280.042	81.75
280.273	81.75
280.505	75.75
280.736	84.75
280.968	96.75
281.199	87.75
281.431	70.75
281.662	82.75
281.894	76.75
282.125	81.75
282.356	72.75
282.588	81.75
282.819	78.75
283.051	81.75
283.282	75.75
283.513	89.75
283.745	86.75
283.976	95.75
284.207	78.75
284.439	82.75
284.67	79.75
284.901	95.75
285.132	96.75
285.364	96.75
285.595	92.75
285.826	88.75
286.057	74.75
286.288	78.75
286.52	78.75
286.751	82.75
286.982	80.75
287.213	78.75
287.444	91.75
287.675	74.75
287.906	79.75
288.138	90.75
288.369	85.75
288.6	72.75
288.831	90.75
289.062	84.75
289.293	81.75
289.524	88.75
289.755	73.75
289.986	82.75
290.217	82.75
290.448	87.75
290.679	86.75
290.91	88.75
291.141	78.75
291.371	82.75
291.602	79.75
291.833	83.75
292.064	95.75
292.295	70.75
292.526	74.75
292.757	86.75
292.987	81.75
293.218	97.75
293.449	88.75
293.68	82.75
293.91	85.75
294.141	94.75
294.372	74.75
294.603	90.75
294.833	83.75
295.064	84.75
295.295	79.75
295.525	93.75
295.756	92.75
295.987	93.75
296.217	79.75
296.448	76.75
296.679	89.75
296.909	81.75
297.14	75.75
297.37	91.75
297.601	82.75
297.831	84.75
298.062	84.75
298.292	80.75
298.523	92.75
298.753	83.75
298.984	79.75
299.214	87.75
299.445	86.75
299.675	95.75
299.905	103.75
300.136	97.75
300.366	103.75
300.597	72.75
300.827	82.75
301.057	82.75
301.288	93.75
301.518	80.75
301.748	85.75
301.979	92.75
302.209	87.75
302.439	90.75
302.669	81.75
302.9	99.75
303.13	88.75
303.36	80.75
303.59	77.75
303.82	87.75
304.051	76.75
304.281	103.75
304.511	85.75
304.741	85.75
304.971	65.75
305.201	75.75
305.431	82.75
305.661	87.75
305.891	79.75
306.121	90.75
306.352	74.75
306.582	88.75
306.812	82.75
307.042	78.75
307.272	85.75
307.502	77.75
307.731	92.75
307.961	80.75
308.191	93.75
308.421	93.75
308.651	93.75
308.881	98.75
309.111	89.75
309.341	105.75
309.571	114.75
309.8	87.75
310.03	78.75
310.26	96.75
310.49	80.75
310.72	75.75
310.949	75.75
311.179	87.75
311.409	82.75
311.639	78.75
311.868	85.75
312.098	75.75
312.328	86.75
312.557	83.75
312.787	77.75
313.017	79.75
313.246	84.75
313.476	89.75
313.706	94.75
313.935	82.75
314.165	81.75
314.394	86.75
314.624	93.75
314.853	86.75
315.083	86.75
315.312	77.75
315.542	87.75
315.771	80.75
316.001	93.75
316.23	84.75
316.46	90.75
316.689	89.75
316.919	92.75
317.148	83.75
317.377	80.75
317.607	89.75
317.836	85.75
318.065	108.75
318.295	93.75
318.524	85.75
318.753	79.75
318.983	75.75
319.212	92.75
319.441	67.75
319.67	89.75
319.9	73.75
320.129	73.75
320.358	78.75
320.587	68.75
320.816	89.75
321.046	87.75
321.275	83.75
321.504	101.75
321.733	82.75
321.962	84.75
322.191	89.75
322.42	88.75
322.649	92.75
322.878	92.75
323.108	73.75
323.337	88.75
323.566	82.75
323.795	71.75
324.024	84.75
324.253	85.75
324.482	78.75
324.71	98.75
324.939	87.75
325.168	77.75
325.397	88.75
325.626	102.75
325.855	80.75
326.084	86.75
326.313	98.75
326.542	86.75
326.77	77.75
326.999	98.75
327.228	89.75
327.457	92.75
327.686	80.75
327.914	94.75
328.143	80.75
328.372	90.75
328.6	84.75
328.829	91.75
329.058	89.75
329.287	68.75
329.515	71.75
329.744	95.75
329.972	85.75
330.201	100.75
330.43	94.75
330.658	84.75
330.887	80.75
331.115	85.75
331.344	89.75
331.572	74.75
331.801	74.75
332.03	82.75
332.258	64.75
332.486	73.75
332.715	69.75
332.943	89.75
333.172	92.75
333.4	82.75
333.629	69.75
333.857	81.75
334.085	91.75
334.314	93.75
334.542	87.75
334.771	94.75
334.999	91.75
335.227	94.75
335.455	87.75
335.684	108.75
335.912	91.75
336.14	96.75
336.369	101.75
336.597	84.75
336.825	87.75
337.053	95.75
337.281	82.75
337.51	86.75
337.738	97.75
337.966	100.75
338.194	72.75
338.422	87.75
338.65	98.75
338.878	77.75
339.106	67.75
339.334	100.75
339.562	85.75
339.79	88.75
340.018	89.75
340.246	82.75
340.474	75.75
340.702	83.75
340.93	85.75
341.158	78.75
341.386	84.75
341.614	85.75
341.842	97.75
342.07	82.75
342.298	89.75
342.526	83.75
342.754	80.75
342.981	78.75
343.209	96.75
343.437	108.75
343.665	88.75
343.893	86.75
344.12	83.75
344.348	93.75
344.576	98.75
344.804	98.75
345.031	95.75
345.259	89.75
345.487	95.75
345.714	91.75
345.942	86.75
346.17	70.75
346.397	83.75
346.625	82.75
346.853	86.75
347.08	87.75
347.308	88.75
347.535	94.75
347.763	94.75
347.99	91.75
348.218	103.75
348.445	85.75
348.673	79.75
348.9	75.75
349.128	81.75
349.355	69.75
349.583	80.75
349.81	90.75
350.037	80.75
350.265	88.75
350.492	84.75
350.72	87.75
350.947	81.75
351.174	82.75
351.402	87.75
351.629	86.75
351.856	75.75
352.083	78.75
352.311	86.75
352.538	68.75
352.765	85.75
352.992	92.75
353.22	83.75
353.447	76.75
353.674	89.75
353.901	90.75
354.128	90.75
354.355	79.75
354.583	82.75
354.81	101.75
355.037	87.75
355.264	87.75
355.491	88.75
355.718	76.75
355.945	95.75
356.172	86.75
356.399	88.75
356.626	83.75
356.853	81.75
357.08	98.75
357.307	89.75
357.534	96.75
357.761	98.75
357.988	90.75
358.215	102.75
358.441	79.75
358.668	94.75
358.895	94.75
359.122	79.75
359.349	84.75
359.576	81.75
359.802	79.75
360.029	78.75
360.256	90.75
360.483	92.75
360.709	83.75
360.936	96.75
361.163	84.75
361.39	88.75
361.616	91.75
361.843	99.75
362.07	105.75
362.296	114.75
362.523	120.75
362.749	130.75
362.976	146.75
363.203	120.75
363.429	104.75
363.656	92.75
363.882	102.75
364.109	119.75
364.335	132.75
364.562	148.75
364.788	108.75
365.015	102.75
365.241	83.75
365.468	94.75
365.694	81.75
365.92	88.75
366.147	83.75
366.373	81.75
366.599	82.75
366.826	87.75
367.052	82.75
367.278	91.75
367.505	79.75
367.731	88.75
367.957	79.75
368.184	85.75
368.41	88.75
368.636	90.75
368.862	69.75
369.089	88.75
369.315	79.75
369.541	79.75
369.767	98.75
369.993	82.75
370.219	90.75
370.445	99.75
370.672	95.75
370.898	93.75
371.124	92.75
371.35	84.75
371.576	79.75
371.802	100.75
372.028	90.75
372.254	98.75
372.48	96.75
372.706	86.75
372.932	98.75
373.158	99.75
373.384	105.75
373.61	105.75
373.835	114.75
374.061	97.75
374.287	92.75
374.513	81.75
374.739	114.75
374.965	100.75
375.191	107.75
375.416	81.75
375.642	98.75
375.868	100.75
376.094	92.75
376.319	86.75
376.545	97.75
376.771	78.75
376.997	101.75
377.222	80.75
377.448	82.75
377.674	95.75
377.899	89.75
378.125	76.75
378.35	84.75
378.576	79.75
378.802	79.75
379.027	79.75
379.253	81.75
379.478	84.75
379.704	87.75
379.929	92.75
380.155	80.75
380.38	77.75
380.606	89.75
380.831	100.75
381.057	97.75
381.282	84.75
381.507	100.75
381.733	85.75
381.958	99.75
382.184	93.75
382.409	90.75
382.634	89.75
382.86	93.75
383.085	100.75
383.31	102.75
383.535	110.75
383.761	95.75
383.986	96.75
384.211	88.75
384.436	95.75
384.662	94.75
384.887	78.75
385.112	110.75
385.337	102.75
385.562	96.75
385.787	112.75
386.013	97.75
386.238	96.75
386.463	102.75
386.688	93.75
386.913	90.75
387.138	99.75
387.363	92.75
387.588	88.75
387.813	93.75
388.038	93.75
388.263	79.75
388.488	87.75
388.713	82.75
388.938	80.75
389.163	114.75
389.387	80.75
389.612	98.75
389.837	86.75
390.062	94.75
390.287	66.75
390.512	103.75
390.736	99.75
390.961	94.75
391.186	73.75
391.411	87.75
391.636	85.75
391.86	99.75
392.085	96.75
392.31	106.75
392.534	124.75
392.759	124.75
392.984	169.75
393.208	318.75
393.433	506.75
393.658	390.75
393.882	175.75
394.107	123.75
394.331	133.75
394.556	152.75
394.78	100.75
395.005	101.75
395.229	94.75
395.454	96.75
395.678	122.75
395.903	150.75
396.127	189.75
396.352	210.75
396.576	233.75
396.801	319.75
397.025	386.75
397.249	208.75
397.474	150.75
397.698	114.75
397.922	103.75
398.147	88.75
398.371	83.75
398.595	92.75
398.82	85.75
399.044	97.75
399.268	96.75
399.492	76.75
399.717	91.75
399.941	80.75
400.165	101.75
400.389	72.75
400.613	102.75
400.837	86.75
401.062	82.75
401.286	80.75
401.51	86.75
401.734	84.75
401.958	88.75
402.182	106.75
402.406	93.75
402.63	87.75
402.854	86.75
403.078	93.75
403.302	104.75
403.526	104.75
403.75	98.75
403.974	108.75
404.198	149.75
404.422	232.75
404.645	281.75
404.869	212.75
405.093	150.75
405.317	100.75
405.541	99.75
405.765	93.75
405.988	104.75
406.212	82.75
406.436	88.75
406.66	82.75
406.883	92.75
407.107	89.75
407.331	93.75
407.555	118.75
407.778	125.75
408.002	122.75
408.226	104.75
408.449	97.75
408.673	97.75
408.896	76.75
409.12	100.75
409.344	88.75
409.567	113.75
409.791	112.75
410.014	110.75
410.238	101.75
410.461	96.75
410.685	74.75
410.908	107.75
411.132	112.75
411.355	99.75
411.578	91.75
411.802	77.75
412.025	97.75
412.249	84.75
412.472	78.75
412.695	89.75
412.919	77.75
413.142	96.75
413.365	74.75
413.589	87.75
413.812	88.75
414.035	89.75
414.258	76.75
414.482	90.75
414.705	82.75
414.928	72.75
415.151	86.75
415.374	85.75
415.597	100.75
415.821	96.75
416.044	84.75
416.267	92.75
416.49	85.75
416.713	78.75
416.936	83.75
417.159	90.75
417.382	94.75
417.605	79.75
417.828	99.75
418.051	94.75
418.274	96.75
418.497	81.75
418.72	89.75
418.943	92.75
419.166	80.75
419.389	100.75
419.611	102.75
419.834	97.75
420.057	94.75
420.28	95.75
420.503	88.75
420.726	108.75
420.948	87.75
421.171	104.75
421.394	122.75
421.617	135.75
421.839	153.75
422.062	165.75
422.285	214.75
422.507	464.75
422.73	689.75
422.953	644.75
423.175	332.75
423.398	185.75
423.621	130.75
423.843	106.75
424.066	110.75
424.288	96.75
424.511	85.75
424.733	94.75
424.956	83.75
425.178	78.75
425.401	84.75
425.623	89.75
425.846	96.75
426.068	89.75
426.291	90.75
426.513	98.75
426.735	90.75
426.958	92.75
427.18	99.75
427.402	81.75
427.625	93.75
427.847	96.75
428.069	122.75
428.292	174.75
428.514	183.75
428.736	136.75
428.958	175.75
429.181	174.75
429.403	116.75
429.625	102.75
429.847	154.75
430.069	233.75
430.292	276.75
430.514	258.75
430.736	178.75
430.958	185.75
431.18	120.75
431.402	82.75
431.624	113.75
431.846	170.75
432.068	187.75
432.29	110.75
432.512	105.75
432.734	92.75
432.956	89.75
433.178	92.75
433.4	87.75
433.622	104.75
433.844	96.75
434.066	103.75
434.287	85.75
434.509	82.75
434.731	84.75
434.953	79.75
435.175	87.75
435.397	72.75
435.618	98.75
435.84	90.75
436.062	89.75
436.284	79.75
436.505	97.75
436.727	75.75
436.949	86.75
437.17	75.75
437.392	82.75
437.614	80.75
437.835	96.75
438.057	87.75
438.278	85.75
438.5	89.75
438.721	83.75
438.943	85.75
439.165	98.75
439.386	86.75
439.608	82.75
439.829	78.75
440.05	86.75
440.272	90.75
440.493	86.75
440.715	96.75
440.936	78.75
441.158	79.75
441.379	79.75
441.6	98.75
441.822	80.75
442.043	89.75
442.264	110.75
442.486	165.75
442.707	247.75
442.928	165.75
443.149	119.75
443.371	224.75
443.592	421.75
443.813	352.75
444.034	141.75
444.255	124.75
444.476	98.75
444.698	106.75
444.919	117.75
445.14	204.75
445.361	277.75
445.582	531.75
445.803	441.75
446.024	177.75
446.245	112.75
446.466	97.75
446.687	82.75
446.908	86.75
447.129	85.75
447.35	84.75
447.571	81.75
447.792	80.75
448.013	85.75
448.234	89.75
448.455	79.75
448.675	81.75
448.896	87.75
449.117	85.75
449.338	78.75
449.559	89.75
449.779	69.75
450	85.75
450.221	81.75
450.442	86.75
450.662	76.75
450.883	84.75
451.104	82.75
451.324	74.75
451.545	86.75
451.766	89.75
451.986	85.75
452.207	88.75
452.428	70.75
452.648	90.75
452.869	112.75
453.089	93.75
453.31	101.75
453.53	93.75
453.751	84.75
453.971	81.75
454.192	81.75
454.412	86.75
454.633	100.75
454.853	75.75
455.073	92.75
455.294	68.75
455.514	79.75
455.734	89.75
455.955	89.75
456.175	96.75
456.395	100.75
456.616	90.75
456.836	96.75
457.056	92.75
457.276	82.75
457.497	89.75
457.717	94.75
457.937	111.75
458.157	126.75
458.377	141.75
458.598	146.75
458.818	153.75
459.038	113.75
459.258	84.75
459.478	74.75
459.698	99.75
459.918	96.75
460.138	95.75
460.358	100.75
460.578	130.75
460.798	179.75
461.018	165.75
461.238	98.75
461.458	98.75
461.678	80.75
461.898	71.75
462.118	80.75
462.338	82.75
462.558	83.75
462.777	78.75
462.997	83.75
463.217	88.75
463.437	85.75
463.657	81.75
463.876	87.75
464.096	69.75
464.316	97.75
464.536	78.75
464.755	96.75
464.975	89.75
465.195	82.75
465.414	92.75
465.634	64.75
465.854	74.75
466.073	81.75
466.293	68.75
466.512	87.75
466.732	82.75
466.951	84.75
467.171	95.75
467.391	82.75
467.61	80.75
467.829	85.75
468.049	80.75
468.268	84.75
468.488	85.75
468.707	90.75
468.927	84.75
469.146	94.75
469.365	92.75
469.585	82.75
469.804	69.75
470.023	84.75
470.243	92.75
470.462	82.75
470.681	74.75
470.901	83.75
471.12	97.75
471.339	75.75
471.558	74.75
471.777	95.75
471.997	85.75
472.216	90.75
472.435	89.75
472.654	89.75
472.873	83.75
473.092	87.75
473.311	86.75
473.53	82.75
473.749	79.75
473.968	82.75
474.187	73.75
474.406	96.75
474.625	100.75
474.844	74.75
475.063	90.75
475.282	85.75
475.501	89.75
475.72	89.75
475.939	100.75
476.158	77.75
476.377	92.75
476.596	73.75
476.814	82.75
477.033	100.75
477.252	88.75
477.471	80.75
477.69	98.75
477.908	93.75
478.127	83.75
478.346	90.75
478.564	85.75
478.783	90.75
479.002	94.75
479.22	96.75
479.439	109.75
479.658	86.75
479.876	80.75
480.095	84.75
480.313	79.75
480.532	96.75
480.751	87.75
480.969	92.75
481.188	99.75
481.406	94.75
481.624	97.75
481.843	79.75
482.061	83.75
482.28	97.75
482.498	105.75
482.717	86.75
482.935	87.75
483.153	100.75
483.372	102.75
483.59	100.75
483.808	81.75
484.027	88.75
484.245	91.75
484.463	79.75
484.681	102.75
484.9	97.75
485.118	98.75
485.336	81.75
485.554	93.75
485.772	99.75
485.99	105.75
486.209	104.75
486.427	96.75
486.645	86.75
486.863	98.75
487.081	114.75
487.299	86.75
487.517	88.75
487.735	129.75
487.953	212.75
488.171	179.75
488.389	110.75
488.607	85.75
488.825	97.75
489.043	88.75
489.261	103.75
489.479	88.75
489.696	68.75
489.914	75.75
490.132	87.75
490.35	103.75
490.568	101.75
490.786	99.75
491.003	93.75
491.221	88.75
491.439	88.75
491.657	94.75
491.874	85.75
492.092	89.75
492.31	109.75
492.527	96.75
492.745	96.75
492.963	98.75
493.18	95.75
493.398	114.75
493.615	87.75
493.833	97.75
494.05	91.75
494.268	92.75
494.485	86.75
494.703	97.75
494.92	88.75
495.138	86.75
495.355	89.75
495.573	84.75
495.79	82.75
496.008	103.75
496.225	94.75
496.442	112.75
496.66	97.75
496.877	100.75
497.094	105.75
497.312	77.75
497.529	92.75
497.746	91.75
497.963	83.75
498.181	86.75
498.398	100.75
498.615	98.75
498.832	94.75
499.049	91.75
499.267	92.75
499.484	85.75
499.701	94.75
499.918	87.75
500.135	94.75
500.352	92.75
500.569	101.75
500.786	88.75
501.003	85.75
501.22	100.75
501.437	108.75
501.654	94.75
501.871	93.75
502.088	86.75
502.305	97.75
502.522	96.75
502.739	108.75
502.956	88.75
503.172	73.75
503.389	98.75
503.606	89.75
503.823	105.75
504.04	122.75
504.256	150.75
504.473	158.75
504.69	105.75
504.907	97.75
505.123	95.75
505.34	93.75
505.557	93.75
505.773	97.75
505.99	80.75
506.207	94.75
506.423	80.75
506.64	94.75
506.856	108.75
507.073	85.75
507.289	112.75
507.506	78.75
507.722	90.75
507.939	90.75
508.155	91.75
508.372	90.75
508.588	88.75
508.805	84.75
509.021	87.75
509.238	90.75
509.454	96.75
509.67	83.75
509.887	92.75
510.103	81.75
510.319	96.75
510.536	108.75
510.752	92.75
510.968	92.75
511.184	98.75
511.401	101.75
511.617	95.75
511.833	90.75
512.049	101.75
512.265	88.75
512.481	96.75
512.698	86.75
512.914	95.75
513.13	95.75
513.346	100.75
513.562	86.75
513.778	95.75
513.994	92.75
514.21	85.75
514.426	99.75
514.642	97.75
514.858	88.75
515.074	82.75
515.29	83.75
515.506	95.75
515.721	94.75
515.937	107.75
516.153	85.75
516.369	77.75
516.585	91.75
516.801	74.75
517.016	110.75
517.232	103.75
