Data from HP_2_HRD10591_00023.txt Node
Date: Mon Jan 19 14:16:12 EST 2026
User: Yrep
Spectrometer: HR+D1059
Trigger mode: 1
Integration Time (sec): 1.000000E-1
Scans to average: 1
Electric dark correction enabled: true
Nonlinearity correction enabled: false
Boxcar width: 0
XAxis mode: Wavelengths
Number of Pixels in Spectrum: 2048
>>>>>Begin Spectral Data<<<<<
223.165	-15.69
223.4	-15.69
223.635	-15.69
223.869	-8.69
224.104	-3.69
224.338	-2.69
224.573	-14.69
224.808	-24.69
225.042	-21.69
225.277	0.31
225.511	-11.69
225.746	-4.69
225.98	12.31
226.215	2.31
226.449	11.31
226.683	20.31
226.918	26.31
227.152	35.31
227.387	38.31
227.621	51.31
227.856	42.31
228.09	59.31
228.324	50.31
228.559	48.31
228.793	59.31
229.027	59.31
229.262	58.31
229.496	70.31
229.73	80.31
229.964	70.31
230.199	77.31
230.433	77.31
230.667	95.31
230.901	71.31
231.136	68.31
231.37	77.31
231.604	67.31
231.838	94.31
232.072	75.31
232.306	75.31
232.541	84.31
232.775	81.31
233.009	67.31
233.243	84.31
233.477	85.31
233.711	71.31
233.945	67.31
234.179	83.31
234.413	90.31
234.647	68.31
234.881	77.31
235.115	84.31
235.349	74.31
235.583	79.31
235.817	76.31
236.051	76.31
236.285	87.31
236.519	84.31
236.753	83.31
236.987	87.31
237.221	80.31
237.455	70.31
237.689	72.31
237.922	80.31
238.156	82.31
238.39	69.31
238.624	80.31
238.858	76.31
239.091	80.31
239.325	88.31
239.559	70.31
239.793	77.31
240.027	93.31
240.26	76.31
240.494	77.31
240.728	69.31
240.961	70.31
241.195	89.31
241.429	80.31
241.662	84.31
241.896	92.31
242.13	81.31
242.363	72.31
242.597	68.31
242.83	77.31
243.064	81.31
243.298	72.31
243.531	60.31
243.765	78.31
243.998	77.31
244.232	91.31
244.465	76.31
244.699	91.31
244.932	89.31
245.166	72.31
245.399	72.31
245.633	78.31
245.866	87.31
246.099	76.31
246.333	86.31
246.566	72.31
246.8	84.31
247.033	71.31
247.266	80.31
247.5	88.31
247.733	85.31
247.966	81.31
248.2	100.31
248.433	88.31
248.666	70.31
248.899	95.31
249.133	86.31
249.366	88.31
249.599	67.31
249.832	83.31
250.066	76.31
250.299	86.31
250.532	68.31
250.765	82.31
250.998	82.31
251.231	77.31
251.465	84.31
251.698	76.31
251.931	75.31
252.164	96.31
252.397	84.31
252.63	90.31
252.863	71.31
253.096	69.31
253.329	75.31
253.562	85.31
253.795	82.31
254.028	72.31
254.261	91.31
254.494	76.31
254.727	86.31
254.96	85.31
255.193	80.31
255.426	80.31
255.659	88.31
255.892	90.31
256.124	88.31
256.357	81.31
256.59	82.31
256.823	91.31
257.056	74.31
257.289	92.31
257.521	75.31
257.754	66.31
257.987	68.31
258.22	88.31
258.452	79.31
258.685	94.31
258.918	64.31
259.151	82.31
259.383	86.31
259.616	86.31
259.849	96.31
260.081	76.31
260.314	82.31
260.547	90.31
260.779	75.31
261.012	78.31
261.244	76.31
261.477	74.31
261.71	80.31
261.942	77.31
262.175	92.31
262.407	76.31
262.64	82.31
262.872	80.31
263.105	78.31
263.337	89.31
263.57	81.31
263.802	81.31
264.035	73.31
264.267	74.31
264.499	73.31
264.732	89.31
264.964	76.31
265.197	78.31
265.429	75.31
265.661	78.31
265.894	86.31
266.126	84.31
266.358	84.31
266.591	81.31
266.823	77.31
267.055	82.31
267.287	77.31
267.52	84.31
267.752	84.31
267.984	93.31
268.216	78.31
268.448	90.31
268.681	88.31
268.913	76.31
269.145	74.31
269.377	82.31
269.609	104.31
269.841	90.31
270.073	86.31
270.306	76.31
270.538	64.31
270.77	69.31
271.002	80.31
271.234	82.31
271.466	92.31
271.698	73.31
271.93	85.31
272.162	82.31
272.394	89.31
272.626	97.31
272.858	68.31
273.09	84.31
273.322	82.31
273.553	87.31
273.785	84.31
274.017	80.31
274.249	82.31
274.481	95.31
274.713	93.31
274.945	85.31
275.176	91.31
275.408	80.31
275.64	85.31
275.872	83.31
276.104	95.31
276.335	82.31
276.567	74.31
276.799	92.31
277.031	84.31
277.262	70.31
277.494	88.31
277.726	90.31
277.957	77.31
278.189	78.31
278.421	82.31
278.652	77.31
278.884	96.31
279.115	88.31
279.347	88.31
279.579	91.31
279.81	89.31
280.042	85.31
280.273	79.31
280.505	70.31
280.736	81.31
280.968	78.31
281.199	88.31
281.431	83.31
281.662	88.31
281.894	98.31
282.125	73.31
282.356	84.31
282.588	82.31
282.819	89.31
283.051	77.31
283.282	92.31
283.513	93.31
283.745	90.31
283.976	82.31
284.207	89.31
284.439	82.31
284.67	104.31
284.901	80.31
285.132	90.31
285.364	90.31
285.595	97.31
285.826	61.31
286.057	98.31
286.288	84.31
286.52	84.31
286.751	104.31
286.982	88.31
287.213	88.31
287.444	94.31
287.675	89.31
287.906	88.31
288.138	92.31
288.369	97.31
288.6	84.31
288.831	86.31
289.062	88.31
289.293	76.31
289.524	82.31
289.755	86.31
289.986	85.31
290.217	90.31
290.448	78.31
290.679	90.31
290.91	89.31
291.141	85.31
291.371	86.31
291.602	98.31
291.833	84.31
292.064	90.31
292.295	87.31
292.526	94.31
292.757	90.31
292.987	82.31
293.218	97.31
293.449	91.31
293.68	78.31
293.91	80.31
294.141	91.31
294.372	92.31
294.603	72.31
294.833	84.31
295.064	91.31
295.295	87.31
295.525	76.31
295.756	93.31
295.987	106.31
296.217	92.31
296.448	79.31
296.679	84.31
296.909	82.31
297.14	77.31
297.37	92.31
297.601	80.31
297.831	89.31
298.062	82.31
298.292	82.31
298.523	83.31
298.753	90.31
298.984	82.31
299.214	75.31
299.445	86.31
299.675	84.31
299.905	97.31
300.136	86.31
300.366	84.31
300.597	96.31
300.827	96.31
301.057	95.31
301.288	84.31
301.518	85.31
301.748	94.31
301.979	87.31
302.209	77.31
302.439	93.31
302.669	88.31
302.9	92.31
303.13	88.31
303.36	86.31
303.59	91.31
303.82	93.31
304.051	112.31
304.281	84.31
304.511	94.31
304.741	104.31
304.971	96.31
305.201	83.31
305.431	93.31
305.661	80.31
305.891	84.31
306.121	87.31
306.352	88.31
306.582	86.31
306.812	81.31
307.042	96.31
307.272	80.31
307.502	69.31
307.731	74.31
307.961	89.31
308.191	97.31
308.421	76.31
308.651	94.31
308.881	84.31
309.111	88.31
309.341	99.31
309.571	100.31
309.8	101.31
310.03	89.31
310.26	88.31
310.49	81.31
310.72	90.31
310.949	93.31
311.179	82.31
311.409	76.31
311.639	76.31
311.868	98.31
312.098	100.31
312.328	86.31
312.557	92.31
312.787	84.31
313.017	89.31
313.246	81.31
313.476	74.31
313.706	83.31
313.935	87.31
314.165	96.31
314.394	91.31
314.624	90.31
314.853	94.31
315.083	82.31
315.312	80.31
315.542	91.31
315.771	93.31
316.001	79.31
316.23	86.31
316.46	91.31
316.689	75.31
316.919	87.31
317.148	80.31
317.377	88.31
317.607	85.31
317.836	92.31
318.065	88.31
318.295	81.31
318.524	90.31
318.753	81.31
318.983	87.31
319.212	89.31
319.441	81.31
319.67	87.31
319.9	94.31
320.129	91.31
320.358	74.31
320.587	91.31
320.816	84.31
321.046	75.31
321.275	74.31
321.504	84.31
321.733	84.31
321.962	87.31
322.191	93.31
322.42	90.31
322.649	96.31
322.878	79.31
323.108	96.31
323.337	82.31
323.566	69.31
323.795	92.31
324.024	85.31
324.253	94.31
324.482	92.31
324.71	82.31
324.939	93.31
325.168	96.31
325.397	82.31
325.626	88.31
325.855	84.31
326.084	85.31
326.313	66.31
326.542	92.31
326.77	104.31
326.999	79.31
327.228	94.31
327.457	88.31
327.686	73.31
327.914	86.31
328.143	92.31
328.372	89.31
328.6	86.31
328.829	82.31
329.058	88.31
329.287	107.31
329.515	85.31
329.744	77.31
329.972	94.31
330.201	93.31
330.43	82.31
330.658	90.31
330.887	97.31
331.115	72.31
331.344	95.31
331.572	96.31
331.801	79.31
332.03	85.31
332.258	107.31
332.486	82.31
332.715	84.31
332.943	91.31
333.172	94.31
333.4	89.31
333.629	77.31
333.857	82.31
334.085	89.31
334.314	89.31
334.542	90.31
334.771	91.31
334.999	97.31
335.227	76.31
335.455	90.31
335.684	89.31
335.912	88.31
336.14	97.31
336.369	84.31
336.597	93.31
336.825	88.31
337.053	82.31
337.281	93.31
337.51	98.31
337.738	85.31
337.966	76.31
338.194	70.31
338.422	78.31
338.65	83.31
338.878	86.31
339.106	94.31
339.334	87.31
339.562	84.31
339.79	84.31
340.018	87.31
340.246	85.31
340.474	94.31
340.702	92.31
340.93	86.31
341.158	88.31
341.386	76.31
341.614	80.31
341.842	74.31
342.07	88.31
342.298	77.31
342.526	91.31
342.754	70.31
342.981	99.31
343.209	103.31
343.437	105.31
343.665	69.31
343.893	101.31
344.12	79.31
344.348	81.31
344.576	89.31
344.804	87.31
345.031	96.31
345.259	91.31
345.487	81.31
345.714	81.31
345.942	81.31
346.17	85.31
346.397	78.31
346.625	82.31
346.853	89.31
347.08	84.31
347.308	100.31
347.535	91.31
347.763	90.31
347.99	85.31
348.218	75.31
348.445	81.31
348.673	83.31
348.9	88.31
349.128	82.31
349.355	63.31
349.583	94.31
349.81	85.31
350.037	86.31
350.265	92.31
350.492	88.31
350.72	71.31
350.947	99.31
351.174	88.31
351.402	90.31
351.629	96.31
351.856	85.31
352.083	90.31
352.311	93.31
352.538	72.31
352.765	92.31
352.992	98.31
353.22	80.31
353.447	83.31
353.674	94.31
353.901	77.31
354.128	98.31
354.355	86.31
354.583	99.31
354.81	76.31
355.037	88.31
355.264	88.31
355.491	87.31
355.718	91.31
355.945	96.31
356.172	93.31
356.399	84.31
356.626	94.31
356.853	91.31
357.08	92.31
357.307	105.31
357.534	82.31
357.761	103.31
357.988	88.31
358.215	104.31
358.441	77.31
358.668	92.31
358.895	70.31
359.122	88.31
359.349	100.31
359.576	73.31
359.802	83.31
360.029	88.31
360.256	94.31
360.483	86.31
360.709	82.31
360.936	98.31
361.163	79.31
361.39	84.31
361.616	92.31
361.843	92.31
362.07	103.31
362.296	85.31
362.523	100.31
362.749	98.31
362.976	101.31
363.203	107.31
363.429	92.31
363.656	101.31
363.882	92.31
364.109	98.31
364.335	124.31
364.562	86.31
364.788	91.31
365.015	88.31
365.241	95.31
365.468	88.31
365.694	76.31
365.92	79.31
366.147	88.31
366.373	82.31
366.599	69.31
366.826	89.31
367.052	85.31
367.278	93.31
367.505	89.31
367.731	91.31
367.957	92.31
368.184	92.31
368.41	89.31
368.636	92.31
368.862	78.31
369.089	84.31
369.315	92.31
369.541	79.31
369.767	90.31
369.993	89.31
370.219	89.31
370.445	100.31
370.672	85.31
370.898	80.31
371.124	80.31
371.35	94.31
371.576	95.31
371.802	97.31
372.028	87.31
372.254	80.31
372.48	80.31
372.706	85.31
372.932	85.31
373.158	70.31
373.384	92.31
373.61	93.31
373.835	91.31
374.061	98.31
374.287	84.31
374.513	100.31
374.739	94.31
374.965	81.31
375.191	87.31
375.416	92.31
375.642	91.31
375.868	93.31
376.094	82.31
376.319	97.31
376.545	96.31
376.771	86.31
376.997	90.31
377.222	89.31
377.448	76.31
377.674	87.31
377.899	84.31
378.125	84.31
378.35	87.31
378.576	71.31
378.802	74.31
379.027	65.31
379.253	98.31
379.478	90.31
379.704	99.31
379.929	86.31
380.155	93.31
380.38	87.31
380.606	85.31
380.831	82.31
381.057	103.31
381.282	90.31
381.507	95.31
381.733	82.31
381.958	88.31
382.184	101.31
382.409	92.31
382.634	90.31
382.86	93.31
383.085	72.31
383.31	109.31
383.535	86.31
383.761	85.31
383.986	90.31
384.211	85.31
384.436	88.31
384.662	82.31
384.887	89.31
385.112	93.31
385.337	81.31
385.562	81.31
385.787	75.31
386.013	107.31
386.238	99.31
386.463	96.31
386.688	91.31
386.913	85.31
387.138	89.31
387.363	95.31
387.588	94.31
387.813	103.31
388.038	92.31
388.263	84.31
388.488	92.31
388.713	101.31
388.938	85.31
389.163	75.31
389.387	99.31
389.612	85.31
389.837	92.31
390.062	105.31
390.287	81.31
390.512	99.31
390.736	86.31
390.961	86.31
391.186	81.31
391.411	115.31
391.636	82.31
391.86	84.31
392.085	79.31
392.31	85.31
392.534	77.31
392.759	100.31
392.984	112.31
393.208	143.31
393.433	205.31
393.658	170.31
393.882	116.31
394.107	95.31
394.331	118.31
394.556	116.31
394.78	82.31
395.005	80.31
395.229	85.31
395.454	95.31
395.678	100.31
395.903	105.31
396.127	122.31
396.352	130.31
396.576	115.31
396.801	153.31
397.025	180.31
397.249	124.31
397.474	110.31
397.698	99.31
397.922	75.31
398.147	90.31
398.371	84.31
398.595	93.31
398.82	96.31
399.044	82.31
399.268	87.31
399.492	77.31
399.717	89.31
399.941	102.31
400.165	86.31
400.389	90.31
400.613	84.31
400.837	83.31
401.062	83.31
401.286	85.31
401.51	92.31
401.734	76.31
401.958	86.31
402.182	91.31
402.406	88.31
402.63	86.31
402.854	91.31
403.078	99.31
403.302	81.31
403.526	86.31
403.75	90.31
403.974	89.31
404.198	85.31
404.422	121.31
404.645	97.31
404.869	106.31
405.093	82.31
405.317	84.31
405.541	86.31
405.765	71.31
405.988	84.31
406.212	97.31
406.436	91.31
406.66	99.31
406.883	83.31
407.107	80.31
407.331	84.31
407.555	97.31
407.778	82.31
408.002	109.31
408.226	96.31
408.449	82.31
408.673	82.31
408.896	87.31
409.12	90.31
409.344	92.31
409.567	95.31
409.791	85.31
410.014	98.31
410.238	88.31
410.461	98.31
410.685	78.31
410.908	87.31
411.132	106.31
411.355	94.31
411.578	90.31
411.802	75.31
412.025	83.31
412.249	81.31
412.472	86.31
412.695	96.31
412.919	90.31
413.142	84.31
413.365	92.31
413.589	83.31
413.812	82.31
414.035	88.31
414.258	92.31
414.482	94.31
414.705	88.31
414.928	75.31
415.151	80.31
415.374	75.31
415.597	90.31
415.821	81.31
416.044	90.31
416.267	90.31
416.49	90.31
416.713	77.31
416.936	84.31
417.159	85.31
417.382	105.31
417.605	75.31
417.828	84.31
418.051	79.31
418.274	92.31
418.497	84.31
418.72	78.31
418.943	76.31
419.166	84.31
419.389	86.31
419.611	84.31
419.834	92.31
420.057	79.31
420.28	79.31
420.503	90.31
420.726	85.31
420.948	82.31
421.171	96.31
421.394	95.31
421.617	92.31
421.839	96.31
422.062	112.31
422.285	138.31
422.507	211.31
422.73	247.31
422.953	216.31
423.175	150.31
423.398	107.31
423.621	105.31
423.843	93.31
424.066	89.31
424.288	91.31
424.511	96.31
424.733	88.31
424.956	86.31
425.178	89.31
425.401	81.31
425.623	86.31
425.846	85.31
426.068	91.31
426.291	89.31
426.513	96.31
426.735	96.31
426.958	82.31
427.18	75.31
427.402	77.31
427.625	92.31
427.847	88.31
428.069	93.31
428.292	112.31
428.514	100.31
428.736	101.31
428.958	103.31
429.181	101.31
429.403	88.31
429.625	76.31
429.847	109.31
430.069	124.31
430.292	134.31
430.514	132.31
430.736	106.31
430.958	131.31
431.18	96.31
431.402	95.31
431.624	96.31
431.846	105.31
432.068	112.31
432.29	82.31
432.512	80.31
432.734	80.31
432.956	75.31
433.178	85.31
433.4	94.31
433.622	97.31
433.844	93.31
434.066	77.31
434.287	81.31
434.509	74.31
434.731	68.31
434.953	81.31
435.175	96.31
435.397	86.31
435.618	92.31
435.84	91.31
436.062	96.31
436.284	87.31
436.505	82.31
436.727	98.31
436.949	94.31
437.17	95.31
437.392	78.31
437.614	90.31
437.835	77.31
438.057	87.31
438.278	83.31
438.5	90.31
438.721	85.31
438.943	86.31
439.165	87.31
439.386	78.31
439.608	98.31
439.829	93.31
440.05	76.31
440.272	76.31
440.493	88.31
440.715	92.31
440.936	81.31
441.158	85.31
441.379	81.31
441.6	77.31
441.822	84.31
442.043	91.31
442.264	112.31
442.486	120.31
442.707	132.31
442.928	106.31
443.149	108.31
443.371	126.31
443.592	196.31
443.813	154.31
444.034	95.31
444.255	88.31
444.476	85.31
444.698	112.31
444.919	84.31
445.14	169.31
445.361	161.31
445.582	200.31
445.803	168.31
446.024	96.31
446.245	92.31
446.466	84.31
446.687	86.31
446.908	78.31
447.129	93.31
447.35	84.31
447.571	94.31
447.792	72.31
448.013	84.31
448.234	95.31
448.455	88.31
448.675	76.31
448.896	78.31
449.117	78.31
449.338	80.31
449.559	98.31
449.779	91.31
450	75.31
450.221	85.31
450.442	84.31
450.662	77.31
450.883	88.31
451.104	72.31
451.324	88.31
451.545	93.31
451.766	85.31
451.986	92.31
452.207	82.31
452.428	78.31
452.648	90.31
452.869	102.31
453.089	85.31
453.31	100.31
453.53	68.31
453.751	84.31
453.971	76.31
454.192	93.31
454.412	84.31
454.633	69.31
454.853	73.31
455.073	79.31
455.294	96.31
455.514	94.31
455.734	89.31
455.955	97.31
456.175	88.31
456.395	86.31
456.616	85.31
456.836	86.31
457.056	82.31
457.276	86.31
457.497	90.31
457.717	104.31
457.937	108.31
458.157	105.31
458.377	115.31
458.598	87.31
458.818	95.31
459.038	86.31
459.258	87.31
459.478	78.31
459.698	84.31
459.918	93.31
460.138	91.31
460.358	90.31
460.578	80.31
460.798	113.31
461.018	106.31
461.238	87.31
461.458	84.31
461.678	88.31
461.898	74.31
462.118	94.31
462.338	86.31
462.558	74.31
462.777	75.31
462.997	63.31
463.217	82.31
463.437	88.31
463.657	81.31
463.876	72.31
464.096	88.31
464.316	86.31
464.536	86.31
464.755	98.31
464.975	80.31
465.195	75.31
465.414	80.31
465.634	101.31
465.854	95.31
466.073	98.31
466.293	79.31
466.512	74.31
466.732	82.31
466.951	91.31
467.171	73.31
467.391	84.31
467.61	89.31
467.829	78.31
468.049	93.31
468.268	77.31
468.488	81.31
468.707	82.31
468.927	84.31
469.146	73.31
469.365	74.31
469.585	80.31
469.804	84.31
470.023	88.31
470.243	84.31
470.462	72.31
470.681	82.31
470.901	73.31
471.12	84.31
471.339	88.31
471.558	83.31
471.777	81.31
471.997	78.31
472.216	80.31
472.435	83.31
472.654	88.31
472.873	89.31
473.092	88.31
473.311	81.31
473.53	85.31
473.749	85.31
473.968	85.31
474.187	80.31
474.406	76.31
474.625	82.31
474.844	89.31
475.063	93.31
475.282	97.31
475.501	73.31
475.72	83.31
475.939	98.31
476.158	87.31
476.377	89.31
476.596	89.31
476.814	94.31
477.033	101.31
477.252	84.31
477.471	80.31
477.69	83.31
477.908	108.31
478.127	93.31
478.346	87.31
478.564	83.31
478.783	78.31
479.002	91.31
479.22	86.31
479.439	75.31
479.658	77.31
479.876	85.31
480.095	82.31
480.313	90.31
480.532	76.31
480.751	91.31
480.969	70.31
481.188	82.31
481.406	95.31
481.624	96.31
481.843	86.31
482.061	81.31
482.28	83.31
482.498	86.31
482.717	92.31
482.935	85.31
483.153	82.31
483.372	98.31
483.59	76.31
483.808	92.31
484.027	87.31
484.245	84.31
484.463	101.31
484.681	94.31
484.9	90.31
485.118	93.31
485.336	69.31
485.554	88.31
485.772	97.31
485.99	92.31
486.209	98.31
486.427	86.31
486.645	81.31
486.863	86.31
487.081	87.31
487.299	105.31
487.517	90.31
487.735	102.31
487.953	139.31
488.171	120.31
488.389	98.31
488.607	90.31
488.825	94.31
489.043	77.31
489.261	101.31
489.479	92.31
489.696	85.31
489.914	84.31
490.132	90.31
490.35	98.31
490.568	91.31
490.786	96.31
491.003	95.31
491.221	97.31
491.439	78.31
491.657	89.31
491.874	88.31
492.092	92.31
492.31	95.31
492.527	92.31
492.745	88.31
492.963	107.31
493.18	91.31
493.398	83.31
493.615	94.31
493.833	93.31
494.05	97.31
494.268	85.31
494.485	77.31
494.703	77.31
494.92	91.31
495.138	88.31
495.355	80.31
495.573	90.31
495.79	97.31
496.008	93.31
496.225	91.31
496.442	90.31
496.66	100.31
496.877	101.31
497.094	96.31
497.312	91.31
497.529	106.31
497.746	96.31
497.963	99.31
498.181	98.31
498.398	98.31
498.615	92.31
498.832	84.31
499.049	67.31
499.267	106.31
499.484	101.31
499.701	91.31
499.918	92.31
500.135	103.31
500.352	82.31
500.569	75.31
500.786	99.31
501.003	88.31
501.22	96.31
501.437	86.31
501.654	96.31
501.871	84.31
502.088	92.31
502.305	79.31
502.522	88.31
502.739	97.31
502.956	93.31
503.172	100.31
503.389	94.31
503.606	84.31
503.823	76.31
504.04	96.31
504.256	106.31
504.473	108.31
504.69	95.31
504.907	93.31
505.123	78.31
505.34	94.31
505.557	84.31
505.773	92.31
505.99	86.31
506.207	90.31
506.423	85.31
506.64	86.31
506.856	82.31
507.073	92.31
507.289	86.31
507.506	94.31
507.722	97.31
507.939	79.31
508.155	91.31
508.372	88.31
508.588	89.31
508.805	91.31
509.021	85.31
509.238	96.31
509.454	85.31
509.67	88.31
509.887	84.31
510.103	84.31
510.319	89.31
510.536	91.31
510.752	75.31
510.968	77.31
511.184	88.31
511.401	93.31
511.617	97.31
511.833	97.31
512.049	84.31
512.265	90.31
512.481	82.31
512.698	102.31
512.914	77.31
513.13	102.31
513.346	88.31
513.562	94.31
513.778	91.31
513.994	84.31
514.21	100.31
514.426	86.31
514.642	89.31
514.858	93.31
515.074	88.31
515.29	91.31
515.506	97.31
515.721	78.31
515.937	99.31
516.153	87.31
516.369	84.31
516.585	92.31
516.801	95.31
517.016	95.31
517.232	96.31
517.448	102.31
517.664	95.31
517.879	104.31
518.095	88.31
518.311	86.31
518.527	104.31
