Data from HP_2_HRD10591_00033.txt Node
Date: Mon Jan 19 14:16:17 EST 2026
User: Yrep
Spectrometer: HR+D1059
Trigger mode: 1
Integration Time (sec): 1.000000E-1
Scans to average: 1
Electric dark correction enabled: true
Nonlinearity correction enabled: false
Boxcar width: 0
XAxis mode: Wavelengths
Number of Pixels in Spectrum: 2048
>>>>>Begin Spectral Data<<<<<
223.165	-17.56
223.4	-17.56
223.635	-17.56
223.869	-16.56
224.104	-2.56
224.338	-10.56
224.573	-14.56
224.808	-8.56
225.042	2.44
225.277	-2.56
225.511	-15.56
225.746	5.44
225.98	4.44
226.215	-8.56
226.449	21.44
226.683	14.44
226.918	31.44
227.152	17.44
227.387	40.44
227.621	38.44
227.856	41.44
228.09	54.44
228.324	49.44
228.559	55.44
228.793	40.44
229.027	79.44
229.262	60.44
229.496	75.44
229.73	66.44
229.964	80.44
230.199	65.44
230.433	81.44
230.667	65.44
230.901	80.44
231.136	74.44
231.37	86.44
231.604	79.44
231.838	73.44
232.072	86.44
232.306	73.44
232.541	77.44
232.775	77.44
233.009	74.44
233.243	82.44
233.477	67.44
233.711	79.44
233.945	94.44
234.179	82.44
234.413	75.44
234.647	81.44
234.881	89.44
235.115	93.44
235.349	68.44
235.583	63.44
235.817	74.44
236.051	76.44
236.285	68.44
236.519	79.44
236.753	78.44
236.987	94.44
237.221	79.44
237.455	82.44
237.689	79.44
237.922	85.44
238.156	74.44
238.39	79.44
238.624	74.44
238.858	95.44
239.091	65.44
239.325	70.44
239.559	70.44
239.793	71.44
240.027	63.44
240.26	81.44
240.494	79.44
240.728	60.44
240.961	65.44
241.195	61.44
241.429	73.44
241.662	63.44
241.896	69.44
242.13	59.44
242.363	69.44
242.597	79.44
242.83	85.44
243.064	70.44
243.298	79.44
243.531	86.44
243.765	74.44
243.998	76.44
244.232	73.44
244.465	77.44
244.699	76.44
244.932	79.44
245.166	86.44
245.399	75.44
245.633	71.44
245.866	74.44
246.099	72.44
246.333	87.44
246.566	68.44
246.8	81.44
247.033	72.44
247.266	67.44
247.5	75.44
247.733	70.44
247.966	75.44
248.2	76.44
248.433	61.44
248.666	71.44
248.899	73.44
249.133	83.44
249.366	62.44
249.599	75.44
249.832	70.44
250.066	84.44
250.299	75.44
250.532	72.44
250.765	74.44
250.998	87.44
251.231	68.44
251.465	100.44
251.698	78.44
251.931	74.44
252.164	74.44
252.397	70.44
252.63	81.44
252.863	88.44
253.096	70.44
253.329	79.44
253.562	85.44
253.795	68.44
254.028	61.44
254.261	63.44
254.494	75.44
254.727	88.44
254.96	89.44
255.193	60.44
255.426	83.44
255.659	71.44
255.892	76.44
256.124	72.44
256.357	87.44
256.59	74.44
256.823	79.44
257.056	83.44
257.289	81.44
257.521	86.44
257.754	85.44
257.987	75.44
258.22	89.44
258.452	69.44
258.685	86.44
258.918	72.44
259.151	83.44
259.383	87.44
259.616	65.44
259.849	73.44
260.081	78.44
260.314	87.44
260.547	86.44
260.779	67.44
261.012	87.44
261.244	83.44
261.477	78.44
261.71	59.44
261.942	65.44
262.175	80.44
262.407	75.44
262.64	70.44
262.872	74.44
263.105	87.44
263.337	87.44
263.57	79.44
263.802	86.44
264.035	88.44
264.267	81.44
264.499	86.44
264.732	82.44
264.964	84.44
265.197	103.44
265.429	86.44
265.661	73.44
265.894	83.44
266.126	103.44
266.358	88.44
266.591	71.44
266.823	73.44
267.055	83.44
267.287	95.44
267.52	74.44
267.752	77.44
267.984	87.44
268.216	80.44
268.448	80.44
268.681	88.44
268.913	73.44
269.145	89.44
269.377	87.44
269.609	76.44
269.841	93.44
270.073	84.44
270.306	74.44
270.538	66.44
270.77	75.44
271.002	64.44
271.234	81.44
271.466	88.44
271.698	78.44
271.93	91.44
272.162	82.44
272.394	95.44
272.626	88.44
272.858	79.44
273.09	86.44
273.322	88.44
273.553	84.44
273.785	85.44
274.017	89.44
274.249	99.44
274.481	80.44
274.713	76.44
274.945	85.44
275.176	74.44
275.408	80.44
275.64	75.44
275.872	70.44
276.104	86.44
276.335	82.44
276.567	89.44
276.799	79.44
277.031	83.44
277.262	95.44
277.494	95.44
277.726	97.44
277.957	103.44
278.189	85.44
278.421	67.44
278.652	75.44
278.884	81.44
279.115	83.44
279.347	86.44
279.579	90.44
279.81	91.44
280.042	91.44
280.273	87.44
280.505	89.44
280.736	80.44
280.968	75.44
281.199	83.44
281.431	73.44
281.662	87.44
281.894	84.44
282.125	85.44
282.356	98.44
282.588	93.44
282.819	83.44
283.051	81.44
283.282	74.44
283.513	83.44
283.745	90.44
283.976	74.44
284.207	78.44
284.439	95.44
284.67	73.44
284.901	73.44
285.132	94.44
285.364	95.44
285.595	86.44
285.826	79.44
286.057	85.44
286.288	81.44
286.52	92.44
286.751	87.44
286.982	71.44
287.213	75.44
287.444	88.44
287.675	93.44
287.906	93.44
288.138	100.44
288.369	96.44
288.6	86.44
288.831	91.44
289.062	89.44
289.293	101.44
289.524	78.44
289.755	82.44
289.986	87.44
290.217	84.44
290.448	89.44
290.679	77.44
290.91	93.44
291.141	86.44
291.371	81.44
291.602	93.44
291.833	90.44
292.064	87.44
292.295	78.44
292.526	91.44
292.757	86.44
292.987	88.44
293.218	95.44
293.449	94.44
293.68	92.44
293.91	74.44
294.141	85.44
294.372	83.44
294.603	96.44
294.833	86.44
295.064	81.44
295.295	73.44
295.525	81.44
295.756	101.44
295.987	102.44
296.217	84.44
296.448	107.44
296.679	98.44
296.909	85.44
297.14	89.44
297.37	84.44
297.601	85.44
297.831	89.44
298.062	95.44
298.292	95.44
298.523	95.44
298.753	89.44
298.984	97.44
299.214	81.44
299.445	79.44
299.675	90.44
299.905	72.44
300.136	97.44
300.366	90.44
300.597	83.44
300.827	97.44
301.057	86.44
301.288	85.44
301.518	96.44
301.748	91.44
301.979	94.44
302.209	90.44
302.439	90.44
302.669	87.44
302.9	93.44
303.13	93.44
303.36	81.44
303.59	81.44
303.82	86.44
304.051	89.44
304.281	79.44
304.511	101.44
304.741	76.44
304.971	92.44
305.201	91.44
305.431	85.44
305.661	83.44
305.891	74.44
306.121	89.44
306.352	80.44
306.582	87.44
306.812	83.44
307.042	85.44
307.272	85.44
307.502	90.44
307.731	95.44
307.961	106.44
308.191	95.44
308.421	121.44
308.651	98.44
308.881	83.44
309.111	101.44
309.341	109.44
309.571	120.44
309.8	87.44
310.03	97.44
310.26	76.44
310.49	86.44
310.72	89.44
310.949	96.44
311.179	88.44
311.409	84.44
311.639	72.44
311.868	77.44
312.098	95.44
312.328	99.44
312.557	101.44
312.787	96.44
313.017	89.44
313.246	85.44
313.476	88.44
313.706	89.44
313.935	83.44
314.165	77.44
314.394	86.44
314.624	99.44
314.853	90.44
315.083	97.44
315.312	83.44
315.542	80.44
315.771	79.44
316.001	91.44
316.23	99.44
316.46	88.44
316.689	89.44
316.919	93.44
317.148	87.44
317.377	84.44
317.607	90.44
317.836	93.44
318.065	103.44
318.295	100.44
318.524	81.44
318.753	85.44
318.983	95.44
319.212	74.44
319.441	100.44
319.67	91.44
319.9	91.44
320.129	90.44
320.358	85.44
320.587	91.44
320.816	89.44
321.046	78.44
321.275	101.44
321.504	94.44
321.733	75.44
321.962	105.44
322.191	93.44
322.42	90.44
322.649	83.44
322.878	97.44
323.108	89.44
323.337	95.44
323.566	87.44
323.795	73.44
324.024	93.44
324.253	99.44
324.482	95.44
324.71	91.44
324.939	99.44
325.168	77.44
325.397	93.44
325.626	84.44
325.855	81.44
326.084	85.44
326.313	85.44
326.542	82.44
326.77	87.44
326.999	86.44
327.228	88.44
327.457	83.44
327.686	89.44
327.914	81.44
328.143	93.44
328.372	90.44
328.6	83.44
328.829	82.44
329.058	88.44
329.287	85.44
329.515	90.44
329.744	94.44
329.972	92.44
330.201	102.44
330.43	111.44
330.658	109.44
330.887	86.44
331.115	85.44
331.344	97.44
331.572	89.44
331.801	69.44
332.03	97.44
332.258	99.44
332.486	84.44
332.715	83.44
332.943	87.44
333.172	89.44
333.4	87.44
333.629	88.44
333.857	94.44
334.085	98.44
334.314	97.44
334.542	87.44
334.771	95.44
334.999	101.44
335.227	95.44
335.455	97.44
335.684	95.44
335.912	111.44
336.14	105.44
336.369	109.44
336.597	101.44
336.825	98.44
337.053	89.44
337.281	97.44
337.51	85.44
337.738	85.44
337.966	81.44
338.194	92.44
338.422	97.44
338.65	78.44
338.878	85.44
339.106	93.44
339.334	74.44
339.562	91.44
339.79	90.44
340.018	92.44
340.246	90.44
340.474	84.44
340.702	92.44
340.93	87.44
341.158	81.44
341.386	80.44
341.614	93.44
341.842	95.44
342.07	98.44
342.298	86.44
342.526	82.44
342.754	97.44
342.981	82.44
343.209	83.44
343.437	116.44
343.665	89.44
343.893	84.44
344.12	97.44
344.348	92.44
344.576	78.44
344.804	103.44
345.031	103.44
345.259	88.44
345.487	94.44
345.714	92.44
345.942	106.44
346.17	96.44
346.397	79.44
346.625	100.44
346.853	99.44
347.08	105.44
347.308	93.44
347.535	77.44
347.763	86.44
347.99	93.44
348.218	81.44
348.445	72.44
348.673	83.44
348.9	85.44
349.128	102.44
349.355	101.44
349.583	94.44
349.81	98.44
350.037	91.44
350.265	90.44
350.492	99.44
350.72	94.44
350.947	89.44
351.174	95.44
351.402	102.44
351.629	94.44
351.856	97.44
352.083	105.44
352.311	84.44
352.538	98.44
352.765	87.44
352.992	98.44
353.22	103.44
353.447	81.44
353.674	82.44
353.901	94.44
354.128	81.44
354.355	83.44
354.583	83.44
354.81	88.44
355.037	98.44
355.264	81.44
355.491	85.44
355.718	72.44
355.945	86.44
356.172	99.44
356.399	99.44
356.626	106.44
356.853	109.44
357.08	107.44
357.307	102.44
357.534	90.44
357.761	93.44
357.988	91.44
358.215	108.44
358.441	96.44
358.668	94.44
358.895	91.44
359.122	94.44
359.349	87.44
359.576	105.44
359.802	89.44
360.029	93.44
360.256	101.44
360.483	110.44
360.709	84.44
360.936	89.44
361.163	95.44
361.39	103.44
361.616	104.44
361.843	99.44
362.07	110.44
362.296	120.44
362.523	126.44
362.749	122.44
362.976	143.44
363.203	145.44
363.429	127.44
363.656	101.44
363.882	114.44
364.109	136.44
364.335	169.44
364.562	168.44
364.788	136.44
365.015	101.44
365.241	88.44
365.468	103.44
365.694	97.44
365.92	99.44
366.147	89.44
366.373	105.44
366.599	100.44
366.826	98.44
367.052	84.44
367.278	93.44
367.505	98.44
367.731	95.44
367.957	85.44
368.184	79.44
368.41	89.44
368.636	96.44
368.862	84.44
369.089	83.44
369.315	93.44
369.541	89.44
369.767	87.44
369.993	78.44
370.219	91.44
370.445	97.44
370.672	101.44
370.898	105.44
371.124	101.44
371.35	88.44
371.576	77.44
371.802	93.44
372.028	113.44
372.254	97.44
372.48	93.44
372.706	96.44
372.932	106.44
373.158	89.44
373.384	116.44
373.61	113.44
373.835	119.44
374.061	97.44
374.287	101.44
374.513	111.44
374.739	104.44
374.965	111.44
375.191	111.44
375.416	99.44
375.642	96.44
375.868	84.44
376.094	92.44
376.319	88.44
376.545	93.44
376.771	97.44
376.997	97.44
377.222	83.44
377.448	85.44
377.674	91.44
377.899	78.44
378.125	97.44
378.35	96.44
378.576	95.44
378.802	96.44
379.027	85.44
379.253	87.44
379.478	83.44
379.704	91.44
379.929	87.44
380.155	82.44
380.38	84.44
380.606	99.44
380.831	80.44
381.057	97.44
381.282	78.44
381.507	94.44
381.733	101.44
381.958	118.44
382.184	105.44
382.409	113.44
382.634	129.44
382.86	107.44
383.085	110.44
383.31	112.44
383.535	102.44
383.761	121.44
383.986	115.44
384.211	98.44
384.436	93.44
384.662	99.44
384.887	95.44
385.112	100.44
385.337	102.44
385.562	101.44
385.787	105.44
386.013	112.44
386.238	83.44
386.463	99.44
386.688	115.44
386.913	99.44
387.138	82.44
387.363	101.44
387.588	97.44
387.813	112.44
388.038	113.44
388.263	90.44
388.488	109.44
388.713	99.44
388.938	75.44
389.163	86.44
389.387	104.44
389.612	90.44
389.837	96.44
390.062	89.44
390.287	93.44
390.512	100.44
390.736	91.44
390.961	88.44
391.186	114.44
391.411	85.44
391.636	104.44
391.86	109.44
392.085	99.44
392.31	108.44
392.534	131.44
392.759	141.44
392.984	199.44
393.208	369.44
393.433	583.44
393.658	443.44
393.882	183.44
394.107	129.44
394.331	159.44
394.556	186.44
394.78	139.44
395.005	118.44
395.229	104.44
395.454	119.44
395.678	128.44
395.903	159.44
396.127	189.44
396.352	239.44
396.576	247.44
396.801	384.44
397.025	456.44
397.249	233.44
397.474	161.44
397.698	131.44
397.922	111.44
398.147	95.44
398.371	94.44
398.595	88.44
398.82	94.44
399.044	88.44
399.268	94.44
399.492	100.44
399.717	100.44
399.941	105.44
400.165	99.44
400.389	91.44
400.613	85.44
400.837	92.44
401.062	103.44
401.286	86.44
401.51	100.44
401.734	94.44
401.958	83.44
402.182	89.44
402.406	101.44
402.63	99.44
402.854	103.44
403.078	92.44
403.302	117.44
403.526	104.44
403.75	102.44
403.974	124.44
404.198	159.44
404.422	283.44
404.645	329.44
404.869	244.44
405.093	152.44
405.317	127.44
405.541	97.44
405.765	98.44
405.988	94.44
406.212	113.44
406.436	109.44
406.66	90.44
406.883	91.44
407.107	94.44
407.331	121.44
407.555	116.44
407.778	132.44
408.002	136.44
408.226	107.44
408.449	87.44
408.673	93.44
408.896	96.44
409.12	99.44
409.344	111.44
409.567	124.44
409.791	107.44
410.014	103.44
410.238	97.44
410.461	102.44
410.685	72.44
410.908	82.44
411.132	84.44
411.355	84.44
411.578	89.44
411.802	89.44
412.025	102.44
412.249	99.44
412.472	88.44
412.695	74.44
412.919	107.44
413.142	95.44
413.365	86.44
413.589	91.44
413.812	83.44
414.035	89.44
414.258	83.44
414.482	87.44
414.705	103.44
414.928	90.44
415.151	89.44
415.374	90.44
415.597	85.44
415.821	95.44
416.044	97.44
416.267	85.44
416.49	94.44
416.713	81.44
416.936	87.44
417.159	104.44
417.382	98.44
417.605	98.44
417.828	109.44
418.051	105.44
418.274	89.44
418.497	84.44
418.72	92.44
418.943	82.44
419.166	100.44
419.389	93.44
419.611	99.44
419.834	102.44
420.057	101.44
420.28	109.44
420.503	109.44
420.726	104.44
420.948	103.44
421.171	111.44
421.394	134.44
421.617	161.44
421.839	172.44
422.062	181.44
422.285	305.44
422.507	561.44
422.73	882.44
422.953	767.44
423.175	396.44
423.398	214.44
423.621	160.44
423.843	123.44
424.066	133.44
424.288	117.44
424.511	121.44
424.733	104.44
424.956	87.44
425.178	101.44
425.401	100.44
425.623	111.44
425.846	107.44
426.068	103.44
426.291	89.44
426.513	109.44
426.735	108.44
426.958	92.44
427.18	93.44
427.402	93.44
427.625	109.44
427.847	98.44
428.069	126.44
428.292	201.44
428.514	240.44
428.736	178.44
428.958	210.44
429.181	221.44
429.403	133.44
429.625	129.44
429.847	185.44
430.069	309.44
430.292	341.44
430.514	311.44
430.736	212.44
430.958	239.44
431.18	149.44
431.402	117.44
431.624	122.44
431.846	199.44
432.068	246.44
432.29	131.44
432.512	103.44
432.734	117.44
432.956	79.44
433.178	99.44
433.4	99.44
433.622	98.44
433.844	92.44
434.066	83.44
434.287	95.44
434.509	79.44
434.731	104.44
434.953	93.44
435.175	88.44
435.397	91.44
435.618	102.44
435.84	91.44
436.062	115.44
436.284	90.44
436.505	86.44
436.727	82.44
436.949	88.44
437.17	93.44
437.392	97.44
437.614	88.44
437.835	97.44
438.057	91.44
438.278	90.44
438.5	106.44
438.721	111.44
438.943	92.44
439.165	89.44
439.386	97.44
439.608	98.44
439.829	89.44
440.05	89.44
440.272	90.44
440.493	94.44
440.715	93.44
440.936	101.44
441.158	99.44
441.379	87.44
441.6	109.44
441.822	82.44
442.043	101.44
442.264	120.44
442.486	207.44
442.707	285.44
442.928	201.44
443.149	167.44
443.371	277.44
443.592	506.44
443.813	430.44
444.034	164.44
444.255	121.44
444.476	101.44
444.698	104.44
444.919	123.44
445.14	231.44
445.361	349.44
445.582	642.44
445.803	516.44
446.024	195.44
446.245	115.44
446.466	103.44
446.687	104.44
446.908	93.44
447.129	82.44
447.35	88.44
447.571	97.44
447.792	95.44
448.013	93.44
448.234	94.44
448.455	86.44
448.675	77.44
448.896	95.44
449.117	89.44
449.338	79.44
449.559	88.44
449.779	90.44
450	88.44
450.221	87.44
450.442	85.44
450.662	85.44
450.883	93.44
451.104	81.44
451.324	81.44
451.545	90.44
451.766	87.44
451.986	88.44
452.207	95.44
452.428	89.44
452.648	86.44
452.869	107.44
453.089	109.44
453.31	93.44
453.53	108.44
453.751	102.44
453.971	97.44
454.192	93.44
454.412	91.44
454.633	77.44
454.853	97.44
455.073	88.44
455.294	86.44
455.514	106.44
455.734	78.44
455.955	88.44
456.175	91.44
456.395	98.44
456.616	89.44
456.836	89.44
457.056	91.44
457.276	91.44
457.497	77.44
457.717	101.44
457.937	131.44
458.157	158.44
458.377	168.44
458.598	152.44
458.818	172.44
459.038	116.44
459.258	101.44
459.478	111.44
459.698	98.44
459.918	92.44
460.138	95.44
460.358	96.44
460.578	124.44
460.798	218.44
461.018	197.44
461.238	92.44
461.458	98.44
461.678	86.44
461.898	111.44
462.118	78.44
462.338	98.44
462.558	89.44
462.777	92.44
462.997	95.44
463.217	95.44
463.437	78.44
463.657	84.44
463.876	86.44
464.096	87.44
464.316	79.44
464.536	96.44
464.755	95.44
464.975	73.44
465.195	96.44
465.414	86.44
465.634	90.44
465.854	91.44
466.073	102.44
466.293	97.44
466.512	92.44
466.732	95.44
466.951	93.44
467.171	99.44
467.391	89.44
467.61	99.44
467.829	95.44
468.049	92.44
468.268	90.44
468.488	97.44
468.707	95.44
468.927	87.44
469.146	101.44
469.365	102.44
469.585	93.44
469.804	92.44
470.023	109.44
470.243	96.44
470.462	103.44
470.681	94.44
470.901	91.44
471.12	91.44
471.339	89.44
471.558	82.44
471.777	100.44
471.997	99.44
472.216	86.44
472.435	87.44
472.654	95.44
472.873	86.44
473.092	94.44
473.311	94.44
473.53	88.44
473.749	108.44
473.968	109.44
474.187	93.44
474.406	90.44
474.625	102.44
474.844	87.44
475.063	78.44
475.282	110.44
475.501	97.44
475.72	89.44
475.939	90.44
476.158	75.44
476.377	90.44
476.596	89.44
476.814	94.44
477.033	81.44
477.252	93.44
477.471	89.44
477.69	96.44
477.908	82.44
478.127	104.44
478.346	104.44
478.564	107.44
478.783	76.44
479.002	90.44
479.22	107.44
479.439	96.44
479.658	99.44
479.876	96.44
480.095	100.44
480.313	93.44
480.532	91.44
480.751	103.44
480.969	93.44
481.188	105.44
481.406	95.44
481.624	116.44
481.843	86.44
482.061	93.44
482.28	100.44
482.498	97.44
482.717	95.44
482.935	101.44
483.153	97.44
483.372	96.44
483.59	90.44
483.808	109.44
484.027	101.44
484.245	84.44
484.463	91.44
484.681	100.44
484.9	102.44
485.118	99.44
485.336	79.44
485.554	104.44
485.772	101.44
485.99	97.44
486.209	101.44
486.427	95.44
486.645	90.44
486.863	84.44
487.081	114.44
487.299	106.44
487.517	113.44
487.735	157.44
487.953	257.44
488.171	222.44
488.389	131.44
488.607	98.44
488.825	103.44
489.043	89.44
489.261	103.44
489.479	103.44
489.696	96.44
489.914	92.44
490.132	105.44
490.35	96.44
490.568	92.44
490.786	97.44
491.003	91.44
491.221	99.44
491.439	102.44
491.657	90.44
491.874	88.44
492.092	102.44
492.31	106.44
492.527	97.44
492.745	85.44
492.963	97.44
493.18	115.44
493.398	95.44
493.615	107.44
493.833	101.44
494.05	96.44
494.268	96.44
494.485	91.44
494.703	102.44
494.92	83.44
495.138	86.44
495.355	87.44
495.573	89.44
495.79	103.44
496.008	99.44
496.225	99.44
496.442	116.44
496.66	96.44
496.877	96.44
497.094	114.44
497.312	103.44
497.529	100.44
497.746	115.44
497.963	97.44
498.181	104.44
498.398	109.44
498.615	100.44
498.832	89.44
499.049	109.44
499.267	110.44
499.484	98.44
499.701	95.44
499.918	94.44
500.135	117.44
500.352	93.44
500.569	90.44
500.786	75.44
501.003	101.44
501.22	92.44
501.437	91.44
501.654	106.44
501.871	97.44
502.088	106.44
502.305	100.44
502.522	101.44
502.739	95.44
502.956	106.44
503.172	101.44
503.389	108.44
503.606	104.44
503.823	106.44
504.04	109.44
504.256	165.44
504.473	194.44
504.69	111.44
504.907	106.44
505.123	94.44
505.34	101.44
505.557	102.44
505.773	83.44
505.99	92.44
506.207	108.44
506.423	104.44
506.64	103.44
506.856	93.44
507.073	107.44
507.289	95.44
507.506	109.44
507.722	97.44
507.939	104.44
508.155	99.44
508.372	95.44
508.588	97.44
508.805	94.44
509.021	94.44
509.238	100.44
509.454	94.44
509.67	98.44
509.887	97.44
510.103	114.44
510.319	117.44
510.536	109.44
510.752	104.44
510.968	109.44
511.184	106.44
511.401	120.44
511.617	103.44
511.833	103.44
512.049	109.44
512.265	103.44
512.481	89.44
512.698	71.44
512.914	90.44
513.13	94.44
513.346	102.44
513.562	111.44
513.778	105.44
513.994	105.44
514.21	86.44
514.426	92.44
514.642	95.44
514.858	93.44
515.074	82.44
