Data from HP_2_HRD10591_00042.txt Node
Date: Mon Jan 19 14:16:22 EST 2026
User: Yrep
Spectrometer: HR+D1059
Trigger mode: 1
Integration Time (sec): 1.000000E-1
Scans to average: 1
Electric dark correction enabled: true
Nonlinearity correction enabled: false
Boxcar width: 0
XAxis mode: Wavelengths
Number of Pixels in Spectrum: 2048
>>>>>Begin Spectral Data<<<<<
223.165	-5.44
223.4	-5.44
223.635	-5.44
223.869	-8.44
224.104	-21.44
224.338	-24.44
224.573	-23.44
224.808	-11.44
225.042	-24.44
225.277	-9.44
225.511	-2.44
225.746	10.56
225.98	14.56
226.215	9.56
226.449	17.56
226.683	36.56
226.918	16.56
227.152	25.56
227.387	29.56
227.621	38.56
227.856	49.56
228.09	50.56
228.324	44.56
228.559	44.56
228.793	51.56
229.027	59.56
229.262	69.56
229.496	60.56
229.73	58.56
229.964	69.56
230.199	63.56
230.433	80.56
230.667	83.56
230.901	72.56
231.136	78.56
231.37	66.56
231.604	70.56
231.838	72.56
232.072	71.56
232.306	78.56
232.541	66.56
232.775	82.56
233.009	62.56
233.243	66.56
233.477	78.56
233.711	66.56
233.945	90.56
234.179	68.56
234.413	82.56
234.647	95.56
234.881	73.56
235.115	64.56
235.349	59.56
235.583	79.56
235.817	74.56
236.051	80.56
236.285	84.56
236.519	66.56
236.753	72.56
236.987	68.56
237.221	77.56
237.455	64.56
237.689	67.56
237.922	64.56
238.156	83.56
238.39	79.56
238.624	76.56
238.858	82.56
239.091	72.56
239.325	72.56
239.559	68.56
239.793	72.56
240.027	73.56
240.26	67.56
240.494	65.56
240.728	59.56
240.961	71.56
241.195	81.56
241.429	68.56
241.662	73.56
241.896	55.56
242.13	76.56
242.363	63.56
242.597	72.56
242.83	68.56
243.064	67.56
243.298	70.56
243.531	63.56
243.765	73.56
243.998	76.56
244.232	83.56
244.465	86.56
244.699	75.56
244.932	79.56
245.166	76.56
245.399	72.56
245.633	70.56
245.866	59.56
246.099	68.56
246.333	64.56
246.566	72.56
246.8	68.56
247.033	65.56
247.266	70.56
247.5	59.56
247.733	80.56
247.966	78.56
248.2	79.56
248.433	79.56
248.666	70.56
248.899	71.56
249.133	83.56
249.366	83.56
249.599	69.56
249.832	80.56
250.066	70.56
250.299	70.56
250.532	89.56
250.765	70.56
250.998	72.56
251.231	67.56
251.465	63.56
251.698	76.56
251.931	91.56
252.164	68.56
252.397	79.56
252.63	65.56
252.863	69.56
253.096	74.56
253.329	81.56
253.562	74.56
253.795	75.56
254.028	72.56
254.261	71.56
254.494	72.56
254.727	75.56
254.96	71.56
255.193	75.56
255.426	79.56
255.659	78.56
255.892	83.56
256.124	70.56
256.357	65.56
256.59	59.56
256.823	80.56
257.056	72.56
257.289	74.56
257.521	77.56
257.754	69.56
257.987	88.56
258.22	84.56
258.452	67.56
258.685	76.56
258.918	83.56
259.151	77.56
259.383	85.56
259.616	79.56
259.849	79.56
260.081	68.56
260.314	85.56
260.547	79.56
260.779	71.56
261.012	72.56
261.244	64.56
261.477	71.56
261.71	63.56
261.942	81.56
262.175	85.56
262.407	72.56
262.64	74.56
262.872	66.56
263.105	60.56
263.337	74.56
263.57	68.56
263.802	72.56
264.035	57.56
264.267	73.56
264.499	69.56
264.732	82.56
264.964	73.56
265.197	83.56
265.429	73.56
265.661	89.56
265.894	84.56
266.126	74.56
266.358	88.56
266.591	72.56
266.823	78.56
267.055	78.56
267.287	86.56
267.52	70.56
267.752	75.56
267.984	78.56
268.216	71.56
268.448	82.56
268.681	78.56
268.913	83.56
269.145	79.56
269.377	78.56
269.609	69.56
269.841	76.56
270.073	82.56
270.306	79.56
270.538	80.56
270.77	76.56
271.002	58.56
271.234	82.56
271.466	79.56
271.698	75.56
271.93	68.56
272.162	80.56
272.394	79.56
272.626	83.56
272.858	87.56
273.09	83.56
273.322	77.56
273.553	87.56
273.785	86.56
274.017	86.56
274.249	84.56
274.481	93.56
274.713	76.56
274.945	90.56
275.176	76.56
275.408	86.56
275.64	74.56
275.872	73.56
276.104	71.56
276.335	86.56
276.567	86.56
276.799	83.56
277.031	72.56
277.262	72.56
277.494	81.56
277.726	82.56
277.957	74.56
278.189	72.56
278.421	72.56
278.652	82.56
278.884	79.56
279.115	85.56
279.347	73.56
279.579	75.56
279.81	78.56
280.042	78.56
280.273	77.56
280.505	83.56
280.736	91.56
280.968	88.56
281.199	92.56
281.431	78.56
281.662	75.56
281.894	69.56
282.125	88.56
282.356	78.56
282.588	73.56
282.819	76.56
283.051	78.56
283.282	80.56
283.513	79.56
283.745	83.56
283.976	83.56
284.207	85.56
284.439	80.56
284.67	78.56
284.901	82.56
285.132	83.56
285.364	65.56
285.595	65.56
285.826	71.56
286.057	87.56
286.288	76.56
286.52	79.56
286.751	81.56
286.982	79.56
287.213	75.56
287.444	83.56
287.675	78.56
287.906	90.56
288.138	77.56
288.369	65.56
288.6	81.56
288.831	68.56
289.062	88.56
289.293	75.56
289.524	82.56
289.755	78.56
289.986	73.56
290.217	79.56
290.448	86.56
290.679	80.56
290.91	68.56
291.141	79.56
291.371	79.56
291.602	78.56
291.833	61.56
292.064	76.56
292.295	82.56
292.526	78.56
292.757	83.56
292.987	82.56
293.218	80.56
293.449	72.56
293.68	68.56
293.91	79.56
294.141	81.56
294.372	77.56
294.603	79.56
294.833	96.56
295.064	85.56
295.295	72.56
295.525	84.56
295.756	83.56
295.987	85.56
296.217	92.56
296.448	96.56
296.679	82.56
296.909	85.56
297.14	65.56
297.37	82.56
297.601	86.56
297.831	91.56
298.062	80.56
298.292	82.56
298.523	78.56
298.753	78.56
298.984	87.56
299.214	86.56
299.445	88.56
299.675	94.56
299.905	90.56
300.136	89.56
300.366	78.56
300.597	88.56
300.827	84.56
301.057	83.56
301.288	66.56
301.518	87.56
301.748	84.56
301.979	88.56
302.209	86.56
302.439	85.56
302.669	82.56
302.9	90.56
303.13	78.56
303.36	83.56
303.59	72.56
303.82	70.56
304.051	90.56
304.281	89.56
304.511	83.56
304.741	82.56
304.971	68.56
305.201	80.56
305.431	80.56
305.661	93.56
305.891	97.56
306.121	83.56
306.352	80.56
306.582	84.56
306.812	78.56
307.042	82.56
307.272	77.56
307.502	76.56
307.731	77.56
307.961	82.56
308.191	88.56
308.421	78.56
308.651	81.56
308.881	71.56
309.111	87.56
309.341	93.56
309.571	85.56
309.8	82.56
310.03	86.56
310.26	79.56
310.49	78.56
310.72	87.56
310.949	84.56
311.179	74.56
311.409	96.56
311.639	81.56
311.868	87.56
312.098	84.56
312.328	89.56
312.557	83.56
312.787	80.56
313.017	87.56
313.246	80.56
313.476	93.56
313.706	88.56
313.935	75.56
314.165	76.56
314.394	76.56
314.624	96.56
314.853	94.56
315.083	78.56
315.312	79.56
315.542	80.56
315.771	86.56
316.001	80.56
316.23	78.56
316.46	79.56
316.689	76.56
316.919	80.56
317.148	82.56
317.377	88.56
317.607	82.56
317.836	87.56
318.065	78.56
318.295	91.56
318.524	82.56
318.753	87.56
318.983	83.56
319.212	83.56
319.441	82.56
319.67	64.56
319.9	76.56
320.129	81.56
320.358	70.56
320.587	89.56
320.816	86.56
321.046	84.56
321.275	83.56
321.504	93.56
321.733	79.56
321.962	72.56
322.191	76.56
322.42	80.56
322.649	81.56
322.878	95.56
323.108	73.56
323.337	69.56
323.566	80.56
323.795	87.56
324.024	78.56
324.253	77.56
324.482	93.56
324.71	74.56
324.939	98.56
325.168	88.56
325.397	87.56
325.626	82.56
325.855	79.56
326.084	84.56
326.313	83.56
326.542	78.56
326.77	84.56
326.999	73.56
327.228	84.56
327.457	83.56
327.686	85.56
327.914	87.56
328.143	94.56
328.372	94.56
328.6	75.56
328.829	87.56
329.058	82.56
329.287	97.56
329.515	78.56
329.744	71.56
329.972	68.56
330.201	88.56
330.43	96.56
330.658	87.56
330.887	96.56
331.115	78.56
331.344	87.56
331.572	83.56
331.801	91.56
332.03	76.56
332.258	70.56
332.486	72.56
332.715	83.56
332.943	76.56
333.172	80.56
333.4	82.56
333.629	87.56
333.857	100.56
334.085	86.56
334.314	89.56
334.542	82.56
334.771	94.56
334.999	73.56
335.227	74.56
335.455	82.56
335.684	73.56
335.912	86.56
336.14	70.56
336.369	84.56
336.597	86.56
336.825	77.56
337.053	90.56
337.281	81.56
337.51	81.56
337.738	104.56
337.966	83.56
338.194	79.56
338.422	80.56
338.65	80.56
338.878	75.56
339.106	78.56
339.334	77.56
339.562	84.56
339.79	92.56
340.018	78.56
340.246	77.56
340.474	92.56
340.702	84.56
340.93	76.56
341.158	85.56
341.386	81.56
341.614	78.56
341.842	91.56
342.07	85.56
342.298	70.56
342.526	80.56
342.754	72.56
342.981	80.56
343.209	89.56
343.437	79.56
343.665	79.56
343.893	84.56
344.12	93.56
344.348	71.56
344.576	85.56
344.804	76.56
345.031	76.56
345.259	85.56
345.487	93.56
345.714	86.56
345.942	96.56
346.17	93.56
346.397	69.56
346.625	82.56
346.853	78.56
347.08	84.56
347.308	79.56
347.535	86.56
347.763	92.56
347.99	83.56
348.218	73.56
348.445	84.56
348.673	85.56
348.9	93.56
349.128	85.56
349.355	80.56
349.583	72.56
349.81	75.56
350.037	74.56
350.265	82.56
350.492	91.56
350.72	84.56
350.947	92.56
351.174	80.56
351.402	82.56
351.629	86.56
351.856	70.56
352.083	78.56
352.311	78.56
352.538	76.56
352.765	88.56
352.992	85.56
353.22	86.56
353.447	92.56
353.674	77.56
353.901	79.56
354.128	78.56
354.355	83.56
354.583	80.56
354.81	81.56
355.037	67.56
355.264	72.56
355.491	79.56
355.718	86.56
355.945	93.56
356.172	78.56
356.399	90.56
356.626	77.56
356.853	90.56
357.08	73.56
357.307	81.56
357.534	69.56
357.761	78.56
357.988	85.56
358.215	89.56
358.441	92.56
358.668	78.56
358.895	78.56
359.122	88.56
359.349	83.56
359.576	75.56
359.802	76.56
360.029	82.56
360.256	79.56
360.483	80.56
360.709	79.56
360.936	88.56
361.163	75.56
361.39	64.56
361.616	72.56
361.843	70.56
362.07	87.56
362.296	82.56
362.523	78.56
362.749	90.56
362.976	92.56
363.203	99.56
363.429	82.56
363.656	83.56
363.882	73.56
364.109	82.56
364.335	96.56
364.562	92.56
364.788	94.56
365.015	72.56
365.241	81.56
365.468	84.56
365.694	76.56
365.92	78.56
366.147	81.56
366.373	75.56
366.599	72.56
366.826	81.56
367.052	74.56
367.278	65.56
367.505	74.56
367.731	85.56
367.957	84.56
368.184	96.56
368.41	71.56
368.636	67.56
368.862	83.56
369.089	92.56
369.315	90.56
369.541	94.56
369.767	73.56
369.993	78.56
370.219	90.56
370.445	80.56
370.672	83.56
370.898	87.56
371.124	73.56
371.35	89.56
371.576	79.56
371.802	82.56
372.028	100.56
372.254	94.56
372.48	81.56
372.706	81.56
372.932	95.56
373.158	86.56
373.384	82.56
373.61	83.56
373.835	80.56
374.061	80.56
374.287	84.56
374.513	76.56
374.739	73.56
374.965	88.56
375.191	84.56
375.416	82.56
375.642	84.56
375.868	75.56
376.094	92.56
376.319	95.56
376.545	80.56
376.771	68.56
376.997	93.56
377.222	76.56
377.448	76.56
377.674	81.56
377.899	73.56
378.125	82.56
378.35	84.56
378.576	76.56
378.802	86.56
379.027	74.56
379.253	81.56
379.478	65.56
379.704	71.56
379.929	82.56
380.155	76.56
380.38	104.56
380.606	80.56
380.831	79.56
381.057	106.56
381.282	81.56
381.507	69.56
381.733	71.56
381.958	80.56
382.184	71.56
382.409	88.56
382.634	77.56
382.86	82.56
383.085	86.56
383.31	90.56
383.535	79.56
383.761	86.56
383.986	94.56
384.211	70.56
384.436	84.56
384.662	86.56
384.887	62.56
385.112	82.56
385.337	85.56
385.562	65.56
385.787	67.56
386.013	75.56
386.238	82.56
386.463	90.56
386.688	106.56
386.913	87.56
387.138	82.56
387.363	86.56
387.588	90.56
387.813	86.56
388.038	81.56
388.263	87.56
388.488	85.56
388.713	72.56
388.938	78.56
389.163	88.56
389.387	88.56
389.612	83.56
389.837	91.56
390.062	84.56
390.287	87.56
390.512	80.56
390.736	68.56
390.961	94.56
391.186	88.56
391.411	83.56
391.636	90.56
391.86	88.56
392.085	79.56
392.31	76.56
392.534	78.56
392.759	67.56
392.984	89.56
393.208	119.56
393.433	142.56
393.658	124.56
393.882	84.56
394.107	90.56
394.331	91.56
394.556	99.56
394.78	71.56
395.005	82.56
395.229	80.56
395.454	84.56
395.678	88.56
395.903	91.56
396.127	100.56
396.352	122.56
396.576	112.56
396.801	120.56
397.025	133.56
397.249	101.56
397.474	88.56
397.698	80.56
397.922	94.56
398.147	82.56
398.371	78.56
398.595	90.56
398.82	76.56
399.044	87.56
399.268	82.56
399.492	84.56
399.717	85.56
399.941	87.56
400.165	75.56
400.389	82.56
400.613	80.56
400.837	71.56
401.062	65.56
401.286	91.56
401.51	83.56
401.734	83.56
401.958	87.56
402.182	77.56
402.406	82.56
402.63	80.56
402.854	72.56
403.078	70.56
403.302	76.56
403.526	90.56
403.75	99.56
403.974	86.56
404.198	96.56
404.422	107.56
404.645	114.56
404.869	109.56
405.093	95.56
405.317	78.56
405.541	78.56
405.765	76.56
405.988	88.56
406.212	78.56
406.436	88.56
406.66	76.56
406.883	62.56
407.107	65.56
407.331	76.56
407.555	83.56
407.778	96.56
408.002	88.56
408.226	85.56
408.449	80.56
408.673	72.56
408.896	68.56
409.12	78.56
409.344	88.56
409.567	85.56
409.791	101.56
410.014	78.56
410.238	76.56
410.461	82.56
410.685	75.56
410.908	75.56
411.132	77.56
411.355	63.56
411.578	76.56
411.802	81.56
412.025	90.56
412.249	80.56
412.472	78.56
412.695	81.56
412.919	87.56
413.142	86.56
413.365	63.56
413.589	68.56
413.812	84.56
414.035	84.56
414.258	93.56
414.482	80.56
414.705	83.56
414.928	78.56
415.151	83.56
415.374	71.56
415.597	89.56
415.821	78.56
416.044	76.56
416.267	78.56
416.49	72.56
416.713	80.56
416.936	80.56
417.159	92.56
417.382	79.56
417.605	79.56
417.828	71.56
418.051	82.56
418.274	90.56
418.497	75.56
418.72	84.56
418.943	65.56
419.166	91.56
419.389	69.56
419.611	81.56
419.834	82.56
420.057	75.56
420.28	83.56
420.503	95.56
420.726	74.56
420.948	59.56
421.171	76.56
421.394	78.56
421.617	93.56
421.839	98.56
422.062	101.56
422.285	111.56
422.507	162.56
422.73	212.56
422.953	213.56
423.175	131.56
423.398	108.56
423.621	86.56
423.843	93.56
424.066	85.56
424.288	90.56
424.511	74.56
424.733	83.56
424.956	97.56
425.178	70.56
425.401	67.56
425.623	86.56
425.846	83.56
426.068	72.56
426.291	83.56
426.513	85.56
426.735	72.56
426.958	78.56
427.18	68.56
427.402	78.56
427.625	74.56
427.847	80.56
428.069	85.56
428.292	98.56
428.514	96.56
428.736	82.56
428.958	110.56
429.181	93.56
429.403	78.56
429.625	86.56
429.847	97.56
430.069	110.56
430.292	135.56
430.514	117.56
430.736	94.56
430.958	94.56
431.18	83.56
431.402	83.56
431.624	86.56
431.846	98.56
432.068	118.56
432.29	83.56
432.512	78.56
432.734	64.56
432.956	75.56
433.178	75.56
433.4	80.56
433.622	80.56
433.844	75.56
434.066	88.56
434.287	86.56
434.509	83.56
434.731	76.56
434.953	82.56
435.175	77.56
435.397	93.56
435.618	84.56
435.84	82.56
436.062	60.56
436.284	66.56
436.505	82.56
436.727	77.56
436.949	85.56
437.17	81.56
437.392	76.56
437.614	88.56
437.835	71.56
438.057	72.56
438.278	84.56
438.5	73.56
438.721	77.56
438.943	83.56
439.165	96.56
439.386	81.56
439.608	76.56
439.829	70.56
440.05	79.56
440.272	86.56
440.493	83.56
440.715	85.56
440.936	80.56
441.158	76.56
441.379	64.56
441.6	76.56
441.822	78.56
442.043	67.56
442.264	82.56
442.486	92.56
442.707	112.56
442.928	111.56
443.149	90.56
443.371	114.56
443.592	149.56
443.813	140.56
444.034	78.56
444.255	78.56
444.476	94.56
444.698	97.56
444.919	78.56
445.14	154.56
445.361	156.56
445.582	174.56
445.803	144.56
446.024	91.56
446.245	69.56
446.466	80.56
446.687	76.56
446.908	70.56
447.129	81.56
447.35	66.56
447.571	90.56
447.792	73.56
448.013	64.56
448.234	82.56
448.455	84.56
448.675	85.56
448.896	66.56
449.117	83.56
449.338	72.56
449.559	76.56
449.779	83.56
450	64.56
450.221	79.56
450.442	85.56
450.662	77.56
450.883	59.56
451.104	81.56
451.324	76.56
451.545	85.56
451.766	76.56
451.986	69.56
452.207	74.56
452.428	64.56
452.648	85.56
452.869	83.56
453.089	82.56
453.31	91.56
453.53	83.56
453.751	89.56
453.971	76.56
454.192	84.56
454.412	70.56
454.633	87.56
454.853	68.56
455.073	86.56
455.294	88.56
455.514	87.56
455.734	61.56
455.955	69.56
456.175	80.56
456.395	86.56
456.616	90.56
456.836	70.56
457.056	80.56
457.276	71.56
457.497	71.56
457.717	78.56
457.937	80.56
458.157	74.56
458.377	88.56
458.598	87.56
458.818	94.56
459.038	95.56
459.258	81.56
459.478	70.56
459.698	58.56
459.918	77.56
460.138	86.56
460.358	92.56
460.578	86.56
460.798	86.56
461.018	86.56
461.238	79.56
461.458	72.56
461.678	76.56
461.898	78.56
462.118	84.56
462.338	85.56
462.558	86.56
462.777	68.56
462.997	66.56
463.217	83.56
463.437	62.56
463.657	64.56
463.876	86.56
464.096	71.56
464.316	85.56
464.536	79.56
464.755	83.56
464.975	72.56
465.195	66.56
465.414	68.56
465.634	90.56
465.854	73.56
466.073	68.56
466.293	78.56
466.512	69.56
466.732	86.56
466.951	68.56
467.171	87.56
467.391	77.56
467.61	82.56
467.829	71.56
468.049	81.56
468.268	68.56
468.488	82.56
468.707	79.56
468.927	70.56
469.146	84.56
469.365	78.56
469.585	85.56
469.804	75.56
470.023	67.56
470.243	73.56
470.462	65.56
470.681	83.56
470.901	62.56
471.12	76.56
471.339	78.56
471.558	68.56
471.777	86.56
471.997	73.56
472.216	78.56
472.435	84.56
472.654	76.56
472.873	95.56
473.092	82.56
473.311	76.56
473.53	71.56
473.749	89.56
473.968	84.56
474.187	87.56
474.406	79.56
474.625	81.56
474.844	88.56
475.063	91.56
475.282	80.56
475.501	79.56
475.72	87.56
475.939	80.56
476.158	87.56
476.377	88.56
476.596	73.56
476.814	75.56
477.033	75.56
477.252	79.56
477.471	71.56
477.69	67.56
477.908	93.56
478.127	80.56
478.346	65.56
478.564	85.56
478.783	82.56
479.002	78.56
479.22	66.56
479.439	82.56
479.658	84.56
479.876	76.56
480.095	80.56
480.313	90.56
480.532	72.56
480.751	84.56
480.969	80.56
481.188	89.56
481.406	81.56
481.624	90.56
481.843	70.56
482.061	69.56
482.28	82.56
482.498	80.56
482.717	78.56
482.935	75.56
483.153	77.56
483.372	75.56
483.59	83.56
483.808	78.56
484.027	77.56
484.245	71.56
484.463	86.56
484.681	94.56
484.9	85.56
485.118	82.56
485.336	83.56
485.554	85.56
485.772	81.56
485.99	63.56
486.209	78.56
486.427	78.56
486.645	72.56
486.863	76.56
487.081	79.56
487.299	87.56
487.517	78.56
487.735	91.56
487.953	96.56
488.171	97.56
488.389	85.56
488.607	71.56
488.825	78.56
489.043	78.56
489.261	82.56
489.479	83.56
489.696	63.56
489.914	83.56
490.132	71.56
490.35	84.56
490.568	78.56
490.786	77.56
491.003	82.56
491.221	93.56
491.439	85.56
491.657	69.56
491.874	86.56
492.092	84.56
492.31	91.56
492.527	74.56
492.745	92.56
492.963	96.56
493.18	96.56
493.398	87.56
493.615	75.56
493.833	78.56
494.05	86.56
494.268	77.56
494.485	78.56
494.703	76.56
494.92	72.56
495.138	69.56
495.355	76.56
495.573	82.56
495.79	90.56
496.008	96.56
496.225	82.56
496.442	101.56
496.66	86.56
496.877	86.56
497.094	98.56
497.312	63.56
497.529	82.56
497.746	81.56
497.963	75.56
498.181	77.56
498.398	100.56
498.615	55.56
498.832	72.56
499.049	78.56
499.267	87.56
499.484	70.56
499.701	89.56
499.918	86.56
500.135	96.56
500.352	92.56
500.569	86.56
500.786	92.56
501.003	76.56
501.22	93.56
501.437	72.56
501.654	90.56
501.871	76.56
502.088	85.56
502.305	73.56
502.522	82.56
502.739	92.56
502.956	88.56
503.172	89.56
503.389	77.56
503.606	81.56
503.823	89.56
504.04	96.56
504.256	95.56
504.473	91.56
504.69	83.56
504.907	75.56
505.123	79.56
505.34	82.56
505.557	66.56
505.773	68.56
505.99	63.56
506.207	84.56
506.423	79.56
506.64	82.56
506.856	82.56
507.073	70.56
507.289	66.56
507.506	76.56
507.722	66.56
507.939	86.56
508.155	71.56
508.372	73.56
508.588	88.56
508.805	91.56
509.021	82.56
509.238	78.56
509.454	84.56
509.67	79.56
509.887	96.56
510.103	79.56
510.319	66.56
510.536	83.56
510.752	69.56
510.968	86.56
511.184	83.56
511.401	72.56
511.617	86.56
511.833	81.56
512.049	75.56
512.265	84.56
512.481	85.56
512.698	73.56
512.914	86.56
513.13	81.56
513.346	84.56
513.562	83.56
513.778	72.56
513.994	72.56
514.21	84.56
514.426	88.56
514.642	71.56
514.858	93.56
515.074	89.56
515.29	76.56
515.506	83.56
515.721	56.56
515.937	89.56
516.153	77.56
516.369	83.56
516.585	71.56
516.801	87.56
517.016	79.56
517.232	80.56
517.448	94.56
517.664	101.56
517.879	83.56
518.095	94.56
518.311	84.56
518.527	76.56
518.742	92.56
518.958	83.56
519.173	101.56
519.389	82.56
519.605	76.56
519.82	79.56
