Data from HP_2_HRD10591_00012.txt Node
Date: Mon Jan 19 14:16:07 EST 2026
User: Yrep
Spectrometer: HR+D1059
Trigger mode: 1
Integration Time (sec): 1.000000E-1
Scans to average: 1
Electric dark correction enabled: true
Nonlinearity correction enabled: false
Boxcar width: 0
XAxis mode: Wavelengths
Number of Pixels in Spectrum: 2048
>>>>>Begin Spectral Data<<<<<
223.165	-14.56
223.4	-14.56
223.635	-14.56
223.869	-16.56
224.104	-30.56
224.338	-13.56
224.573	-10.56
224.808	-3.56
225.042	-4.56
225.277	-12.56
225.511	3.44
225.746	-1.56
225.98	19.44
226.215	16.44
226.449	7.44
226.683	4.44
226.918	23.44
227.152	33.44
227.387	29.44
227.621	42.44
227.856	40.44
228.09	48.44
228.324	52.44
228.559	42.44
228.793	51.44
229.027	49.44
229.262	75.44
229.496	63.44
229.73	63.44
229.964	73.44
230.199	74.44
230.433	75.44
230.667	79.44
230.901	79.44
231.136	78.44
231.37	74.44
231.604	83.44
231.838	75.44
232.072	84.44
232.306	94.44
232.541	82.44
232.775	89.44
233.009	76.44
233.243	83.44
233.477	73.44
233.711	80.44
233.945	78.44
234.179	77.44
234.413	81.44
234.647	87.44
234.881	68.44
235.115	83.44
235.349	75.44
235.583	77.44
235.817	90.44
236.051	68.44
236.285	90.44
236.519	91.44
236.753	60.44
236.987	85.44
237.221	67.44
237.455	61.44
237.689	80.44
237.922	76.44
238.156	72.44
238.39	70.44
238.624	69.44
238.858	79.44
239.091	69.44
239.325	75.44
239.559	67.44
239.793	67.44
240.027	72.44
240.26	76.44
240.494	78.44
240.728	71.44
240.961	86.44
241.195	81.44
241.429	78.44
241.662	75.44
241.896	68.44
242.13	69.44
242.363	83.44
242.597	81.44
242.83	77.44
243.064	73.44
243.298	73.44
243.531	77.44
243.765	72.44
243.998	67.44
244.232	75.44
244.465	80.44
244.699	76.44
244.932	75.44
245.166	63.44
245.399	69.44
245.633	76.44
245.866	61.44
246.099	83.44
246.333	79.44
246.566	83.44
246.8	79.44
247.033	85.44
247.266	83.44
247.5	80.44
247.733	85.44
247.966	76.44
248.2	76.44
248.433	69.44
248.666	64.44
248.899	80.44
249.133	83.44
249.366	80.44
249.599	90.44
249.832	60.44
250.066	67.44
250.299	69.44
250.532	80.44
250.765	87.44
250.998	83.44
251.231	68.44
251.465	91.44
251.698	72.44
251.931	74.44
252.164	78.44
252.397	81.44
252.63	70.44
252.863	85.44
253.096	97.44
253.329	90.44
253.562	83.44
253.795	75.44
254.028	72.44
254.261	66.44
254.494	76.44
254.727	100.44
254.96	75.44
255.193	70.44
255.426	73.44
255.659	81.44
255.892	83.44
256.124	81.44
256.357	82.44
256.59	83.44
256.823	81.44
257.056	89.44
257.289	94.44
257.521	83.44
257.754	78.44
257.987	73.44
258.22	84.44
258.452	81.44
258.685	80.44
258.918	66.44
259.151	85.44
259.383	69.44
259.616	88.44
259.849	76.44
260.081	84.44
260.314	76.44
260.547	75.44
260.779	84.44
261.012	74.44
261.244	80.44
261.477	75.44
261.71	87.44
261.942	81.44
262.175	77.44
262.407	67.44
262.64	75.44
262.872	69.44
263.105	81.44
263.337	89.44
263.57	84.44
263.802	73.44
264.035	88.44
264.267	85.44
264.499	83.44
264.732	72.44
264.964	89.44
265.197	89.44
265.429	70.44
265.661	87.44
265.894	87.44
266.126	92.44
266.358	89.44
266.591	76.44
266.823	73.44
267.055	72.44
267.287	94.44
267.52	87.44
267.752	83.44
267.984	87.44
268.216	105.44
268.448	72.44
268.681	82.44
268.913	78.44
269.145	88.44
269.377	77.44
269.609	75.44
269.841	84.44
270.073	81.44
270.306	91.44
270.538	95.44
270.77	68.44
271.002	76.44
271.234	74.44
271.466	84.44
271.698	83.44
271.93	84.44
272.162	87.44
272.394	93.44
272.626	95.44
272.858	75.44
273.09	90.44
273.322	88.44
273.553	83.44
273.785	85.44
274.017	78.44
274.249	89.44
274.481	79.44
274.713	81.44
274.945	82.44
275.176	83.44
275.408	96.44
275.64	93.44
275.872	90.44
276.104	77.44
276.335	79.44
276.567	95.44
276.799	89.44
277.031	86.44
277.262	85.44
277.494	83.44
277.726	78.44
277.957	81.44
278.189	78.44
278.421	87.44
278.652	87.44
278.884	93.44
279.115	88.44
279.347	88.44
279.579	79.44
279.81	72.44
280.042	81.44
280.273	86.44
280.505	72.44
280.736	91.44
280.968	80.44
281.199	85.44
281.431	88.44
281.662	86.44
281.894	100.44
282.125	69.44
282.356	77.44
282.588	75.44
282.819	81.44
283.051	90.44
283.282	98.44
283.513	89.44
283.745	88.44
283.976	93.44
284.207	75.44
284.439	89.44
284.67	91.44
284.901	85.44
285.132	87.44
285.364	76.44
285.595	93.44
285.826	90.44
286.057	75.44
286.288	81.44
286.52	88.44
286.751	77.44
286.982	85.44
287.213	83.44
287.444	88.44
287.675	67.44
287.906	77.44
288.138	80.44
288.369	83.44
288.6	79.44
288.831	77.44
289.062	86.44
289.293	91.44
289.524	77.44
289.755	82.44
289.986	68.44
290.217	70.44
290.448	84.44
290.679	83.44
290.91	83.44
291.141	89.44
291.371	84.44
291.602	79.44
291.833	83.44
292.064	82.44
292.295	98.44
292.526	96.44
292.757	68.44
292.987	82.44
293.218	70.44
293.449	71.44
293.68	76.44
293.91	84.44
294.141	94.44
294.372	93.44
294.603	83.44
294.833	78.44
295.064	87.44
295.295	84.44
295.525	84.44
295.756	76.44
295.987	93.44
296.217	77.44
296.448	80.44
296.679	96.44
296.909	101.44
297.14	104.44
297.37	87.44
297.601	73.44
297.831	83.44
298.062	81.44
298.292	87.44
298.523	89.44
298.753	69.44
298.984	91.44
299.214	81.44
299.445	88.44
299.675	84.44
299.905	85.44
300.136	91.44
300.366	79.44
300.597	101.44
300.827	92.44
301.057	88.44
301.288	97.44
301.518	88.44
301.748	77.44
301.979	95.44
302.209	73.44
302.439	78.44
302.669	91.44
302.9	84.44
303.13	86.44
303.36	85.44
303.59	87.44
303.82	87.44
304.051	87.44
304.281	82.44
304.511	79.44
304.741	97.44
304.971	80.44
305.201	89.44
305.431	80.44
305.661	92.44
305.891	91.44
306.121	98.44
306.352	82.44
306.582	75.44
306.812	80.44
307.042	73.44
307.272	84.44
307.502	71.44
307.731	87.44
307.961	77.44
308.191	99.44
308.421	86.44
308.651	98.44
308.881	91.44
309.111	83.44
309.341	93.44
309.571	77.44
309.8	79.44
310.03	91.44
310.26	87.44
310.49	76.44
310.72	97.44
310.949	88.44
311.179	78.44
311.409	81.44
311.639	91.44
311.868	73.44
312.098	87.44
312.328	83.44
312.557	89.44
312.787	82.44
313.017	83.44
313.246	80.44
313.476	85.44
313.706	76.44
313.935	65.44
314.165	74.44
314.394	103.44
314.624	77.44
314.853	81.44
315.083	89.44
315.312	90.44
315.542	84.44
315.771	82.44
316.001	94.44
316.23	96.44
316.46	92.44
316.689	81.44
316.919	75.44
317.148	89.44
317.377	77.44
317.607	90.44
317.836	87.44
318.065	78.44
318.295	74.44
318.524	90.44
318.753	84.44
318.983	86.44
319.212	92.44
319.441	78.44
319.67	74.44
319.9	88.44
320.129	87.44
320.358	75.44
320.587	73.44
320.816	78.44
321.046	75.44
321.275	90.44
321.504	70.44
321.733	97.44
321.962	83.44
322.191	82.44
322.42	81.44
322.649	76.44
322.878	81.44
323.108	95.44
323.337	91.44
323.566	82.44
323.795	78.44
324.024	84.44
324.253	90.44
324.482	89.44
324.71	81.44
324.939	86.44
325.168	89.44
325.397	93.44
325.626	89.44
325.855	80.44
326.084	71.44
326.313	97.44
326.542	92.44
326.77	78.44
326.999	89.44
327.228	76.44
327.457	74.44
327.686	98.44
327.914	100.44
328.143	99.44
328.372	77.44
328.6	81.44
328.829	89.44
329.058	77.44
329.287	73.44
329.515	87.44
329.744	86.44
329.972	87.44
330.201	94.44
330.43	88.44
330.658	81.44
330.887	87.44
331.115	92.44
331.344	88.44
331.572	79.44
331.801	83.44
332.03	78.44
332.258	75.44
332.486	74.44
332.715	78.44
332.943	96.44
333.172	95.44
333.4	87.44
333.629	81.44
333.857	79.44
334.085	90.44
334.314	77.44
334.542	84.44
334.771	77.44
334.999	84.44
335.227	85.44
335.455	78.44
335.684	90.44
335.912	91.44
336.14	88.44
336.369	68.44
336.597	77.44
336.825	80.44
337.053	75.44
337.281	90.44
337.51	87.44
337.738	76.44
337.966	78.44
338.194	92.44
338.422	79.44
338.65	81.44
338.878	89.44
339.106	83.44
339.334	89.44
339.562	87.44
339.79	87.44
340.018	75.44
340.246	86.44
340.474	77.44
340.702	93.44
340.93	67.44
341.158	78.44
341.386	92.44
341.614	97.44
341.842	69.44
342.07	85.44
342.298	92.44
342.526	86.44
342.754	76.44
342.981	75.44
343.209	83.44
343.437	107.44
343.665	89.44
343.893	93.44
344.12	87.44
344.348	88.44
344.576	86.44
344.804	77.44
345.031	81.44
345.259	82.44
345.487	77.44
345.714	80.44
345.942	69.44
346.17	77.44
346.397	84.44
346.625	79.44
346.853	77.44
347.08	87.44
347.308	92.44
347.535	83.44
347.763	87.44
347.99	91.44
348.218	87.44
348.445	76.44
348.673	77.44
348.9	76.44
349.128	88.44
349.355	97.44
349.583	84.44
349.81	95.44
350.037	71.44
350.265	80.44
350.492	81.44
350.72	86.44
350.947	78.44
351.174	72.44
351.402	81.44
351.629	74.44
351.856	99.44
352.083	92.44
352.311	85.44
352.538	74.44
352.765	73.44
352.992	83.44
353.22	80.44
353.447	78.44
353.674	76.44
353.901	83.44
354.128	87.44
354.355	92.44
354.583	83.44
354.81	83.44
355.037	92.44
355.264	88.44
355.491	83.44
355.718	82.44
355.945	71.44
356.172	87.44
356.399	80.44
356.626	86.44
356.853	87.44
357.08	97.44
357.307	77.44
357.534	87.44
357.761	95.44
357.988	85.44
358.215	90.44
358.441	96.44
358.668	100.44
358.895	85.44
359.122	91.44
359.349	82.44
359.576	65.44
359.802	87.44
360.029	61.44
360.256	89.44
360.483	84.44
360.709	87.44
360.936	85.44
361.163	80.44
361.39	91.44
361.616	87.44
361.843	88.44
362.07	89.44
362.296	83.44
362.523	88.44
362.749	97.44
362.976	98.44
363.203	100.44
363.429	94.44
363.656	96.44
363.882	89.44
364.109	111.44
364.335	97.44
364.562	100.44
364.788	106.44
365.015	75.44
365.241	82.44
365.468	91.44
365.694	79.44
365.92	84.44
366.147	87.44
366.373	75.44
366.599	96.44
366.826	83.44
367.052	76.44
367.278	82.44
367.505	84.44
367.731	79.44
367.957	84.44
368.184	88.44
368.41	75.44
368.636	76.44
368.862	81.44
369.089	76.44
369.315	88.44
369.541	86.44
369.767	100.44
369.993	96.44
370.219	76.44
370.445	96.44
370.672	83.44
370.898	100.44
371.124	89.44
371.35	86.44
371.576	76.44
371.802	87.44
372.028	77.44
372.254	87.44
372.48	85.44
372.706	88.44
372.932	89.44
373.158	89.44
373.384	86.44
373.61	85.44
373.835	98.44
374.061	85.44
374.287	92.44
374.513	88.44
374.739	92.44
374.965	94.44
375.191	89.44
375.416	90.44
375.642	92.44
375.868	93.44
376.094	94.44
376.319	76.44
376.545	72.44
376.771	75.44
376.997	87.44
377.222	90.44
377.448	80.44
377.674	81.44
377.899	91.44
378.125	76.44
378.35	77.44
378.576	89.44
378.802	92.44
379.027	103.44
379.253	78.44
379.478	78.44
379.704	90.44
379.929	64.44
380.155	84.44
380.38	83.44
380.606	87.44
380.831	87.44
381.057	89.44
381.282	87.44
381.507	86.44
381.733	79.44
381.958	80.44
382.184	78.44
382.409	86.44
382.634	70.44
382.86	92.44
383.085	97.44
383.31	99.44
383.535	82.44
383.761	56.44
383.986	85.44
384.211	83.44
384.436	88.44
384.662	74.44
384.887	77.44
385.112	90.44
385.337	99.44
385.562	91.44
385.787	91.44
386.013	98.44
386.238	91.44
386.463	88.44
386.688	106.44
386.913	76.44
387.138	98.44
387.363	92.44
387.588	81.44
387.813	76.44
388.038	78.44
388.263	96.44
388.488	84.44
388.713	85.44
388.938	92.44
389.163	75.44
389.387	91.44
389.612	80.44
389.837	88.44
390.062	86.44
390.287	91.44
390.512	77.44
390.736	103.44
390.961	73.44
391.186	101.44
391.411	88.44
391.636	77.44
391.86	88.44
392.085	85.44
392.31	91.44
392.534	86.44
392.759	109.44
392.984	113.44
393.208	146.44
393.433	194.44
393.658	178.44
393.882	115.44
394.107	107.44
394.331	104.44
394.556	109.44
394.78	102.44
395.005	84.44
395.229	83.44
395.454	93.44
395.678	84.44
395.903	106.44
396.127	122.44
396.352	124.44
396.576	123.44
396.801	162.44
397.025	182.44
397.249	121.44
397.474	109.44
397.698	91.44
397.922	86.44
398.147	83.44
398.371	74.44
398.595	99.44
398.82	100.44
399.044	91.44
399.268	77.44
399.492	85.44
399.717	80.44
399.941	92.44
400.165	85.44
400.389	91.44
400.613	88.44
400.837	73.44
401.062	79.44
401.286	78.44
401.51	88.44
401.734	80.44
401.958	100.44
402.182	91.44
402.406	98.44
402.63	78.44
402.854	82.44
403.078	76.44
403.302	92.44
403.526	91.44
403.75	82.44
403.974	99.44
404.198	108.44
404.422	141.44
404.645	164.44
404.869	146.44
405.093	118.44
405.317	93.44
405.541	93.44
405.765	87.44
405.988	82.44
406.212	90.44
406.436	76.44
406.66	75.44
406.883	90.44
407.107	95.44
407.331	80.44
407.555	86.44
407.778	96.44
408.002	90.44
408.226	91.44
408.449	82.44
408.673	78.44
408.896	78.44
409.12	80.44
409.344	73.44
409.567	92.44
409.791	83.44
410.014	79.44
410.238	76.44
410.461	88.44
410.685	80.44
410.908	82.44
411.132	99.44
411.355	88.44
411.578	93.44
411.802	98.44
412.025	75.44
412.249	85.44
412.472	77.44
412.695	74.44
412.919	77.44
413.142	83.44
413.365	96.44
413.589	84.44
413.812	81.44
414.035	86.44
414.258	79.44
414.482	82.44
414.705	77.44
414.928	77.44
415.151	84.44
415.374	93.44
415.597	91.44
415.821	84.44
416.044	89.44
416.267	77.44
416.49	91.44
416.713	97.44
416.936	77.44
417.159	80.44
417.382	77.44
417.605	74.44
417.828	86.44
418.051	81.44
418.274	93.44
418.497	75.44
418.72	87.44
418.943	77.44
419.166	80.44
419.389	87.44
419.611	80.44
419.834	87.44
420.057	87.44
420.28	76.44
420.503	84.44
420.726	83.44
420.948	94.44
421.171	89.44
421.394	94.44
421.617	105.44
421.839	106.44
422.062	116.44
422.285	150.44
422.507	213.44
422.73	294.44
422.953	275.44
423.175	164.44
423.398	125.44
423.621	103.44
423.843	96.44
424.066	81.44
424.288	86.44
424.511	79.44
424.733	75.44
424.956	91.44
425.178	76.44
425.401	81.44
425.623	84.44
425.846	66.44
426.068	87.44
426.291	83.44
426.513	91.44
426.735	87.44
426.958	74.44
427.18	95.44
427.402	83.44
427.625	86.44
427.847	81.44
428.069	95.44
428.292	117.44
428.514	129.44
428.736	97.44
428.958	121.44
429.181	114.44
429.403	95.44
429.625	77.44
429.847	117.44
430.069	129.44
430.292	147.44
430.514	132.44
430.736	117.44
430.958	119.44
431.18	91.44
431.402	107.44
431.624	91.44
431.846	113.44
432.068	120.44
432.29	93.44
432.512	91.44
432.734	82.44
432.956	76.44
433.178	83.44
433.4	73.44
433.622	88.44
433.844	88.44
434.066	78.44
434.287	69.44
434.509	78.44
434.731	85.44
434.953	92.44
435.175	82.44
435.397	77.44
435.618	83.44
435.84	95.44
436.062	82.44
436.284	88.44
436.505	87.44
436.727	75.44
436.949	83.44
437.17	83.44
437.392	76.44
437.614	85.44
437.835	95.44
438.057	89.44
438.278	76.44
438.5	80.44
438.721	103.44
438.943	79.44
439.165	68.44
439.386	88.44
439.608	98.44
439.829	83.44
440.05	81.44
440.272	82.44
440.493	68.44
440.715	79.44
440.936	84.44
441.158	85.44
441.379	89.44
441.6	85.44
441.822	92.44
442.043	84.44
442.264	95.44
442.486	115.44
442.707	139.44
442.928	120.44
443.149	106.44
443.371	125.44
443.592	209.44
443.813	179.44
444.034	113.44
444.255	99.44
444.476	91.44
444.698	100.44
444.919	87.44
445.14	197.44
445.361	186.44
445.582	220.44
445.803	196.44
446.024	103.44
446.245	85.44
446.466	84.44
446.687	83.44
446.908	80.44
447.129	96.44
447.35	93.44
447.571	101.44
447.792	90.44
448.013	71.44
448.234	84.44
448.455	94.44
448.675	84.44
448.896	72.44
449.117	77.44
449.338	77.44
449.559	77.44
449.779	95.44
450	99.44
450.221	81.44
450.442	76.44
450.662	77.44
450.883	76.44
451.104	86.44
451.324	96.44
451.545	93.44
451.766	74.44
451.986	83.44
452.207	94.44
452.428	84.44
452.648	87.44
452.869	88.44
453.089	93.44
453.31	77.44
453.53	86.44
453.751	91.44
453.971	72.44
454.192	68.44
454.412	87.44
454.633	95.44
454.853	81.44
455.073	95.44
455.294	68.44
455.514	74.44
455.734	76.44
455.955	84.44
456.175	81.44
456.395	91.44
456.616	69.44
456.836	78.44
457.056	81.44
457.276	87.44
457.497	78.44
457.717	86.44
457.937	78.44
458.157	100.44
458.377	108.44
458.598	97.44
458.818	117.44
459.038	87.44
459.258	78.44
459.478	90.44
459.698	83.44
459.918	83.44
460.138	66.44
460.358	87.44
460.578	90.44
460.798	103.44
461.018	124.44
461.238	89.44
461.458	73.44
461.678	80.44
461.898	96.44
462.118	83.44
462.338	89.44
462.558	79.44
462.777	92.44
462.997	84.44
463.217	82.44
463.437	83.44
463.657	84.44
463.876	85.44
464.096	93.44
464.316	83.44
464.536	83.44
464.755	82.44
464.975	85.44
465.195	77.44
465.414	87.44
465.634	83.44
465.854	95.44
466.073	78.44
466.293	85.44
466.512	83.44
466.732	96.44
466.951	91.44
467.171	92.44
467.391	93.44
467.61	68.44
467.829	87.44
468.049	98.44
468.268	94.44
468.488	74.44
468.707	89.44
468.927	67.44
469.146	83.44
469.365	86.44
469.585	74.44
469.804	72.44
470.023	72.44
470.243	84.44
470.462	92.44
470.681	94.44
470.901	92.44
471.12	78.44
471.339	75.44
471.558	83.44
471.777	97.44
471.997	83.44
472.216	93.44
472.435	87.44
472.654	82.44
472.873	97.44
473.092	93.44
473.311	91.44
473.53	96.44
473.749	100.44
473.968	93.44
474.187	83.44
474.406	84.44
474.625	101.44
474.844	76.44
475.063	78.44
475.282	87.44
475.501	78.44
475.72	93.44
475.939	93.44
476.158	66.44
476.377	85.44
476.596	81.44
476.814	84.44
477.033	79.44
477.252	86.44
477.471	84.44
477.69	85.44
477.908	71.44
478.127	100.44
478.346	89.44
478.564	94.44
478.783	77.44
479.002	71.44
479.22	80.44
479.439	80.44
479.658	81.44
479.876	90.44
480.095	80.44
480.313	76.44
480.532	75.44
480.751	85.44
480.969	92.44
481.188	95.44
481.406	89.44
481.624	78.44
481.843	94.44
482.061	82.44
482.28	91.44
482.498	101.44
482.717	93.44
482.935	90.44
483.153	106.44
483.372	91.44
483.59	88.44
483.808	86.44
484.027	89.44
484.245	88.44
484.463	93.44
484.681	95.44
484.9	89.44
485.118	81.44
485.336	91.44
485.554	82.44
485.772	101.44
485.99	78.44
486.209	98.44
486.427	83.44
486.645	92.44
486.863	92.44
487.081	93.44
487.299	88.44
487.517	84.44
487.735	109.44
487.953	116.44
488.171	118.44
488.389	94.44
488.607	92.44
488.825	98.44
489.043	77.44
489.261	89.44
489.479	93.44
489.696	88.44
489.914	78.44
490.132	95.44
490.35	88.44
490.568	84.44
490.786	92.44
491.003	69.44
491.221	89.44
491.439	91.44
491.657	102.44
491.874	93.44
492.092	75.44
492.31	89.44
492.527	86.44
492.745	78.44
492.963	89.44
493.18	86.44
493.398	95.44
493.615	95.44
493.833	87.44
494.05	78.44
494.268	108.44
494.485	87.44
494.703	104.44
494.92	88.44
495.138	99.44
495.355	98.44
495.573	86.44
495.79	89.44
496.008	96.44
496.225	91.44
496.442	97.44
496.66	87.44
496.877	104.44
497.094	87.44
497.312	88.44
497.529	91.44
497.746	88.44
497.963	82.44
498.181	94.44
498.398	91.44
498.615	95.44
498.832	96.44
499.049	81.44
499.267	101.44
499.484	74.44
499.701	105.44
499.918	79.44
500.135	96.44
500.352	88.44
500.569	92.44
500.786	98.44
501.003	106.44
501.22	100.44
501.437	96.44
501.654	96.44
501.871	92.44
502.088	106.44
502.305	76.44
502.522	87.44
502.739	88.44
502.956	91.44
503.172	111.44
503.389	102.44
503.606	101.44
503.823	90.44
504.04	96.44
504.256	115.44
504.473	104.44
504.69	91.44
504.907	82.44
505.123	93.44
505.34	95.44
505.557	79.44
505.773	87.44
505.99	75.44
506.207	91.44
506.423	85.44
506.64	81.44
506.856	86.44
507.073	88.44
507.289	93.44
507.506	79.44
507.722	87.44
507.939	95.44
508.155	89.44
508.372	82.44
508.588	77.44
508.805	89.44
509.021	89.44
509.238	91.44
509.454	93.44
509.67	89.44
509.887	87.44
510.103	80.44
510.319	102.44
510.536	99.44
510.752	90.44
510.968	86.44
511.184	86.44
511.401	92.44
511.617	87.44
511.833	86.44
512.049	91.44
512.265	86.44
512.481	89.44
512.698	103.44
512.914	89.44
513.13	77.44
513.346	83.44
513.562	84.44
513.778	102.44
513.994	88.44
514.21	97.44
514.426	90.44
514.642	82.44
514.858	93.44
515.074	103.44
515.29	91.44
515.506	99.44
515.721	75.44
515.937	70.44
516.153	80.44
516.369	98.44
516.585	82.44
516.801	82.44
517.016	74.44
517.232	91.44
517.448	95.44
517.664	84.44
517.879	87.44
518.095	84.44
518.311	94.44
518.527	96.44
518.742	87.44
