Data from KBrHeat1_HRD10591_00013.txt Node
Date: Fri Dec 27 14:51:32 EST 2024
User: Yrep
Spectrometer: HR+D1059
Trigger mode: 1
Integration Time (sec): 1.000000E-1
Scans to average: 1
Electric dark correction enabled: true
Nonlinearity correction enabled: false
Boxcar width: 0
XAxis mode: Wavelengths
Number of Pixels in Spectrum: 2048
>>>>>Begin Spectral Data<<<<<
223.165	-14.31
223.4	-14.31
223.635	-14.31
223.869	-14.31
224.104	-21.31
224.338	-18.31
224.573	-21.31
224.808	-14.31
225.042	-0.31
225.277	-1.31
225.511	-6.31
225.746	-6.31
225.98	3.69
226.215	2.69
226.449	17.69
226.683	10.69
226.918	38.69
227.152	44.69
227.387	26.69
227.621	46.69
227.856	40.69
228.09	27.69
228.324	48.69
228.559	51.69
228.793	59.69
229.027	52.69
229.262	57.69
229.496	46.69
229.73	73.69
229.964	73.69
230.199	77.69
230.433	72.69
230.667	82.69
230.901	65.69
231.136	78.69
231.37	78.69
231.604	72.69
231.838	77.69
232.072	66.69
232.306	66.69
232.541	82.69
232.775	77.69
233.009	74.69
233.243	77.69
233.477	82.69
233.711	70.69
233.945	84.69
234.179	79.69
234.413	86.69
234.647	67.69
234.881	73.69
235.115	88.69
235.349	65.69
235.583	86.69
235.817	80.69
236.051	75.69
236.285	59.69
236.519	68.69
236.753	62.69
236.987	80.69
237.221	67.69
237.455	73.69
237.689	69.69
237.922	78.69
238.156	56.69
238.39	72.69
238.624	78.69
238.858	67.69
239.091	71.69
239.325	63.69
239.559	70.69
239.793	69.69
240.027	69.69
240.26	82.69
240.494	74.69
240.728	83.69
240.961	75.69
241.195	81.69
241.429	75.69
241.662	67.69
241.896	59.69
242.13	79.69
242.363	63.69
242.597	76.69
242.83	65.69
243.064	80.69
243.298	78.69
243.531	74.69
243.765	79.69
243.998	70.69
244.232	69.69
244.465	69.69
244.699	83.69
244.932	87.69
245.166	80.69
245.399	71.69
245.633	68.69
245.866	73.69
246.099	69.69
246.333	64.69
246.566	64.69
246.8	66.69
247.033	66.69
247.266	78.69
247.5	67.69
247.733	74.69
247.966	71.69
248.2	63.69
248.433	75.69
248.666	77.69
248.899	88.69
249.133	77.69
249.366	71.69
249.599	57.69
249.832	55.69
250.066	65.69
250.299	62.69
250.532	73.69
250.765	71.69
250.998	74.69
251.231	82.69
251.465	80.69
251.698	83.69
251.931	95.69
252.164	75.69
252.397	76.69
252.63	68.69
252.863	90.69
253.096	83.69
253.329	85.69
253.562	70.69
253.795	77.69
254.028	72.69
254.261	88.69
254.494	79.69
254.727	91.69
254.96	73.69
255.193	81.69
255.426	73.69
255.659	80.69
255.892	79.69
256.124	72.69
256.357	74.69
256.59	84.69
256.823	75.69
257.056	73.69
257.289	93.69
257.521	74.69
257.754	53.69
257.987	81.69
258.22	89.69
258.452	72.69
258.685	80.69
258.918	82.69
259.151	81.69
259.383	65.69
259.616	74.69
259.849	91.69
260.081	70.69
260.314	78.69
260.547	69.69
260.779	79.69
261.012	78.69
261.244	64.69
261.477	83.69
261.71	64.69
261.942	85.69
262.175	79.69
262.407	85.69
262.64	80.69
262.872	66.69
263.105	78.69
263.337	74.69
263.57	68.69
263.802	69.69
264.035	87.69
264.267	65.69
264.499	76.69
264.732	78.69
264.964	66.69
265.197	78.69
265.429	79.69
265.661	68.69
265.894	78.69
266.126	85.69
266.358	68.69
266.591	71.69
266.823	78.69
267.055	85.69
267.287	82.69
267.52	74.69
267.752	88.69
267.984	86.69
268.216	88.69
268.448	83.69
268.681	85.69
268.913	84.69
269.145	66.69
269.377	79.69
269.609	74.69
269.841	78.69
270.073	78.69
270.306	83.69
270.538	71.69
270.77	76.69
271.002	82.69
271.234	63.69
271.466	77.69
271.698	62.69
271.93	68.69
272.162	82.69
272.394	81.69
272.626	73.69
272.858	90.69
273.09	70.69
273.322	80.69
273.553	81.69
273.785	81.69
274.017	69.69
274.249	80.69
274.481	77.69
274.713	67.69
274.945	83.69
275.176	73.69
275.408	75.69
275.64	81.69
275.872	68.69
276.104	86.69
276.335	84.69
276.567	80.69
276.799	74.69
277.031	84.69
277.262	75.69
277.494	78.69
277.726	77.69
277.957	77.69
278.189	73.69
278.421	71.69
278.652	59.69
278.884	89.69
279.115	81.69
279.347	65.69
279.579	85.69
279.81	69.69
280.042	90.69
280.273	81.69
280.505	71.69
280.736	64.69
280.968	69.69
281.199	86.69
281.431	79.69
281.662	84.69
281.894	84.69
282.125	78.69
282.356	88.69
282.588	79.69
282.819	81.69
283.051	86.69
283.282	88.69
283.513	80.69
283.745	80.69
283.976	74.69
284.207	74.69
284.439	74.69
284.67	80.69
284.901	67.69
285.132	86.69
285.364	72.69
285.595	92.69
285.826	90.69
286.057	80.69
286.288	93.69
286.52	89.69
286.751	88.69
286.982	83.69
287.213	71.69
287.444	71.69
287.675	79.69
287.906	68.69
288.138	74.69
288.369	73.69
288.6	77.69
288.831	79.69
289.062	87.69
289.293	87.69
289.524	82.69
289.755	84.69
289.986	83.69
290.217	103.69
290.448	70.69
290.679	83.69
290.91	78.69
291.141	81.69
291.371	80.69
291.602	72.69
291.833	60.69
292.064	77.69
292.295	79.69
292.526	71.69
292.757	71.69
292.987	82.69
293.218	79.69
293.449	89.69
293.68	70.69
293.91	92.69
294.141	90.69
294.372	80.69
294.603	83.69
294.833	82.69
295.064	95.69
295.295	94.69
295.525	68.69
295.756	83.69
295.987	74.69
296.217	80.69
296.448	82.69
296.679	87.69
296.909	82.69
297.14	83.69
297.37	67.69
297.601	90.69
297.831	75.69
298.062	83.69
298.292	77.69
298.523	85.69
298.753	85.69
298.984	68.69
299.214	89.69
299.445	94.69
299.675	81.69
299.905	96.69
300.136	74.69
300.366	68.69
300.597	76.69
300.827	75.69
301.057	81.69
301.288	79.69
301.518	88.69
301.748	79.69
301.979	103.69
302.209	89.69
302.439	83.69
302.669	87.69
302.9	88.69
303.13	87.69
303.36	77.69
303.59	80.69
303.82	74.69
304.051	89.69
304.281	85.69
304.511	86.69
304.741	82.69
304.971	86.69
305.201	83.69
305.431	91.69
305.661	89.69
305.891	91.69
306.121	84.69
306.352	86.69
306.582	89.69
306.812	86.69
307.042	93.69
307.272	99.69
307.502	79.69
307.731	90.69
307.961	79.69
308.191	85.69
308.421	71.69
308.651	83.69
308.881	77.69
309.111	92.69
309.341	85.69
309.571	78.69
309.8	87.69
310.03	96.69
310.26	83.69
310.49	79.69
310.72	85.69
310.949	86.69
311.179	80.69
311.409	69.69
311.639	83.69
311.868	76.69
312.098	80.69
312.328	73.69
312.557	80.69
312.787	79.69
313.017	62.69
313.246	69.69
313.476	62.69
313.706	74.69
313.935	77.69
314.165	89.69
314.394	77.69
314.624	80.69
314.853	71.69
315.083	92.69
315.312	99.69
315.542	82.69
315.771	81.69
316.001	83.69
316.23	88.69
316.46	96.69
316.689	91.69
316.919	74.69
317.148	87.69
317.377	80.69
317.607	77.69
317.836	79.69
318.065	91.69
318.295	71.69
318.524	81.69
318.753	107.69
318.983	87.69
319.212	74.69
319.441	83.69
319.67	75.69
319.9	93.69
320.129	90.69
320.358	83.69
320.587	71.69
320.816	93.69
321.046	75.69
321.275	93.69
321.504	94.69
321.733	71.69
321.962	91.69
322.191	88.69
322.42	88.69
322.649	90.69
322.878	89.69
323.108	86.69
323.337	72.69
323.566	72.69
323.795	79.69
324.024	88.69
324.253	67.69
324.482	72.69
324.71	83.69
324.939	79.69
325.168	84.69
325.397	99.69
325.626	80.69
325.855	82.69
326.084	85.69
326.313	75.69
326.542	64.69
326.77	88.69
326.999	75.69
327.228	88.69
327.457	89.69
327.686	90.69
327.914	100.69
328.143	87.69
328.372	86.69
328.6	96.69
328.829	73.69
329.058	81.69
329.287	87.69
329.515	86.69
329.744	79.69
329.972	96.69
330.201	88.69
330.43	69.69
330.658	75.69
330.887	89.69
331.115	92.69
331.344	87.69
331.572	100.69
331.801	95.69
332.03	95.69
332.258	84.69
332.486	73.69
332.715	76.69
332.943	87.69
333.172	82.69
333.4	76.69
333.629	99.69
333.857	82.69
334.085	73.69
334.314	83.69
334.542	94.69
334.771	93.69
334.999	81.69
335.227	79.69
335.455	89.69
335.684	84.69
335.912	79.69
336.14	81.69
336.369	77.69
336.597	73.69
336.825	96.69
337.053	78.69
337.281	80.69
337.51	90.69
337.738	81.69
337.966	69.69
338.194	83.69
338.422	80.69
338.65	100.69
338.878	73.69
339.106	87.69
339.334	99.69
339.562	83.69
339.79	86.69
340.018	101.69
340.246	88.69
340.474	93.69
340.702	88.69
340.93	88.69
341.158	68.69
341.386	73.69
341.614	78.69
341.842	81.69
342.07	97.69
342.298	102.69
342.526	78.69
342.754	87.69
342.981	81.69
343.209	77.69
343.437	88.69
343.665	86.69
343.893	88.69
344.12	95.69
344.348	86.69
344.576	102.69
344.804	88.69
345.031	101.69
345.259	81.69
345.487	94.69
345.714	77.69
345.942	88.69
346.17	93.69
346.397	88.69
346.625	74.69
346.853	82.69
347.08	75.69
347.308	67.69
347.535	78.69
347.763	60.69
347.99	94.69
348.218	93.69
348.445	87.69
348.673	88.69
348.9	87.69
349.128	99.69
349.355	70.69
349.583	89.69
349.81	78.69
350.037	88.69
350.265	76.69
350.492	85.69
350.72	88.69
350.947	84.69
351.174	100.69
351.402	81.69
351.629	77.69
351.856	94.69
352.083	93.69
352.311	75.69
352.538	77.69
352.765	93.69
352.992	102.69
353.22	94.69
353.447	81.69
353.674	73.69
353.901	86.69
354.128	91.69
354.355	88.69
354.583	84.69
354.81	76.69
355.037	87.69
355.264	91.69
355.491	83.69
355.718	86.69
355.945	85.69
356.172	74.69
356.399	78.69
356.626	79.69
356.853	88.69
357.08	71.69
357.307	92.69
357.534	76.69
357.761	77.69
357.988	102.69
358.215	75.69
358.441	75.69
358.668	80.69
358.895	84.69
359.122	82.69
359.349	82.69
359.576	77.69
359.802	77.69
360.029	83.69
360.256	87.69
360.483	74.69
360.709	81.69
360.936	93.69
361.163	94.69
361.39	65.69
361.616	74.69
361.843	87.69
362.07	88.69
362.296	90.69
362.523	81.69
362.749	75.69
362.976	70.69
363.203	79.69
363.429	75.69
363.656	80.69
363.882	74.69
364.109	90.69
364.335	96.69
364.562	79.69
364.788	89.69
365.015	84.69
365.241	80.69
365.468	66.69
365.694	88.69
365.92	100.69
366.147	95.69
366.373	86.69
366.599	75.69
366.826	98.69
367.052	77.69
367.278	91.69
367.505	82.69
367.731	82.69
367.957	80.69
368.184	77.69
368.41	75.69
368.636	90.69
368.862	77.69
369.089	79.69
369.315	82.69
369.541	82.69
369.767	70.69
369.993	89.69
370.219	84.69
370.445	73.69
370.672	85.69
370.898	88.69
371.124	78.69
371.35	66.69
371.576	89.69
371.802	81.69
372.028	73.69
372.254	81.69
372.48	78.69
372.706	82.69
372.932	84.69
373.158	74.69
373.384	86.69
373.61	71.69
373.835	71.69
374.061	81.69
374.287	79.69
374.513	82.69
374.739	75.69
374.965	83.69
375.191	89.69
375.416	78.69
375.642	77.69
375.868	81.69
376.094	82.69
376.319	74.69
376.545	77.69
376.771	84.69
376.997	81.69
377.222	68.69
377.448	86.69
377.674	90.69
377.899	79.69
378.125	90.69
378.35	98.69
378.576	85.69
378.802	73.69
379.027	91.69
379.253	79.69
379.478	74.69
379.704	90.69
379.929	95.69
380.155	77.69
380.38	79.69
380.606	82.69
380.831	85.69
381.057	90.69
381.282	93.69
381.507	80.69
381.733	93.69
381.958	86.69
382.184	71.69
382.409	86.69
382.634	80.69
382.86	82.69
383.085	87.69
383.31	86.69
383.535	80.69
383.761	77.69
383.986	82.69
384.211	68.69
384.436	89.69
384.662	89.69
384.887	68.69
385.112	90.69
385.337	91.69
385.562	73.69
385.787	87.69
386.013	95.69
386.238	97.69
386.463	89.69
386.688	95.69
386.913	76.69
387.138	87.69
387.363	73.69
387.588	77.69
387.813	84.69
388.038	79.69
388.263	95.69
388.488	74.69
388.713	73.69
388.938	79.69
389.163	81.69
389.387	75.69
389.612	78.69
389.837	80.69
390.062	77.69
390.287	84.69
390.512	86.69
390.736	83.69
390.961	60.69
391.186	95.69
391.411	86.69
391.636	87.69
391.86	85.69
392.085	79.69
392.31	78.69
392.534	85.69
392.759	80.69
392.984	75.69
393.208	78.69
393.433	69.69
393.658	88.69
393.882	99.69
394.107	83.69
394.331	89.69
394.556	70.69
394.78	80.69
395.005	79.69
395.229	85.69
395.454	84.69
395.678	78.69
395.903	79.69
396.127	79.69
396.352	74.69
396.576	78.69
396.801	88.69
397.025	84.69
397.249	94.69
397.474	93.69
397.698	81.69
397.922	85.69
398.147	87.69
398.371	82.69
398.595	89.69
398.82	73.69
399.044	81.69
399.268	83.69
399.492	88.69
399.717	81.69
399.941	88.69
400.165	96.69
400.389	67.69
400.613	81.69
400.837	85.69
401.062	82.69
401.286	86.69
401.51	96.69
401.734	79.69
401.958	83.69
402.182	66.69
402.406	92.69
402.63	96.69
402.854	101.69
403.078	81.69
403.302	75.69
403.526	80.69
403.75	101.69
403.974	103.69
404.198	128.69
404.422	168.69
404.645	199.69
404.869	166.69
405.093	131.69
405.317	103.69
405.541	94.69
405.765	102.69
405.988	83.69
406.212	82.69
406.436	88.69
406.66	88.69
406.883	91.69
407.107	81.69
407.331	82.69
407.555	81.69
407.778	73.69
408.002	84.69
408.226	85.69
408.449	87.69
408.673	90.69
408.896	100.69
409.12	89.69
409.344	93.69
409.567	69.69
409.791	74.69
410.014	80.69
410.238	81.69
410.461	82.69
410.685	83.69
410.908	85.69
411.132	73.69
411.355	85.69
411.578	90.69
411.802	86.69
412.025	98.69
412.249	73.69
412.472	82.69
412.695	71.69
412.919	79.69
413.142	75.69
413.365	67.69
413.589	66.69
413.812	74.69
414.035	82.69
414.258	83.69
414.482	82.69
414.705	78.69
414.928	88.69
415.151	84.69
415.374	87.69
415.597	83.69
415.821	78.69
416.044	88.69
416.267	86.69
416.49	90.69
416.713	94.69
416.936	77.69
417.159	83.69
417.382	110.69
417.605	82.69
417.828	88.69
418.051	88.69
418.274	76.69
418.497	87.69
418.72	92.69
418.943	71.69
419.166	82.69
419.389	84.69
419.611	94.69
419.834	80.69
420.057	88.69
420.28	84.69
420.503	82.69
420.726	78.69
420.948	88.69
421.171	98.69
421.394	91.69
421.617	79.69
421.839	82.69
422.062	89.69
422.285	91.69
422.507	86.69
422.73	87.69
422.953	78.69
423.175	74.69
423.398	81.69
423.621	83.69
423.843	83.69
424.066	69.69
424.288	65.69
424.511	83.69
424.733	99.69
424.956	86.69
425.178	76.69
425.401	68.69
425.623	73.69
425.846	83.69
426.068	96.69
426.291	90.69
426.513	82.69
426.735	65.69
426.958	74.69
427.18	87.69
427.402	88.69
427.625	88.69
427.847	74.69
428.069	86.69
428.292	78.69
428.514	101.69
428.736	78.69
428.958	84.69
429.181	76.69
429.403	83.69
429.625	85.69
429.847	89.69
430.069	98.69
430.292	73.69
430.514	81.69
430.736	65.69
430.958	80.69
431.18	86.69
431.402	89.69
431.624	87.69
431.846	87.69
432.068	87.69
432.29	88.69
432.512	92.69
432.734	89.69
432.956	78.69
433.178	79.69
433.4	92.69
433.622	99.69
433.844	82.69
434.066	94.69
434.287	81.69
434.509	87.69
434.731	87.69
434.953	71.69
435.175	67.69
435.397	73.69
435.618	87.69
435.84	86.69
436.062	87.69
436.284	84.69
436.505	88.69
436.727	86.69
436.949	79.69
437.17	69.69
437.392	85.69
437.614	87.69
437.835	81.69
438.057	82.69
438.278	81.69
438.5	82.69
438.721	80.69
438.943	96.69
439.165	67.69
439.386	78.69
439.608	75.69
439.829	77.69
440.05	81.69
440.272	75.69
440.493	68.69
440.715	85.69
440.936	68.69
441.158	85.69
441.379	82.69
441.6	91.69
441.822	89.69
442.043	80.69
442.264	76.69
442.486	80.69
442.707	90.69
442.928	90.69
443.149	83.69
443.371	77.69
443.592	85.69
443.813	89.69
444.034	88.69
444.255	75.69
444.476	75.69
444.698	103.69
444.919	85.69
445.14	153.69
445.361	103.69
445.582	100.69
445.803	83.69
446.024	83.69
446.245	82.69
446.466	96.69
446.687	95.69
446.908	83.69
447.129	71.69
447.35	79.69
447.571	82.69
447.792	79.69
448.013	83.69
448.234	83.69
448.455	73.69
448.675	74.69
448.896	82.69
449.117	80.69
449.338	76.69
449.559	77.69
449.779	81.69
450	55.69
450.221	82.69
450.442	89.69
450.662	84.69
450.883	82.69
451.104	88.69
451.324	85.69
451.545	83.69
451.766	93.69
451.986	87.69
452.207	89.69
452.428	94.69
452.648	75.69
452.869	76.69
453.089	70.69
453.31	87.69
453.53	69.69
453.751	75.69
453.971	80.69
454.192	79.69
454.412	75.69
454.633	73.69
454.853	81.69
455.073	95.69
455.294	69.69
455.514	79.69
455.734	89.69
455.955	87.69
456.175	82.69
456.395	71.69
456.616	74.69
456.836	72.69
457.056	75.69
457.276	79.69
457.497	81.69
457.717	71.69
457.937	83.69
458.157	69.69
458.377	75.69
458.598	73.69
458.818	66.69
459.038	86.69
459.258	73.69
459.478	83.69
459.698	75.69
459.918	78.69
460.138	76.69
460.358	77.69
460.578	85.69
460.798	82.69
461.018	88.69
461.238	72.69
461.458	91.69
461.678	88.69
461.898	75.69
462.118	81.69
462.338	75.69
462.558	87.69
462.777	72.69
462.997	88.69
463.217	93.69
463.437	79.69
463.657	82.69
463.876	87.69
464.096	86.69
464.316	83.69
464.536	77.69
464.755	78.69
464.975	82.69
465.195	72.69
465.414	77.69
465.634	94.69
465.854	94.69
466.073	91.69
466.293	91.69
466.512	79.69
466.732	63.69
466.951	89.69
467.171	84.69
467.391	87.69
467.61	75.69
467.829	80.69
468.049	64.69
468.268	89.69
468.488	86.69
468.707	70.69
468.927	64.69
469.146	88.69
469.365	88.69
469.585	97.69
469.804	97.69
470.023	78.69
470.243	98.69
470.462	101.69
470.681	94.69
470.901	81.69
471.12	78.69
471.339	78.69
471.558	100.69
471.777	91.69
471.997	95.69
472.216	67.69
472.435	85.69
472.654	81.69
472.873	80.69
473.092	87.69
473.311	88.69
473.53	97.69
473.749	85.69
473.968	89.69
474.187	79.69
474.406	64.69
474.625	78.69
474.844	84.69
475.063	83.69
475.282	89.69
475.501	83.69
475.72	97.69
475.939	82.69
476.158	98.69
476.377	93.69
476.596	89.69
476.814	79.69
477.033	78.69
477.252	79.69
477.471	85.69
477.69	106.69
477.908	92.69
478.127	89.69
478.346	86.69
478.564	94.69
478.783	83.69
479.002	86.69
479.22	79.69
479.439	91.69
479.658	76.69
479.876	73.69
480.095	88.69
480.313	85.69
480.532	92.69
480.751	90.69
480.969	72.69
481.188	82.69
481.406	88.69
481.624	82.69
481.843	86.69
482.061	71.69
482.28	82.69
482.498	93.69
482.717	82.69
482.935	82.69
483.153	90.69
483.372	74.69
483.59	79.69
483.808	88.69
484.027	94.69
484.245	95.69
484.463	87.69
484.681	88.69
484.9	101.69
485.118	99.69
485.336	92.69
485.554	77.69
485.772	89.69
485.99	71.69
486.209	95.69
486.427	65.69
486.645	103.69
486.863	82.69
487.081	90.69
487.299	81.69
487.517	93.69
487.735	79.69
487.953	87.69
488.171	95.69
488.389	98.69
488.607	91.69
488.825	90.69
489.043	84.69
489.261	101.69
489.479	98.69
489.696	99.69
489.914	96.69
490.132	101.69
490.35	104.69
490.568	88.69
490.786	98.69
491.003	87.69
491.221	84.69
491.439	101.69
491.657	80.69
491.874	100.69
492.092	94.69
492.31	89.69
492.527	97.69
492.745	95.69
492.963	98.69
493.18	105.69
493.398	106.69
493.615	87.69
493.833	87.69
494.05	93.69
494.268	90.69
494.485	89.69
494.703	101.69
494.92	88.69
495.138	97.69
495.355	91.69
495.573	96.69
495.79	87.69
496.008	90.69
496.225	90.69
496.442	92.69
496.66	90.69
496.877	74.69
497.094	100.69
497.312	93.69
497.529	95.69
497.746	89.69
497.963	101.69
498.181	80.69
498.398	87.69
498.615	92.69
498.832	79.69
499.049	83.69
499.267	93.69
499.484	79.69
499.701	94.69
499.918	78.69
500.135	93.69
500.352	88.69
500.569	101.69
500.786	87.69
501.003	94.69
501.22	107.69
501.437	85.69
501.654	74.69
501.871	82.69
502.088	97.69
502.305	95.69
502.522	94.69
502.739	90.69
502.956	85.69
503.172	82.69
503.389	79.69
503.606	84.69
503.823	78.69
504.04	78.69
504.256	91.69
504.473	96.69
504.69	90.69
504.907	91.69
505.123	74.69
505.34	88.69
505.557	79.69
505.773	91.69
505.99	88.69
506.207	87.69
506.423	87.69
506.64	96.69
506.856	96.69
507.073	84.69
507.289	86.69
507.506	80.69
507.722	101.69
507.939	86.69
508.155	83.69
508.372	81.69
508.588	93.69
508.805	106.69
509.021	96.69
509.238	105.69
509.454	99.69
509.67	87.69
509.887	90.69
510.103	78.69
510.319	92.69
510.536	94.69
510.752	89.69
510.968	93.69
511.184	94.69
511.401	88.69
511.617	97.69
511.833	89.69
512.049	101.69
512.265	86.69
512.481	93.69
512.698	81.69
512.914	89.69
513.13	90.69
513.346	79.69
513.562	79.69
513.778	68.69
513.994	77.69
514.21	71.69
514.426	99.69
514.642	99.69
514.858	78.69
515.074	90.69
515.29	97.69
515.506	93.69
515.721	86.69
515.937	77.69
516.153	88.69
516.369	66.69
516.585	75.69
516.801	77.69
517.016	63.69
517.232	91.69
517.448	90.69
517.664	87.69
517.879	90.69
518.095	88.69
518.311	90.69
518.527	87.69
518.742	86.69
518.958	73.69
519.173	90.69
519.389	77.69
519.605	85.69
