Data from KBrHeat1_HRD10591_00011.txt Node
Date: Fri Dec 27 14:51:30 EST 2024
User: Yrep
Spectrometer: HR+D1059
Trigger mode: 1
Integration Time (sec): 1.000000E-1
Scans to average: 1
Electric dark correction enabled: true
Nonlinearity correction enabled: false
Boxcar width: 0
XAxis mode: Wavelengths
Number of Pixels in Spectrum: 2048
>>>>>Begin Spectral Data<<<<<
223.165	-16.62
223.4	-16.62
223.635	-16.62
223.869	-18.62
224.104	-11.62
224.338	-18.62
224.573	-22.62
224.808	-13.62
225.042	5.38
225.277	-12.62
225.511	-4.62
225.746	0.38
225.98	6.38
226.215	19.38
226.449	14.38
226.683	20.38
226.918	12.38
227.152	40.38
227.387	55.38
227.621	34.38
227.856	33.38
228.09	44.38
228.324	40.38
228.559	51.38
228.793	57.38
229.027	52.38
229.262	62.38
229.496	63.38
229.73	62.38
229.964	74.38
230.199	81.38
230.433	73.38
230.667	53.38
230.901	68.38
231.136	66.38
231.37	86.38
231.604	82.38
231.838	94.38
232.072	75.38
232.306	61.38
232.541	66.38
232.775	74.38
233.009	83.38
233.243	71.38
233.477	80.38
233.711	76.38
233.945	87.38
234.179	59.38
234.413	89.38
234.647	68.38
234.881	84.38
235.115	74.38
235.349	72.38
235.583	59.38
235.817	61.38
236.051	86.38
236.285	85.38
236.519	64.38
236.753	81.38
236.987	74.38
237.221	66.38
237.455	76.38
237.689	63.38
237.922	64.38
238.156	58.38
238.39	63.38
238.624	81.38
238.858	68.38
239.091	68.38
239.325	76.38
239.559	89.38
239.793	86.38
240.027	78.38
240.26	73.38
240.494	76.38
240.728	85.38
240.961	84.38
241.195	84.38
241.429	79.38
241.662	80.38
241.896	75.38
242.13	79.38
242.363	79.38
242.597	74.38
242.83	70.38
243.064	62.38
243.298	66.38
243.531	79.38
243.765	62.38
243.998	71.38
244.232	72.38
244.465	73.38
244.699	72.38
244.932	78.38
245.166	73.38
245.399	78.38
245.633	70.38
245.866	78.38
246.099	75.38
246.333	76.38
246.566	73.38
246.8	80.38
247.033	67.38
247.266	69.38
247.5	67.38
247.733	69.38
247.966	61.38
248.2	71.38
248.433	57.38
248.666	78.38
248.899	72.38
249.133	80.38
249.366	87.38
249.599	75.38
249.832	82.38
250.066	85.38
250.299	86.38
250.532	78.38
250.765	75.38
250.998	62.38
251.231	78.38
251.465	71.38
251.698	80.38
251.931	80.38
252.164	75.38
252.397	63.38
252.63	95.38
252.863	68.38
253.096	68.38
253.329	67.38
253.562	74.38
253.795	80.38
254.028	80.38
254.261	80.38
254.494	74.38
254.727	69.38
254.96	66.38
255.193	73.38
255.426	71.38
255.659	69.38
255.892	82.38
256.124	82.38
256.357	77.38
256.59	76.38
256.823	62.38
257.056	68.38
257.289	68.38
257.521	74.38
257.754	62.38
257.987	67.38
258.22	94.38
258.452	77.38
258.685	83.38
258.918	80.38
259.151	88.38
259.383	87.38
259.616	74.38
259.849	84.38
260.081	66.38
260.314	82.38
260.547	66.38
260.779	76.38
261.012	76.38
261.244	74.38
261.477	83.38
261.71	73.38
261.942	71.38
262.175	82.38
262.407	90.38
262.64	68.38
262.872	76.38
263.105	84.38
263.337	82.38
263.57	74.38
263.802	76.38
264.035	78.38
264.267	78.38
264.499	69.38
264.732	72.38
264.964	65.38
265.197	97.38
265.429	84.38
265.661	80.38
265.894	68.38
266.126	94.38
266.358	74.38
266.591	74.38
266.823	74.38
267.055	77.38
267.287	90.38
267.52	92.38
267.752	88.38
267.984	65.38
268.216	74.38
268.448	84.38
268.681	77.38
268.913	82.38
269.145	73.38
269.377	79.38
269.609	79.38
269.841	92.38
270.073	78.38
270.306	56.38
270.538	81.38
270.77	72.38
271.002	69.38
271.234	76.38
271.466	95.38
271.698	89.38
271.93	90.38
272.162	93.38
272.394	80.38
272.626	79.38
272.858	68.38
273.09	75.38
273.322	79.38
273.553	74.38
273.785	76.38
274.017	87.38
274.249	77.38
274.481	89.38
274.713	82.38
274.945	67.38
275.176	76.38
275.408	74.38
275.64	75.38
275.872	86.38
276.104	85.38
276.335	81.38
276.567	91.38
276.799	80.38
277.031	85.38
277.262	75.38
277.494	78.38
277.726	80.38
277.957	74.38
278.189	76.38
278.421	83.38
278.652	78.38
278.884	84.38
279.115	76.38
279.347	84.38
279.579	78.38
279.81	77.38
280.042	76.38
280.273	80.38
280.505	78.38
280.736	78.38
280.968	74.38
281.199	61.38
281.431	81.38
281.662	83.38
281.894	77.38
282.125	86.38
282.356	76.38
282.588	96.38
282.819	81.38
283.051	72.38
283.282	87.38
283.513	85.38
283.745	79.38
283.976	63.38
284.207	67.38
284.439	75.38
284.67	89.38
284.901	84.38
285.132	83.38
285.364	81.38
285.595	85.38
285.826	89.38
286.057	80.38
286.288	76.38
286.52	82.38
286.751	83.38
286.982	86.38
287.213	80.38
287.444	77.38
287.675	82.38
287.906	77.38
288.138	67.38
288.369	89.38
288.6	79.38
288.831	71.38
289.062	75.38
289.293	89.38
289.524	95.38
289.755	83.38
289.986	79.38
290.217	84.38
290.448	83.38
290.679	64.38
290.91	82.38
291.141	100.38
291.371	88.38
291.602	73.38
291.833	73.38
292.064	73.38
292.295	83.38
292.526	70.38
292.757	79.38
292.987	78.38
293.218	73.38
293.449	84.38
293.68	70.38
293.91	88.38
294.141	80.38
294.372	80.38
294.603	86.38
294.833	77.38
295.064	85.38
295.295	79.38
295.525	94.38
295.756	87.38
295.987	79.38
296.217	82.38
296.448	87.38
296.679	89.38
296.909	93.38
297.14	76.38
297.37	97.38
297.601	71.38
297.831	89.38
298.062	101.38
298.292	99.38
298.523	95.38
298.753	70.38
298.984	81.38
299.214	73.38
299.445	70.38
299.675	80.38
299.905	75.38
300.136	87.38
300.366	94.38
300.597	80.38
300.827	100.38
301.057	78.38
301.288	89.38
301.518	68.38
301.748	82.38
301.979	106.38
302.209	80.38
302.439	76.38
302.669	74.38
302.9	85.38
303.13	76.38
303.36	90.38
303.59	79.38
303.82	81.38
304.051	80.38
304.281	79.38
304.511	79.38
304.741	84.38
304.971	95.38
305.201	82.38
305.431	85.38
305.661	83.38
305.891	86.38
306.121	89.38
306.352	81.38
306.582	87.38
306.812	77.38
307.042	80.38
307.272	83.38
307.502	66.38
307.731	84.38
307.961	76.38
308.191	84.38
308.421	95.38
308.651	84.38
308.881	102.38
309.111	88.38
309.341	86.38
309.571	86.38
309.8	95.38
310.03	79.38
310.26	84.38
310.49	87.38
310.72	79.38
310.949	78.38
311.179	84.38
311.409	66.38
311.639	98.38
311.868	97.38
312.098	82.38
312.328	98.38
312.557	78.38
312.787	85.38
313.017	90.38
313.246	73.38
313.476	79.38
313.706	75.38
313.935	77.38
314.165	67.38
314.394	81.38
314.624	80.38
314.853	87.38
315.083	85.38
315.312	76.38
315.542	77.38
315.771	96.38
316.001	66.38
316.23	81.38
316.46	85.38
316.689	82.38
316.919	94.38
317.148	88.38
317.377	93.38
317.607	105.38
317.836	88.38
318.065	92.38
318.295	88.38
318.524	86.38
318.753	72.38
318.983	81.38
319.212	83.38
319.441	93.38
319.67	90.38
319.9	105.38
320.129	78.38
320.358	95.38
320.587	86.38
320.816	79.38
321.046	76.38
321.275	80.38
321.504	79.38
321.733	84.38
321.962	81.38
322.191	77.38
322.42	72.38
322.649	85.38
322.878	74.38
323.108	85.38
323.337	95.38
323.566	89.38
323.795	85.38
324.024	91.38
324.253	84.38
324.482	94.38
324.71	80.38
324.939	76.38
325.168	102.38
325.397	81.38
325.626	81.38
325.855	77.38
326.084	80.38
326.313	76.38
326.542	90.38
326.77	79.38
326.999	91.38
327.228	83.38
327.457	84.38
327.686	93.38
327.914	74.38
328.143	82.38
328.372	93.38
328.6	86.38
328.829	90.38
329.058	74.38
329.287	64.38
329.515	97.38
329.744	81.38
329.972	82.38
330.201	85.38
330.43	83.38
330.658	79.38
330.887	83.38
331.115	82.38
331.344	74.38
331.572	89.38
331.801	72.38
332.03	72.38
332.258	80.38
332.486	85.38
332.715	89.38
332.943	85.38
333.172	87.38
333.4	83.38
333.629	89.38
333.857	71.38
334.085	89.38
334.314	92.38
334.542	96.38
334.771	78.38
334.999	106.38
335.227	90.38
335.455	88.38
335.684	97.38
335.912	89.38
336.14	81.38
336.369	81.38
336.597	82.38
336.825	74.38
337.053	98.38
337.281	80.38
337.51	70.38
337.738	92.38
337.966	80.38
338.194	85.38
338.422	92.38
338.65	77.38
338.878	97.38
339.106	86.38
339.334	71.38
339.562	84.38
339.79	88.38
340.018	92.38
340.246	94.38
340.474	95.38
340.702	86.38
340.93	80.38
341.158	87.38
341.386	91.38
341.614	86.38
341.842	85.38
342.07	81.38
342.298	89.38
342.526	85.38
342.754	81.38
342.981	77.38
343.209	71.38
343.437	97.38
343.665	94.38
343.893	75.38
344.12	87.38
344.348	88.38
344.576	83.38
344.804	97.38
345.031	105.38
345.259	85.38
345.487	101.38
345.714	95.38
345.942	80.38
346.17	84.38
346.397	89.38
346.625	99.38
346.853	86.38
347.08	94.38
347.308	76.38
347.535	86.38
347.763	87.38
347.99	77.38
348.218	82.38
348.445	76.38
348.673	86.38
348.9	65.38
349.128	80.38
349.355	76.38
349.583	70.38
349.81	80.38
350.037	96.38
350.265	89.38
350.492	84.38
350.72	84.38
350.947	82.38
351.174	89.38
351.402	72.38
351.629	76.38
351.856	83.38
352.083	73.38
352.311	98.38
352.538	79.38
352.765	88.38
352.992	90.38
353.22	87.38
353.447	68.38
353.674	77.38
353.901	83.38
354.128	83.38
354.355	82.38
354.583	87.38
354.81	76.38
355.037	89.38
355.264	80.38
355.491	84.38
355.718	101.38
355.945	73.38
356.172	89.38
356.399	83.38
356.626	82.38
356.853	72.38
357.08	77.38
357.307	100.38
357.534	84.38
357.761	73.38
357.988	68.38
358.215	88.38
358.441	87.38
358.668	91.38
358.895	93.38
359.122	88.38
359.349	82.38
359.576	69.38
359.802	87.38
360.029	72.38
360.256	77.38
360.483	84.38
360.709	86.38
360.936	87.38
361.163	89.38
361.39	80.38
361.616	84.38
361.843	73.38
362.07	86.38
362.296	87.38
362.523	88.38
362.749	88.38
362.976	76.38
363.203	78.38
363.429	80.38
363.656	95.38
363.882	96.38
364.109	84.38
364.335	89.38
364.562	94.38
364.788	80.38
365.015	76.38
365.241	84.38
365.468	87.38
365.694	90.38
365.92	82.38
366.147	80.38
366.373	83.38
366.599	75.38
366.826	98.38
367.052	100.38
367.278	84.38
367.505	89.38
367.731	89.38
367.957	82.38
368.184	90.38
368.41	84.38
368.636	89.38
368.862	72.38
369.089	85.38
369.315	67.38
369.541	102.38
369.767	82.38
369.993	84.38
370.219	88.38
370.445	92.38
370.672	84.38
370.898	78.38
371.124	73.38
371.35	81.38
371.576	79.38
371.802	88.38
372.028	65.38
372.254	93.38
372.48	92.38
372.706	88.38
372.932	89.38
373.158	84.38
373.384	88.38
373.61	82.38
373.835	88.38
374.061	72.38
374.287	79.38
374.513	92.38
374.739	90.38
374.965	84.38
375.191	80.38
375.416	87.38
375.642	96.38
375.868	76.38
376.094	87.38
376.319	93.38
376.545	82.38
376.771	77.38
376.997	93.38
377.222	84.38
377.448	94.38
377.674	70.38
377.899	75.38
378.125	74.38
378.35	75.38
378.576	72.38
378.802	85.38
379.027	90.38
379.253	74.38
379.478	81.38
379.704	80.38
379.929	70.38
380.155	72.38
380.38	84.38
380.606	95.38
380.831	77.38
381.057	89.38
381.282	73.38
381.507	71.38
381.733	77.38
381.958	80.38
382.184	81.38
382.409	83.38
382.634	80.38
382.86	86.38
383.085	92.38
383.31	85.38
383.535	92.38
383.761	76.38
383.986	92.38
384.211	71.38
384.436	86.38
384.662	85.38
384.887	84.38
385.112	79.38
385.337	83.38
385.562	71.38
385.787	88.38
386.013	94.38
386.238	92.38
386.463	83.38
386.688	104.38
386.913	90.38
387.138	84.38
387.363	92.38
387.588	82.38
387.813	88.38
388.038	87.38
388.263	87.38
388.488	81.38
388.713	89.38
388.938	82.38
389.163	68.38
389.387	80.38
389.612	93.38
389.837	96.38
390.062	85.38
390.287	95.38
390.512	63.38
390.736	82.38
390.961	79.38
391.186	70.38
391.411	76.38
391.636	88.38
391.86	93.38
392.085	72.38
392.31	91.38
392.534	87.38
392.759	106.38
392.984	71.38
393.208	82.38
393.433	68.38
393.658	77.38
393.882	80.38
394.107	78.38
394.331	88.38
394.556	100.38
394.78	85.38
395.005	87.38
395.229	80.38
395.454	94.38
395.678	82.38
395.903	98.38
396.127	88.38
396.352	89.38
396.576	81.38
396.801	81.38
397.025	74.38
397.249	78.38
397.474	88.38
397.698	86.38
397.922	81.38
398.147	78.38
398.371	88.38
398.595	82.38
398.82	79.38
399.044	79.38
399.268	86.38
399.492	82.38
399.717	91.38
399.941	83.38
400.165	79.38
400.389	86.38
400.613	98.38
400.837	81.38
401.062	84.38
401.286	81.38
401.51	87.38
401.734	79.38
401.958	77.38
402.182	88.38
402.406	81.38
402.63	96.38
402.854	85.38
403.078	73.38
403.302	87.38
403.526	88.38
403.75	101.38
403.974	100.38
404.198	124.38
404.422	183.38
404.645	224.38
404.869	176.38
405.093	136.38
405.317	118.38
405.541	82.38
405.765	80.38
405.988	73.38
406.212	63.38
406.436	80.38
406.66	80.38
406.883	87.38
407.107	80.38
407.331	90.38
407.555	92.38
407.778	95.38
408.002	87.38
408.226	74.38
408.449	91.38
408.673	84.38
408.896	94.38
409.12	78.38
409.344	84.38
409.567	74.38
409.791	75.38
410.014	88.38
410.238	92.38
410.461	77.38
410.685	86.38
410.908	83.38
411.132	82.38
411.355	79.38
411.578	86.38
411.802	78.38
412.025	71.38
412.249	87.38
412.472	79.38
412.695	77.38
412.919	78.38
413.142	90.38
413.365	85.38
413.589	92.38
413.812	73.38
414.035	76.38
414.258	84.38
414.482	98.38
414.705	83.38
414.928	84.38
415.151	78.38
415.374	70.38
415.597	85.38
415.821	75.38
416.044	83.38
416.267	85.38
416.49	91.38
416.713	81.38
416.936	72.38
417.159	92.38
417.382	82.38
417.605	68.38
417.828	64.38
418.051	95.38
418.274	91.38
418.497	98.38
418.72	70.38
418.943	82.38
419.166	91.38
419.389	68.38
419.611	83.38
419.834	101.38
420.057	104.38
420.28	84.38
420.503	88.38
420.726	85.38
420.948	85.38
421.171	90.38
421.394	82.38
421.617	80.38
421.839	77.38
422.062	80.38
422.285	92.38
422.507	99.38
422.73	73.38
422.953	103.38
423.175	71.38
423.398	86.38
423.621	78.38
423.843	76.38
424.066	89.38
424.288	80.38
424.511	79.38
424.733	88.38
424.956	75.38
425.178	71.38
425.401	82.38
425.623	90.38
425.846	80.38
426.068	88.38
426.291	69.38
426.513	84.38
426.735	87.38
426.958	86.38
427.18	87.38
427.402	64.38
427.625	86.38
427.847	98.38
428.069	77.38
428.292	85.38
428.514	93.38
428.736	91.38
428.958	77.38
429.181	76.38
429.403	68.38
429.625	87.38
429.847	81.38
430.069	89.38
430.292	79.38
430.514	81.38
430.736	93.38
430.958	80.38
431.18	83.38
431.402	88.38
431.624	87.38
431.846	71.38
432.068	73.38
432.29	77.38
432.512	83.38
432.734	70.38
432.956	85.38
433.178	95.38
433.4	87.38
433.622	89.38
433.844	78.38
434.066	71.38
434.287	101.38
434.509	92.38
434.731	81.38
434.953	78.38
435.175	87.38
435.397	88.38
435.618	85.38
435.84	90.38
436.062	81.38
436.284	84.38
436.505	80.38
436.727	88.38
436.949	98.38
437.17	84.38
437.392	77.38
437.614	83.38
437.835	81.38
438.057	92.38
438.278	83.38
438.5	81.38
438.721	77.38
438.943	67.38
439.165	84.38
439.386	88.38
439.608	76.38
439.829	80.38
440.05	93.38
440.272	79.38
440.493	76.38
440.715	88.38
440.936	85.38
441.158	75.38
441.379	66.38
441.6	75.38
441.822	81.38
442.043	95.38
442.264	86.38
442.486	75.38
442.707	84.38
442.928	85.38
443.149	81.38
443.371	85.38
443.592	84.38
443.813	88.38
444.034	87.38
444.255	97.38
444.476	81.38
444.698	78.38
444.919	100.38
445.14	130.38
445.361	103.38
445.582	82.38
445.803	77.38
446.024	78.38
446.245	89.38
446.466	87.38
446.687	93.38
446.908	78.38
447.129	76.38
447.35	68.38
447.571	80.38
447.792	81.38
448.013	73.38
448.234	86.38
448.455	84.38
448.675	84.38
448.896	84.38
449.117	81.38
449.338	82.38
449.559	81.38
449.779	91.38
450	86.38
450.221	83.38
450.442	70.38
450.662	76.38
450.883	84.38
451.104	88.38
451.324	79.38
451.545	85.38
451.766	89.38
451.986	82.38
452.207	85.38
452.428	81.38
452.648	90.38
452.869	71.38
453.089	93.38
453.31	93.38
453.53	86.38
453.751	82.38
453.971	90.38
454.192	73.38
454.412	76.38
454.633	93.38
454.853	88.38
455.073	88.38
455.294	91.38
455.514	66.38
455.734	90.38
455.955	75.38
456.175	90.38
456.395	85.38
456.616	81.38
456.836	79.38
457.056	89.38
457.276	77.38
457.497	84.38
457.717	78.38
457.937	76.38
458.157	95.38
458.377	87.38
458.598	96.38
458.818	78.38
459.038	77.38
459.258	87.38
459.478	92.38
459.698	86.38
459.918	84.38
460.138	89.38
460.358	96.38
460.578	82.38
460.798	87.38
461.018	96.38
461.238	86.38
461.458	85.38
461.678	85.38
461.898	82.38
462.118	97.38
462.338	94.38
462.558	81.38
462.777	74.38
462.997	80.38
463.217	74.38
463.437	82.38
463.657	90.38
463.876	81.38
464.096	79.38
464.316	79.38
464.536	77.38
464.755	74.38
464.975	87.38
465.195	79.38
465.414	87.38
465.634	76.38
465.854	71.38
466.073	83.38
466.293	66.38
466.512	83.38
466.732	81.38
466.951	77.38
467.171	84.38
467.391	82.38
467.61	81.38
467.829	91.38
468.049	74.38
468.268	76.38
468.488	75.38
468.707	89.38
468.927	77.38
469.146	74.38
469.365	77.38
469.585	91.38
469.804	83.38
470.023	85.38
470.243	90.38
470.462	81.38
470.681	78.38
470.901	75.38
471.12	87.38
471.339	90.38
471.558	73.38
471.777	96.38
471.997	92.38
472.216	87.38
472.435	89.38
472.654	87.38
472.873	89.38
473.092	82.38
473.311	89.38
473.53	78.38
473.749	91.38
473.968	102.38
474.187	106.38
474.406	97.38
474.625	72.38
474.844	88.38
475.063	94.38
475.282	74.38
475.501	83.38
475.72	96.38
475.939	78.38
476.158	82.38
476.377	86.38
476.596	93.38
476.814	101.38
477.033	94.38
477.252	81.38
477.471	87.38
477.69	107.38
477.908	83.38
478.127	95.38
478.346	71.38
478.564	104.38
478.783	85.38
479.002	81.38
479.22	77.38
479.439	87.38
479.658	88.38
479.876	85.38
480.095	80.38
480.313	93.38
480.532	97.38
480.751	88.38
480.969	91.38
481.188	86.38
481.406	100.38
481.624	81.38
481.843	86.38
482.061	73.38
482.28	90.38
482.498	96.38
482.717	80.38
482.935	97.38
483.153	97.38
483.372	96.38
483.59	94.38
483.808	95.38
484.027	100.38
484.245	87.38
484.463	91.38
484.681	108.38
484.9	96.38
485.118	86.38
485.336	94.38
485.554	84.38
485.772	73.38
485.99	79.38
486.209	81.38
486.427	87.38
486.645	79.38
486.863	100.38
487.081	90.38
487.299	87.38
487.517	77.38
487.735	88.38
487.953	92.38
488.171	88.38
488.389	96.38
488.607	84.38
488.825	85.38
489.043	100.38
489.261	92.38
489.479	84.38
489.696	81.38
489.914	82.38
490.132	98.38
490.35	88.38
490.568	89.38
490.786	92.38
491.003	92.38
491.221	88.38
491.439	81.38
491.657	106.38
491.874	94.38
492.092	94.38
492.31	110.38
492.527	93.38
492.745	82.38
492.963	100.38
493.18	93.38
493.398	102.38
493.615	81.38
493.833	77.38
494.05	82.38
494.268	89.38
494.485	99.38
494.703	101.38
494.92	82.38
495.138	81.38
495.355	97.38
495.573	99.38
495.79	85.38
496.008	114.38
496.225	85.38
496.442	84.38
496.66	97.38
496.877	81.38
497.094	88.38
497.312	82.38
497.529	81.38
497.746	93.38
497.963	83.38
498.181	100.38
498.398	85.38
498.615	74.38
498.832	76.38
499.049	93.38
499.267	80.38
499.484	83.38
499.701	84.38
499.918	80.38
500.135	70.38
500.352	92.38
500.569	96.38
500.786	68.38
501.003	97.38
501.22	89.38
501.437	88.38
501.654	95.38
501.871	89.38
502.088	84.38
502.305	90.38
502.522	89.38
502.739	93.38
502.956	96.38
503.172	94.38
503.389	82.38
503.606	88.38
503.823	96.38
504.04	88.38
504.256	87.38
504.473	89.38
504.69	92.38
504.907	93.38
505.123	70.38
505.34	83.38
505.557	90.38
505.773	79.38
505.99	100.38
506.207	91.38
506.423	92.38
506.64	74.38
506.856	93.38
507.073	100.38
507.289	91.38
507.506	98.38
507.722	68.38
507.939	89.38
508.155	102.38
508.372	94.38
508.588	87.38
508.805	82.38
509.021	89.38
509.238	92.38
509.454	88.38
509.67	90.38
509.887	87.38
510.103	100.38
510.319	78.38
510.536	84.38
510.752	89.38
510.968	108.38
511.184	89.38
511.401	77.38
511.617	87.38
511.833	83.38
512.049	94.38
512.265	86.38
512.481	89.38
512.698	88.38
512.914	92.38
513.13	92.38
513.346	96.38
513.562	77.38
513.778	92.38
513.994	92.38
514.21	87.38
514.426	89.38
514.642	81.38
514.858	103.38
515.074	86.38
515.29	86.38
515.506	85.38
515.721	86.38
515.937	89.38
516.153	76.38
516.369	88.38
516.585	81.38
516.801	87.38
517.016	94.38
517.232	78.38
517.448	84.38
517.664	93.38
517.879	92.38
518.095	92.38
518.311	73.38
518.527	92.38
518.742	76.38
518.958	81.38
519.173	76.38
519.389	78.38
