Data from KBrHeat1_HRD10591_00018.txt Node
Date: Fri Dec 27 14:51:37 EST 2024
User: Yrep
Spectrometer: HR+D1059
Trigger mode: 1
Integration Time (sec): 1.000000E-1
Scans to average: 1
Electric dark correction enabled: true
Nonlinearity correction enabled: false
Boxcar width: 0
XAxis mode: Wavelengths
Number of Pixels in Spectrum: 2048
>>>>>Begin Spectral Data<<<<<
223.165	-5.75
223.4	-5.75
223.635	-5.75
223.869	-15.75
224.104	-19.75
224.338	-16.75
224.573	-28.75
224.808	-14.75
225.042	-4.75
225.277	-6.75
225.511	4.25
225.746	14.25
225.98	25.25
226.215	12.25
226.449	19.25
226.683	6.25
226.918	14.25
227.152	17.25
227.387	35.25
227.621	42.25
227.856	41.25
228.09	48.25
228.324	52.25
228.559	66.25
228.793	49.25
229.027	61.25
229.262	55.25
229.496	68.25
229.73	78.25
229.964	69.25
230.199	80.25
230.433	77.25
230.667	61.25
230.901	87.25
231.136	72.25
231.37	85.25
231.604	82.25
231.838	90.25
232.072	74.25
232.306	81.25
232.541	83.25
232.775	75.25
233.009	87.25
233.243	81.25
233.477	76.25
233.711	75.25
233.945	93.25
234.179	80.25
234.413	94.25
234.647	68.25
234.881	84.25
235.115	77.25
235.349	68.25
235.583	60.25
235.817	72.25
236.051	74.25
236.285	72.25
236.519	75.25
236.753	80.25
236.987	87.25
237.221	95.25
237.455	77.25
237.689	75.25
237.922	66.25
238.156	70.25
238.39	74.25
238.624	77.25
238.858	75.25
239.091	84.25
239.325	77.25
239.559	81.25
239.793	72.25
240.027	79.25
240.26	100.25
240.494	72.25
240.728	81.25
240.961	84.25
241.195	79.25
241.429	74.25
241.662	65.25
241.896	66.25
242.13	64.25
242.363	71.25
242.597	76.25
242.83	75.25
243.064	83.25
243.298	81.25
243.531	87.25
243.765	58.25
243.998	79.25
244.232	81.25
244.465	82.25
244.699	81.25
244.932	87.25
245.166	86.25
245.399	83.25
245.633	87.25
245.866	76.25
246.099	73.25
246.333	94.25
246.566	78.25
246.8	69.25
247.033	72.25
247.266	67.25
247.5	79.25
247.733	71.25
247.966	57.25
248.2	74.25
248.433	61.25
248.666	80.25
248.899	74.25
249.133	80.25
249.366	84.25
249.599	83.25
249.832	86.25
250.066	81.25
250.299	74.25
250.532	78.25
250.765	64.25
250.998	89.25
251.231	79.25
251.465	78.25
251.698	72.25
251.931	87.25
252.164	64.25
252.397	77.25
252.63	84.25
252.863	76.25
253.096	76.25
253.329	78.25
253.562	65.25
253.795	77.25
254.028	81.25
254.261	78.25
254.494	84.25
254.727	73.25
254.96	78.25
255.193	66.25
255.426	87.25
255.659	82.25
255.892	72.25
256.124	78.25
256.357	76.25
256.59	81.25
256.823	90.25
257.056	96.25
257.289	86.25
257.521	91.25
257.754	99.25
257.987	68.25
258.22	89.25
258.452	82.25
258.685	86.25
258.918	70.25
259.151	81.25
259.383	90.25
259.616	96.25
259.849	91.25
260.081	68.25
260.314	71.25
260.547	75.25
260.779	73.25
261.012	83.25
261.244	62.25
261.477	77.25
261.71	87.25
261.942	94.25
262.175	91.25
262.407	86.25
262.64	73.25
262.872	85.25
263.105	64.25
263.337	104.25
263.57	90.25
263.802	85.25
264.035	82.25
264.267	83.25
264.499	82.25
264.732	94.25
264.964	78.25
265.197	73.25
265.429	76.25
265.661	78.25
265.894	90.25
266.126	70.25
266.358	64.25
266.591	70.25
266.823	87.25
267.055	83.25
267.287	84.25
267.52	78.25
267.752	79.25
267.984	89.25
268.216	81.25
268.448	85.25
268.681	80.25
268.913	82.25
269.145	85.25
269.377	86.25
269.609	67.25
269.841	86.25
270.073	76.25
270.306	105.25
270.538	89.25
270.77	78.25
271.002	75.25
271.234	87.25
271.466	89.25
271.698	74.25
271.93	82.25
272.162	82.25
272.394	95.25
272.626	89.25
272.858	78.25
273.09	85.25
273.322	86.25
273.553	89.25
273.785	88.25
274.017	80.25
274.249	88.25
274.481	97.25
274.713	81.25
274.945	79.25
275.176	74.25
275.408	84.25
275.64	81.25
275.872	86.25
276.104	80.25
276.335	82.25
276.567	73.25
276.799	94.25
277.031	75.25
277.262	84.25
277.494	79.25
277.726	82.25
277.957	80.25
278.189	74.25
278.421	89.25
278.652	64.25
278.884	84.25
279.115	83.25
279.347	83.25
279.579	78.25
279.81	61.25
280.042	100.25
280.273	83.25
280.505	82.25
280.736	78.25
280.968	83.25
281.199	94.25
281.431	96.25
281.662	77.25
281.894	75.25
282.125	89.25
282.356	88.25
282.588	77.25
282.819	72.25
283.051	78.25
283.282	74.25
283.513	81.25
283.745	90.25
283.976	84.25
284.207	87.25
284.439	89.25
284.67	81.25
284.901	87.25
285.132	79.25
285.364	85.25
285.595	102.25
285.826	82.25
286.057	86.25
286.288	85.25
286.52	95.25
286.751	71.25
286.982	89.25
287.213	81.25
287.444	87.25
287.675	85.25
287.906	96.25
288.138	92.25
288.369	78.25
288.6	70.25
288.831	72.25
289.062	83.25
289.293	85.25
289.524	81.25
289.755	80.25
289.986	76.25
290.217	89.25
290.448	89.25
290.679	89.25
290.91	94.25
291.141	76.25
291.371	88.25
291.602	88.25
291.833	84.25
292.064	100.25
292.295	69.25
292.526	84.25
292.757	89.25
292.987	99.25
293.218	87.25
293.449	91.25
293.68	92.25
293.91	84.25
294.141	81.25
294.372	83.25
294.603	95.25
294.833	82.25
295.064	85.25
295.295	81.25
295.525	79.25
295.756	88.25
295.987	69.25
296.217	86.25
296.448	79.25
296.679	84.25
296.909	78.25
297.14	93.25
297.37	82.25
297.601	83.25
297.831	81.25
298.062	89.25
298.292	90.25
298.523	85.25
298.753	79.25
298.984	90.25
299.214	76.25
299.445	81.25
299.675	78.25
299.905	85.25
300.136	96.25
300.366	90.25
300.597	85.25
300.827	73.25
301.057	81.25
301.288	73.25
301.518	86.25
301.748	97.25
301.979	100.25
302.209	87.25
302.439	78.25
302.669	92.25
302.9	90.25
303.13	95.25
303.36	85.25
303.59	89.25
303.82	83.25
304.051	84.25
304.281	97.25
304.511	84.25
304.741	90.25
304.971	89.25
305.201	83.25
305.431	83.25
305.661	93.25
305.891	86.25
306.121	89.25
306.352	83.25
306.582	90.25
306.812	85.25
307.042	98.25
307.272	89.25
307.502	85.25
307.731	85.25
307.961	78.25
308.191	97.25
308.421	92.25
308.651	75.25
308.881	81.25
309.111	74.25
309.341	83.25
309.571	85.25
309.8	88.25
310.03	75.25
310.26	72.25
310.49	83.25
310.72	88.25
310.949	83.25
311.179	88.25
311.409	72.25
311.639	89.25
311.868	86.25
312.098	85.25
312.328	74.25
312.557	100.25
312.787	76.25
313.017	89.25
313.246	78.25
313.476	88.25
313.706	87.25
313.935	87.25
314.165	80.25
314.394	90.25
314.624	87.25
314.853	80.25
315.083	94.25
315.312	79.25
315.542	94.25
315.771	74.25
316.001	89.25
316.23	94.25
316.46	80.25
316.689	75.25
316.919	92.25
317.148	74.25
317.377	80.25
317.607	86.25
317.836	75.25
318.065	88.25
318.295	84.25
318.524	85.25
318.753	90.25
318.983	91.25
319.212	85.25
319.441	92.25
319.67	90.25
319.9	85.25
320.129	79.25
320.358	84.25
320.587	78.25
320.816	82.25
321.046	96.25
321.275	83.25
321.504	73.25
321.733	70.25
321.962	87.25
322.191	86.25
322.42	89.25
322.649	94.25
322.878	96.25
323.108	100.25
323.337	84.25
323.566	67.25
323.795	88.25
324.024	91.25
324.253	104.25
324.482	100.25
324.71	94.25
324.939	72.25
325.168	87.25
325.397	90.25
325.626	101.25
325.855	75.25
326.084	81.25
326.313	101.25
326.542	82.25
326.77	88.25
326.999	85.25
327.228	83.25
327.457	80.25
327.686	109.25
327.914	102.25
328.143	96.25
328.372	82.25
328.6	83.25
328.829	91.25
329.058	88.25
329.287	89.25
329.515	78.25
329.744	85.25
329.972	86.25
330.201	84.25
330.43	73.25
330.658	80.25
330.887	78.25
331.115	69.25
331.344	86.25
331.572	90.25
331.801	76.25
332.03	89.25
332.258	71.25
332.486	86.25
332.715	101.25
332.943	79.25
333.172	79.25
333.4	75.25
333.629	77.25
333.857	86.25
334.085	75.25
334.314	75.25
334.542	82.25
334.771	74.25
334.999	90.25
335.227	88.25
335.455	97.25
335.684	91.25
335.912	89.25
336.14	74.25
336.369	101.25
336.597	96.25
336.825	78.25
337.053	83.25
337.281	81.25
337.51	87.25
337.738	87.25
337.966	75.25
338.194	79.25
338.422	85.25
338.65	74.25
338.878	80.25
339.106	75.25
339.334	92.25
339.562	84.25
339.79	89.25
340.018	89.25
340.246	83.25
340.474	98.25
340.702	88.25
340.93	72.25
341.158	91.25
341.386	79.25
341.614	80.25
341.842	94.25
342.07	95.25
342.298	93.25
342.526	102.25
342.754	83.25
342.981	96.25
343.209	75.25
343.437	103.25
343.665	79.25
343.893	80.25
344.12	89.25
344.348	91.25
344.576	87.25
344.804	104.25
345.031	112.25
345.259	83.25
345.487	85.25
345.714	74.25
345.942	76.25
346.17	90.25
346.397	87.25
346.625	81.25
346.853	91.25
347.08	84.25
347.308	89.25
347.535	82.25
347.763	74.25
347.99	77.25
348.218	96.25
348.445	81.25
348.673	94.25
348.9	85.25
349.128	98.25
349.355	97.25
349.583	89.25
349.81	70.25
350.037	100.25
350.265	99.25
350.492	89.25
350.72	73.25
350.947	83.25
351.174	100.25
351.402	85.25
351.629	90.25
351.856	96.25
352.083	91.25
352.311	85.25
352.538	87.25
352.765	84.25
352.992	96.25
353.22	99.25
353.447	97.25
353.674	90.25
353.901	75.25
354.128	94.25
354.355	85.25
354.583	83.25
354.81	86.25
355.037	99.25
355.264	101.25
355.491	88.25
355.718	73.25
355.945	88.25
356.172	84.25
356.399	83.25
356.626	73.25
356.853	73.25
357.08	104.25
357.307	92.25
357.534	82.25
357.761	92.25
357.988	87.25
358.215	82.25
358.441	90.25
358.668	91.25
358.895	82.25
359.122	75.25
359.349	90.25
359.576	90.25
359.802	83.25
360.029	76.25
360.256	101.25
360.483	92.25
360.709	92.25
360.936	84.25
361.163	74.25
361.39	69.25
361.616	86.25
361.843	82.25
362.07	83.25
362.296	75.25
362.523	87.25
362.749	79.25
362.976	99.25
363.203	85.25
363.429	80.25
363.656	97.25
363.882	98.25
364.109	83.25
364.335	84.25
364.562	95.25
364.788	89.25
365.015	80.25
365.241	98.25
365.468	84.25
365.694	81.25
365.92	87.25
366.147	85.25
366.373	83.25
366.599	90.25
366.826	82.25
367.052	86.25
367.278	66.25
367.505	73.25
367.731	100.25
367.957	82.25
368.184	103.25
368.41	96.25
368.636	76.25
368.862	94.25
369.089	88.25
369.315	81.25
369.541	102.25
369.767	90.25
369.993	77.25
370.219	74.25
370.445	91.25
370.672	79.25
370.898	88.25
371.124	74.25
371.35	61.25
371.576	87.25
371.802	83.25
372.028	76.25
372.254	74.25
372.48	83.25
372.706	89.25
372.932	84.25
373.158	87.25
373.384	80.25
373.61	99.25
373.835	78.25
374.061	100.25
374.287	88.25
374.513	76.25
374.739	82.25
374.965	76.25
375.191	78.25
375.416	73.25
375.642	80.25
375.868	79.25
376.094	84.25
376.319	82.25
376.545	92.25
376.771	80.25
376.997	76.25
377.222	82.25
377.448	80.25
377.674	90.25
377.899	80.25
378.125	75.25
378.35	93.25
378.576	78.25
378.802	79.25
379.027	86.25
379.253	94.25
379.478	85.25
379.704	96.25
379.929	82.25
380.155	89.25
380.38	81.25
380.606	70.25
380.831	77.25
381.057	82.25
381.282	82.25
381.507	83.25
381.733	73.25
381.958	80.25
382.184	94.25
382.409	85.25
382.634	83.25
382.86	82.25
383.085	86.25
383.31	86.25
383.535	83.25
383.761	89.25
383.986	86.25
384.211	87.25
384.436	81.25
384.662	67.25
384.887	95.25
385.112	78.25
385.337	86.25
385.562	75.25
385.787	86.25
386.013	81.25
386.238	80.25
386.463	81.25
386.688	100.25
386.913	94.25
387.138	90.25
387.363	90.25
387.588	70.25
387.813	92.25
388.038	99.25
388.263	86.25
388.488	71.25
388.713	79.25
388.938	79.25
389.163	95.25
389.387	63.25
389.612	98.25
389.837	84.25
390.062	96.25
390.287	83.25
390.512	76.25
390.736	80.25
390.961	82.25
391.186	73.25
391.411	75.25
391.636	86.25
391.86	83.25
392.085	90.25
392.31	84.25
392.534	77.25
392.759	93.25
392.984	97.25
393.208	97.25
393.433	81.25
393.658	90.25
393.882	74.25
394.107	87.25
394.331	93.25
394.556	87.25
394.78	84.25
395.005	72.25
395.229	94.25
395.454	79.25
395.678	80.25
395.903	81.25
396.127	96.25
396.352	102.25
396.576	87.25
396.801	78.25
397.025	72.25
397.249	85.25
397.474	87.25
397.698	88.25
397.922	79.25
398.147	89.25
398.371	99.25
398.595	106.25
398.82	91.25
399.044	86.25
399.268	76.25
399.492	68.25
399.717	81.25
399.941	90.25
400.165	80.25
400.389	80.25
400.613	78.25
400.837	96.25
401.062	91.25
401.286	87.25
401.51	86.25
401.734	95.25
401.958	94.25
402.182	90.25
402.406	84.25
402.63	90.25
402.854	81.25
403.078	108.25
403.302	99.25
403.526	81.25
403.75	100.25
403.974	120.25
404.198	143.25
404.422	178.25
404.645	191.25
404.869	180.25
405.093	124.25
405.317	104.25
405.541	83.25
405.765	85.25
405.988	72.25
406.212	91.25
406.436	90.25
406.66	102.25
406.883	82.25
407.107	86.25
407.331	80.25
407.555	69.25
407.778	85.25
408.002	108.25
408.226	100.25
408.449	77.25
408.673	70.25
408.896	94.25
409.12	97.25
409.344	67.25
409.567	77.25
409.791	94.25
410.014	90.25
410.238	78.25
410.461	80.25
410.685	94.25
410.908	96.25
411.132	78.25
411.355	83.25
411.578	78.25
411.802	89.25
412.025	89.25
412.249	83.25
412.472	80.25
412.695	75.25
412.919	84.25
413.142	87.25
413.365	85.25
413.589	93.25
413.812	91.25
414.035	109.25
414.258	76.25
414.482	84.25
414.705	82.25
414.928	76.25
415.151	73.25
415.374	101.25
415.597	97.25
415.821	87.25
416.044	86.25
416.267	94.25
416.49	71.25
416.713	83.25
416.936	92.25
417.159	73.25
417.382	87.25
417.605	78.25
417.828	72.25
418.051	85.25
418.274	84.25
418.497	77.25
418.72	71.25
418.943	74.25
419.166	102.25
419.389	107.25
419.611	90.25
419.834	69.25
420.057	72.25
420.28	91.25
420.503	80.25
420.726	87.25
420.948	80.25
421.171	85.25
421.394	70.25
421.617	74.25
421.839	86.25
422.062	82.25
422.285	87.25
422.507	78.25
422.73	101.25
422.953	90.25
423.175	75.25
423.398	86.25
423.621	76.25
423.843	74.25
424.066	90.25
424.288	99.25
424.511	76.25
424.733	82.25
424.956	88.25
425.178	83.25
425.401	76.25
425.623	72.25
425.846	87.25
426.068	81.25
426.291	92.25
426.513	87.25
426.735	67.25
426.958	72.25
427.18	92.25
427.402	103.25
427.625	75.25
427.847	87.25
428.069	90.25
428.292	86.25
428.514	81.25
428.736	79.25
428.958	102.25
429.181	82.25
429.403	74.25
429.625	80.25
429.847	88.25
430.069	105.25
430.292	73.25
430.514	87.25
430.736	82.25
430.958	82.25
431.18	86.25
431.402	88.25
431.624	71.25
431.846	87.25
432.068	88.25
432.29	95.25
432.512	96.25
432.734	88.25
432.956	82.25
433.178	86.25
433.4	83.25
433.622	89.25
433.844	87.25
434.066	81.25
434.287	90.25
434.509	91.25
434.731	92.25
434.953	83.25
435.175	89.25
435.397	87.25
435.618	96.25
435.84	89.25
436.062	78.25
436.284	94.25
436.505	90.25
436.727	91.25
436.949	102.25
437.17	91.25
437.392	83.25
437.614	83.25
437.835	99.25
438.057	68.25
438.278	85.25
438.5	76.25
438.721	94.25
438.943	91.25
439.165	86.25
439.386	90.25
439.608	94.25
439.829	91.25
440.05	82.25
440.272	102.25
440.493	82.25
440.715	71.25
440.936	85.25
441.158	98.25
441.379	83.25
441.6	86.25
441.822	97.25
442.043	77.25
442.264	92.25
442.486	88.25
442.707	84.25
442.928	92.25
443.149	80.25
443.371	100.25
443.592	94.25
443.813	71.25
444.034	91.25
444.255	79.25
444.476	83.25
444.698	84.25
444.919	81.25
445.14	134.25
445.361	107.25
445.582	84.25
445.803	75.25
446.024	79.25
446.245	100.25
446.466	80.25
446.687	93.25
446.908	76.25
447.129	78.25
447.35	68.25
447.571	83.25
447.792	91.25
448.013	83.25
448.234	97.25
448.455	89.25
448.675	88.25
448.896	87.25
449.117	88.25
449.338	78.25
449.559	82.25
449.779	86.25
450	90.25
450.221	80.25
450.442	98.25
450.662	99.25
450.883	85.25
451.104	90.25
451.324	79.25
451.545	105.25
451.766	96.25
451.986	79.25
452.207	75.25
452.428	83.25
452.648	79.25
452.869	88.25
453.089	75.25
453.31	90.25
453.53	76.25
453.751	87.25
453.971	86.25
454.192	72.25
454.412	89.25
454.633	89.25
454.853	77.25
455.073	84.25
455.294	88.25
455.514	97.25
455.734	87.25
455.955	94.25
456.175	81.25
456.395	97.25
456.616	93.25
456.836	101.25
457.056	72.25
457.276	86.25
457.497	92.25
457.717	76.25
457.937	85.25
458.157	80.25
458.377	81.25
458.598	91.25
458.818	79.25
459.038	98.25
459.258	80.25
459.478	85.25
459.698	91.25
459.918	82.25
460.138	88.25
460.358	88.25
460.578	70.25
460.798	94.25
461.018	87.25
461.238	88.25
461.458	78.25
461.678	76.25
461.898	92.25
462.118	95.25
462.338	89.25
462.558	80.25
462.777	89.25
462.997	98.25
463.217	104.25
463.437	86.25
463.657	86.25
463.876	99.25
464.096	97.25
464.316	84.25
464.536	72.25
464.755	84.25
464.975	85.25
465.195	94.25
465.414	88.25
465.634	94.25
465.854	76.25
466.073	82.25
466.293	82.25
466.512	70.25
466.732	89.25
466.951	81.25
467.171	100.25
467.391	90.25
467.61	80.25
467.829	85.25
468.049	102.25
468.268	97.25
468.488	88.25
468.707	90.25
468.927	89.25
469.146	92.25
469.365	75.25
469.585	81.25
469.804	84.25
470.023	97.25
470.243	78.25
470.462	87.25
470.681	81.25
470.901	86.25
471.12	90.25
471.339	92.25
471.558	99.25
471.777	98.25
471.997	96.25
472.216	93.25
472.435	96.25
472.654	95.25
472.873	95.25
473.092	90.25
473.311	84.25
473.53	85.25
473.749	73.25
473.968	79.25
474.187	86.25
474.406	70.25
474.625	95.25
474.844	91.25
475.063	70.25
475.282	78.25
475.501	103.25
475.72	94.25
475.939	94.25
476.158	83.25
476.377	88.25
476.596	78.25
476.814	88.25
477.033	87.25
477.252	85.25
477.471	94.25
477.69	84.25
477.908	82.25
478.127	98.25
478.346	89.25
478.564	88.25
478.783	81.25
479.002	86.25
479.22	84.25
479.439	107.25
479.658	85.25
479.876	90.25
480.095	88.25
480.313	67.25
480.532	74.25
480.751	79.25
480.969	102.25
481.188	89.25
481.406	100.25
481.624	96.25
481.843	92.25
482.061	82.25
482.28	78.25
482.498	86.25
482.717	102.25
482.935	100.25
483.153	86.25
483.372	93.25
483.59	96.25
483.808	90.25
484.027	92.25
484.245	83.25
484.463	89.25
484.681	98.25
484.9	82.25
485.118	94.25
485.336	78.25
485.554	70.25
485.772	90.25
485.99	102.25
486.209	82.25
486.427	103.25
486.645	84.25
486.863	94.25
487.081	76.25
487.299	86.25
487.517	74.25
487.735	97.25
487.953	82.25
488.171	76.25
488.389	91.25
488.607	94.25
488.825	102.25
489.043	88.25
489.261	106.25
489.479	78.25
489.696	94.25
489.914	100.25
490.132	98.25
490.35	103.25
490.568	88.25
490.786	100.25
491.003	99.25
491.221	91.25
491.439	87.25
491.657	94.25
491.874	82.25
492.092	88.25
492.31	91.25
492.527	89.25
492.745	82.25
492.963	101.25
493.18	78.25
493.398	100.25
493.615	106.25
493.833	87.25
494.05	100.25
494.268	78.25
494.485	106.25
494.703	101.25
494.92	103.25
495.138	97.25
495.355	98.25
495.573	102.25
495.79	91.25
496.008	100.25
496.225	100.25
496.442	102.25
496.66	82.25
496.877	89.25
497.094	94.25
497.312	92.25
497.529	89.25
497.746	95.25
497.963	78.25
498.181	88.25
498.398	88.25
498.615	103.25
498.832	90.25
499.049	94.25
499.267	81.25
499.484	84.25
499.701	98.25
499.918	80.25
500.135	92.25
500.352	90.25
500.569	99.25
500.786	98.25
501.003	79.25
501.22	112.25
501.437	105.25
501.654	79.25
501.871	73.25
502.088	75.25
502.305	90.25
502.522	68.25
502.739	91.25
502.956	102.25
503.172	100.25
503.389	76.25
503.606	85.25
503.823	84.25
504.04	95.25
504.256	93.25
504.473	87.25
504.69	76.25
504.907	99.25
505.123	85.25
505.34	90.25
505.557	89.25
505.773	88.25
505.99	78.25
506.207	94.25
506.423	88.25
506.64	78.25
506.856	97.25
507.073	100.25
507.289	96.25
507.506	89.25
507.722	85.25
507.939	90.25
508.155	88.25
508.372	91.25
508.588	87.25
508.805	95.25
509.021	73.25
509.238	85.25
509.454	96.25
509.67	104.25
509.887	92.25
510.103	91.25
510.319	110.25
510.536	104.25
510.752	86.25
510.968	84.25
511.184	69.25
511.401	83.25
511.617	91.25
511.833	84.25
512.049	98.25
512.265	106.25
512.481	102.25
512.698	92.25
512.914	82.25
513.13	87.25
513.346	94.25
513.562	91.25
513.778	69.25
513.994	86.25
514.21	76.25
514.426	95.25
514.642	94.25
514.858	95.25
515.074	78.25
515.29	98.25
515.506	86.25
515.721	94.25
515.937	88.25
516.153	81.25
516.369	79.25
516.585	89.25
516.801	83.25
517.016	94.25
517.232	76.25
517.448	83.25
517.664	97.25
517.879	85.25
518.095	93.25
518.311	102.25
518.527	77.25
518.742	98.25
518.958	87.25
