Data from KBrHeat1_HRD10591_00006.txt Node
Date: Fri Dec 27 14:51:25 EST 2024
User: Yrep
Spectrometer: HR+D1059
Trigger mode: 1
Integration Time (sec): 1.000000E-1
Scans to average: 1
Electric dark correction enabled: true
Nonlinearity correction enabled: false
Boxcar width: 0
XAxis mode: Wavelengths
Number of Pixels in Spectrum: 2048
>>>>>Begin Spectral Data<<<<<
223.165	-23.38
223.4	-23.38
223.635	-23.38
223.869	-24.38
224.104	-16.38
224.338	-14.38
224.573	-10.38
224.808	-7.38
225.042	-12.38
225.277	2.62
225.511	-8.38
225.746	12.62
225.98	3.62
226.215	10.62
226.449	16.62
226.683	15.62
226.918	15.62
227.152	39.62
227.387	54.62
227.621	45.62
227.856	35.62
228.09	53.62
228.324	50.62
228.559	62.62
228.793	73.62
229.027	54.62
229.262	54.62
229.496	74.62
229.73	82.62
229.964	71.62
230.199	67.62
230.433	74.62
230.667	72.62
230.901	83.62
231.136	81.62
231.37	87.62
231.604	86.62
231.838	91.62
232.072	77.62
232.306	76.62
232.541	75.62
232.775	82.62
233.009	73.62
233.243	71.62
233.477	95.62
233.711	90.62
233.945	86.62
234.179	78.62
234.413	69.62
234.647	73.62
234.881	72.62
235.115	76.62
235.349	66.62
235.583	81.62
235.817	87.62
236.051	77.62
236.285	87.62
236.519	64.62
236.753	68.62
236.987	59.62
237.221	75.62
237.455	76.62
237.689	80.62
237.922	66.62
238.156	82.62
238.39	76.62
238.624	86.62
238.858	80.62
239.091	69.62
239.325	75.62
239.559	70.62
239.793	76.62
240.027	80.62
240.26	84.62
240.494	77.62
240.728	77.62
240.961	79.62
241.195	82.62
241.429	78.62
241.662	69.62
241.896	81.62
242.13	74.62
242.363	81.62
242.597	67.62
242.83	79.62
243.064	68.62
243.298	73.62
243.531	76.62
243.765	75.62
243.998	76.62
244.232	70.62
244.465	76.62
244.699	84.62
244.932	85.62
245.166	74.62
245.399	75.62
245.633	80.62
245.866	74.62
246.099	93.62
246.333	74.62
246.566	74.62
246.8	78.62
247.033	81.62
247.266	79.62
247.5	74.62
247.733	75.62
247.966	75.62
248.2	77.62
248.433	81.62
248.666	70.62
248.899	76.62
249.133	93.62
249.366	97.62
249.599	93.62
249.832	84.62
250.066	83.62
250.299	79.62
250.532	75.62
250.765	89.62
250.998	71.62
251.231	82.62
251.465	82.62
251.698	72.62
251.931	65.62
252.164	63.62
252.397	79.62
252.63	82.62
252.863	83.62
253.096	75.62
253.329	74.62
253.562	84.62
253.795	89.62
254.028	80.62
254.261	83.62
254.494	90.62
254.727	78.62
254.96	75.62
255.193	69.62
255.426	70.62
255.659	79.62
255.892	78.62
256.124	73.62
256.357	76.62
256.59	59.62
256.823	90.62
257.056	78.62
257.289	74.62
257.521	79.62
257.754	86.62
257.987	81.62
258.22	90.62
258.452	81.62
258.685	83.62
258.918	86.62
259.151	92.62
259.383	70.62
259.616	79.62
259.849	70.62
260.081	87.62
260.314	76.62
260.547	77.62
260.779	78.62
261.012	86.62
261.244	73.62
261.477	100.62
261.71	77.62
261.942	84.62
262.175	84.62
262.407	78.62
262.64	79.62
262.872	73.62
263.105	73.62
263.337	80.62
263.57	87.62
263.802	71.62
264.035	91.62
264.267	69.62
264.499	79.62
264.732	76.62
264.964	80.62
265.197	83.62
265.429	87.62
265.661	77.62
265.894	64.62
266.126	75.62
266.358	93.62
266.591	83.62
266.823	85.62
267.055	70.62
267.287	94.62
267.52	82.62
267.752	85.62
267.984	86.62
268.216	90.62
268.448	75.62
268.681	86.62
268.913	91.62
269.145	87.62
269.377	79.62
269.609	62.62
269.841	94.62
270.073	77.62
270.306	78.62
270.538	70.62
270.77	86.62
271.002	84.62
271.234	87.62
271.466	86.62
271.698	82.62
271.93	93.62
272.162	93.62
272.394	80.62
272.626	78.62
272.858	82.62
273.09	82.62
273.322	87.62
273.553	90.62
273.785	88.62
274.017	82.62
274.249	78.62
274.481	86.62
274.713	95.62
274.945	85.62
275.176	86.62
275.408	81.62
275.64	75.62
275.872	85.62
276.104	72.62
276.335	91.62
276.567	88.62
276.799	74.62
277.031	84.62
277.262	71.62
277.494	92.62
277.726	75.62
277.957	85.62
278.189	77.62
278.421	78.62
278.652	86.62
278.884	75.62
279.115	89.62
279.347	74.62
279.579	94.62
279.81	82.62
280.042	76.62
280.273	84.62
280.505	81.62
280.736	87.62
280.968	85.62
281.199	85.62
281.431	83.62
281.662	76.62
281.894	78.62
282.125	82.62
282.356	69.62
282.588	77.62
282.819	91.62
283.051	87.62
283.282	98.62
283.513	91.62
283.745	97.62
283.976	85.62
284.207	97.62
284.439	80.62
284.67	90.62
284.901	91.62
285.132	90.62
285.364	87.62
285.595	87.62
285.826	83.62
286.057	85.62
286.288	84.62
286.52	75.62
286.751	86.62
286.982	81.62
287.213	70.62
287.444	93.62
287.675	74.62
287.906	79.62
288.138	60.62
288.369	82.62
288.6	94.62
288.831	84.62
289.062	82.62
289.293	84.62
289.524	82.62
289.755	85.62
289.986	73.62
290.217	87.62
290.448	94.62
290.679	97.62
290.91	91.62
291.141	91.62
291.371	94.62
291.602	77.62
291.833	65.62
292.064	76.62
292.295	78.62
292.526	79.62
292.757	75.62
292.987	72.62
293.218	81.62
293.449	84.62
293.68	85.62
293.91	90.62
294.141	87.62
294.372	74.62
294.603	69.62
294.833	98.62
295.064	86.62
295.295	79.62
295.525	76.62
295.756	81.62
295.987	74.62
296.217	64.62
296.448	82.62
296.679	89.62
296.909	81.62
297.14	71.62
297.37	67.62
297.601	79.62
297.831	74.62
298.062	80.62
298.292	83.62
298.523	82.62
298.753	83.62
298.984	93.62
299.214	91.62
299.445	87.62
299.675	89.62
299.905	94.62
300.136	76.62
300.366	82.62
300.597	90.62
300.827	93.62
301.057	93.62
301.288	98.62
301.518	91.62
301.748	77.62
301.979	97.62
302.209	97.62
302.439	77.62
302.669	95.62
302.9	81.62
303.13	93.62
303.36	92.62
303.59	87.62
303.82	86.62
304.051	90.62
304.281	89.62
304.511	83.62
304.741	86.62
304.971	97.62
305.201	81.62
305.431	80.62
305.661	93.62
305.891	85.62
306.121	82.62
306.352	86.62
306.582	83.62
306.812	89.62
307.042	92.62
307.272	91.62
307.502	93.62
307.731	86.62
307.961	84.62
308.191	88.62
308.421	83.62
308.651	82.62
308.881	94.62
309.111	93.62
309.341	71.62
309.571	70.62
309.8	87.62
310.03	82.62
310.26	101.62
310.49	95.62
310.72	81.62
310.949	85.62
311.179	86.62
311.409	71.62
311.639	91.62
311.868	100.62
312.098	87.62
312.328	87.62
312.557	86.62
312.787	80.62
313.017	80.62
313.246	93.62
313.476	81.62
313.706	98.62
313.935	80.62
314.165	90.62
314.394	85.62
314.624	100.62
314.853	94.62
315.083	90.62
315.312	95.62
315.542	84.62
315.771	81.62
316.001	85.62
316.23	79.62
316.46	84.62
316.689	71.62
316.919	82.62
317.148	97.62
317.377	82.62
317.607	96.62
317.836	85.62
318.065	99.62
318.295	100.62
318.524	100.62
318.753	98.62
318.983	86.62
319.212	79.62
319.441	83.62
319.67	87.62
319.9	78.62
320.129	95.62
320.358	83.62
320.587	86.62
320.816	83.62
321.046	82.62
321.275	89.62
321.504	79.62
321.733	94.62
321.962	77.62
322.191	83.62
322.42	82.62
322.649	64.62
322.878	85.62
323.108	79.62
323.337	85.62
323.566	83.62
323.795	87.62
324.024	74.62
324.253	94.62
324.482	100.62
324.71	92.62
324.939	79.62
325.168	85.62
325.397	91.62
325.626	90.62
325.855	94.62
326.084	93.62
326.313	87.62
326.542	84.62
326.77	76.62
326.999	83.62
327.228	72.62
327.457	78.62
327.686	87.62
327.914	88.62
328.143	93.62
328.372	86.62
328.6	78.62
328.829	91.62
329.058	75.62
329.287	73.62
329.515	82.62
329.744	86.62
329.972	95.62
330.201	97.62
330.43	82.62
330.658	94.62
330.887	87.62
331.115	95.62
331.344	88.62
331.572	89.62
331.801	97.62
332.03	92.62
332.258	84.62
332.486	91.62
332.715	88.62
332.943	100.62
333.172	94.62
333.4	77.62
333.629	100.62
333.857	94.62
334.085	80.62
334.314	69.62
334.542	82.62
334.771	79.62
334.999	82.62
335.227	89.62
335.455	88.62
335.684	87.62
335.912	84.62
336.14	74.62
336.369	105.62
336.597	90.62
336.825	87.62
337.053	78.62
337.281	85.62
337.51	99.62
337.738	82.62
337.966	92.62
338.194	90.62
338.422	97.62
338.65	77.62
338.878	87.62
339.106	85.62
339.334	93.62
339.562	98.62
339.79	93.62
340.018	69.62
340.246	92.62
340.474	93.62
340.702	90.62
340.93	83.62
341.158	93.62
341.386	81.62
341.614	92.62
341.842	82.62
342.07	85.62
342.298	94.62
342.526	91.62
342.754	76.62
342.981	78.62
343.209	76.62
343.437	91.62
343.665	101.62
343.893	90.62
344.12	89.62
344.348	102.62
344.576	99.62
344.804	108.62
345.031	100.62
345.259	91.62
345.487	96.62
345.714	91.62
345.942	85.62
346.17	81.62
346.397	81.62
346.625	71.62
346.853	94.62
347.08	79.62
347.308	78.62
347.535	84.62
347.763	83.62
347.99	102.62
348.218	95.62
348.445	81.62
348.673	80.62
348.9	87.62
349.128	92.62
349.355	83.62
349.583	87.62
349.81	83.62
350.037	86.62
350.265	102.62
350.492	80.62
350.72	78.62
350.947	82.62
351.174	96.62
351.402	91.62
351.629	77.62
351.856	86.62
352.083	93.62
352.311	75.62
352.538	104.62
352.765	94.62
352.992	90.62
353.22	76.62
353.447	82.62
353.674	83.62
353.901	87.62
354.128	97.62
354.355	77.62
354.583	84.62
354.81	97.62
355.037	93.62
355.264	87.62
355.491	90.62
355.718	90.62
355.945	87.62
356.172	101.62
356.399	82.62
356.626	85.62
356.853	94.62
357.08	100.62
357.307	84.62
357.534	87.62
357.761	87.62
357.988	86.62
358.215	90.62
358.441	92.62
358.668	87.62
358.895	92.62
359.122	79.62
359.349	88.62
359.576	83.62
359.802	90.62
360.029	92.62
360.256	94.62
360.483	101.62
360.709	91.62
360.936	84.62
361.163	81.62
361.39	77.62
361.616	85.62
361.843	99.62
362.07	105.62
362.296	86.62
362.523	96.62
362.749	79.62
362.976	105.62
363.203	85.62
363.429	78.62
363.656	99.62
363.882	98.62
364.109	91.62
364.335	90.62
364.562	97.62
364.788	84.62
365.015	101.62
365.241	87.62
365.468	86.62
365.694	81.62
365.92	79.62
366.147	89.62
366.373	81.62
366.599	101.62
366.826	95.62
367.052	85.62
367.278	86.62
367.505	82.62
367.731	79.62
367.957	92.62
368.184	75.62
368.41	79.62
368.636	92.62
368.862	89.62
369.089	83.62
369.315	80.62
369.541	93.62
369.767	87.62
369.993	92.62
370.219	90.62
370.445	81.62
370.672	77.62
370.898	83.62
371.124	77.62
371.35	100.62
371.576	89.62
371.802	82.62
372.028	91.62
372.254	84.62
372.48	91.62
372.706	93.62
372.932	78.62
373.158	79.62
373.384	91.62
373.61	104.62
373.835	92.62
374.061	87.62
374.287	82.62
374.513	71.62
374.739	75.62
374.965	90.62
375.191	76.62
375.416	105.62
375.642	66.62
375.868	83.62
376.094	85.62
376.319	84.62
376.545	75.62
376.771	84.62
376.997	74.62
377.222	89.62
377.448	81.62
377.674	81.62
377.899	87.62
378.125	89.62
378.35	86.62
378.576	90.62
378.802	88.62
379.027	82.62
379.253	90.62
379.478	90.62
379.704	82.62
379.929	77.62
380.155	99.62
380.38	71.62
380.606	81.62
380.831	85.62
381.057	86.62
381.282	88.62
381.507	94.62
381.733	94.62
381.958	89.62
382.184	93.62
382.409	90.62
382.634	100.62
382.86	77.62
383.085	68.62
383.31	93.62
383.535	70.62
383.761	91.62
383.986	87.62
384.211	76.62
384.436	71.62
384.662	78.62
384.887	77.62
385.112	74.62
385.337	96.62
385.562	84.62
385.787	92.62
386.013	90.62
386.238	89.62
386.463	90.62
386.688	92.62
386.913	76.62
387.138	95.62
387.363	90.62
387.588	87.62
387.813	83.62
388.038	77.62
388.263	91.62
388.488	83.62
388.713	83.62
388.938	83.62
389.163	78.62
389.387	95.62
389.612	87.62
389.837	77.62
390.062	91.62
390.287	97.62
390.512	72.62
390.736	80.62
390.961	90.62
391.186	90.62
391.411	96.62
391.636	79.62
391.86	78.62
392.085	79.62
392.31	96.62
392.534	87.62
392.759	96.62
392.984	72.62
393.208	79.62
393.433	87.62
393.658	82.62
393.882	86.62
394.107	97.62
394.331	86.62
394.556	81.62
394.78	91.62
395.005	89.62
395.229	83.62
395.454	92.62
395.678	86.62
395.903	87.62
396.127	88.62
396.352	83.62
396.576	82.62
396.801	70.62
397.025	92.62
397.249	89.62
397.474	95.62
397.698	85.62
397.922	76.62
398.147	77.62
398.371	84.62
398.595	84.62
398.82	77.62
399.044	103.62
399.268	87.62
399.492	88.62
399.717	99.62
399.941	90.62
400.165	88.62
400.389	77.62
400.613	87.62
400.837	80.62
401.062	97.62
401.286	97.62
401.51	102.62
401.734	93.62
401.958	97.62
402.182	91.62
402.406	103.62
402.63	74.62
402.854	83.62
403.078	90.62
403.302	88.62
403.526	92.62
403.75	111.62
403.974	110.62
404.198	135.62
404.422	183.62
404.645	201.62
404.869	191.62
405.093	136.62
405.317	116.62
405.541	107.62
405.765	90.62
405.988	91.62
406.212	78.62
406.436	86.62
406.66	87.62
406.883	94.62
407.107	90.62
407.331	83.62
407.555	104.62
407.778	85.62
408.002	80.62
408.226	86.62
408.449	99.62
408.673	79.62
408.896	82.62
409.12	88.62
409.344	82.62
409.567	79.62
409.791	90.62
410.014	73.62
410.238	103.62
410.461	93.62
410.685	74.62
410.908	84.62
411.132	96.62
411.355	97.62
411.578	101.62
411.802	81.62
412.025	86.62
412.249	81.62
412.472	91.62
412.695	102.62
412.919	78.62
413.142	83.62
413.365	96.62
413.589	94.62
413.812	79.62
414.035	88.62
414.258	77.62
414.482	90.62
414.705	95.62
414.928	89.62
415.151	74.62
415.374	80.62
415.597	98.62
415.821	69.62
416.044	96.62
416.267	90.62
416.49	84.62
416.713	82.62
416.936	79.62
417.159	92.62
417.382	84.62
417.605	78.62
417.828	99.62
418.051	84.62
418.274	75.62
418.497	90.62
418.72	89.62
418.943	89.62
419.166	89.62
419.389	98.62
419.611	89.62
419.834	91.62
420.057	90.62
420.28	90.62
420.503	86.62
420.726	98.62
420.948	79.62
421.171	87.62
421.394	66.62
421.617	73.62
421.839	95.62
422.062	83.62
422.285	91.62
422.507	82.62
422.73	90.62
422.953	101.62
423.175	88.62
423.398	78.62
423.621	86.62
423.843	79.62
424.066	83.62
424.288	95.62
424.511	86.62
424.733	90.62
424.956	85.62
425.178	83.62
425.401	98.62
425.623	83.62
425.846	94.62
426.068	85.62
426.291	78.62
426.513	87.62
426.735	85.62
426.958	76.62
427.18	86.62
427.402	99.62
427.625	77.62
427.847	92.62
428.069	101.62
428.292	87.62
428.514	92.62
428.736	98.62
428.958	88.62
429.181	81.62
429.403	90.62
429.625	91.62
429.847	93.62
430.069	86.62
430.292	107.62
430.514	82.62
430.736	82.62
430.958	79.62
431.18	85.62
431.402	94.62
431.624	76.62
431.846	89.62
432.068	71.62
432.29	98.62
432.512	93.62
432.734	87.62
432.956	72.62
433.178	101.62
433.4	73.62
433.622	94.62
433.844	91.62
434.066	75.62
434.287	93.62
434.509	70.62
434.731	97.62
434.953	86.62
435.175	73.62
435.397	78.62
435.618	83.62
435.84	81.62
436.062	77.62
436.284	83.62
436.505	82.62
436.727	88.62
436.949	90.62
437.17	90.62
437.392	107.62
437.614	107.62
437.835	86.62
438.057	97.62
438.278	79.62
438.5	75.62
438.721	91.62
438.943	88.62
439.165	79.62
439.386	70.62
439.608	107.62
439.829	97.62
440.05	91.62
440.272	88.62
440.493	87.62
440.715	89.62
440.936	83.62
441.158	93.62
441.379	91.62
441.6	77.62
441.822	83.62
442.043	86.62
442.264	78.62
442.486	99.62
442.707	83.62
442.928	90.62
443.149	78.62
443.371	106.62
443.592	87.62
443.813	77.62
444.034	86.62
444.255	86.62
444.476	75.62
444.698	82.62
444.919	77.62
445.14	124.62
445.361	120.62
445.582	99.62
445.803	99.62
446.024	90.62
446.245	80.62
446.466	100.62
446.687	89.62
446.908	86.62
447.129	103.62
447.35	85.62
447.571	85.62
447.792	87.62
448.013	81.62
448.234	74.62
448.455	83.62
448.675	85.62
448.896	73.62
449.117	85.62
449.338	72.62
449.559	94.62
449.779	88.62
450	99.62
450.221	69.62
450.442	91.62
450.662	104.62
450.883	73.62
451.104	88.62
451.324	89.62
451.545	97.62
451.766	80.62
451.986	87.62
452.207	74.62
452.428	86.62
452.648	91.62
452.869	89.62
453.089	85.62
453.31	79.62
453.53	90.62
453.751	89.62
453.971	78.62
454.192	78.62
454.412	90.62
454.633	77.62
454.853	99.62
455.073	86.62
455.294	77.62
455.514	87.62
455.734	68.62
455.955	92.62
456.175	78.62
456.395	74.62
456.616	73.62
456.836	81.62
457.056	102.62
457.276	79.62
457.497	94.62
457.717	97.62
457.937	82.62
458.157	78.62
458.377	78.62
458.598	92.62
458.818	77.62
459.038	78.62
459.258	79.62
459.478	79.62
459.698	81.62
459.918	89.62
460.138	80.62
460.358	81.62
460.578	74.62
460.798	98.62
461.018	91.62
461.238	86.62
461.458	83.62
461.678	86.62
461.898	105.62
462.118	83.62
462.338	97.62
462.558	90.62
462.777	85.62
462.997	93.62
463.217	78.62
463.437	76.62
463.657	83.62
463.876	82.62
464.096	97.62
464.316	81.62
464.536	83.62
464.755	99.62
464.975	96.62
465.195	90.62
465.414	80.62
465.634	79.62
465.854	97.62
466.073	85.62
466.293	93.62
466.512	86.62
466.732	71.62
466.951	83.62
467.171	82.62
467.391	86.62
467.61	85.62
467.829	83.62
468.049	81.62
468.268	101.62
468.488	98.62
468.707	92.62
468.927	92.62
469.146	89.62
469.365	85.62
469.585	97.62
469.804	97.62
470.023	83.62
470.243	98.62
470.462	94.62
470.681	78.62
470.901	87.62
471.12	75.62
471.339	83.62
471.558	91.62
471.777	81.62
471.997	93.62
472.216	95.62
472.435	91.62
472.654	99.62
472.873	112.62
473.092	79.62
473.311	81.62
473.53	94.62
473.749	92.62
473.968	85.62
474.187	82.62
474.406	83.62
474.625	77.62
474.844	84.62
475.063	83.62
475.282	96.62
475.501	103.62
475.72	93.62
475.939	101.62
476.158	87.62
476.377	85.62
476.596	85.62
476.814	85.62
477.033	87.62
477.252	87.62
477.471	87.62
477.69	85.62
477.908	94.62
478.127	87.62
478.346	83.62
478.564	84.62
478.783	99.62
479.002	92.62
479.22	91.62
479.439	94.62
479.658	84.62
479.876	80.62
480.095	90.62
480.313	86.62
480.532	99.62
480.751	87.62
480.969	69.62
481.188	86.62
481.406	97.62
481.624	84.62
481.843	80.62
482.061	89.62
482.28	75.62
482.498	87.62
482.717	79.62
482.935	94.62
483.153	108.62
483.372	87.62
483.59	86.62
483.808	98.62
484.027	91.62
484.245	99.62
484.463	86.62
484.681	103.62
484.9	103.62
485.118	101.62
485.336	78.62
485.554	74.62
485.772	90.62
485.99	91.62
486.209	91.62
486.427	84.62
486.645	88.62
486.863	90.62
487.081	81.62
487.299	83.62
487.517	87.62
487.735	77.62
487.953	100.62
488.171	70.62
488.389	95.62
488.607	76.62
488.825	77.62
489.043	87.62
489.261	103.62
489.479	100.62
489.696	84.62
489.914	81.62
490.132	106.62
490.35	102.62
490.568	106.62
490.786	102.62
491.003	95.62
491.221	86.62
491.439	91.62
491.657	98.62
491.874	91.62
492.092	83.62
492.31	90.62
492.527	88.62
492.745	100.62
492.963	93.62
493.18	85.62
493.398	101.62
493.615	98.62
493.833	93.62
494.05	101.62
494.268	97.62
494.485	100.62
494.703	78.62
494.92	90.62
495.138	89.62
495.355	115.62
495.573	101.62
495.79	95.62
496.008	99.62
496.225	109.62
496.442	88.62
496.66	89.62
496.877	98.62
497.094	89.62
497.312	98.62
497.529	86.62
497.746	106.62
497.963	99.62
498.181	101.62
498.398	94.62
498.615	88.62
498.832	87.62
499.049	73.62
499.267	84.62
499.484	89.62
499.701	86.62
499.918	102.62
500.135	83.62
500.352	101.62
500.569	107.62
500.786	82.62
501.003	97.62
501.22	86.62
501.437	96.62
501.654	92.62
501.871	88.62
502.088	95.62
502.305	72.62
502.522	113.62
502.739	86.62
502.956	99.62
503.172	85.62
503.389	97.62
503.606	88.62
503.823	99.62
504.04	88.62
504.256	83.62
504.473	99.62
504.69	99.62
504.907	98.62
505.123	83.62
505.34	89.62
505.557	81.62
505.773	99.62
505.99	89.62
506.207	94.62
506.423	99.62
506.64	85.62
506.856	97.62
507.073	102.62
507.289	91.62
507.506	76.62
507.722	89.62
507.939	91.62
508.155	105.62
508.372	107.62
508.588	73.62
508.805	92.62
509.021	94.62
509.238	88.62
509.454	87.62
509.67	90.62
509.887	94.62
510.103	100.62
510.319	87.62
510.536	87.62
510.752	101.62
510.968	95.62
511.184	101.62
511.401	86.62
511.617	103.62
511.833	93.62
512.049	86.62
512.265	84.62
512.481	107.62
512.698	85.62
512.914	104.62
513.13	87.62
513.346	88.62
513.562	91.62
513.778	89.62
513.994	90.62
514.21	91.62
514.426	87.62
514.642	81.62
514.858	90.62
515.074	88.62
515.29	88.62
515.506	81.62
515.721	85.62
515.937	109.62
516.153	91.62
516.369	86.62
516.585	91.62
516.801	97.62
517.016	85.62
517.232	92.62
517.448	82.62
517.664	99.62
517.879	97.62
518.095	89.62
518.311	101.62
518.527	94.62
518.742	88.62
518.958	84.62
