Data from KBrHeat1_HRD10591_00014.txt Node
Date: Fri Dec 27 14:51:33 EST 2024
User: Yrep
Spectrometer: HR+D1059
Trigger mode: 1
Integration Time (sec): 1.000000E-1
Scans to average: 1
Electric dark correction enabled: true
Nonlinearity correction enabled: false
Boxcar width: 0
XAxis mode: Wavelengths
Number of Pixels in Spectrum: 2048
>>>>>Begin Spectral Data<<<<<
223.165	-13.62
223.4	-13.62
223.635	-13.62
223.869	-9.62
224.104	-21.62
224.338	-11.62
224.573	-17.62
224.808	-14.62
225.042	-6.62
225.277	-3.62
225.511	5.38
225.746	-0.62
225.98	9.38
226.215	16.38
226.449	9.38
226.683	10.38
226.918	13.38
227.152	35.38
227.387	50.38
227.621	46.38
227.856	33.38
228.09	49.38
228.324	51.38
228.559	62.38
228.793	64.38
229.027	76.38
229.262	55.38
229.496	74.38
229.73	73.38
229.964	74.38
230.199	73.38
230.433	62.38
230.667	82.38
230.901	79.38
231.136	65.38
231.37	96.38
231.604	81.38
231.838	81.38
232.072	80.38
232.306	94.38
232.541	76.38
232.775	88.38
233.009	81.38
233.243	84.38
233.477	76.38
233.711	85.38
233.945	106.38
234.179	82.38
234.413	94.38
234.647	89.38
234.881	80.38
235.115	77.38
235.349	75.38
235.583	94.38
235.817	81.38
236.051	89.38
236.285	84.38
236.519	82.38
236.753	88.38
236.987	89.38
237.221	68.38
237.455	77.38
237.689	78.38
237.922	86.38
238.156	81.38
238.39	74.38
238.624	80.38
238.858	78.38
239.091	77.38
239.325	81.38
239.559	70.38
239.793	71.38
240.027	89.38
240.26	79.38
240.494	94.38
240.728	74.38
240.961	66.38
241.195	105.38
241.429	78.38
241.662	78.38
241.896	79.38
242.13	74.38
242.363	81.38
242.597	85.38
242.83	64.38
243.064	74.38
243.298	80.38
243.531	84.38
243.765	89.38
243.998	80.38
244.232	82.38
244.465	73.38
244.699	83.38
244.932	85.38
245.166	81.38
245.399	81.38
245.633	90.38
245.866	84.38
246.099	88.38
246.333	79.38
246.566	94.38
246.8	78.38
247.033	84.38
247.266	73.38
247.5	79.38
247.733	81.38
247.966	96.38
248.2	74.38
248.433	58.38
248.666	74.38
248.899	98.38
249.133	103.38
249.366	79.38
249.599	72.38
249.832	79.38
250.066	95.38
250.299	80.38
250.532	80.38
250.765	80.38
250.998	66.38
251.231	81.38
251.465	85.38
251.698	78.38
251.931	80.38
252.164	88.38
252.397	69.38
252.63	78.38
252.863	81.38
253.096	84.38
253.329	90.38
253.562	89.38
253.795	101.38
254.028	83.38
254.261	86.38
254.494	77.38
254.727	69.38
254.96	79.38
255.193	82.38
255.426	70.38
255.659	84.38
255.892	86.38
256.124	76.38
256.357	74.38
256.59	79.38
256.823	91.38
257.056	85.38
257.289	83.38
257.521	81.38
257.754	79.38
257.987	80.38
258.22	88.38
258.452	70.38
258.685	94.38
258.918	82.38
259.151	80.38
259.383	94.38
259.616	98.38
259.849	82.38
260.081	88.38
260.314	88.38
260.547	82.38
260.779	77.38
261.012	90.38
261.244	82.38
261.477	97.38
261.71	84.38
261.942	85.38
262.175	95.38
262.407	72.38
262.64	83.38
262.872	87.38
263.105	91.38
263.337	91.38
263.57	97.38
263.802	92.38
264.035	95.38
264.267	82.38
264.499	79.38
264.732	85.38
264.964	86.38
265.197	85.38
265.429	94.38
265.661	88.38
265.894	88.38
266.126	101.38
266.358	89.38
266.591	83.38
266.823	88.38
267.055	79.38
267.287	68.38
267.52	80.38
267.752	96.38
267.984	95.38
268.216	83.38
268.448	83.38
268.681	95.38
268.913	84.38
269.145	80.38
269.377	75.38
269.609	77.38
269.841	75.38
270.073	92.38
270.306	82.38
270.538	78.38
270.77	75.38
271.002	74.38
271.234	91.38
271.466	92.38
271.698	85.38
271.93	94.38
272.162	81.38
272.394	79.38
272.626	76.38
272.858	69.38
273.09	81.38
273.322	86.38
273.553	82.38
273.785	88.38
274.017	89.38
274.249	83.38
274.481	85.38
274.713	78.38
274.945	87.38
275.176	87.38
275.408	87.38
275.64	94.38
275.872	97.38
276.104	88.38
276.335	79.38
276.567	95.38
276.799	97.38
277.031	91.38
277.262	84.38
277.494	80.38
277.726	85.38
277.957	84.38
278.189	90.38
278.421	87.38
278.652	85.38
278.884	95.38
279.115	93.38
279.347	80.38
279.579	93.38
279.81	93.38
280.042	89.38
280.273	73.38
280.505	88.38
280.736	100.38
280.968	81.38
281.199	84.38
281.431	91.38
281.662	95.38
281.894	89.38
282.125	84.38
282.356	87.38
282.588	73.38
282.819	74.38
283.051	87.38
283.282	73.38
283.513	80.38
283.745	85.38
283.976	84.38
284.207	96.38
284.439	97.38
284.67	82.38
284.901	89.38
285.132	81.38
285.364	90.38
285.595	79.38
285.826	84.38
286.057	88.38
286.288	86.38
286.52	92.38
286.751	83.38
286.982	89.38
287.213	86.38
287.444	94.38
287.675	85.38
287.906	100.38
288.138	87.38
288.369	94.38
288.6	97.38
288.831	83.38
289.062	89.38
289.293	89.38
289.524	90.38
289.755	90.38
289.986	100.38
290.217	84.38
290.448	96.38
290.679	80.38
290.91	90.38
291.141	93.38
291.371	82.38
291.602	79.38
291.833	96.38
292.064	85.38
292.295	86.38
292.526	89.38
292.757	79.38
292.987	93.38
293.218	86.38
293.449	97.38
293.68	84.38
293.91	93.38
294.141	97.38
294.372	90.38
294.603	92.38
294.833	75.38
295.064	95.38
295.295	95.38
295.525	102.38
295.756	86.38
295.987	76.38
296.217	83.38
296.448	94.38
296.679	91.38
296.909	106.38
297.14	82.38
297.37	103.38
297.601	93.38
297.831	77.38
298.062	95.38
298.292	79.38
298.523	87.38
298.753	84.38
298.984	81.38
299.214	98.38
299.445	101.38
299.675	88.38
299.905	86.38
300.136	96.38
300.366	92.38
300.597	88.38
300.827	91.38
301.057	74.38
301.288	83.38
301.518	84.38
301.748	72.38
301.979	90.38
302.209	84.38
302.439	83.38
302.669	89.38
302.9	81.38
303.13	89.38
303.36	89.38
303.59	89.38
303.82	85.38
304.051	101.38
304.281	83.38
304.511	89.38
304.741	93.38
304.971	74.38
305.201	82.38
305.431	82.38
305.661	93.38
305.891	90.38
306.121	104.38
306.352	92.38
306.582	82.38
306.812	84.38
307.042	76.38
307.272	89.38
307.502	102.38
307.731	86.38
307.961	101.38
308.191	88.38
308.421	94.38
308.651	85.38
308.881	76.38
309.111	76.38
309.341	83.38
309.571	95.38
309.8	83.38
310.03	79.38
310.26	86.38
310.49	88.38
310.72	86.38
310.949	92.38
311.179	103.38
311.409	100.38
311.639	84.38
311.868	93.38
312.098	76.38
312.328	100.38
312.557	100.38
312.787	96.38
313.017	86.38
313.246	81.38
313.476	101.38
313.706	100.38
313.935	95.38
314.165	82.38
314.394	94.38
314.624	93.38
314.853	99.38
315.083	91.38
315.312	85.38
315.542	81.38
315.771	84.38
316.001	94.38
316.23	88.38
316.46	80.38
316.689	85.38
316.919	93.38
317.148	88.38
317.377	87.38
317.607	89.38
317.836	93.38
318.065	80.38
318.295	95.38
318.524	84.38
318.753	97.38
318.983	87.38
319.212	87.38
319.441	101.38
319.67	90.38
319.9	100.38
320.129	90.38
320.358	75.38
320.587	84.38
320.816	91.38
321.046	90.38
321.275	76.38
321.504	81.38
321.733	85.38
321.962	108.38
322.191	98.38
322.42	100.38
322.649	92.38
322.878	92.38
323.108	97.38
323.337	89.38
323.566	102.38
323.795	87.38
324.024	90.38
324.253	81.38
324.482	86.38
324.71	77.38
324.939	80.38
325.168	89.38
325.397	103.38
325.626	82.38
325.855	93.38
326.084	95.38
326.313	112.38
326.542	76.38
326.77	87.38
326.999	95.38
327.228	95.38
327.457	98.38
327.686	91.38
327.914	90.38
328.143	79.38
328.372	85.38
328.6	88.38
328.829	94.38
329.058	91.38
329.287	82.38
329.515	91.38
329.744	93.38
329.972	90.38
330.201	78.38
330.43	81.38
330.658	89.38
330.887	97.38
331.115	86.38
331.344	85.38
331.572	95.38
331.801	85.38
332.03	80.38
332.258	96.38
332.486	95.38
332.715	100.38
332.943	84.38
333.172	92.38
333.4	89.38
333.629	102.38
333.857	96.38
334.085	89.38
334.314	92.38
334.542	96.38
334.771	89.38
334.999	94.38
335.227	94.38
335.455	100.38
335.684	99.38
335.912	80.38
336.14	82.38
336.369	95.38
336.597	77.38
336.825	92.38
337.053	89.38
337.281	79.38
337.51	87.38
337.738	103.38
337.966	91.38
338.194	87.38
338.422	87.38
338.65	79.38
338.878	91.38
339.106	92.38
339.334	88.38
339.562	91.38
339.79	101.38
340.018	84.38
340.246	88.38
340.474	95.38
340.702	89.38
340.93	89.38
341.158	79.38
341.386	96.38
341.614	87.38
341.842	92.38
342.07	87.38
342.298	78.38
342.526	76.38
342.754	85.38
342.981	89.38
343.209	89.38
343.437	123.38
343.665	101.38
343.893	93.38
344.12	79.38
344.348	96.38
344.576	103.38
344.804	104.38
345.031	104.38
345.259	75.38
345.487	82.38
345.714	75.38
345.942	97.38
346.17	92.38
346.397	89.38
346.625	84.38
346.853	86.38
347.08	98.38
347.308	94.38
347.535	95.38
347.763	91.38
347.99	77.38
348.218	88.38
348.445	102.38
348.673	85.38
348.9	99.38
349.128	102.38
349.355	97.38
349.583	90.38
349.81	104.38
350.037	103.38
350.265	79.38
350.492	72.38
350.72	76.38
350.947	100.38
351.174	103.38
351.402	84.38
351.629	87.38
351.856	86.38
352.083	76.38
352.311	77.38
352.538	90.38
352.765	95.38
352.992	101.38
353.22	78.38
353.447	87.38
353.674	84.38
353.901	91.38
354.128	94.38
354.355	95.38
354.583	89.38
354.81	103.38
355.037	97.38
355.264	76.38
355.491	93.38
355.718	93.38
355.945	64.38
356.172	81.38
356.399	90.38
356.626	93.38
356.853	101.38
357.08	105.38
357.307	101.38
357.534	95.38
357.761	78.38
357.988	91.38
358.215	101.38
358.441	97.38
358.668	95.38
358.895	94.38
359.122	93.38
359.349	84.38
359.576	86.38
359.802	85.38
360.029	87.38
360.256	80.38
360.483	77.38
360.709	95.38
360.936	93.38
361.163	71.38
361.39	88.38
361.616	105.38
361.843	82.38
362.07	81.38
362.296	94.38
362.523	96.38
362.749	86.38
362.976	87.38
363.203	102.38
363.429	83.38
363.656	91.38
363.882	84.38
364.109	88.38
364.335	101.38
364.562	91.38
364.788	97.38
365.015	81.38
365.241	89.38
365.468	89.38
365.694	89.38
365.92	69.38
366.147	70.38
366.373	81.38
366.599	74.38
366.826	92.38
367.052	94.38
367.278	88.38
367.505	92.38
367.731	89.38
367.957	99.38
368.184	91.38
368.41	103.38
368.636	84.38
368.862	76.38
369.089	94.38
369.315	100.38
369.541	84.38
369.767	106.38
369.993	107.38
370.219	80.38
370.445	71.38
370.672	86.38
370.898	85.38
371.124	79.38
371.35	91.38
371.576	87.38
371.802	82.38
372.028	89.38
372.254	96.38
372.48	91.38
372.706	93.38
372.932	90.38
373.158	68.38
373.384	104.38
373.61	94.38
373.835	92.38
374.061	79.38
374.287	87.38
374.513	92.38
374.739	77.38
374.965	93.38
375.191	89.38
375.416	72.38
375.642	84.38
375.868	103.38
376.094	97.38
376.319	91.38
376.545	96.38
376.771	81.38
376.997	85.38
377.222	97.38
377.448	87.38
377.674	99.38
377.899	95.38
378.125	80.38
378.35	91.38
378.576	92.38
378.802	94.38
379.027	95.38
379.253	92.38
379.478	96.38
379.704	90.38
379.929	86.38
380.155	71.38
380.38	80.38
380.606	97.38
380.831	93.38
381.057	90.38
381.282	87.38
381.507	89.38
381.733	78.38
381.958	92.38
382.184	95.38
382.409	89.38
382.634	92.38
382.86	80.38
383.085	87.38
383.31	97.38
383.535	88.38
383.761	97.38
383.986	92.38
384.211	86.38
384.436	91.38
384.662	87.38
384.887	89.38
385.112	91.38
385.337	95.38
385.562	77.38
385.787	90.38
386.013	87.38
386.238	86.38
386.463	97.38
386.688	97.38
386.913	89.38
387.138	88.38
387.363	86.38
387.588	87.38
387.813	93.38
388.038	89.38
388.263	91.38
388.488	98.38
388.713	86.38
388.938	81.38
389.163	88.38
389.387	79.38
389.612	92.38
389.837	85.38
390.062	73.38
390.287	78.38
390.512	84.38
390.736	85.38
390.961	82.38
391.186	81.38
391.411	78.38
391.636	79.38
391.86	102.38
392.085	90.38
392.31	88.38
392.534	79.38
392.759	102.38
392.984	80.38
393.208	94.38
393.433	96.38
393.658	92.38
393.882	84.38
394.107	80.38
394.331	82.38
394.556	84.38
394.78	77.38
395.005	77.38
395.229	94.38
395.454	75.38
395.678	92.38
395.903	103.38
396.127	94.38
396.352	72.38
396.576	84.38
396.801	89.38
397.025	92.38
397.249	100.38
397.474	90.38
397.698	85.38
397.922	84.38
398.147	72.38
398.371	94.38
398.595	85.38
398.82	84.38
399.044	93.38
399.268	100.38
399.492	104.38
399.717	99.38
399.941	86.38
400.165	86.38
400.389	97.38
400.613	85.38
400.837	87.38
401.062	80.38
401.286	88.38
401.51	81.38
401.734	90.38
401.958	99.38
402.182	79.38
402.406	85.38
402.63	84.38
402.854	96.38
403.078	92.38
403.302	92.38
403.526	100.38
403.75	87.38
403.974	102.38
404.198	152.38
404.422	201.38
404.645	221.38
404.869	183.38
405.093	118.38
405.317	88.38
405.541	88.38
405.765	103.38
405.988	89.38
406.212	77.38
406.436	84.38
406.66	97.38
406.883	87.38
407.107	96.38
407.331	92.38
407.555	93.38
407.778	104.38
408.002	104.38
408.226	87.38
408.449	84.38
408.673	101.38
408.896	100.38
409.12	76.38
409.344	88.38
409.567	80.38
409.791	96.38
410.014	82.38
410.238	86.38
410.461	75.38
410.685	90.38
410.908	83.38
411.132	92.38
411.355	85.38
411.578	84.38
411.802	95.38
412.025	79.38
412.249	92.38
412.472	80.38
412.695	90.38
412.919	85.38
413.142	89.38
413.365	81.38
413.589	91.38
413.812	81.38
414.035	93.38
414.258	85.38
414.482	78.38
414.705	94.38
414.928	90.38
415.151	85.38
415.374	88.38
415.597	91.38
415.821	81.38
416.044	81.38
416.267	87.38
416.49	90.38
416.713	94.38
416.936	96.38
417.159	71.38
417.382	85.38
417.605	84.38
417.828	92.38
418.051	90.38
418.274	94.38
418.497	77.38
418.72	84.38
418.943	89.38
419.166	88.38
419.389	94.38
419.611	94.38
419.834	80.38
420.057	89.38
420.28	86.38
420.503	95.38
420.726	94.38
420.948	102.38
421.171	93.38
421.394	93.38
421.617	96.38
421.839	100.38
422.062	97.38
422.285	96.38
422.507	94.38
422.73	101.38
422.953	92.38
423.175	90.38
423.398	101.38
423.621	90.38
423.843	99.38
424.066	93.38
424.288	74.38
424.511	87.38
424.733	77.38
424.956	83.38
425.178	75.38
425.401	84.38
425.623	83.38
425.846	86.38
426.068	92.38
426.291	79.38
426.513	94.38
426.735	107.38
426.958	81.38
427.18	86.38
427.402	93.38
427.625	93.38
427.847	105.38
428.069	95.38
428.292	93.38
428.514	83.38
428.736	84.38
428.958	93.38
429.181	88.38
429.403	84.38
429.625	91.38
429.847	95.38
430.069	94.38
430.292	94.38
430.514	83.38
430.736	93.38
430.958	84.38
431.18	82.38
431.402	89.38
431.624	89.38
431.846	90.38
432.068	71.38
432.29	81.38
432.512	86.38
432.734	89.38
432.956	101.38
433.178	77.38
433.4	85.38
433.622	96.38
433.844	96.38
434.066	76.38
434.287	87.38
434.509	79.38
434.731	92.38
434.953	69.38
435.175	81.38
435.397	87.38
435.618	83.38
435.84	98.38
436.062	71.38
436.284	96.38
436.505	82.38
436.727	78.38
436.949	89.38
437.17	77.38
437.392	81.38
437.614	100.38
437.835	91.38
438.057	87.38
438.278	96.38
438.5	89.38
438.721	90.38
438.943	88.38
439.165	96.38
439.386	103.38
439.608	84.38
439.829	96.38
440.05	93.38
440.272	103.38
440.493	84.38
440.715	94.38
440.936	96.38
441.158	104.38
441.379	92.38
441.6	87.38
441.822	93.38
442.043	93.38
442.264	106.38
442.486	82.38
442.707	93.38
442.928	98.38
443.149	82.38
443.371	101.38
443.592	71.38
443.813	74.38
444.034	78.38
444.255	84.38
444.476	87.38
444.698	87.38
444.919	96.38
445.14	150.38
445.361	110.38
445.582	104.38
445.803	84.38
446.024	81.38
446.245	90.38
446.466	96.38
446.687	92.38
446.908	95.38
447.129	111.38
447.35	86.38
447.571	91.38
447.792	91.38
448.013	100.38
448.234	92.38
448.455	84.38
448.675	92.38
448.896	81.38
449.117	82.38
449.338	83.38
449.559	92.38
449.779	98.38
450	76.38
450.221	102.38
450.442	100.38
450.662	93.38
450.883	89.38
451.104	90.38
451.324	94.38
451.545	97.38
451.766	86.38
451.986	88.38
452.207	98.38
452.428	80.38
452.648	91.38
452.869	76.38
453.089	94.38
453.31	88.38
453.53	87.38
453.751	82.38
453.971	79.38
454.192	77.38
454.412	87.38
454.633	76.38
454.853	92.38
455.073	98.38
455.294	78.38
455.514	87.38
455.734	78.38
455.955	75.38
456.175	84.38
456.395	91.38
456.616	95.38
456.836	98.38
457.056	86.38
457.276	100.38
457.497	86.38
457.717	88.38
457.937	93.38
458.157	90.38
458.377	87.38
458.598	86.38
458.818	88.38
459.038	76.38
459.258	95.38
459.478	97.38
459.698	102.38
459.918	87.38
460.138	84.38
460.358	86.38
460.578	89.38
460.798	103.38
461.018	84.38
461.238	88.38
461.458	93.38
461.678	92.38
461.898	88.38
462.118	90.38
462.338	81.38
462.558	95.38
462.777	83.38
462.997	105.38
463.217	91.38
463.437	85.38
463.657	95.38
463.876	99.38
464.096	96.38
464.316	84.38
464.536	87.38
464.755	81.38
464.975	98.38
465.195	97.38
465.414	90.38
465.634	92.38
465.854	97.38
466.073	88.38
466.293	89.38
466.512	83.38
466.732	85.38
466.951	89.38
467.171	83.38
467.391	90.38
467.61	92.38
467.829	102.38
468.049	86.38
468.268	88.38
468.488	96.38
468.707	83.38
468.927	94.38
469.146	85.38
469.365	80.38
469.585	88.38
469.804	100.38
470.023	82.38
470.243	95.38
470.462	96.38
470.681	66.38
470.901	77.38
471.12	97.38
471.339	105.38
471.558	98.38
471.777	88.38
471.997	86.38
472.216	91.38
472.435	91.38
472.654	84.38
472.873	93.38
473.092	90.38
473.311	86.38
473.53	97.38
473.749	97.38
473.968	95.38
474.187	100.38
474.406	97.38
474.625	79.38
474.844	93.38
475.063	81.38
475.282	102.38
475.501	108.38
475.72	97.38
475.939	89.38
476.158	99.38
476.377	93.38
476.596	98.38
476.814	104.38
477.033	80.38
477.252	85.38
477.471	74.38
477.69	103.38
477.908	102.38
478.127	92.38
478.346	88.38
478.564	87.38
478.783	95.38
479.002	71.38
479.22	89.38
479.439	95.38
479.658	81.38
479.876	101.38
480.095	91.38
480.313	100.38
480.532	62.38
480.751	89.38
480.969	101.38
481.188	100.38
481.406	93.38
481.624	93.38
481.843	82.38
482.061	93.38
482.28	90.38
482.498	103.38
482.717	104.38
482.935	101.38
483.153	103.38
483.372	93.38
483.59	94.38
483.808	111.38
484.027	88.38
484.245	84.38
484.463	78.38
484.681	96.38
484.9	91.38
485.118	81.38
485.336	97.38
485.554	90.38
485.772	95.38
485.99	86.38
486.209	88.38
486.427	93.38
486.645	87.38
486.863	93.38
487.081	88.38
487.299	73.38
487.517	96.38
487.735	99.38
487.953	100.38
488.171	99.38
488.389	105.38
488.607	95.38
488.825	95.38
489.043	101.38
489.261	98.38
489.479	85.38
489.696	91.38
489.914	96.38
490.132	93.38
490.35	101.38
490.568	87.38
490.786	104.38
491.003	103.38
491.221	97.38
491.439	94.38
491.657	87.38
491.874	103.38
492.092	91.38
492.31	100.38
492.527	96.38
492.745	84.38
492.963	103.38
493.18	89.38
493.398	93.38
493.615	99.38
493.833	97.38
494.05	82.38
494.268	85.38
494.485	89.38
494.703	94.38
494.92	95.38
495.138	103.38
495.355	97.38
495.573	100.38
495.79	94.38
496.008	95.38
496.225	91.38
496.442	100.38
496.66	97.38
496.877	90.38
497.094	95.38
497.312	106.38
497.529	87.38
497.746	95.38
497.963	103.38
498.181	95.38
498.398	110.38
498.615	98.38
498.832	85.38
499.049	92.38
499.267	91.38
499.484	105.38
499.701	94.38
499.918	101.38
500.135	88.38
500.352	85.38
500.569	82.38
500.786	105.38
501.003	96.38
501.22	93.38
501.437	88.38
501.654	85.38
501.871	82.38
502.088	98.38
502.305	100.38
502.522	84.38
502.739	85.38
502.956	82.38
503.172	97.38
503.389	93.38
503.606	91.38
503.823	76.38
504.04	93.38
504.256	99.38
504.473	96.38
504.69	87.38
504.907	100.38
505.123	88.38
505.34	105.38
505.557	86.38
505.773	91.38
505.99	84.38
506.207	94.38
506.423	83.38
506.64	96.38
506.856	84.38
507.073	93.38
507.289	95.38
507.506	97.38
507.722	108.38
507.939	100.38
508.155	98.38
508.372	89.38
508.588	73.38
508.805	95.38
509.021	88.38
509.238	87.38
509.454	92.38
509.67	89.38
509.887	101.38
510.103	100.38
510.319	91.38
510.536	95.38
510.752	92.38
510.968	91.38
511.184	103.38
511.401	110.38
511.617	95.38
511.833	96.38
512.049	95.38
512.265	86.38
512.481	102.38
512.698	84.38
512.914	104.38
513.13	97.38
513.346	94.38
513.562	105.38
513.778	103.38
513.994	75.38
514.21	107.38
514.426	90.38
514.642	97.38
514.858	88.38
515.074	92.38
515.29	102.38
515.506	102.38
515.721	96.38
515.937	92.38
516.153	93.38
516.369	96.38
516.585	70.38
516.801	92.38
517.016	77.38
517.232	84.38
517.448	93.38
517.664	76.38
517.879	87.38
518.095	92.38
