Data from KBrHeat1_HRD10591_00009.txt Node
Date: Fri Dec 27 14:51:28 EST 2024
User: Yrep
Spectrometer: HR+D1059
Trigger mode: 1
Integration Time (sec): 1.000000E-1
Scans to average: 1
Electric dark correction enabled: true
Nonlinearity correction enabled: false
Boxcar width: 0
XAxis mode: Wavelengths
Number of Pixels in Spectrum: 2048
>>>>>Begin Spectral Data<<<<<
223.165	-13.5
223.4	-13.5
223.635	-13.5
223.869	-11.5
224.104	-14.5
224.338	-4.5
224.573	-11.5
224.808	-4.5
225.042	-8.5
225.277	2.5
225.511	-9.5
225.746	-10.5
225.98	-2.5
226.215	-1.5
226.449	15.5
226.683	3.5
226.918	37.5
227.152	33.5
227.387	34.5
227.621	33.5
227.856	47.5
228.09	31.5
228.324	43.5
228.559	53.5
228.793	41.5
229.027	56.5
229.262	76.5
229.496	75.5
229.73	68.5
229.964	59.5
230.199	61.5
230.433	81.5
230.667	55.5
230.901	75.5
231.136	70.5
231.37	85.5
231.604	77.5
231.838	71.5
232.072	82.5
232.306	76.5
232.541	85.5
232.775	78.5
233.009	71.5
233.243	82.5
233.477	87.5
233.711	86.5
233.945	75.5
234.179	66.5
234.413	86.5
234.647	72.5
234.881	77.5
235.115	60.5
235.349	67.5
235.583	91.5
235.817	65.5
236.051	67.5
236.285	67.5
236.519	75.5
236.753	78.5
236.987	72.5
237.221	87.5
237.455	65.5
237.689	62.5
237.922	67.5
238.156	77.5
238.39	57.5
238.624	62.5
238.858	78.5
239.091	73.5
239.325	67.5
239.559	75.5
239.793	54.5
240.027	77.5
240.26	75.5
240.494	91.5
240.728	75.5
240.961	66.5
241.195	78.5
241.429	69.5
241.662	59.5
241.896	74.5
242.13	75.5
242.363	75.5
242.597	75.5
242.83	80.5
243.064	70.5
243.298	64.5
243.531	78.5
243.765	78.5
243.998	84.5
244.232	75.5
244.465	81.5
244.699	63.5
244.932	66.5
245.166	80.5
245.399	85.5
245.633	84.5
245.866	80.5
246.099	85.5
246.333	78.5
246.566	61.5
246.8	89.5
247.033	84.5
247.266	71.5
247.5	61.5
247.733	72.5
247.966	69.5
248.2	86.5
248.433	82.5
248.666	77.5
248.899	76.5
249.133	71.5
249.366	57.5
249.599	68.5
249.832	72.5
250.066	79.5
250.299	83.5
250.532	80.5
250.765	68.5
250.998	73.5
251.231	73.5
251.465	68.5
251.698	65.5
251.931	82.5
252.164	76.5
252.397	81.5
252.63	76.5
252.863	88.5
253.096	86.5
253.329	74.5
253.562	83.5
253.795	68.5
254.028	70.5
254.261	68.5
254.494	76.5
254.727	73.5
254.96	79.5
255.193	66.5
255.426	77.5
255.659	85.5
255.892	69.5
256.124	73.5
256.357	83.5
256.59	71.5
256.823	76.5
257.056	78.5
257.289	71.5
257.521	73.5
257.754	63.5
257.987	73.5
258.22	85.5
258.452	77.5
258.685	78.5
258.918	95.5
259.151	77.5
259.383	87.5
259.616	84.5
259.849	67.5
260.081	80.5
260.314	61.5
260.547	85.5
260.779	68.5
261.012	71.5
261.244	76.5
261.477	88.5
261.71	61.5
261.942	77.5
262.175	84.5
262.407	66.5
262.64	76.5
262.872	81.5
263.105	83.5
263.337	81.5
263.57	80.5
263.802	80.5
264.035	91.5
264.267	71.5
264.499	61.5
264.732	86.5
264.964	84.5
265.197	84.5
265.429	78.5
265.661	89.5
265.894	78.5
266.126	72.5
266.358	75.5
266.591	73.5
266.823	80.5
267.055	80.5
267.287	106.5
267.52	97.5
267.752	81.5
267.984	75.5
268.216	75.5
268.448	62.5
268.681	70.5
268.913	70.5
269.145	77.5
269.377	75.5
269.609	81.5
269.841	72.5
270.073	92.5
270.306	81.5
270.538	84.5
270.77	73.5
271.002	79.5
271.234	75.5
271.466	84.5
271.698	78.5
271.93	72.5
272.162	81.5
272.394	88.5
272.626	94.5
272.858	92.5
273.09	75.5
273.322	76.5
273.553	71.5
273.785	68.5
274.017	77.5
274.249	79.5
274.481	76.5
274.713	90.5
274.945	77.5
275.176	85.5
275.408	83.5
275.64	63.5
275.872	77.5
276.104	72.5
276.335	105.5
276.567	80.5
276.799	85.5
277.031	75.5
277.262	70.5
277.494	82.5
277.726	88.5
277.957	76.5
278.189	80.5
278.421	94.5
278.652	82.5
278.884	81.5
279.115	84.5
279.347	80.5
279.579	76.5
279.81	91.5
280.042	82.5
280.273	85.5
280.505	90.5
280.736	80.5
280.968	67.5
281.199	87.5
281.431	72.5
281.662	79.5
281.894	84.5
282.125	78.5
282.356	93.5
282.588	84.5
282.819	80.5
283.051	80.5
283.282	78.5
283.513	86.5
283.745	68.5
283.976	84.5
284.207	73.5
284.439	84.5
284.67	76.5
284.901	92.5
285.132	87.5
285.364	73.5
285.595	88.5
285.826	85.5
286.057	88.5
286.288	73.5
286.52	82.5
286.751	85.5
286.982	76.5
287.213	75.5
287.444	64.5
287.675	87.5
287.906	83.5
288.138	79.5
288.369	83.5
288.6	79.5
288.831	86.5
289.062	85.5
289.293	84.5
289.524	97.5
289.755	83.5
289.986	78.5
290.217	69.5
290.448	94.5
290.679	93.5
290.91	74.5
291.141	84.5
291.371	92.5
291.602	80.5
291.833	76.5
292.064	85.5
292.295	79.5
292.526	82.5
292.757	75.5
292.987	81.5
293.218	91.5
293.449	80.5
293.68	92.5
293.91	70.5
294.141	75.5
294.372	97.5
294.603	71.5
294.833	80.5
295.064	85.5
295.295	72.5
295.525	89.5
295.756	92.5
295.987	90.5
296.217	82.5
296.448	71.5
296.679	75.5
296.909	80.5
297.14	81.5
297.37	82.5
297.601	92.5
297.831	88.5
298.062	81.5
298.292	92.5
298.523	73.5
298.753	83.5
298.984	80.5
299.214	79.5
299.445	83.5
299.675	97.5
299.905	85.5
300.136	79.5
300.366	96.5
300.597	97.5
300.827	92.5
301.057	97.5
301.288	71.5
301.518	86.5
301.748	76.5
301.979	95.5
302.209	88.5
302.439	88.5
302.669	84.5
302.9	81.5
303.13	87.5
303.36	88.5
303.59	75.5
303.82	86.5
304.051	89.5
304.281	78.5
304.511	70.5
304.741	79.5
304.971	83.5
305.201	87.5
305.431	84.5
305.661	72.5
305.891	66.5
306.121	75.5
306.352	78.5
306.582	72.5
306.812	95.5
307.042	78.5
307.272	87.5
307.502	66.5
307.731	79.5
307.961	76.5
308.191	85.5
308.421	87.5
308.651	82.5
308.881	92.5
309.111	86.5
309.341	91.5
309.571	78.5
309.8	77.5
310.03	82.5
310.26	87.5
310.49	82.5
310.72	80.5
310.949	72.5
311.179	77.5
311.409	72.5
311.639	80.5
311.868	77.5
312.098	71.5
312.328	90.5
312.557	95.5
312.787	80.5
313.017	72.5
313.246	98.5
313.476	75.5
313.706	84.5
313.935	81.5
314.165	71.5
314.394	72.5
314.624	74.5
314.853	77.5
315.083	93.5
315.312	87.5
315.542	76.5
315.771	80.5
316.001	95.5
316.23	80.5
316.46	70.5
316.689	78.5
316.919	75.5
317.148	88.5
317.377	80.5
317.607	84.5
317.836	80.5
318.065	80.5
318.295	77.5
318.524	71.5
318.753	89.5
318.983	95.5
319.212	88.5
319.441	68.5
319.67	82.5
319.9	84.5
320.129	93.5
320.358	74.5
320.587	89.5
320.816	81.5
321.046	73.5
321.275	86.5
321.504	71.5
321.733	85.5
321.962	85.5
322.191	95.5
322.42	70.5
322.649	81.5
322.878	67.5
323.108	70.5
323.337	79.5
323.566	67.5
323.795	80.5
324.024	78.5
324.253	80.5
324.482	99.5
324.71	69.5
324.939	72.5
325.168	82.5
325.397	79.5
325.626	86.5
325.855	88.5
326.084	87.5
326.313	89.5
326.542	63.5
326.77	67.5
326.999	68.5
327.228	75.5
327.457	82.5
327.686	83.5
327.914	80.5
328.143	97.5
328.372	78.5
328.6	76.5
328.829	87.5
329.058	77.5
329.287	99.5
329.515	88.5
329.744	83.5
329.972	82.5
330.201	83.5
330.43	71.5
330.658	84.5
330.887	86.5
331.115	87.5
331.344	85.5
331.572	86.5
331.801	79.5
332.03	76.5
332.258	89.5
332.486	84.5
332.715	83.5
332.943	83.5
333.172	91.5
333.4	80.5
333.629	79.5
333.857	84.5
334.085	75.5
334.314	89.5
334.542	81.5
334.771	79.5
334.999	86.5
335.227	98.5
335.455	71.5
335.684	76.5
335.912	79.5
336.14	71.5
336.369	80.5
336.597	82.5
336.825	82.5
337.053	78.5
337.281	84.5
337.51	75.5
337.738	93.5
337.966	75.5
338.194	79.5
338.422	91.5
338.65	86.5
338.878	89.5
339.106	80.5
339.334	93.5
339.562	94.5
339.79	77.5
340.018	75.5
340.246	78.5
340.474	81.5
340.702	79.5
340.93	85.5
341.158	84.5
341.386	83.5
341.614	84.5
341.842	86.5
342.07	86.5
342.298	79.5
342.526	91.5
342.754	80.5
342.981	81.5
343.209	74.5
343.437	105.5
343.665	85.5
343.893	86.5
344.12	81.5
344.348	81.5
344.576	88.5
344.804	93.5
345.031	84.5
345.259	88.5
345.487	80.5
345.714	84.5
345.942	82.5
346.17	73.5
346.397	70.5
346.625	74.5
346.853	77.5
347.08	62.5
347.308	85.5
347.535	82.5
347.763	71.5
347.99	85.5
348.218	84.5
348.445	72.5
348.673	65.5
348.9	82.5
349.128	95.5
349.355	82.5
349.583	87.5
349.81	83.5
350.037	87.5
350.265	88.5
350.492	79.5
350.72	67.5
350.947	81.5
351.174	81.5
351.402	79.5
351.629	82.5
351.856	87.5
352.083	86.5
352.311	85.5
352.538	83.5
352.765	91.5
352.992	82.5
353.22	88.5
353.447	81.5
353.674	72.5
353.901	98.5
354.128	92.5
354.355	85.5
354.583	94.5
354.81	87.5
355.037	80.5
355.264	86.5
355.491	88.5
355.718	69.5
355.945	78.5
356.172	69.5
356.399	102.5
356.626	91.5
356.853	78.5
357.08	95.5
357.307	75.5
357.534	74.5
357.761	85.5
357.988	93.5
358.215	87.5
358.441	83.5
358.668	66.5
358.895	73.5
359.122	88.5
359.349	88.5
359.576	89.5
359.802	83.5
360.029	75.5
360.256	78.5
360.483	79.5
360.709	83.5
360.936	79.5
361.163	106.5
361.39	76.5
361.616	99.5
361.843	79.5
362.07	87.5
362.296	84.5
362.523	70.5
362.749	76.5
362.976	92.5
363.203	81.5
363.429	73.5
363.656	79.5
363.882	71.5
364.109	83.5
364.335	80.5
364.562	86.5
364.788	78.5
365.015	77.5
365.241	81.5
365.468	101.5
365.694	75.5
365.92	79.5
366.147	81.5
366.373	82.5
366.599	93.5
366.826	85.5
367.052	95.5
367.278	81.5
367.505	71.5
367.731	92.5
367.957	84.5
368.184	77.5
368.41	88.5
368.636	82.5
368.862	91.5
369.089	81.5
369.315	84.5
369.541	84.5
369.767	102.5
369.993	87.5
370.219	78.5
370.445	83.5
370.672	70.5
370.898	93.5
371.124	87.5
371.35	68.5
371.576	82.5
371.802	87.5
372.028	75.5
372.254	82.5
372.48	79.5
372.706	84.5
372.932	97.5
373.158	77.5
373.384	82.5
373.61	86.5
373.835	85.5
374.061	80.5
374.287	84.5
374.513	87.5
374.739	76.5
374.965	97.5
375.191	86.5
375.416	86.5
375.642	81.5
375.868	83.5
376.094	81.5
376.319	85.5
376.545	72.5
376.771	76.5
376.997	93.5
377.222	76.5
377.448	79.5
377.674	79.5
377.899	85.5
378.125	76.5
378.35	85.5
378.576	79.5
378.802	83.5
379.027	92.5
379.253	90.5
379.478	84.5
379.704	73.5
379.929	84.5
380.155	77.5
380.38	75.5
380.606	82.5
380.831	83.5
381.057	96.5
381.282	91.5
381.507	92.5
381.733	82.5
381.958	76.5
382.184	94.5
382.409	79.5
382.634	86.5
382.86	81.5
383.085	86.5
383.31	60.5
383.535	79.5
383.761	83.5
383.986	73.5
384.211	85.5
384.436	81.5
384.662	67.5
384.887	91.5
385.112	78.5
385.337	66.5
385.562	72.5
385.787	68.5
386.013	83.5
386.238	83.5
386.463	91.5
386.688	91.5
386.913	83.5
387.138	74.5
387.363	74.5
387.588	88.5
387.813	89.5
388.038	82.5
388.263	97.5
388.488	84.5
388.713	85.5
388.938	78.5
389.163	70.5
389.387	75.5
389.612	74.5
389.837	80.5
390.062	87.5
390.287	66.5
390.512	80.5
390.736	75.5
390.961	85.5
391.186	75.5
391.411	86.5
391.636	80.5
391.86	83.5
392.085	91.5
392.31	82.5
392.534	82.5
392.759	76.5
392.984	77.5
393.208	92.5
393.433	77.5
393.658	92.5
393.882	77.5
394.107	86.5
394.331	83.5
394.556	79.5
394.78	71.5
395.005	93.5
395.229	76.5
395.454	85.5
395.678	85.5
395.903	80.5
396.127	89.5
396.352	77.5
396.576	77.5
396.801	84.5
397.025	86.5
397.249	82.5
397.474	100.5
397.698	81.5
397.922	91.5
398.147	84.5
398.371	85.5
398.595	78.5
398.82	83.5
399.044	87.5
399.268	75.5
399.492	88.5
399.717	87.5
399.941	71.5
400.165	74.5
400.389	59.5
400.613	83.5
400.837	72.5
401.062	73.5
401.286	71.5
401.51	87.5
401.734	92.5
401.958	83.5
402.182	82.5
402.406	79.5
402.63	93.5
402.854	79.5
403.078	75.5
403.302	85.5
403.526	92.5
403.75	95.5
403.974	115.5
404.198	127.5
404.422	159.5
404.645	188.5
404.869	156.5
405.093	127.5
405.317	97.5
405.541	103.5
405.765	81.5
405.988	91.5
406.212	76.5
406.436	87.5
406.66	79.5
406.883	79.5
407.107	83.5
407.331	67.5
407.555	92.5
407.778	63.5
408.002	72.5
408.226	87.5
408.449	88.5
408.673	83.5
408.896	79.5
409.12	94.5
409.344	97.5
409.567	89.5
409.791	95.5
410.014	82.5
410.238	81.5
410.461	77.5
410.685	85.5
410.908	76.5
411.132	88.5
411.355	92.5
411.578	69.5
411.802	75.5
412.025	79.5
412.249	97.5
412.472	75.5
412.695	87.5
412.919	76.5
413.142	88.5
413.365	97.5
413.589	87.5
413.812	87.5
414.035	81.5
414.258	82.5
414.482	85.5
414.705	71.5
414.928	85.5
415.151	79.5
415.374	78.5
415.597	77.5
415.821	97.5
416.044	89.5
416.267	82.5
416.49	81.5
416.713	99.5
416.936	87.5
417.159	95.5
417.382	82.5
417.605	70.5
417.828	72.5
418.051	83.5
418.274	75.5
418.497	85.5
418.72	69.5
418.943	77.5
419.166	74.5
419.389	75.5
419.611	90.5
419.834	77.5
420.057	82.5
420.28	80.5
420.503	81.5
420.726	81.5
420.948	81.5
421.171	79.5
421.394	69.5
421.617	94.5
421.839	76.5
422.062	89.5
422.285	86.5
422.507	78.5
422.73	86.5
422.953	85.5
423.175	75.5
423.398	88.5
423.621	84.5
423.843	70.5
424.066	77.5
424.288	97.5
424.511	77.5
424.733	81.5
424.956	88.5
425.178	79.5
425.401	99.5
425.623	90.5
425.846	91.5
426.068	75.5
426.291	84.5
426.513	90.5
426.735	82.5
426.958	80.5
427.18	88.5
427.402	88.5
427.625	69.5
427.847	81.5
428.069	75.5
428.292	92.5
428.514	77.5
428.736	78.5
428.958	95.5
429.181	78.5
429.403	86.5
429.625	81.5
429.847	93.5
430.069	67.5
430.292	84.5
430.514	82.5
430.736	69.5
430.958	69.5
431.18	87.5
431.402	82.5
431.624	83.5
431.846	88.5
432.068	89.5
432.29	84.5
432.512	87.5
432.734	80.5
432.956	65.5
433.178	87.5
433.4	83.5
433.622	80.5
433.844	81.5
434.066	69.5
434.287	68.5
434.509	99.5
434.731	72.5
434.953	73.5
435.175	62.5
435.397	92.5
435.618	82.5
435.84	90.5
436.062	80.5
436.284	77.5
436.505	88.5
436.727	93.5
436.949	94.5
437.17	76.5
437.392	75.5
437.614	79.5
437.835	95.5
438.057	90.5
438.278	67.5
438.5	71.5
438.721	87.5
438.943	85.5
439.165	85.5
439.386	64.5
439.608	79.5
439.829	88.5
440.05	85.5
440.272	78.5
440.493	86.5
440.715	71.5
440.936	72.5
441.158	82.5
441.379	79.5
441.6	67.5
441.822	74.5
442.043	76.5
442.264	105.5
442.486	89.5
442.707	84.5
442.928	79.5
443.149	79.5
443.371	95.5
443.592	85.5
443.813	86.5
444.034	90.5
444.255	81.5
444.476	80.5
444.698	75.5
444.919	73.5
445.14	125.5
445.361	107.5
445.582	88.5
445.803	76.5
446.024	74.5
446.245	89.5
446.466	75.5
446.687	76.5
446.908	83.5
447.129	58.5
447.35	91.5
447.571	91.5
447.792	78.5
448.013	76.5
448.234	80.5
448.455	86.5
448.675	83.5
448.896	78.5
449.117	94.5
449.338	85.5
449.559	105.5
449.779	86.5
450	78.5
450.221	70.5
450.442	85.5
450.662	72.5
450.883	85.5
451.104	81.5
451.324	59.5
451.545	74.5
451.766	82.5
451.986	68.5
452.207	103.5
452.428	87.5
452.648	91.5
452.869	73.5
453.089	77.5
453.31	74.5
453.53	67.5
453.751	85.5
453.971	78.5
454.192	73.5
454.412	85.5
454.633	91.5
454.853	69.5
455.073	80.5
455.294	76.5
455.514	92.5
455.734	77.5
455.955	71.5
456.175	78.5
456.395	79.5
456.616	71.5
456.836	86.5
457.056	72.5
457.276	81.5
457.497	67.5
457.717	83.5
457.937	77.5
458.157	73.5
458.377	90.5
458.598	80.5
458.818	75.5
459.038	71.5
459.258	73.5
459.478	78.5
459.698	78.5
459.918	96.5
460.138	68.5
460.358	85.5
460.578	78.5
460.798	78.5
461.018	86.5
461.238	91.5
461.458	86.5
461.678	70.5
461.898	87.5
462.118	80.5
462.338	88.5
462.558	81.5
462.777	86.5
462.997	70.5
463.217	82.5
463.437	88.5
463.657	84.5
463.876	70.5
464.096	91.5
464.316	75.5
464.536	76.5
464.755	78.5
464.975	78.5
465.195	91.5
465.414	71.5
465.634	73.5
465.854	89.5
466.073	86.5
466.293	84.5
466.512	76.5
466.732	95.5
466.951	80.5
467.171	78.5
467.391	79.5
467.61	81.5
467.829	74.5
468.049	85.5
468.268	72.5
468.488	84.5
468.707	91.5
468.927	85.5
469.146	79.5
469.365	95.5
469.585	94.5
469.804	85.5
470.023	98.5
470.243	87.5
470.462	88.5
470.681	102.5
470.901	95.5
471.12	84.5
471.339	87.5
471.558	91.5
471.777	87.5
471.997	89.5
472.216	76.5
472.435	80.5
472.654	75.5
472.873	100.5
473.092	85.5
473.311	83.5
473.53	91.5
473.749	88.5
473.968	83.5
474.187	62.5
474.406	81.5
474.625	90.5
474.844	85.5
475.063	89.5
475.282	80.5
475.501	84.5
475.72	84.5
475.939	78.5
476.158	87.5
476.377	85.5
476.596	79.5
476.814	88.5
477.033	77.5
477.252	89.5
477.471	88.5
477.69	85.5
477.908	95.5
478.127	79.5
478.346	98.5
478.564	80.5
478.783	89.5
479.002	87.5
479.22	76.5
479.439	76.5
479.658	90.5
479.876	88.5
480.095	95.5
480.313	83.5
480.532	79.5
480.751	81.5
480.969	86.5
481.188	78.5
481.406	93.5
481.624	93.5
481.843	91.5
482.061	75.5
482.28	81.5
482.498	81.5
482.717	77.5
482.935	99.5
483.153	81.5
483.372	87.5
483.59	89.5
483.808	88.5
484.027	84.5
484.245	84.5
484.463	94.5
484.681	75.5
484.9	83.5
485.118	86.5
485.336	80.5
485.554	71.5
485.772	79.5
485.99	84.5
486.209	90.5
486.427	79.5
486.645	87.5
486.863	87.5
487.081	81.5
487.299	80.5
487.517	79.5
487.735	85.5
487.953	97.5
488.171	91.5
488.389	93.5
488.607	83.5
488.825	93.5
489.043	81.5
489.261	98.5
489.479	93.5
489.696	73.5
489.914	84.5
490.132	87.5
490.35	105.5
490.568	93.5
490.786	103.5
491.003	88.5
491.221	96.5
491.439	77.5
491.657	91.5
491.874	101.5
492.092	83.5
492.31	85.5
492.527	78.5
492.745	79.5
492.963	91.5
493.18	101.5
493.398	90.5
493.615	94.5
493.833	94.5
494.05	89.5
494.268	84.5
494.485	81.5
494.703	101.5
494.92	101.5
495.138	98.5
495.355	81.5
495.573	88.5
495.79	97.5
496.008	91.5
496.225	96.5
496.442	97.5
496.66	85.5
496.877	91.5
497.094	76.5
497.312	93.5
497.529	75.5
497.746	84.5
497.963	88.5
498.181	85.5
498.398	82.5
498.615	89.5
498.832	85.5
499.049	86.5
499.267	81.5
499.484	94.5
499.701	97.5
499.918	99.5
500.135	104.5
500.352	93.5
500.569	73.5
500.786	77.5
501.003	73.5
501.22	76.5
501.437	87.5
501.654	84.5
501.871	91.5
502.088	81.5
502.305	87.5
502.522	71.5
502.739	89.5
502.956	78.5
503.172	110.5
503.389	92.5
503.606	74.5
503.823	86.5
504.04	83.5
504.256	92.5
504.473	83.5
504.69	81.5
504.907	96.5
505.123	94.5
505.34	91.5
505.557	98.5
505.773	88.5
505.99	91.5
506.207	90.5
506.423	97.5
506.64	85.5
506.856	81.5
507.073	86.5
507.289	79.5
507.506	92.5
507.722	88.5
507.939	74.5
508.155	76.5
508.372	93.5
508.588	78.5
508.805	99.5
509.021	87.5
509.238	79.5
509.454	87.5
509.67	84.5
509.887	93.5
510.103	92.5
510.319	76.5
510.536	71.5
510.752	85.5
510.968	85.5
511.184	91.5
511.401	83.5
511.617	96.5
511.833	102.5
512.049	92.5
512.265	80.5
512.481	85.5
512.698	89.5
512.914	98.5
513.13	67.5
513.346	86.5
513.562	69.5
513.778	75.5
513.994	91.5
514.21	88.5
514.426	85.5
514.642	91.5
514.858	79.5
515.074	88.5
515.29	85.5
515.506	72.5
515.721	77.5
515.937	80.5
516.153	83.5
516.369	82.5
516.585	85.5
516.801	89.5
517.016	92.5
517.232	73.5
517.448	76.5
517.664	79.5
517.879	95.5
518.095	80.5
518.311	79.5
518.527	82.5
518.742	57.5
518.958	75.5
519.173	87.5
519.389	75.5
519.605	94.5
519.82	85.5
520.036	83.5
520.251	88.5
520.467	82.5
520.682	91.5
520.898	86.5
521.113	87.5
521.329	88.5
521.544	75.5
521.76	72.5
521.975	91.5
522.19	86.5
522.406	91.5
522.621	95.5
522.836	78.5
523.052	80.5
523.267	85.5
523.482	88.5
523.698	88.5
523.913	78.5
524.128	79.5
524.343	84.5
524.559	84.5
524.774	87.5
524.989	96.5
525.204	84.5
525.419	91.5
525.634	78.5
525.849	86.5
526.064	97.5
526.28	83.5
526.495	82.5
526.71	88.5
526.925	83.5
527.14	85.5
527.355	89.5
527.57	67.5
527.785	79.5
527.999	90.5
528.214	88.5
528.429	99.5
528.644	87.5
528.859	86.5
529.074	77.5
529.289	93.5
529.503	86.5
529.718	91.5
529.933	89.5
530.148	87.5
530.363	99.5
530.577	91.5
530.792	95.5
531.007	75.5
531.221	79.5
531.436	92.5
531.651	103.5
531.865	84.5
532.08	84.5
532.295	99.5
532.509	84.5
532.724	96.5
532.938	97.5
533.153	91.5
533.367	96.5
533.582	92.5
533.796	83.5
534.011	87.5
534.225	93.5
534.44	97.5
534.654	101.5
534.868	103.5
535.083	95.5
535.297	84.5
535.511	102.5
535.726	97.5
535.94	111.5
536.154	86.5
536.369	112.5
536.583	82.5
536.797	104.5
537.011	93.5
537.225	91.5
537.44	84.5
537.654	93.5
537.868	83.5
538.082	80.5
538.296	78.5
538.51	87.5
538.724	78.5
538.938	84.5
539.153	95.5
539.367	97.5
539.581	99.5
539.795	83.5
540.009	83.5
540.222	95.5
