Data from KBrHeat1_HRD10591_00010.txt Node
Date: Fri Dec 27 14:51:29 EST 2024
User: Yrep
Spectrometer: HR+D1059
Trigger mode: 1
Integration Time (sec): 1.000000E-1
Scans to average: 1
Electric dark correction enabled: true
Nonlinearity correction enabled: false
Boxcar width: 0
XAxis mode: Wavelengths
Number of Pixels in Spectrum: 2048
>>>>>Begin Spectral Data<<<<<
223.165	-35.62
223.4	-35.62
223.635	-35.62
223.869	-19.62
224.104	-18.62
224.338	-18.62
224.573	-13.62
224.808	-20.62
225.042	1.38
225.277	-8.62
225.511	1.38
225.746	8.38
225.98	12.38
226.215	10.38
226.449	10.38
226.683	26.38
226.918	22.38
227.152	42.38
227.387	37.38
227.621	37.38
227.856	36.38
228.09	51.38
228.324	51.38
228.559	62.38
228.793	68.38
229.027	54.38
229.262	78.38
229.496	66.38
229.73	72.38
229.964	79.38
230.199	63.38
230.433	81.38
230.667	77.38
230.901	57.38
231.136	70.38
231.37	73.38
231.604	82.38
231.838	80.38
232.072	88.38
232.306	86.38
232.541	80.38
232.775	72.38
233.009	72.38
233.243	92.38
233.477	88.38
233.711	72.38
233.945	101.38
234.179	72.38
234.413	70.38
234.647	84.38
234.881	77.38
235.115	79.38
235.349	82.38
235.583	87.38
235.817	59.38
236.051	87.38
236.285	75.38
236.519	81.38
236.753	76.38
236.987	76.38
237.221	62.38
237.455	69.38
237.689	80.38
237.922	75.38
238.156	75.38
238.39	84.38
238.624	81.38
238.858	73.38
239.091	65.38
239.325	72.38
239.559	85.38
239.793	77.38
240.027	83.38
240.26	68.38
240.494	92.38
240.728	85.38
240.961	75.38
241.195	72.38
241.429	74.38
241.662	88.38
241.896	69.38
242.13	71.38
242.363	87.38
242.597	63.38
242.83	67.38
243.064	73.38
243.298	89.38
243.531	75.38
243.765	87.38
243.998	75.38
244.232	83.38
244.465	84.38
244.699	84.38
244.932	87.38
245.166	74.38
245.399	75.38
245.633	85.38
245.866	81.38
246.099	76.38
246.333	68.38
246.566	76.38
246.8	79.38
247.033	85.38
247.266	88.38
247.5	84.38
247.733	71.38
247.966	66.38
248.2	80.38
248.433	66.38
248.666	80.38
248.899	77.38
249.133	68.38
249.366	90.38
249.599	62.38
249.832	74.38
250.066	73.38
250.299	79.38
250.532	85.38
250.765	84.38
250.998	84.38
251.231	82.38
251.465	78.38
251.698	82.38
251.931	96.38
252.164	74.38
252.397	77.38
252.63	78.38
252.863	69.38
253.096	72.38
253.329	79.38
253.562	70.38
253.795	82.38
254.028	81.38
254.261	73.38
254.494	73.38
254.727	81.38
254.96	74.38
255.193	84.38
255.426	73.38
255.659	69.38
255.892	77.38
256.124	86.38
256.357	86.38
256.59	80.38
256.823	88.38
257.056	80.38
257.289	72.38
257.521	69.38
257.754	84.38
257.987	87.38
258.22	62.38
258.452	74.38
258.685	82.38
258.918	97.38
259.151	78.38
259.383	86.38
259.616	80.38
259.849	84.38
260.081	70.38
260.314	84.38
260.547	73.38
260.779	74.38
261.012	75.38
261.244	76.38
261.477	82.38
261.71	74.38
261.942	89.38
262.175	84.38
262.407	88.38
262.64	89.38
262.872	86.38
263.105	89.38
263.337	105.38
263.57	84.38
263.802	94.38
264.035	101.38
264.267	83.38
264.499	62.38
264.732	100.38
264.964	74.38
265.197	89.38
265.429	84.38
265.661	99.38
265.894	91.38
266.126	82.38
266.358	89.38
266.591	84.38
266.823	80.38
267.055	91.38
267.287	80.38
267.52	78.38
267.752	84.38
267.984	91.38
268.216	83.38
268.448	83.38
268.681	94.38
268.913	94.38
269.145	100.38
269.377	77.38
269.609	84.38
269.841	85.38
270.073	92.38
270.306	95.38
270.538	80.38
270.77	87.38
271.002	88.38
271.234	85.38
271.466	92.38
271.698	79.38
271.93	80.38
272.162	87.38
272.394	81.38
272.626	81.38
272.858	81.38
273.09	88.38
273.322	93.38
273.553	90.38
273.785	84.38
274.017	84.38
274.249	77.38
274.481	91.38
274.713	81.38
274.945	94.38
275.176	98.38
275.408	74.38
275.64	80.38
275.872	74.38
276.104	93.38
276.335	79.38
276.567	76.38
276.799	89.38
277.031	78.38
277.262	80.38
277.494	97.38
277.726	92.38
277.957	79.38
278.189	97.38
278.421	82.38
278.652	93.38
278.884	85.38
279.115	86.38
279.347	86.38
279.579	75.38
279.81	80.38
280.042	85.38
280.273	88.38
280.505	89.38
280.736	76.38
280.968	102.38
281.199	86.38
281.431	86.38
281.662	97.38
281.894	93.38
282.125	91.38
282.356	93.38
282.588	96.38
282.819	104.38
283.051	84.38
283.282	72.38
283.513	86.38
283.745	88.38
283.976	74.38
284.207	83.38
284.439	78.38
284.67	85.38
284.901	86.38
285.132	80.38
285.364	81.38
285.595	87.38
285.826	98.38
286.057	83.38
286.288	90.38
286.52	80.38
286.751	77.38
286.982	92.38
287.213	84.38
287.444	84.38
287.675	92.38
287.906	82.38
288.138	94.38
288.369	84.38
288.6	84.38
288.831	71.38
289.062	87.38
289.293	92.38
289.524	86.38
289.755	102.38
289.986	87.38
290.217	83.38
290.448	82.38
290.679	84.38
290.91	88.38
291.141	79.38
291.371	96.38
291.602	86.38
291.833	98.38
292.064	90.38
292.295	81.38
292.526	87.38
292.757	81.38
292.987	86.38
293.218	74.38
293.449	83.38
293.68	91.38
293.91	84.38
294.141	93.38
294.372	76.38
294.603	74.38
294.833	69.38
295.064	97.38
295.295	94.38
295.525	75.38
295.756	74.38
295.987	82.38
296.217	99.38
296.448	81.38
296.679	102.38
296.909	76.38
297.14	96.38
297.37	84.38
297.601	77.38
297.831	85.38
298.062	92.38
298.292	89.38
298.523	85.38
298.753	92.38
298.984	80.38
299.214	85.38
299.445	88.38
299.675	92.38
299.905	85.38
300.136	80.38
300.366	97.38
300.597	94.38
300.827	86.38
301.057	88.38
301.288	74.38
301.518	95.38
301.748	71.38
301.979	95.38
302.209	88.38
302.439	84.38
302.669	80.38
302.9	93.38
303.13	86.38
303.36	92.38
303.59	87.38
303.82	93.38
304.051	85.38
304.281	94.38
304.511	85.38
304.741	100.38
304.971	88.38
305.201	80.38
305.431	98.38
305.661	82.38
305.891	73.38
306.121	80.38
306.352	81.38
306.582	86.38
306.812	81.38
307.042	92.38
307.272	94.38
307.502	93.38
307.731	91.38
307.961	78.38
308.191	101.38
308.421	89.38
308.651	104.38
308.881	97.38
309.111	88.38
309.341	90.38
309.571	77.38
309.8	87.38
310.03	74.38
310.26	86.38
310.49	81.38
310.72	78.38
310.949	99.38
311.179	96.38
311.409	93.38
311.639	97.38
311.868	90.38
312.098	87.38
312.328	83.38
312.557	105.38
312.787	84.38
313.017	76.38
313.246	99.38
313.476	100.38
313.706	80.38
313.935	76.38
314.165	77.38
314.394	76.38
314.624	97.38
314.853	96.38
315.083	89.38
315.312	87.38
315.542	86.38
315.771	80.38
316.001	87.38
316.23	93.38
316.46	85.38
316.689	93.38
316.919	84.38
317.148	100.38
317.377	88.38
317.607	83.38
317.836	93.38
318.065	84.38
318.295	97.38
318.524	83.38
318.753	75.38
318.983	87.38
319.212	84.38
319.441	83.38
319.67	72.38
319.9	80.38
320.129	80.38
320.358	86.38
320.587	90.38
320.816	77.38
321.046	77.38
321.275	86.38
321.504	83.38
321.733	90.38
321.962	82.38
322.191	88.38
322.42	81.38
322.649	88.38
322.878	78.38
323.108	89.38
323.337	93.38
323.566	94.38
323.795	93.38
324.024	90.38
324.253	87.38
324.482	80.38
324.71	84.38
324.939	103.38
325.168	80.38
325.397	89.38
325.626	91.38
325.855	90.38
326.084	89.38
326.313	97.38
326.542	79.38
326.77	82.38
326.999	102.38
327.228	96.38
327.457	85.38
327.686	93.38
327.914	86.38
328.143	84.38
328.372	92.38
328.6	92.38
328.829	90.38
329.058	74.38
329.287	92.38
329.515	89.38
329.744	87.38
329.972	97.38
330.201	80.38
330.43	65.38
330.658	90.38
330.887	84.38
331.115	83.38
331.344	93.38
331.572	92.38
331.801	92.38
332.03	85.38
332.258	94.38
332.486	72.38
332.715	98.38
332.943	92.38
333.172	90.38
333.4	88.38
333.629	81.38
333.857	86.38
334.085	92.38
334.314	86.38
334.542	81.38
334.771	88.38
334.999	77.38
335.227	97.38
335.455	89.38
335.684	90.38
335.912	84.38
336.14	92.38
336.369	92.38
336.597	93.38
336.825	75.38
337.053	75.38
337.281	77.38
337.51	78.38
337.738	99.38
337.966	96.38
338.194	90.38
338.422	87.38
338.65	90.38
338.878	91.38
339.106	79.38
339.334	102.38
339.562	100.38
339.79	107.38
340.018	83.38
340.246	81.38
340.474	101.38
340.702	86.38
340.93	83.38
341.158	79.38
341.386	85.38
341.614	73.38
341.842	89.38
342.07	94.38
342.298	73.38
342.526	68.38
342.754	109.38
342.981	94.38
343.209	89.38
343.437	108.38
343.665	94.38
343.893	94.38
344.12	98.38
344.348	92.38
344.576	102.38
344.804	108.38
345.031	83.38
345.259	80.38
345.487	87.38
345.714	81.38
345.942	96.38
346.17	92.38
346.397	90.38
346.625	69.38
346.853	100.38
347.08	94.38
347.308	86.38
347.535	75.38
347.763	76.38
347.99	95.38
348.218	88.38
348.445	85.38
348.673	92.38
348.9	104.38
349.128	78.38
349.355	79.38
349.583	87.38
349.81	81.38
350.037	92.38
350.265	73.38
350.492	74.38
350.72	94.38
350.947	103.38
351.174	85.38
351.402	90.38
351.629	86.38
351.856	84.38
352.083	81.38
352.311	79.38
352.538	79.38
352.765	101.38
352.992	96.38
353.22	84.38
353.447	84.38
353.674	86.38
353.901	92.38
354.128	80.38
354.355	78.38
354.583	80.38
354.81	86.38
355.037	97.38
355.264	80.38
355.491	89.38
355.718	75.38
355.945	97.38
356.172	84.38
356.399	86.38
356.626	101.38
356.853	103.38
357.08	89.38
357.307	81.38
357.534	78.38
357.761	82.38
357.988	95.38
358.215	88.38
358.441	82.38
358.668	78.38
358.895	95.38
359.122	77.38
359.349	89.38
359.576	98.38
359.802	98.38
360.029	102.38
360.256	85.38
360.483	88.38
360.709	84.38
360.936	83.38
361.163	83.38
361.39	81.38
361.616	81.38
361.843	105.38
362.07	93.38
362.296	86.38
362.523	84.38
362.749	88.38
362.976	85.38
363.203	83.38
363.429	85.38
363.656	86.38
363.882	84.38
364.109	80.38
364.335	96.38
364.562	82.38
364.788	97.38
365.015	82.38
365.241	86.38
365.468	94.38
365.694	104.38
365.92	92.38
366.147	93.38
366.373	93.38
366.599	80.38
366.826	92.38
367.052	89.38
367.278	91.38
367.505	91.38
367.731	103.38
367.957	87.38
368.184	93.38
368.41	87.38
368.636	74.38
368.862	86.38
369.089	86.38
369.315	80.38
369.541	92.38
369.767	70.38
369.993	76.38
370.219	100.38
370.445	87.38
370.672	104.38
370.898	96.38
371.124	78.38
371.35	88.38
371.576	74.38
371.802	84.38
372.028	87.38
372.254	91.38
372.48	101.38
372.706	90.38
372.932	78.38
373.158	88.38
373.384	87.38
373.61	87.38
373.835	97.38
374.061	94.38
374.287	93.38
374.513	107.38
374.739	97.38
374.965	84.38
375.191	94.38
375.416	89.38
375.642	82.38
375.868	105.38
376.094	82.38
376.319	103.38
376.545	93.38
376.771	74.38
376.997	76.38
377.222	88.38
377.448	80.38
377.674	75.38
377.899	82.38
378.125	84.38
378.35	85.38
378.576	91.38
378.802	85.38
379.027	85.38
379.253	86.38
379.478	90.38
379.704	88.38
379.929	88.38
380.155	87.38
380.38	86.38
380.606	87.38
380.831	80.38
381.057	84.38
381.282	81.38
381.507	82.38
381.733	98.38
381.958	88.38
382.184	99.38
382.409	92.38
382.634	77.38
382.86	90.38
383.085	92.38
383.31	81.38
383.535	84.38
383.761	94.38
383.986	92.38
384.211	94.38
384.436	94.38
384.662	102.38
384.887	88.38
385.112	76.38
385.337	94.38
385.562	82.38
385.787	81.38
386.013	86.38
386.238	86.38
386.463	86.38
386.688	107.38
386.913	93.38
387.138	92.38
387.363	90.38
387.588	84.38
387.813	90.38
388.038	89.38
388.263	91.38
388.488	73.38
388.713	78.38
388.938	73.38
389.163	93.38
389.387	91.38
389.612	92.38
389.837	82.38
390.062	94.38
390.287	91.38
390.512	89.38
390.736	89.38
390.961	79.38
391.186	94.38
391.411	88.38
391.636	102.38
391.86	89.38
392.085	80.38
392.31	98.38
392.534	74.38
392.759	87.38
392.984	86.38
393.208	94.38
393.433	96.38
393.658	92.38
393.882	88.38
394.107	84.38
394.331	68.38
394.556	85.38
394.78	79.38
395.005	78.38
395.229	89.38
395.454	101.38
395.678	94.38
395.903	82.38
396.127	91.38
396.352	101.38
396.576	89.38
396.801	80.38
397.025	84.38
397.249	85.38
397.474	91.38
397.698	90.38
397.922	84.38
398.147	89.38
398.371	82.38
398.595	88.38
398.82	83.38
399.044	89.38
399.268	81.38
399.492	80.38
399.717	91.38
399.941	93.38
400.165	107.38
400.389	85.38
400.613	92.38
400.837	94.38
401.062	84.38
401.286	86.38
401.51	90.38
401.734	79.38
401.958	94.38
402.182	92.38
402.406	85.38
402.63	94.38
402.854	84.38
403.078	77.38
403.302	84.38
403.526	88.38
403.75	101.38
403.974	95.38
404.198	125.38
404.422	195.38
404.645	213.38
404.869	202.38
405.093	146.38
405.317	108.38
405.541	92.38
405.765	86.38
405.988	82.38
406.212	90.38
406.436	86.38
406.66	104.38
406.883	95.38
407.107	82.38
407.331	89.38
407.555	92.38
407.778	82.38
408.002	84.38
408.226	88.38
408.449	76.38
408.673	94.38
408.896	100.38
409.12	80.38
409.344	100.38
409.567	109.38
409.791	81.38
410.014	77.38
410.238	74.38
410.461	78.38
410.685	107.38
410.908	82.38
411.132	91.38
411.355	83.38
411.578	95.38
411.802	78.38
412.025	90.38
412.249	89.38
412.472	81.38
412.695	99.38
412.919	96.38
413.142	84.38
413.365	100.38
413.589	75.38
413.812	93.38
414.035	86.38
414.258	88.38
414.482	78.38
414.705	82.38
414.928	85.38
415.151	101.38
415.374	84.38
415.597	78.38
415.821	92.38
416.044	72.38
416.267	84.38
416.49	90.38
416.713	96.38
416.936	77.38
417.159	79.38
417.382	90.38
417.605	93.38
417.828	91.38
418.051	78.38
418.274	79.38
418.497	88.38
418.72	102.38
418.943	88.38
419.166	84.38
419.389	85.38
419.611	94.38
419.834	86.38
420.057	76.38
420.28	91.38
420.503	76.38
420.726	91.38
420.948	101.38
421.171	88.38
421.394	98.38
421.617	92.38
421.839	84.38
422.062	91.38
422.285	92.38
422.507	85.38
422.73	86.38
422.953	92.38
423.175	102.38
423.398	96.38
423.621	84.38
423.843	83.38
424.066	81.38
424.288	92.38
424.511	93.38
424.733	89.38
424.956	82.38
425.178	83.38
425.401	86.38
425.623	101.38
425.846	82.38
426.068	90.38
426.291	71.38
426.513	84.38
426.735	88.38
426.958	96.38
427.18	88.38
427.402	93.38
427.625	88.38
427.847	83.38
428.069	82.38
428.292	83.38
428.514	79.38
428.736	87.38
428.958	90.38
429.181	81.38
429.403	87.38
429.625	80.38
429.847	92.38
430.069	91.38
430.292	97.38
430.514	88.38
430.736	85.38
430.958	96.38
431.18	92.38
431.402	83.38
431.624	88.38
431.846	83.38
432.068	91.38
432.29	96.38
432.512	73.38
432.734	98.38
432.956	99.38
433.178	83.38
433.4	92.38
433.622	90.38
433.844	97.38
434.066	82.38
434.287	86.38
434.509	89.38
434.731	82.38
434.953	77.38
435.175	85.38
435.397	86.38
435.618	85.38
435.84	85.38
436.062	81.38
436.284	90.38
436.505	109.38
436.727	86.38
436.949	98.38
437.17	79.38
437.392	104.38
437.614	93.38
437.835	89.38
438.057	87.38
438.278	83.38
438.5	86.38
438.721	113.38
438.943	92.38
439.165	88.38
439.386	82.38
439.608	95.38
439.829	92.38
440.05	92.38
440.272	82.38
440.493	77.38
440.715	104.38
440.936	98.38
441.158	92.38
441.379	77.38
441.6	91.38
441.822	90.38
442.043	88.38
442.264	101.38
442.486	91.38
442.707	89.38
442.928	93.38
443.149	83.38
443.371	101.38
443.592	88.38
443.813	98.38
444.034	81.38
444.255	88.38
444.476	90.38
444.698	93.38
444.919	71.38
445.14	133.38
445.361	106.38
445.582	91.38
445.803	85.38
446.024	84.38
446.245	96.38
446.466	92.38
446.687	98.38
446.908	82.38
447.129	88.38
447.35	105.38
447.571	92.38
447.792	100.38
448.013	94.38
448.234	101.38
448.455	81.38
448.675	78.38
448.896	85.38
449.117	85.38
449.338	91.38
449.559	91.38
449.779	98.38
450	89.38
450.221	106.38
450.442	85.38
450.662	91.38
450.883	92.38
451.104	84.38
451.324	83.38
451.545	86.38
451.766	86.38
451.986	87.38
452.207	89.38
452.428	78.38
452.648	96.38
452.869	97.38
453.089	82.38
453.31	82.38
453.53	84.38
453.751	81.38
453.971	75.38
454.192	80.38
454.412	74.38
454.633	91.38
454.853	97.38
455.073	89.38
455.294	85.38
455.514	101.38
455.734	80.38
455.955	95.38
456.175	76.38
456.395	70.38
456.616	84.38
456.836	88.38
457.056	103.38
457.276	93.38
457.497	104.38
457.717	75.38
457.937	97.38
458.157	86.38
458.377	68.38
458.598	66.38
458.818	90.38
459.038	86.38
459.258	91.38
459.478	82.38
459.698	88.38
459.918	85.38
460.138	78.38
460.358	80.38
460.578	84.38
460.798	88.38
461.018	102.38
461.238	89.38
461.458	74.38
461.678	91.38
461.898	98.38
462.118	104.38
462.338	85.38
462.558	96.38
462.777	86.38
462.997	85.38
463.217	84.38
463.437	78.38
463.657	101.38
463.876	92.38
464.096	85.38
464.316	90.38
464.536	81.38
464.755	98.38
464.975	88.38
465.195	107.38
465.414	83.38
465.634	97.38
465.854	105.38
466.073	89.38
466.293	88.38
466.512	77.38
466.732	92.38
466.951	91.38
467.171	85.38
467.391	89.38
467.61	97.38
467.829	83.38
468.049	96.38
468.268	90.38
468.488	76.38
468.707	85.38
468.927	99.38
469.146	87.38
469.365	93.38
469.585	93.38
469.804	97.38
470.023	94.38
470.243	98.38
470.462	78.38
470.681	100.38
470.901	97.38
471.12	96.38
471.339	90.38
471.558	109.38
471.777	85.38
471.997	82.38
472.216	93.38
472.435	86.38
472.654	85.38
472.873	85.38
473.092	85.38
473.311	77.38
473.53	73.38
473.749	91.38
473.968	104.38
474.187	92.38
474.406	89.38
474.625	104.38
474.844	91.38
475.063	88.38
475.282	81.38
475.501	80.38
475.72	80.38
475.939	93.38
476.158	86.38
476.377	92.38
476.596	93.38
476.814	87.38
477.033	94.38
477.252	93.38
477.471	93.38
477.69	96.38
477.908	86.38
478.127	100.38
478.346	99.38
478.564	97.38
478.783	94.38
479.002	90.38
479.22	73.38
479.439	86.38
479.658	98.38
479.876	85.38
480.095	80.38
480.313	94.38
480.532	86.38
480.751	80.38
480.969	82.38
481.188	81.38
481.406	108.38
481.624	94.38
481.843	80.38
482.061	79.38
482.28	104.38
482.498	93.38
482.717	84.38
482.935	97.38
483.153	90.38
483.372	96.38
483.59	91.38
483.808	87.38
484.027	91.38
484.245	93.38
484.463	91.38
484.681	95.38
484.9	96.38
485.118	96.38
485.336	89.38
485.554	100.38
485.772	88.38
485.99	96.38
486.209	84.38
486.427	97.38
486.645	100.38
486.863	88.38
487.081	90.38
487.299	85.38
487.517	92.38
487.735	94.38
487.953	105.38
488.171	80.38
488.389	82.38
488.607	90.38
488.825	87.38
489.043	94.38
489.261	98.38
489.479	94.38
489.696	94.38
489.914	89.38
490.132	87.38
490.35	97.38
490.568	103.38
490.786	93.38
491.003	86.38
491.221	106.38
491.439	96.38
491.657	104.38
491.874	99.38
492.092	93.38
492.31	100.38
492.527	90.38
492.745	96.38
492.963	98.38
493.18	90.38
493.398	94.38
493.615	109.38
493.833	92.38
494.05	98.38
494.268	94.38
494.485	92.38
494.703	99.38
494.92	97.38
495.138	98.38
495.355	105.38
495.573	100.38
495.79	86.38
496.008	76.38
496.225	99.38
496.442	82.38
496.66	115.38
496.877	112.38
497.094	109.38
497.312	85.38
497.529	109.38
497.746	92.38
497.963	99.38
498.181	92.38
498.398	82.38
498.615	101.38
498.832	96.38
499.049	88.38
499.267	91.38
499.484	101.38
499.701	110.38
499.918	104.38
500.135	100.38
500.352	89.38
500.569	103.38
500.786	92.38
501.003	101.38
501.22	96.38
501.437	94.38
501.654	91.38
501.871	90.38
502.088	106.38
502.305	102.38
502.522	94.38
502.739	106.38
502.956	104.38
503.172	104.38
503.389	94.38
503.606	87.38
503.823	85.38
504.04	86.38
504.256	93.38
504.473	90.38
504.69	104.38
504.907	98.38
505.123	82.38
505.34	96.38
505.557	87.38
505.773	92.38
505.99	97.38
506.207	86.38
506.423	100.38
506.64	90.38
506.856	87.38
507.073	99.38
507.289	101.38
507.506	96.38
507.722	93.38
507.939	101.38
508.155	94.38
508.372	92.38
508.588	93.38
508.805	96.38
509.021	97.38
509.238	91.38
509.454	93.38
509.67	96.38
509.887	88.38
510.103	90.38
510.319	87.38
510.536	85.38
510.752	108.38
510.968	97.38
511.184	92.38
511.401	89.38
511.617	89.38
511.833	86.38
512.049	88.38
512.265	93.38
512.481	86.38
512.698	89.38
512.914	78.38
513.13	98.38
513.346	95.38
513.562	104.38
513.778	92.38
513.994	94.38
514.21	98.38
514.426	91.38
514.642	89.38
514.858	93.38
515.074	89.38
515.29	101.38
515.506	95.38
515.721	87.38
515.937	100.38
516.153	83.38
516.369	87.38
516.585	99.38
516.801	91.38
517.016	92.38
517.232	84.38
517.448	93.38
517.664	95.38
517.879	86.38
518.095	91.38
518.311	90.38
518.527	92.38
