Data from KBrHeat1_HRD10591_00017.txt Node
Date: Fri Dec 27 14:51:36 EST 2024
User: Yrep
Spectrometer: HR+D1059
Trigger mode: 1
Integration Time (sec): 1.000000E-1
Scans to average: 1
Electric dark correction enabled: true
Nonlinearity correction enabled: false
Boxcar width: 0
XAxis mode: Wavelengths
Number of Pixels in Spectrum: 2048
>>>>>Begin Spectral Data<<<<<
223.165	-5.75
223.4	-5.75
223.635	-5.75
223.869	-24.75
224.104	-20.75
224.338	-12.75
224.573	-17.75
224.808	-15.75
225.042	-12.75
225.277	-3.75
225.511	1.25
225.746	2.25
225.98	1.25
226.215	21.25
226.449	18.25
226.683	21.25
226.918	14.25
227.152	34.25
227.387	28.25
227.621	42.25
227.856	30.25
228.09	58.25
228.324	54.25
228.559	55.25
228.793	57.25
229.027	63.25
229.262	64.25
229.496	76.25
229.73	72.25
229.964	53.25
230.199	64.25
230.433	62.25
230.667	66.25
230.901	94.25
231.136	81.25
231.37	85.25
231.604	80.25
231.838	66.25
232.072	70.25
232.306	75.25
232.541	70.25
232.775	75.25
233.009	79.25
233.243	80.25
233.477	84.25
233.711	70.25
233.945	78.25
234.179	71.25
234.413	76.25
234.647	85.25
234.881	72.25
235.115	70.25
235.349	89.25
235.583	72.25
235.817	67.25
236.051	75.25
236.285	86.25
236.519	78.25
236.753	65.25
236.987	61.25
237.221	79.25
237.455	86.25
237.689	86.25
237.922	74.25
238.156	77.25
238.39	76.25
238.624	65.25
238.858	78.25
239.091	76.25
239.325	66.25
239.559	82.25
239.793	60.25
240.027	99.25
240.26	82.25
240.494	76.25
240.728	87.25
240.961	99.25
241.195	72.25
241.429	67.25
241.662	79.25
241.896	79.25
242.13	87.25
242.363	83.25
242.597	74.25
242.83	86.25
243.064	87.25
243.298	87.25
243.531	69.25
243.765	79.25
243.998	86.25
244.232	71.25
244.465	81.25
244.699	83.25
244.932	83.25
245.166	74.25
245.399	91.25
245.633	71.25
245.866	61.25
246.099	74.25
246.333	79.25
246.566	71.25
246.8	80.25
247.033	73.25
247.266	86.25
247.5	72.25
247.733	79.25
247.966	60.25
248.2	82.25
248.433	82.25
248.666	66.25
248.899	80.25
249.133	71.25
249.366	83.25
249.599	83.25
249.832	84.25
250.066	72.25
250.299	79.25
250.532	82.25
250.765	75.25
250.998	78.25
251.231	79.25
251.465	88.25
251.698	83.25
251.931	78.25
252.164	82.25
252.397	89.25
252.63	76.25
252.863	81.25
253.096	82.25
253.329	79.25
253.562	73.25
253.795	78.25
254.028	75.25
254.261	74.25
254.494	85.25
254.727	92.25
254.96	87.25
255.193	85.25
255.426	81.25
255.659	87.25
255.892	75.25
256.124	87.25
256.357	83.25
256.59	83.25
256.823	82.25
257.056	80.25
257.289	82.25
257.521	57.25
257.754	97.25
257.987	96.25
258.22	88.25
258.452	86.25
258.685	77.25
258.918	80.25
259.151	78.25
259.383	76.25
259.616	82.25
259.849	77.25
260.081	84.25
260.314	71.25
260.547	89.25
260.779	80.25
261.012	77.25
261.244	74.25
261.477	90.25
261.71	70.25
261.942	88.25
262.175	87.25
262.407	76.25
262.64	83.25
262.872	79.25
263.105	75.25
263.337	82.25
263.57	70.25
263.802	88.25
264.035	79.25
264.267	90.25
264.499	77.25
264.732	88.25
264.964	85.25
265.197	79.25
265.429	89.25
265.661	79.25
265.894	81.25
266.126	81.25
266.358	83.25
266.591	80.25
266.823	75.25
267.055	89.25
267.287	79.25
267.52	84.25
267.752	89.25
267.984	82.25
268.216	81.25
268.448	85.25
268.681	96.25
268.913	100.25
269.145	73.25
269.377	74.25
269.609	87.25
269.841	76.25
270.073	83.25
270.306	63.25
270.538	83.25
270.77	81.25
271.002	74.25
271.234	91.25
271.466	97.25
271.698	89.25
271.93	85.25
272.162	84.25
272.394	71.25
272.626	80.25
272.858	86.25
273.09	84.25
273.322	83.25
273.553	89.25
273.785	86.25
274.017	82.25
274.249	89.25
274.481	78.25
274.713	87.25
274.945	87.25
275.176	79.25
275.408	87.25
275.64	89.25
275.872	91.25
276.104	86.25
276.335	91.25
276.567	76.25
276.799	85.25
277.031	66.25
277.262	94.25
277.494	86.25
277.726	88.25
277.957	75.25
278.189	102.25
278.421	91.25
278.652	97.25
278.884	100.25
279.115	78.25
279.347	77.25
279.579	92.25
279.81	80.25
280.042	93.25
280.273	78.25
280.505	75.25
280.736	75.25
280.968	92.25
281.199	95.25
281.431	84.25
281.662	89.25
281.894	83.25
282.125	88.25
282.356	81.25
282.588	81.25
282.819	81.25
283.051	85.25
283.282	96.25
283.513	90.25
283.745	78.25
283.976	79.25
284.207	86.25
284.439	94.25
284.67	94.25
284.901	84.25
285.132	79.25
285.364	84.25
285.595	87.25
285.826	76.25
286.057	80.25
286.288	100.25
286.52	81.25
286.751	79.25
286.982	81.25
287.213	80.25
287.444	85.25
287.675	80.25
287.906	84.25
288.138	89.25
288.369	80.25
288.6	67.25
288.831	84.25
289.062	91.25
289.293	103.25
289.524	87.25
289.755	68.25
289.986	73.25
290.217	75.25
290.448	85.25
290.679	77.25
290.91	92.25
291.141	82.25
291.371	88.25
291.602	74.25
291.833	97.25
292.064	90.25
292.295	70.25
292.526	82.25
292.757	85.25
292.987	95.25
293.218	90.25
293.449	85.25
293.68	83.25
293.91	76.25
294.141	81.25
294.372	75.25
294.603	76.25
294.833	86.25
295.064	89.25
295.295	84.25
295.525	77.25
295.756	80.25
295.987	73.25
296.217	74.25
296.448	96.25
296.679	85.25
296.909	79.25
297.14	87.25
297.37	71.25
297.601	89.25
297.831	94.25
298.062	80.25
298.292	99.25
298.523	94.25
298.753	85.25
298.984	80.25
299.214	92.25
299.445	88.25
299.675	101.25
299.905	96.25
300.136	91.25
300.366	91.25
300.597	71.25
300.827	79.25
301.057	90.25
301.288	78.25
301.518	80.25
301.748	84.25
301.979	94.25
302.209	88.25
302.439	71.25
302.669	88.25
302.9	93.25
303.13	89.25
303.36	97.25
303.59	96.25
303.82	87.25
304.051	96.25
304.281	83.25
304.511	94.25
304.741	78.25
304.971	97.25
305.201	95.25
305.431	84.25
305.661	87.25
305.891	97.25
306.121	69.25
306.352	89.25
306.582	98.25
306.812	85.25
307.042	87.25
307.272	77.25
307.502	72.25
307.731	76.25
307.961	75.25
308.191	87.25
308.421	84.25
308.651	97.25
308.881	86.25
309.111	84.25
309.341	81.25
309.571	81.25
309.8	83.25
310.03	63.25
310.26	76.25
310.49	82.25
310.72	101.25
310.949	80.25
311.179	81.25
311.409	87.25
311.639	98.25
311.868	92.25
312.098	85.25
312.328	84.25
312.557	94.25
312.787	86.25
313.017	88.25
313.246	91.25
313.476	73.25
313.706	84.25
313.935	82.25
314.165	86.25
314.394	96.25
314.624	78.25
314.853	84.25
315.083	82.25
315.312	83.25
315.542	86.25
315.771	93.25
316.001	94.25
316.23	97.25
316.46	88.25
316.689	91.25
316.919	80.25
317.148	98.25
317.377	101.25
317.607	85.25
317.836	98.25
318.065	82.25
318.295	79.25
318.524	92.25
318.753	83.25
318.983	77.25
319.212	87.25
319.441	83.25
319.67	73.25
319.9	74.25
320.129	86.25
320.358	86.25
320.587	82.25
320.816	82.25
321.046	78.25
321.275	97.25
321.504	86.25
321.733	86.25
321.962	94.25
322.191	80.25
322.42	88.25
322.649	81.25
322.878	81.25
323.108	90.25
323.337	88.25
323.566	102.25
323.795	92.25
324.024	98.25
324.253	94.25
324.482	95.25
324.71	79.25
324.939	77.25
325.168	82.25
325.397	83.25
325.626	90.25
325.855	86.25
326.084	89.25
326.313	78.25
326.542	89.25
326.77	83.25
326.999	81.25
327.228	84.25
327.457	91.25
327.686	102.25
327.914	92.25
328.143	88.25
328.372	106.25
328.6	96.25
328.829	94.25
329.058	96.25
329.287	88.25
329.515	87.25
329.744	82.25
329.972	91.25
330.201	86.25
330.43	88.25
330.658	95.25
330.887	93.25
331.115	81.25
331.344	91.25
331.572	76.25
331.801	74.25
332.03	87.25
332.258	97.25
332.486	105.25
332.715	90.25
332.943	78.25
333.172	96.25
333.4	90.25
333.629	81.25
333.857	96.25
334.085	83.25
334.314	100.25
334.542	94.25
334.771	87.25
334.999	87.25
335.227	92.25
335.455	85.25
335.684	78.25
335.912	86.25
336.14	77.25
336.369	92.25
336.597	107.25
336.825	101.25
337.053	79.25
337.281	89.25
337.51	94.25
337.738	94.25
337.966	90.25
338.194	68.25
338.422	83.25
338.65	82.25
338.878	68.25
339.106	85.25
339.334	100.25
339.562	86.25
339.79	92.25
340.018	95.25
340.246	82.25
340.474	78.25
340.702	85.25
340.93	86.25
341.158	82.25
341.386	89.25
341.614	81.25
341.842	80.25
342.07	87.25
342.298	81.25
342.526	83.25
342.754	79.25
342.981	84.25
343.209	87.25
343.437	111.25
343.665	91.25
343.893	89.25
344.12	89.25
344.348	81.25
344.576	89.25
344.804	98.25
345.031	94.25
345.259	102.25
345.487	98.25
345.714	101.25
345.942	84.25
346.17	96.25
346.397	82.25
346.625	86.25
346.853	102.25
347.08	87.25
347.308	92.25
347.535	84.25
347.763	78.25
347.99	89.25
348.218	93.25
348.445	88.25
348.673	87.25
348.9	78.25
349.128	72.25
349.355	74.25
349.583	84.25
349.81	89.25
350.037	84.25
350.265	84.25
350.492	77.25
350.72	85.25
350.947	90.25
351.174	86.25
351.402	92.25
351.629	82.25
351.856	79.25
352.083	96.25
352.311	96.25
352.538	84.25
352.765	87.25
352.992	82.25
353.22	87.25
353.447	76.25
353.674	100.25
353.901	85.25
354.128	87.25
354.355	89.25
354.583	83.25
354.81	88.25
355.037	84.25
355.264	102.25
355.491	88.25
355.718	102.25
355.945	84.25
356.172	82.25
356.399	103.25
356.626	85.25
356.853	83.25
357.08	87.25
357.307	87.25
357.534	88.25
357.761	94.25
357.988	88.25
358.215	98.25
358.441	86.25
358.668	91.25
358.895	90.25
359.122	83.25
359.349	82.25
359.576	83.25
359.802	88.25
360.029	78.25
360.256	100.25
360.483	87.25
360.709	91.25
360.936	87.25
361.163	77.25
361.39	83.25
361.616	90.25
361.843	91.25
362.07	94.25
362.296	84.25
362.523	78.25
362.749	83.25
362.976	87.25
363.203	95.25
363.429	96.25
363.656	80.25
363.882	76.25
364.109	73.25
364.335	98.25
364.562	80.25
364.788	83.25
365.015	108.25
365.241	84.25
365.468	96.25
365.694	87.25
365.92	91.25
366.147	78.25
366.373	77.25
366.599	78.25
366.826	101.25
367.052	80.25
367.278	85.25
367.505	84.25
367.731	91.25
367.957	96.25
368.184	83.25
368.41	84.25
368.636	84.25
368.862	81.25
369.089	79.25
369.315	71.25
369.541	92.25
369.767	95.25
369.993	87.25
370.219	78.25
370.445	84.25
370.672	87.25
370.898	81.25
371.124	73.25
371.35	87.25
371.576	66.25
371.802	72.25
372.028	88.25
372.254	84.25
372.48	76.25
372.706	83.25
372.932	87.25
373.158	82.25
373.384	86.25
373.61	91.25
373.835	94.25
374.061	70.25
374.287	90.25
374.513	83.25
374.739	94.25
374.965	85.25
375.191	86.25
375.416	84.25
375.642	84.25
375.868	78.25
376.094	83.25
376.319	97.25
376.545	87.25
376.771	85.25
376.997	87.25
377.222	90.25
377.448	91.25
377.674	81.25
377.899	86.25
378.125	91.25
378.35	86.25
378.576	83.25
378.802	70.25
379.027	82.25
379.253	82.25
379.478	85.25
379.704	83.25
379.929	86.25
380.155	86.25
380.38	100.25
380.606	89.25
380.831	93.25
381.057	96.25
381.282	89.25
381.507	73.25
381.733	90.25
381.958	83.25
382.184	87.25
382.409	88.25
382.634	81.25
382.86	86.25
383.085	86.25
383.31	74.25
383.535	79.25
383.761	76.25
383.986	82.25
384.211	78.25
384.436	78.25
384.662	91.25
384.887	74.25
385.112	81.25
385.337	79.25
385.562	93.25
385.787	86.25
386.013	88.25
386.238	86.25
386.463	96.25
386.688	94.25
386.913	96.25
387.138	95.25
387.363	88.25
387.588	96.25
387.813	83.25
388.038	78.25
388.263	92.25
388.488	83.25
388.713	91.25
388.938	94.25
389.163	87.25
389.387	95.25
389.612	85.25
389.837	68.25
390.062	84.25
390.287	77.25
390.512	77.25
390.736	89.25
390.961	88.25
391.186	98.25
391.411	87.25
391.636	100.25
391.86	78.25
392.085	93.25
392.31	96.25
392.534	93.25
392.759	85.25
392.984	82.25
393.208	65.25
393.433	80.25
393.658	95.25
393.882	89.25
394.107	86.25
394.331	89.25
394.556	94.25
394.78	84.25
395.005	95.25
395.229	89.25
395.454	98.25
395.678	83.25
395.903	79.25
396.127	102.25
396.352	84.25
396.576	82.25
396.801	100.25
397.025	99.25
397.249	103.25
397.474	100.25
397.698	84.25
397.922	88.25
398.147	89.25
398.371	95.25
398.595	68.25
398.82	72.25
399.044	91.25
399.268	86.25
399.492	84.25
399.717	87.25
399.941	99.25
400.165	91.25
400.389	70.25
400.613	96.25
400.837	88.25
401.062	78.25
401.286	97.25
401.51	89.25
401.734	94.25
401.958	86.25
402.182	91.25
402.406	73.25
402.63	105.25
402.854	90.25
403.078	82.25
403.302	84.25
403.526	99.25
403.75	112.25
403.974	110.25
404.198	166.25
404.422	195.25
404.645	242.25
404.869	215.25
405.093	153.25
405.317	128.25
405.541	107.25
405.765	100.25
405.988	101.25
406.212	97.25
406.436	90.25
406.66	87.25
406.883	86.25
407.107	89.25
407.331	79.25
407.555	93.25
407.778	89.25
408.002	88.25
408.226	88.25
408.449	81.25
408.673	87.25
408.896	83.25
409.12	70.25
409.344	84.25
409.567	84.25
409.791	95.25
410.014	86.25
410.238	94.25
410.461	82.25
410.685	94.25
410.908	86.25
411.132	96.25
411.355	94.25
411.578	88.25
411.802	78.25
412.025	97.25
412.249	88.25
412.472	91.25
412.695	87.25
412.919	78.25
413.142	86.25
413.365	78.25
413.589	82.25
413.812	69.25
414.035	95.25
414.258	89.25
414.482	91.25
414.705	91.25
414.928	97.25
415.151	78.25
415.374	88.25
415.597	87.25
415.821	97.25
416.044	85.25
416.267	87.25
416.49	86.25
416.713	75.25
416.936	86.25
417.159	90.25
417.382	69.25
417.605	82.25
417.828	71.25
418.051	89.25
418.274	92.25
418.497	86.25
418.72	100.25
418.943	87.25
419.166	76.25
419.389	83.25
419.611	88.25
419.834	88.25
420.057	73.25
420.28	76.25
420.503	81.25
420.726	89.25
420.948	91.25
421.171	81.25
421.394	79.25
421.617	82.25
421.839	94.25
422.062	73.25
422.285	79.25
422.507	100.25
422.73	91.25
422.953	79.25
423.175	90.25
423.398	95.25
423.621	84.25
423.843	81.25
424.066	85.25
424.288	89.25
424.511	87.25
424.733	87.25
424.956	97.25
425.178	98.25
425.401	102.25
425.623	86.25
425.846	76.25
426.068	73.25
426.291	80.25
426.513	80.25
426.735	105.25
426.958	82.25
427.18	88.25
427.402	103.25
427.625	86.25
427.847	91.25
428.069	83.25
428.292	92.25
428.514	87.25
428.736	94.25
428.958	97.25
429.181	99.25
429.403	98.25
429.625	80.25
429.847	73.25
430.069	89.25
430.292	86.25
430.514	69.25
430.736	78.25
430.958	88.25
431.18	93.25
431.402	94.25
431.624	94.25
431.846	76.25
432.068	69.25
432.29	72.25
432.512	87.25
432.734	84.25
432.956	91.25
433.178	88.25
433.4	113.25
433.622	103.25
433.844	97.25
434.066	87.25
434.287	68.25
434.509	80.25
434.731	76.25
434.953	90.25
435.175	88.25
435.397	85.25
435.618	77.25
435.84	98.25
436.062	76.25
436.284	76.25
436.505	92.25
436.727	95.25
436.949	94.25
437.17	84.25
437.392	90.25
437.614	91.25
437.835	75.25
438.057	84.25
438.278	93.25
438.5	91.25
438.721	94.25
438.943	98.25
439.165	87.25
439.386	81.25
439.608	95.25
439.829	89.25
440.05	87.25
440.272	75.25
440.493	86.25
440.715	64.25
440.936	91.25
441.158	90.25
441.379	91.25
441.6	85.25
441.822	88.25
442.043	78.25
442.264	86.25
442.486	85.25
442.707	95.25
442.928	98.25
443.149	85.25
443.371	91.25
443.592	76.25
443.813	94.25
444.034	86.25
444.255	92.25
444.476	86.25
444.698	89.25
444.919	88.25
445.14	144.25
445.361	96.25
445.582	90.25
445.803	80.25
446.024	80.25
446.245	101.25
446.466	98.25
446.687	96.25
446.908	91.25
447.129	85.25
447.35	95.25
447.571	104.25
447.792	80.25
448.013	96.25
448.234	83.25
448.455	98.25
448.675	96.25
448.896	92.25
449.117	94.25
449.338	82.25
449.559	93.25
449.779	82.25
450	86.25
450.221	86.25
450.442	76.25
450.662	97.25
450.883	98.25
451.104	88.25
451.324	84.25
451.545	82.25
451.766	99.25
451.986	94.25
452.207	75.25
452.428	87.25
452.648	98.25
452.869	82.25
453.089	84.25
453.31	90.25
453.53	78.25
453.751	89.25
453.971	88.25
454.192	79.25
454.412	85.25
454.633	80.25
454.853	97.25
455.073	75.25
455.294	81.25
455.514	88.25
455.734	98.25
455.955	88.25
456.175	84.25
456.395	83.25
456.616	94.25
456.836	82.25
457.056	85.25
457.276	88.25
457.497	68.25
457.717	87.25
457.937	69.25
458.157	82.25
458.377	81.25
458.598	95.25
458.818	86.25
459.038	70.25
459.258	81.25
459.478	82.25
459.698	76.25
459.918	90.25
460.138	85.25
460.358	70.25
460.578	87.25
460.798	81.25
461.018	80.25
461.238	83.25
461.458	81.25
461.678	80.25
461.898	88.25
462.118	81.25
462.338	96.25
462.558	84.25
462.777	91.25
462.997	82.25
463.217	91.25
463.437	90.25
463.657	90.25
463.876	79.25
464.096	84.25
464.316	82.25
464.536	78.25
464.755	91.25
464.975	88.25
465.195	80.25
465.414	86.25
465.634	73.25
465.854	78.25
466.073	90.25
466.293	86.25
466.512	96.25
466.732	94.25
466.951	107.25
467.171	82.25
467.391	96.25
467.61	96.25
467.829	92.25
468.049	92.25
468.268	92.25
468.488	69.25
468.707	82.25
468.927	81.25
469.146	94.25
469.365	99.25
469.585	96.25
469.804	80.25
470.023	79.25
470.243	83.25
470.462	91.25
470.681	87.25
470.901	101.25
471.12	83.25
471.339	104.25
471.558	86.25
471.777	79.25
471.997	94.25
472.216	95.25
472.435	78.25
472.654	90.25
472.873	91.25
473.092	98.25
473.311	84.25
473.53	94.25
473.749	71.25
473.968	83.25
474.187	96.25
474.406	74.25
474.625	89.25
474.844	76.25
475.063	84.25
475.282	102.25
475.501	104.25
475.72	103.25
475.939	91.25
476.158	92.25
476.377	92.25
476.596	83.25
476.814	87.25
477.033	102.25
477.252	91.25
477.471	88.25
477.69	102.25
477.908	95.25
478.127	83.25
478.346	88.25
478.564	96.25
478.783	77.25
479.002	91.25
479.22	106.25
479.439	98.25
479.658	93.25
479.876	96.25
480.095	73.25
480.313	84.25
480.532	98.25
480.751	82.25
480.969	81.25
481.188	95.25
481.406	94.25
481.624	93.25
481.843	89.25
482.061	72.25
482.28	82.25
482.498	83.25
482.717	78.25
482.935	89.25
483.153	94.25
483.372	93.25
483.59	100.25
483.808	98.25
484.027	96.25
484.245	79.25
484.463	78.25
484.681	104.25
484.9	92.25
485.118	110.25
485.336	94.25
485.554	87.25
485.772	89.25
485.99	84.25
486.209	85.25
486.427	94.25
486.645	87.25
486.863	89.25
487.081	83.25
487.299	78.25
487.517	101.25
487.735	92.25
487.953	83.25
488.171	107.25
488.389	98.25
488.607	81.25
488.825	84.25
489.043	99.25
489.261	97.25
489.479	97.25
489.696	102.25
489.914	87.25
490.132	94.25
490.35	96.25
490.568	97.25
490.786	82.25
491.003	94.25
491.221	98.25
491.439	98.25
491.657	100.25
491.874	92.25
492.092	104.25
492.31	100.25
492.527	100.25
492.745	90.25
492.963	87.25
493.18	100.25
493.398	98.25
493.615	107.25
493.833	91.25
494.05	93.25
494.268	100.25
494.485	93.25
494.703	89.25
494.92	98.25
495.138	80.25
495.355	88.25
495.573	105.25
495.79	84.25
496.008	92.25
496.225	95.25
496.442	90.25
496.66	88.25
496.877	96.25
497.094	78.25
497.312	91.25
497.529	81.25
497.746	95.25
497.963	86.25
498.181	92.25
498.398	83.25
498.615	80.25
498.832	92.25
499.049	95.25
499.267	82.25
499.484	106.25
499.701	106.25
499.918	108.25
500.135	87.25
500.352	87.25
500.569	82.25
500.786	88.25
501.003	92.25
501.22	100.25
501.437	72.25
501.654	91.25
501.871	97.25
502.088	97.25
502.305	95.25
502.522	83.25
502.739	95.25
502.956	91.25
503.172	105.25
503.389	98.25
503.606	91.25
503.823	87.25
504.04	89.25
504.256	107.25
504.473	97.25
504.69	96.25
504.907	89.25
505.123	95.25
505.34	83.25
505.557	87.25
505.773	94.25
505.99	99.25
506.207	102.25
506.423	99.25
506.64	71.25
506.856	98.25
507.073	82.25
507.289	72.25
507.506	81.25
507.722	81.25
507.939	84.25
508.155	87.25
508.372	92.25
508.588	81.25
508.805	95.25
509.021	86.25
509.238	98.25
509.454	98.25
509.67	93.25
509.887	93.25
510.103	103.25
510.319	82.25
510.536	90.25
510.752	97.25
510.968	93.25
511.184	103.25
511.401	112.25
511.617	90.25
511.833	88.25
512.049	94.25
512.265	80.25
512.481	92.25
512.698	83.25
512.914	89.25
513.13	91.25
513.346	88.25
513.562	90.25
513.778	91.25
513.994	90.25
514.21	91.25
514.426	92.25
514.642	86.25
514.858	87.25
515.074	91.25
515.29	94.25
515.506	86.25
515.721	92.25
515.937	83.25
516.153	84.25
516.369	92.25
516.585	89.25
516.801	78.25
517.016	98.25
517.232	85.25
517.448	84.25
517.664	102.25
517.879	100.25
518.095	94.25
518.311	80.25
518.527	122.25
518.742	88.25
518.958	99.25
