Data from KBrHeat1_HRD10591_00012.txt Node
Date: Fri Dec 27 14:51:31 EST 2024
User: Yrep
Spectrometer: HR+D1059
Trigger mode: 1
Integration Time (sec): 1.000000E-1
Scans to average: 1
Electric dark correction enabled: true
Nonlinearity correction enabled: false
Boxcar width: 0
XAxis mode: Wavelengths
Number of Pixels in Spectrum: 2048
>>>>>Begin Spectral Data<<<<<
223.165	-22.38
223.4	-22.38
223.635	-22.38
223.869	-7.38
224.104	-17.38
224.338	-13.38
224.573	-20.38
224.808	-13.38
225.042	-5.38
225.277	-7.38
225.511	-7.38
225.746	-2.38
225.98	9.62
226.215	10.62
226.449	16.62
226.683	20.62
226.918	28.62
227.152	30.62
227.387	35.62
227.621	50.62
227.856	41.62
228.09	48.62
228.324	48.62
228.559	68.62
228.793	60.62
229.027	62.62
229.262	54.62
229.496	78.62
229.73	58.62
229.964	79.62
230.199	77.62
230.433	75.62
230.667	84.62
230.901	87.62
231.136	71.62
231.37	86.62
231.604	67.62
231.838	80.62
232.072	67.62
232.306	78.62
232.541	85.62
232.775	72.62
233.009	84.62
233.243	90.62
233.477	83.62
233.711	73.62
233.945	86.62
234.179	75.62
234.413	86.62
234.647	80.62
234.881	87.62
235.115	69.62
235.349	86.62
235.583	91.62
235.817	80.62
236.051	82.62
236.285	75.62
236.519	59.62
236.753	82.62
236.987	79.62
237.221	70.62
237.455	82.62
237.689	81.62
237.922	71.62
238.156	72.62
238.39	94.62
238.624	82.62
238.858	76.62
239.091	75.62
239.325	85.62
239.559	74.62
239.793	73.62
240.027	90.62
240.26	70.62
240.494	86.62
240.728	75.62
240.961	64.62
241.195	74.62
241.429	92.62
241.662	78.62
241.896	81.62
242.13	74.62
242.363	80.62
242.597	81.62
242.83	77.62
243.064	74.62
243.298	77.62
243.531	70.62
243.765	77.62
243.998	76.62
244.232	67.62
244.465	67.62
244.699	81.62
244.932	73.62
245.166	80.62
245.399	79.62
245.633	77.62
245.866	81.62
246.099	61.62
246.333	92.62
246.566	81.62
246.8	73.62
247.033	92.62
247.266	78.62
247.5	72.62
247.733	72.62
247.966	75.62
248.2	73.62
248.433	78.62
248.666	85.62
248.899	78.62
249.133	80.62
249.366	74.62
249.599	76.62
249.832	76.62
250.066	78.62
250.299	72.62
250.532	77.62
250.765	77.62
250.998	91.62
251.231	84.62
251.465	90.62
251.698	84.62
251.931	84.62
252.164	78.62
252.397	71.62
252.63	81.62
252.863	68.62
253.096	81.62
253.329	87.62
253.562	79.62
253.795	74.62
254.028	86.62
254.261	81.62
254.494	76.62
254.727	83.62
254.96	90.62
255.193	84.62
255.426	82.62
255.659	74.62
255.892	89.62
256.124	92.62
256.357	94.62
256.59	90.62
256.823	77.62
257.056	70.62
257.289	76.62
257.521	83.62
257.754	62.62
257.987	79.62
258.22	84.62
258.452	67.62
258.685	75.62
258.918	77.62
259.151	76.62
259.383	76.62
259.616	78.62
259.849	91.62
260.081	81.62
260.314	82.62
260.547	84.62
260.779	83.62
261.012	85.62
261.244	80.62
261.477	73.62
261.71	87.62
261.942	97.62
262.175	84.62
262.407	87.62
262.64	80.62
262.872	88.62
263.105	91.62
263.337	98.62
263.57	75.62
263.802	103.62
264.035	86.62
264.267	77.62
264.499	69.62
264.732	89.62
264.964	85.62
265.197	80.62
265.429	78.62
265.661	83.62
265.894	77.62
266.126	77.62
266.358	78.62
266.591	80.62
266.823	72.62
267.055	88.62
267.287	83.62
267.52	88.62
267.752	78.62
267.984	73.62
268.216	76.62
268.448	97.62
268.681	96.62
268.913	89.62
269.145	89.62
269.377	81.62
269.609	87.62
269.841	83.62
270.073	93.62
270.306	91.62
270.538	54.62
270.77	81.62
271.002	83.62
271.234	76.62
271.466	70.62
271.698	69.62
271.93	89.62
272.162	86.62
272.394	75.62
272.626	73.62
272.858	82.62
273.09	96.62
273.322	83.62
273.553	82.62
273.785	85.62
274.017	86.62
274.249	89.62
274.481	95.62
274.713	91.62
274.945	84.62
275.176	83.62
275.408	91.62
275.64	72.62
275.872	90.62
276.104	76.62
276.335	77.62
276.567	83.62
276.799	66.62
277.031	73.62
277.262	71.62
277.494	83.62
277.726	80.62
277.957	99.62
278.189	90.62
278.421	83.62
278.652	66.62
278.884	76.62
279.115	80.62
279.347	87.62
279.579	84.62
279.81	77.62
280.042	78.62
280.273	97.62
280.505	89.62
280.736	82.62
280.968	75.62
281.199	87.62
281.431	68.62
281.662	82.62
281.894	84.62
282.125	90.62
282.356	86.62
282.588	72.62
282.819	79.62
283.051	92.62
283.282	93.62
283.513	88.62
283.745	93.62
283.976	78.62
284.207	89.62
284.439	82.62
284.67	92.62
284.901	96.62
285.132	90.62
285.364	84.62
285.595	79.62
285.826	101.62
286.057	75.62
286.288	88.62
286.52	83.62
286.751	70.62
286.982	89.62
287.213	78.62
287.444	91.62
287.675	99.62
287.906	86.62
288.138	92.62
288.369	90.62
288.6	78.62
288.831	100.62
289.062	84.62
289.293	94.62
289.524	79.62
289.755	85.62
289.986	86.62
290.217	56.62
290.448	92.62
290.679	89.62
290.91	97.62
291.141	69.62
291.371	85.62
291.602	99.62
291.833	64.62
292.064	96.62
292.295	83.62
292.526	89.62
292.757	74.62
292.987	86.62
293.218	106.62
293.449	84.62
293.68	73.62
293.91	88.62
294.141	80.62
294.372	89.62
294.603	99.62
294.833	84.62
295.064	82.62
295.295	78.62
295.525	91.62
295.756	89.62
295.987	98.62
296.217	96.62
296.448	84.62
296.679	87.62
296.909	97.62
297.14	82.62
297.37	76.62
297.601	86.62
297.831	87.62
298.062	83.62
298.292	97.62
298.523	85.62
298.753	78.62
298.984	75.62
299.214	84.62
299.445	90.62
299.675	96.62
299.905	88.62
300.136	73.62
300.366	104.62
300.597	96.62
300.827	79.62
301.057	95.62
301.288	85.62
301.518	74.62
301.748	73.62
301.979	94.62
302.209	79.62
302.439	72.62
302.669	93.62
302.9	82.62
303.13	94.62
303.36	98.62
303.59	70.62
303.82	79.62
304.051	83.62
304.281	96.62
304.511	84.62
304.741	87.62
304.971	100.62
305.201	89.62
305.431	84.62
305.661	78.62
305.891	84.62
306.121	85.62
306.352	91.62
306.582	80.62
306.812	86.62
307.042	105.62
307.272	102.62
307.502	94.62
307.731	83.62
307.961	88.62
308.191	87.62
308.421	83.62
308.651	83.62
308.881	83.62
309.111	83.62
309.341	78.62
309.571	93.62
309.8	94.62
310.03	80.62
310.26	83.62
310.49	82.62
310.72	91.62
310.949	88.62
311.179	94.62
311.409	93.62
311.639	79.62
311.868	89.62
312.098	96.62
312.328	74.62
312.557	97.62
312.787	72.62
313.017	100.62
313.246	96.62
313.476	78.62
313.706	80.62
313.935	88.62
314.165	101.62
314.394	99.62
314.624	81.62
314.853	93.62
315.083	83.62
315.312	76.62
315.542	92.62
315.771	96.62
316.001	100.62
316.23	93.62
316.46	80.62
316.689	88.62
316.919	87.62
317.148	90.62
317.377	96.62
317.607	97.62
317.836	78.62
318.065	93.62
318.295	101.62
318.524	89.62
318.753	83.62
318.983	83.62
319.212	90.62
319.441	92.62
319.67	100.62
319.9	104.62
320.129	85.62
320.358	76.62
320.587	100.62
320.816	93.62
321.046	93.62
321.275	87.62
321.504	83.62
321.733	87.62
321.962	100.62
322.191	81.62
322.42	84.62
322.649	98.62
322.878	87.62
323.108	96.62
323.337	82.62
323.566	93.62
323.795	82.62
324.024	91.62
324.253	90.62
324.482	87.62
324.71	93.62
324.939	99.62
325.168	81.62
325.397	88.62
325.626	86.62
325.855	99.62
326.084	93.62
326.313	85.62
326.542	90.62
326.77	76.62
326.999	77.62
327.228	77.62
327.457	99.62
327.686	85.62
327.914	84.62
328.143	99.62
328.372	75.62
328.6	87.62
328.829	85.62
329.058	81.62
329.287	86.62
329.515	85.62
329.744	79.62
329.972	73.62
330.201	84.62
330.43	103.62
330.658	106.62
330.887	99.62
331.115	90.62
331.344	94.62
331.572	90.62
331.801	71.62
332.03	78.62
332.258	95.62
332.486	89.62
332.715	80.62
332.943	77.62
333.172	85.62
333.4	89.62
333.629	101.62
333.857	93.62
334.085	96.62
334.314	72.62
334.542	96.62
334.771	98.62
334.999	92.62
335.227	81.62
335.455	96.62
335.684	85.62
335.912	91.62
336.14	90.62
336.369	99.62
336.597	93.62
336.825	92.62
337.053	88.62
337.281	110.62
337.51	93.62
337.738	89.62
337.966	91.62
338.194	90.62
338.422	96.62
338.65	94.62
338.878	89.62
339.106	92.62
339.334	99.62
339.562	98.62
339.79	103.62
340.018	82.62
340.246	98.62
340.474	86.62
340.702	75.62
340.93	80.62
341.158	87.62
341.386	97.62
341.614	82.62
341.842	72.62
342.07	82.62
342.298	77.62
342.526	98.62
342.754	96.62
342.981	77.62
343.209	68.62
343.437	106.62
343.665	96.62
343.893	90.62
344.12	96.62
344.348	100.62
344.576	80.62
344.804	98.62
345.031	92.62
345.259	87.62
345.487	84.62
345.714	79.62
345.942	79.62
346.17	79.62
346.397	98.62
346.625	92.62
346.853	82.62
347.08	75.62
347.308	89.62
347.535	73.62
347.763	86.62
347.99	97.62
348.218	93.62
348.445	81.62
348.673	89.62
348.9	97.62
349.128	96.62
349.355	86.62
349.583	80.62
349.81	86.62
350.037	95.62
350.265	85.62
350.492	81.62
350.72	98.62
350.947	93.62
351.174	98.62
351.402	86.62
351.629	79.62
351.856	76.62
352.083	92.62
352.311	90.62
352.538	84.62
352.765	85.62
352.992	92.62
353.22	105.62
353.447	91.62
353.674	97.62
353.901	75.62
354.128	81.62
354.355	87.62
354.583	94.62
354.81	82.62
355.037	103.62
355.264	84.62
355.491	96.62
355.718	96.62
355.945	82.62
356.172	93.62
356.399	86.62
356.626	93.62
356.853	101.62
357.08	85.62
357.307	87.62
357.534	92.62
357.761	84.62
357.988	90.62
358.215	80.62
358.441	87.62
358.668	81.62
358.895	85.62
359.122	100.62
359.349	80.62
359.576	87.62
359.802	76.62
360.029	91.62
360.256	80.62
360.483	88.62
360.709	94.62
360.936	90.62
361.163	101.62
361.39	101.62
361.616	99.62
361.843	97.62
362.07	99.62
362.296	83.62
362.523	90.62
362.749	90.62
362.976	84.62
363.203	73.62
363.429	77.62
363.656	90.62
363.882	77.62
364.109	89.62
364.335	79.62
364.562	88.62
364.788	81.62
365.015	91.62
365.241	92.62
365.468	90.62
365.694	82.62
365.92	89.62
366.147	89.62
366.373	83.62
366.599	84.62
366.826	83.62
367.052	76.62
367.278	77.62
367.505	97.62
367.731	96.62
367.957	96.62
368.184	82.62
368.41	76.62
368.636	96.62
368.862	81.62
369.089	90.62
369.315	89.62
369.541	101.62
369.767	91.62
369.993	76.62
370.219	83.62
370.445	72.62
370.672	97.62
370.898	86.62
371.124	84.62
371.35	90.62
371.576	88.62
371.802	86.62
372.028	94.62
372.254	91.62
372.48	85.62
372.706	96.62
372.932	100.62
373.158	91.62
373.384	102.62
373.61	94.62
373.835	91.62
374.061	69.62
374.287	86.62
374.513	79.62
374.739	73.62
374.965	66.62
375.191	87.62
375.416	89.62
375.642	87.62
375.868	87.62
376.094	83.62
376.319	82.62
376.545	82.62
376.771	88.62
376.997	96.62
377.222	78.62
377.448	86.62
377.674	75.62
377.899	98.62
378.125	84.62
378.35	96.62
378.576	87.62
378.802	82.62
379.027	89.62
379.253	94.62
379.478	89.62
379.704	101.62
379.929	86.62
380.155	75.62
380.38	73.62
380.606	82.62
380.831	91.62
381.057	100.62
381.282	70.62
381.507	69.62
381.733	95.62
381.958	84.62
382.184	85.62
382.409	87.62
382.634	80.62
382.86	84.62
383.085	96.62
383.31	78.62
383.535	96.62
383.761	84.62
383.986	83.62
384.211	77.62
384.436	89.62
384.662	93.62
384.887	90.62
385.112	81.62
385.337	82.62
385.562	72.62
385.787	78.62
386.013	88.62
386.238	78.62
386.463	75.62
386.688	100.62
386.913	80.62
387.138	82.62
387.363	78.62
387.588	92.62
387.813	86.62
388.038	85.62
388.263	102.62
388.488	91.62
388.713	92.62
388.938	85.62
389.163	84.62
389.387	96.62
389.612	87.62
389.837	84.62
390.062	98.62
390.287	94.62
390.512	104.62
390.736	80.62
390.961	84.62
391.186	99.62
391.411	75.62
391.636	80.62
391.86	90.62
392.085	87.62
392.31	96.62
392.534	80.62
392.759	75.62
392.984	88.62
393.208	89.62
393.433	78.62
393.658	98.62
393.882	85.62
394.107	85.62
394.331	88.62
394.556	86.62
394.78	91.62
395.005	90.62
395.229	98.62
395.454	98.62
395.678	96.62
395.903	92.62
396.127	98.62
396.352	88.62
396.576	80.62
396.801	80.62
397.025	85.62
397.249	94.62
397.474	80.62
397.698	78.62
397.922	94.62
398.147	82.62
398.371	87.62
398.595	80.62
398.82	86.62
399.044	81.62
399.268	83.62
399.492	83.62
399.717	85.62
399.941	69.62
400.165	88.62
400.389	82.62
400.613	89.62
400.837	88.62
401.062	78.62
401.286	93.62
401.51	100.62
401.734	83.62
401.958	81.62
402.182	100.62
402.406	76.62
402.63	78.62
402.854	93.62
403.078	88.62
403.302	89.62
403.526	92.62
403.75	110.62
403.974	114.62
404.198	128.62
404.422	190.62
404.645	220.62
404.869	182.62
405.093	126.62
405.317	96.62
405.541	89.62
405.765	93.62
405.988	96.62
406.212	92.62
406.436	101.62
406.66	93.62
406.883	102.62
407.107	89.62
407.331	80.62
407.555	84.62
407.778	80.62
408.002	98.62
408.226	87.62
408.449	77.62
408.673	77.62
408.896	91.62
409.12	82.62
409.344	86.62
409.567	102.62
409.791	93.62
410.014	78.62
410.238	82.62
410.461	79.62
410.685	80.62
410.908	87.62
411.132	65.62
411.355	107.62
411.578	106.62
411.802	89.62
412.025	79.62
412.249	97.62
412.472	102.62
412.695	102.62
412.919	81.62
413.142	82.62
413.365	96.62
413.589	89.62
413.812	90.62
414.035	92.62
414.258	80.62
414.482	92.62
414.705	76.62
414.928	80.62
415.151	82.62
415.374	84.62
415.597	81.62
415.821	101.62
416.044	77.62
416.267	83.62
416.49	97.62
416.713	90.62
416.936	91.62
417.159	83.62
417.382	69.62
417.605	60.62
417.828	89.62
418.051	89.62
418.274	75.62
418.497	72.62
418.72	102.62
418.943	101.62
419.166	96.62
419.389	85.62
419.611	88.62
419.834	88.62
420.057	85.62
420.28	77.62
420.503	84.62
420.726	84.62
420.948	75.62
421.171	79.62
421.394	80.62
421.617	78.62
421.839	83.62
422.062	73.62
422.285	95.62
422.507	88.62
422.73	104.62
422.953	105.62
423.175	77.62
423.398	83.62
423.621	100.62
423.843	88.62
424.066	93.62
424.288	85.62
424.511	87.62
424.733	80.62
424.956	79.62
425.178	76.62
425.401	90.62
425.623	84.62
425.846	92.62
426.068	91.62
426.291	93.62
426.513	92.62
426.735	90.62
426.958	90.62
427.18	74.62
427.402	90.62
427.625	93.62
427.847	93.62
428.069	83.62
428.292	94.62
428.514	86.62
428.736	92.62
428.958	91.62
429.181	82.62
429.403	107.62
429.625	93.62
429.847	68.62
430.069	90.62
430.292	83.62
430.514	88.62
430.736	78.62
430.958	107.62
431.18	82.62
431.402	81.62
431.624	85.62
431.846	90.62
432.068	75.62
432.29	75.62
432.512	98.62
432.734	92.62
432.956	89.62
433.178	89.62
433.4	78.62
433.622	90.62
433.844	82.62
434.066	77.62
434.287	91.62
434.509	91.62
434.731	92.62
434.953	87.62
435.175	91.62
435.397	87.62
435.618	87.62
435.84	88.62
436.062	88.62
436.284	82.62
436.505	84.62
436.727	85.62
436.949	91.62
437.17	92.62
437.392	85.62
437.614	82.62
437.835	73.62
438.057	69.62
438.278	87.62
438.5	89.62
438.721	85.62
438.943	90.62
439.165	65.62
439.386	73.62
439.608	81.62
439.829	84.62
440.05	89.62
440.272	78.62
440.493	88.62
440.715	87.62
440.936	89.62
441.158	102.62
441.379	91.62
441.6	87.62
441.822	89.62
442.043	99.62
442.264	86.62
442.486	80.62
442.707	103.62
442.928	87.62
443.149	78.62
443.371	72.62
443.592	82.62
443.813	104.62
444.034	81.62
444.255	89.62
444.476	85.62
444.698	96.62
444.919	75.62
445.14	146.62
445.361	102.62
445.582	86.62
445.803	83.62
446.024	90.62
446.245	89.62
446.466	80.62
446.687	85.62
446.908	80.62
447.129	85.62
447.35	89.62
447.571	87.62
447.792	94.62
448.013	81.62
448.234	93.62
448.455	96.62
448.675	86.62
448.896	93.62
449.117	81.62
449.338	96.62
449.559	88.62
449.779	90.62
450	90.62
450.221	95.62
450.442	101.62
450.662	90.62
450.883	90.62
451.104	75.62
451.324	86.62
451.545	94.62
451.766	108.62
451.986	80.62
452.207	96.62
452.428	98.62
452.648	94.62
452.869	89.62
453.089	88.62
453.31	74.62
453.53	81.62
453.751	86.62
453.971	81.62
454.192	101.62
454.412	80.62
454.633	96.62
454.853	92.62
455.073	100.62
455.294	81.62
455.514	102.62
455.734	90.62
455.955	84.62
456.175	67.62
456.395	94.62
456.616	94.62
456.836	88.62
457.056	84.62
457.276	95.62
457.497	73.62
457.717	84.62
457.937	92.62
458.157	89.62
458.377	74.62
458.598	89.62
458.818	89.62
459.038	90.62
459.258	99.62
459.478	93.62
459.698	85.62
459.918	82.62
460.138	77.62
460.358	88.62
460.578	94.62
460.798	83.62
461.018	94.62
461.238	99.62
461.458	97.62
461.678	102.62
461.898	78.62
462.118	99.62
462.338	83.62
462.558	91.62
462.777	78.62
462.997	84.62
463.217	92.62
463.437	83.62
463.657	90.62
463.876	88.62
464.096	92.62
464.316	93.62
464.536	78.62
464.755	91.62
464.975	96.62
465.195	96.62
465.414	104.62
465.634	83.62
465.854	88.62
466.073	93.62
466.293	98.62
466.512	76.62
466.732	80.62
466.951	97.62
467.171	101.62
467.391	86.62
467.61	83.62
467.829	90.62
468.049	91.62
468.268	92.62
468.488	88.62
468.707	88.62
468.927	84.62
469.146	76.62
469.365	89.62
469.585	115.62
469.804	90.62
470.023	85.62
470.243	100.62
470.462	91.62
470.681	100.62
470.901	88.62
471.12	90.62
471.339	90.62
471.558	93.62
471.777	85.62
471.997	90.62
472.216	78.62
472.435	80.62
472.654	89.62
472.873	89.62
473.092	103.62
473.311	104.62
473.53	93.62
473.749	98.62
473.968	90.62
474.187	94.62
474.406	86.62
474.625	77.62
474.844	88.62
475.063	82.62
475.282	83.62
475.501	102.62
475.72	92.62
475.939	91.62
476.158	93.62
476.377	77.62
476.596	89.62
476.814	75.62
477.033	89.62
477.252	93.62
477.471	77.62
477.69	88.62
477.908	93.62
478.127	84.62
478.346	86.62
478.564	77.62
478.783	82.62
479.002	87.62
479.22	89.62
479.439	101.62
479.658	88.62
479.876	104.62
480.095	88.62
480.313	96.62
480.532	85.62
480.751	103.62
480.969	84.62
481.188	79.62
481.406	77.62
481.624	96.62
481.843	99.62
482.061	86.62
482.28	97.62
482.498	80.62
482.717	93.62
482.935	90.62
483.153	96.62
483.372	108.62
483.59	86.62
483.808	91.62
484.027	85.62
484.245	88.62
484.463	86.62
484.681	96.62
484.9	84.62
485.118	99.62
485.336	87.62
485.554	98.62
485.772	92.62
485.99	84.62
486.209	100.62
486.427	81.62
486.645	84.62
486.863	106.62
487.081	78.62
487.299	96.62
487.517	91.62
487.735	92.62
487.953	102.62
488.171	93.62
488.389	94.62
488.607	91.62
488.825	85.62
489.043	90.62
489.261	97.62
489.479	88.62
489.696	84.62
489.914	90.62
490.132	85.62
490.35	90.62
490.568	106.62
490.786	118.62
491.003	104.62
491.221	92.62
491.439	98.62
491.657	103.62
491.874	93.62
492.092	101.62
492.31	97.62
492.527	97.62
492.745	88.62
492.963	94.62
493.18	84.62
493.398	78.62
493.615	104.62
493.833	81.62
494.05	92.62
494.268	83.62
494.485	79.62
494.703	88.62
494.92	100.62
495.138	86.62
495.355	94.62
495.573	93.62
495.79	86.62
496.008	102.62
496.225	106.62
496.442	88.62
496.66	83.62
496.877	97.62
497.094	84.62
497.312	91.62
497.529	98.62
497.746	92.62
497.963	100.62
498.181	77.62
498.398	85.62
498.615	94.62
498.832	93.62
499.049	80.62
499.267	88.62
499.484	99.62
499.701	97.62
499.918	80.62
500.135	93.62
500.352	92.62
500.569	82.62
500.786	94.62
501.003	92.62
501.22	98.62
501.437	104.62
501.654	78.62
501.871	106.62
502.088	96.62
502.305	86.62
502.522	97.62
502.739	104.62
502.956	77.62
503.172	93.62
503.389	97.62
503.606	79.62
503.823	108.62
504.04	93.62
504.256	98.62
504.473	85.62
504.69	96.62
504.907	100.62
505.123	99.62
505.34	96.62
505.557	83.62
505.773	80.62
505.99	89.62
506.207	86.62
506.423	95.62
506.64	90.62
506.856	92.62
507.073	90.62
507.289	108.62
507.506	102.62
507.722	90.62
507.939	91.62
508.155	94.62
508.372	88.62
508.588	95.62
508.805	109.62
509.021	91.62
509.238	100.62
509.454	96.62
509.67	88.62
509.887	72.62
510.103	91.62
510.319	86.62
510.536	86.62
510.752	91.62
510.968	85.62
511.184	93.62
511.401	96.62
511.617	103.62
511.833	90.62
512.049	99.62
512.265	96.62
512.481	99.62
512.698	90.62
512.914	91.62
513.13	100.62
513.346	90.62
513.562	86.62
513.778	100.62
513.994	88.62
514.21	85.62
514.426	93.62
514.642	98.62
514.858	92.62
515.074	85.62
515.29	86.62
515.506	97.62
515.721	91.62
515.937	83.62
516.153	89.62
516.369	86.62
516.585	83.62
516.801	98.62
517.016	82.62
517.232	84.62
517.448	86.62
517.664	77.62
517.879	87.62
518.095	88.62
518.311	101.62
518.527	80.62
518.742	85.62
