Data from KBrHeat1_HRD10591_00001.txt Node
Date: Fri Dec 27 14:51:20 EST 2024
User: Yrep
Spectrometer: HR+D1059
Trigger mode: 1
Integration Time (sec): 1.000000E-1
Scans to average: 1
Electric dark correction enabled: true
Nonlinearity correction enabled: false
Boxcar width: 0
XAxis mode: Wavelengths
Number of Pixels in Spectrum: 2048
>>>>>Begin Spectral Data<<<<<
223.165	-19.19
223.4	-19.19
223.635	-19.19
223.869	-16.19
224.104	-16.19
224.338	-24.19
224.573	-23.19
224.808	-16.19
225.042	-7.19
225.277	-5.19
225.511	-0.19
225.746	-1.19
225.98	3.81
226.215	21.81
226.449	24.81
226.683	22.81
226.918	23.81
227.152	31.81
227.387	23.81
227.621	37.81
227.856	47.81
228.09	57.81
228.324	59.81
228.559	50.81
228.793	69.81
229.027	51.81
229.262	68.81
229.496	67.81
229.73	63.81
229.964	82.81
230.199	84.81
230.433	72.81
230.667	68.81
230.901	88.81
231.136	79.81
231.37	95.81
231.604	76.81
231.838	80.81
232.072	77.81
232.306	68.81
232.541	71.81
232.775	74.81
233.009	86.81
233.243	86.81
233.477	74.81
233.711	81.81
233.945	90.81
234.179	83.81
234.413	97.81
234.647	69.81
234.881	76.81
235.115	88.81
235.349	85.81
235.583	90.81
235.817	70.81
236.051	63.81
236.285	94.81
236.519	84.81
236.753	74.81
236.987	93.81
237.221	70.81
237.455	71.81
237.689	75.81
237.922	68.81
238.156	59.81
238.39	85.81
238.624	74.81
238.858	76.81
239.091	82.81
239.325	75.81
239.559	71.81
239.793	72.81
240.027	77.81
240.26	84.81
240.494	87.81
240.728	75.81
240.961	72.81
241.195	75.81
241.429	84.81
241.662	73.81
241.896	82.81
242.13	74.81
242.363	75.81
242.597	77.81
242.83	73.81
243.064	63.81
243.298	79.81
243.531	74.81
243.765	65.81
243.998	77.81
244.232	82.81
244.465	85.81
244.699	88.81
244.932	76.81
245.166	90.81
245.399	84.81
245.633	71.81
245.866	66.81
246.099	68.81
246.333	82.81
246.566	70.81
246.8	71.81
247.033	86.81
247.266	70.81
247.5	77.81
247.733	80.81
247.966	78.81
248.2	75.81
248.433	81.81
248.666	82.81
248.899	84.81
249.133	84.81
249.366	89.81
249.599	86.81
249.832	75.81
250.066	79.81
250.299	73.81
250.532	85.81
250.765	71.81
250.998	76.81
251.231	76.81
251.465	65.81
251.698	77.81
251.931	81.81
252.164	79.81
252.397	74.81
252.63	84.81
252.863	78.81
253.096	71.81
253.329	75.81
253.562	89.81
253.795	76.81
254.028	79.81
254.261	91.81
254.494	73.81
254.727	82.81
254.96	83.81
255.193	70.81
255.426	71.81
255.659	77.81
255.892	89.81
256.124	73.81
256.357	102.81
256.59	76.81
256.823	63.81
257.056	77.81
257.289	77.81
257.521	75.81
257.754	83.81
257.987	83.81
258.22	92.81
258.452	87.81
258.685	85.81
258.918	79.81
259.151	81.81
259.383	72.81
259.616	69.81
259.849	81.81
260.081	89.81
260.314	88.81
260.547	86.81
260.779	83.81
261.012	71.81
261.244	77.81
261.477	81.81
261.71	74.81
261.942	72.81
262.175	77.81
262.407	77.81
262.64	85.81
262.872	75.81
263.105	92.81
263.337	82.81
263.57	90.81
263.802	82.81
264.035	78.81
264.267	75.81
264.499	76.81
264.732	75.81
264.964	81.81
265.197	104.81
265.429	78.81
265.661	90.81
265.894	84.81
266.126	82.81
266.358	71.81
266.591	88.81
266.823	81.81
267.055	83.81
267.287	83.81
267.52	89.81
267.752	85.81
267.984	75.81
268.216	74.81
268.448	74.81
268.681	71.81
268.913	85.81
269.145	77.81
269.377	82.81
269.609	79.81
269.841	97.81
270.073	82.81
270.306	94.81
270.538	77.81
270.77	85.81
271.002	84.81
271.234	86.81
271.466	83.81
271.698	106.81
271.93	87.81
272.162	84.81
272.394	95.81
272.626	93.81
272.858	87.81
273.09	90.81
273.322	73.81
273.553	63.81
273.785	86.81
274.017	76.81
274.249	84.81
274.481	84.81
274.713	73.81
274.945	78.81
275.176	92.81
275.408	83.81
275.64	83.81
275.872	75.81
276.104	79.81
276.335	73.81
276.567	63.81
276.799	85.81
277.031	91.81
277.262	95.81
277.494	85.81
277.726	87.81
277.957	92.81
278.189	82.81
278.421	79.81
278.652	87.81
278.884	73.81
279.115	83.81
279.347	85.81
279.579	90.81
279.81	82.81
280.042	93.81
280.273	84.81
280.505	75.81
280.736	88.81
280.968	78.81
281.199	67.81
281.431	98.81
281.662	91.81
281.894	75.81
282.125	76.81
282.356	84.81
282.588	72.81
282.819	89.81
283.051	90.81
283.282	85.81
283.513	109.81
283.745	87.81
283.976	82.81
284.207	91.81
284.439	92.81
284.67	95.81
284.901	79.81
285.132	102.81
285.364	79.81
285.595	87.81
285.826	88.81
286.057	81.81
286.288	86.81
286.52	87.81
286.751	76.81
286.982	89.81
287.213	92.81
287.444	78.81
287.675	91.81
287.906	85.81
288.138	84.81
288.369	92.81
288.6	99.81
288.831	72.81
289.062	82.81
289.293	89.81
289.524	79.81
289.755	75.81
289.986	91.81
290.217	90.81
290.448	70.81
290.679	88.81
290.91	83.81
291.141	88.81
291.371	91.81
291.602	79.81
291.833	92.81
292.064	90.81
292.295	82.81
292.526	97.81
292.757	86.81
292.987	85.81
293.218	78.81
293.449	97.81
293.68	87.81
293.91	81.81
294.141	89.81
294.372	90.81
294.603	90.81
294.833	80.81
295.064	75.81
295.295	70.81
295.525	78.81
295.756	94.81
295.987	76.81
296.217	85.81
296.448	76.81
296.679	101.81
296.909	89.81
297.14	95.81
297.37	95.81
297.601	98.81
297.831	84.81
298.062	92.81
298.292	74.81
298.523	99.81
298.753	90.81
298.984	75.81
299.214	85.81
299.445	101.81
299.675	86.81
299.905	85.81
300.136	91.81
300.366	87.81
300.597	102.81
300.827	87.81
301.057	76.81
301.288	76.81
301.518	84.81
301.748	86.81
301.979	109.81
302.209	91.81
302.439	83.81
302.669	79.81
302.9	84.81
303.13	85.81
303.36	81.81
303.59	83.81
303.82	98.81
304.051	89.81
304.281	94.81
304.511	91.81
304.741	69.81
304.971	81.81
305.201	75.81
305.431	97.81
305.661	94.81
305.891	77.81
306.121	83.81
306.352	86.81
306.582	74.81
306.812	90.81
307.042	82.81
307.272	89.81
307.502	88.81
307.731	95.81
307.961	95.81
308.191	93.81
308.421	78.81
308.651	92.81
308.881	90.81
309.111	87.81
309.341	92.81
309.571	93.81
309.8	73.81
310.03	95.81
310.26	81.81
310.49	88.81
310.72	87.81
310.949	80.81
311.179	81.81
311.409	88.81
311.639	95.81
311.868	90.81
312.098	83.81
312.328	90.81
312.557	91.81
312.787	94.81
313.017	94.81
313.246	102.81
313.476	102.81
313.706	101.81
313.935	82.81
314.165	92.81
314.394	77.81
314.624	75.81
314.853	90.81
315.083	92.81
315.312	78.81
315.542	83.81
315.771	91.81
316.001	87.81
316.23	103.81
316.46	83.81
316.689	83.81
316.919	90.81
317.148	102.81
317.377	99.81
317.607	93.81
317.836	90.81
318.065	85.81
318.295	92.81
318.524	90.81
318.753	87.81
318.983	87.81
319.212	89.81
319.441	87.81
319.67	98.81
319.9	86.81
320.129	92.81
320.358	81.81
320.587	91.81
320.816	89.81
321.046	86.81
321.275	77.81
321.504	85.81
321.733	106.81
321.962	88.81
322.191	84.81
322.42	94.81
322.649	89.81
322.878	75.81
323.108	99.81
323.337	97.81
323.566	95.81
323.795	86.81
324.024	91.81
324.253	93.81
324.482	91.81
324.71	91.81
324.939	86.81
325.168	97.81
325.397	81.81
325.626	94.81
325.855	85.81
326.084	88.81
326.313	79.81
326.542	99.81
326.77	99.81
326.999	92.81
327.228	93.81
327.457	77.81
327.686	86.81
327.914	97.81
328.143	94.81
328.372	96.81
328.6	85.81
328.829	89.81
329.058	89.81
329.287	88.81
329.515	89.81
329.744	94.81
329.972	97.81
330.201	97.81
330.43	101.81
330.658	101.81
330.887	84.81
331.115	95.81
331.344	83.81
331.572	91.81
331.801	105.81
332.03	84.81
332.258	90.81
332.486	94.81
332.715	85.81
332.943	89.81
333.172	99.81
333.4	74.81
333.629	91.81
333.857	103.81
334.085	85.81
334.314	87.81
334.542	85.81
334.771	85.81
334.999	93.81
335.227	93.81
335.455	90.81
335.684	91.81
335.912	82.81
336.14	90.81
336.369	102.81
336.597	94.81
336.825	97.81
337.053	94.81
337.281	105.81
337.51	87.81
337.738	93.81
337.966	89.81
338.194	103.81
338.422	87.81
338.65	83.81
338.878	89.81
339.106	94.81
339.334	97.81
339.562	83.81
339.79	99.81
340.018	86.81
340.246	83.81
340.474	80.81
340.702	93.81
340.93	89.81
341.158	74.81
341.386	87.81
341.614	75.81
341.842	89.81
342.07	82.81
342.298	87.81
342.526	70.81
342.754	80.81
342.981	93.81
343.209	83.81
343.437	98.81
343.665	87.81
343.893	90.81
344.12	78.81
344.348	108.81
344.576	84.81
344.804	105.81
345.031	104.81
345.259	91.81
345.487	98.81
345.714	89.81
345.942	92.81
346.17	80.81
346.397	86.81
346.625	82.81
346.853	82.81
347.08	99.81
347.308	87.81
347.535	89.81
347.763	85.81
347.99	85.81
348.218	87.81
348.445	90.81
348.673	90.81
348.9	86.81
349.128	98.81
349.355	101.81
349.583	77.81
349.81	84.81
350.037	92.81
350.265	94.81
350.492	96.81
350.72	84.81
350.947	89.81
351.174	99.81
351.402	86.81
351.629	102.81
351.856	98.81
352.083	102.81
352.311	88.81
352.538	82.81
352.765	89.81
352.992	92.81
353.22	89.81
353.447	88.81
353.674	84.81
353.901	85.81
354.128	87.81
354.355	91.81
354.583	85.81
354.81	91.81
355.037	87.81
355.264	97.81
355.491	89.81
355.718	82.81
355.945	82.81
356.172	92.81
356.399	78.81
356.626	79.81
356.853	92.81
357.08	93.81
357.307	86.81
357.534	98.81
357.761	94.81
357.988	82.81
358.215	95.81
358.441	92.81
358.668	83.81
358.895	93.81
359.122	92.81
359.349	87.81
359.576	93.81
359.802	82.81
360.029	87.81
360.256	91.81
360.483	93.81
360.709	82.81
360.936	88.81
361.163	93.81
361.39	84.81
361.616	88.81
361.843	95.81
362.07	85.81
362.296	86.81
362.523	82.81
362.749	89.81
362.976	97.81
363.203	95.81
363.429	90.81
363.656	93.81
363.882	73.81
364.109	75.81
364.335	101.81
364.562	94.81
364.788	81.81
365.015	86.81
365.241	87.81
365.468	93.81
365.694	90.81
365.92	78.81
366.147	86.81
366.373	85.81
366.599	77.81
366.826	89.81
367.052	96.81
367.278	89.81
367.505	77.81
367.731	95.81
367.957	94.81
368.184	82.81
368.41	76.81
368.636	82.81
368.862	82.81
369.089	87.81
369.315	75.81
369.541	108.81
369.767	98.81
369.993	90.81
370.219	90.81
370.445	98.81
370.672	91.81
370.898	86.81
371.124	95.81
371.35	90.81
371.576	89.81
371.802	85.81
372.028	80.81
372.254	97.81
372.48	79.81
372.706	77.81
372.932	84.81
373.158	78.81
373.384	91.81
373.61	101.81
373.835	75.81
374.061	62.81
374.287	96.81
374.513	75.81
374.739	90.81
374.965	92.81
375.191	84.81
375.416	72.81
375.642	92.81
375.868	94.81
376.094	101.81
376.319	89.81
376.545	79.81
376.771	91.81
376.997	89.81
377.222	83.81
377.448	86.81
377.674	98.81
377.899	93.81
378.125	77.81
378.35	102.81
378.576	86.81
378.802	93.81
379.027	77.81
379.253	93.81
379.478	84.81
379.704	79.81
379.929	83.81
380.155	98.81
380.38	88.81
380.606	92.81
380.831	98.81
381.057	86.81
381.282	86.81
381.507	83.81
381.733	81.81
381.958	83.81
382.184	83.81
382.409	95.81
382.634	77.81
382.86	83.81
383.085	75.81
383.31	94.81
383.535	89.81
383.761	85.81
383.986	85.81
384.211	82.81
384.436	87.81
384.662	86.81
384.887	90.81
385.112	96.81
385.337	99.81
385.562	86.81
385.787	64.81
386.013	89.81
386.238	91.81
386.463	84.81
386.688	80.81
386.913	75.81
387.138	84.81
387.363	77.81
387.588	88.81
387.813	85.81
388.038	104.81
388.263	93.81
388.488	81.81
388.713	85.81
388.938	93.81
389.163	83.81
389.387	90.81
389.612	88.81
389.837	92.81
390.062	85.81
390.287	90.81
390.512	104.81
390.736	96.81
390.961	92.81
391.186	89.81
391.411	86.81
391.636	100.81
391.86	85.81
392.085	72.81
392.31	82.81
392.534	73.81
392.759	89.81
392.984	71.81
393.208	83.81
393.433	82.81
393.658	89.81
393.882	88.81
394.107	90.81
394.331	83.81
394.556	83.81
394.78	92.81
395.005	75.81
395.229	90.81
395.454	83.81
395.678	100.81
395.903	94.81
396.127	94.81
396.352	94.81
396.576	100.81
396.801	81.81
397.025	93.81
397.249	95.81
397.474	99.81
397.698	91.81
397.922	97.81
398.147	81.81
398.371	86.81
398.595	91.81
398.82	82.81
399.044	93.81
399.268	84.81
399.492	82.81
399.717	86.81
399.941	82.81
400.165	84.81
400.389	92.81
400.613	85.81
400.837	83.81
401.062	84.81
401.286	92.81
401.51	90.81
401.734	75.81
401.958	98.81
402.182	79.81
402.406	86.81
402.63	91.81
402.854	95.81
403.078	93.81
403.302	77.81
403.526	86.81
403.75	97.81
403.974	111.81
404.198	126.81
404.422	175.81
404.645	175.81
404.869	165.81
405.093	122.81
405.317	101.81
405.541	84.81
405.765	103.81
405.988	77.81
406.212	82.81
406.436	97.81
406.66	80.81
406.883	89.81
407.107	90.81
407.331	78.81
407.555	95.81
407.778	98.81
408.002	90.81
408.226	80.81
408.449	75.81
408.673	84.81
408.896	81.81
409.12	89.81
409.344	85.81
409.567	78.81
409.791	95.81
410.014	94.81
410.238	81.81
410.461	73.81
410.685	84.81
410.908	91.81
411.132	90.81
411.355	84.81
411.578	103.81
411.802	89.81
412.025	81.81
412.249	90.81
412.472	104.81
412.695	87.81
412.919	97.81
413.142	85.81
413.365	76.81
413.589	82.81
413.812	89.81
414.035	98.81
414.258	92.81
414.482	84.81
414.705	93.81
414.928	87.81
415.151	90.81
415.374	87.81
415.597	86.81
415.821	85.81
416.044	101.81
416.267	89.81
416.49	74.81
416.713	89.81
416.936	90.81
417.159	88.81
417.382	87.81
417.605	89.81
417.828	81.81
418.051	94.81
418.274	89.81
418.497	102.81
418.72	84.81
418.943	91.81
419.166	82.81
419.389	82.81
419.611	97.81
419.834	69.81
420.057	91.81
420.28	88.81
420.503	80.81
420.726	83.81
420.948	88.81
421.171	96.81
421.394	87.81
421.617	94.81
421.839	69.81
422.062	93.81
422.285	69.81
422.507	87.81
422.73	102.81
422.953	98.81
423.175	94.81
423.398	80.81
423.621	82.81
423.843	94.81
424.066	82.81
424.288	82.81
424.511	76.81
424.733	86.81
424.956	93.81
425.178	89.81
425.401	85.81
425.623	77.81
425.846	90.81
426.068	81.81
426.291	85.81
426.513	88.81
426.735	79.81
426.958	85.81
427.18	79.81
427.402	84.81
427.625	94.81
427.847	79.81
428.069	87.81
428.292	98.81
428.514	89.81
428.736	95.81
428.958	87.81
429.181	103.81
429.403	100.81
429.625	84.81
429.847	89.81
430.069	105.81
430.292	77.81
430.514	90.81
430.736	78.81
430.958	73.81
431.18	71.81
431.402	95.81
431.624	81.81
431.846	83.81
432.068	100.81
432.29	85.81
432.512	93.81
432.734	72.81
432.956	94.81
433.178	88.81
433.4	88.81
433.622	84.81
433.844	90.81
434.066	97.81
434.287	83.81
434.509	82.81
434.731	82.81
434.953	92.81
435.175	87.81
435.397	88.81
435.618	88.81
435.84	73.81
436.062	90.81
436.284	79.81
436.505	81.81
436.727	85.81
436.949	81.81
437.17	71.81
437.392	83.81
437.614	86.81
437.835	88.81
438.057	76.81
438.278	87.81
438.5	94.81
438.721	95.81
438.943	94.81
439.165	79.81
439.386	91.81
439.608	85.81
439.829	80.81
440.05	96.81
440.272	93.81
440.493	77.81
440.715	78.81
440.936	92.81
441.158	76.81
441.379	68.81
441.6	101.81
441.822	80.81
442.043	80.81
442.264	93.81
442.486	85.81
442.707	88.81
442.928	95.81
443.149	82.81
443.371	99.81
443.592	85.81
443.813	83.81
444.034	82.81
444.255	97.81
444.476	89.81
444.698	89.81
444.919	86.81
445.14	132.81
445.361	126.81
445.582	101.81
445.803	92.81
446.024	95.81
446.245	93.81
446.466	99.81
446.687	93.81
446.908	94.81
447.129	90.81
447.35	98.81
447.571	87.81
447.792	79.81
448.013	85.81
448.234	86.81
448.455	78.81
448.675	89.81
448.896	85.81
449.117	90.81
449.338	82.81
449.559	85.81
449.779	74.81
450	78.81
450.221	76.81
450.442	96.81
450.662	93.81
450.883	105.81
451.104	80.81
451.324	79.81
451.545	87.81
451.766	90.81
451.986	98.81
452.207	85.81
452.428	92.81
452.648	95.81
452.869	97.81
453.089	82.81
453.31	84.81
453.53	52.81
453.751	79.81
453.971	90.81
454.192	92.81
454.412	88.81
454.633	87.81
454.853	99.81
455.073	83.81
455.294	98.81
455.514	90.81
455.734	73.81
455.955	85.81
456.175	98.81
456.395	89.81
456.616	75.81
456.836	93.81
457.056	93.81
457.276	90.81
457.497	81.81
457.717	89.81
457.937	81.81
458.157	99.81
458.377	85.81
458.598	83.81
458.818	97.81
459.038	87.81
459.258	80.81
459.478	67.81
459.698	85.81
459.918	81.81
460.138	82.81
460.358	80.81
460.578	76.81
460.798	86.81
461.018	95.81
461.238	74.81
461.458	78.81
461.678	76.81
461.898	92.81
462.118	75.81
462.338	102.81
462.558	86.81
462.777	93.81
462.997	87.81
463.217	97.81
463.437	90.81
463.657	101.81
463.876	90.81
464.096	103.81
464.316	78.81
464.536	84.81
464.755	86.81
464.975	88.81
465.195	82.81
465.414	94.81
465.634	88.81
465.854	90.81
466.073	87.81
466.293	81.81
466.512	87.81
466.732	90.81
466.951	92.81
467.171	101.81
467.391	94.81
467.61	93.81
467.829	90.81
468.049	86.81
468.268	88.81
468.488	100.81
468.707	102.81
468.927	110.81
469.146	82.81
469.365	89.81
469.585	89.81
469.804	84.81
470.023	79.81
470.243	83.81
470.462	105.81
470.681	85.81
470.901	91.81
471.12	94.81
471.339	88.81
471.558	99.81
471.777	94.81
471.997	101.81
472.216	91.81
472.435	70.81
472.654	86.81
472.873	84.81
473.092	96.81
473.311	89.81
473.53	81.81
473.749	90.81
473.968	90.81
474.187	85.81
474.406	77.81
474.625	97.81
474.844	72.81
475.063	82.81
475.282	91.81
475.501	92.81
475.72	97.81
475.939	102.81
476.158	88.81
476.377	71.81
476.596	79.81
476.814	80.81
477.033	91.81
477.252	96.81
477.471	89.81
477.69	84.81
477.908	91.81
478.127	99.81
478.346	94.81
478.564	95.81
478.783	98.81
479.002	94.81
479.22	87.81
479.439	106.81
479.658	88.81
479.876	94.81
480.095	75.81
480.313	91.81
480.532	83.81
480.751	91.81
480.969	97.81
481.188	87.81
481.406	85.81
481.624	78.81
481.843	97.81
482.061	78.81
482.28	101.81
482.498	90.81
482.717	95.81
482.935	93.81
483.153	96.81
483.372	96.81
483.59	79.81
483.808	90.81
484.027	91.81
484.245	85.81
484.463	79.81
484.681	96.81
484.9	80.81
485.118	95.81
485.336	84.81
485.554	77.81
485.772	86.81
485.99	93.81
486.209	95.81
486.427	69.81
486.645	105.81
486.863	98.81
487.081	83.81
487.299	87.81
487.517	82.81
487.735	102.81
487.953	100.81
488.171	83.81
488.389	95.81
488.607	100.81
488.825	95.81
489.043	87.81
489.261	79.81
489.479	80.81
489.696	89.81
489.914	84.81
490.132	101.81
490.35	94.81
490.568	92.81
490.786	102.81
491.003	98.81
491.221	84.81
491.439	97.81
491.657	92.81
491.874	97.81
492.092	89.81
492.31	99.81
492.527	93.81
492.745	95.81
492.963	96.81
493.18	89.81
493.398	92.81
493.615	100.81
493.833	77.81
494.05	90.81
494.268	102.81
494.485	93.81
494.703	109.81
494.92	102.81
495.138	92.81
495.355	97.81
495.573	94.81
495.79	71.81
496.008	92.81
496.225	90.81
496.442	98.81
496.66	105.81
496.877	88.81
497.094	97.81
497.312	102.81
497.529	97.81
497.746	91.81
497.963	87.81
498.181	92.81
498.398	85.81
498.615	97.81
498.832	93.81
499.049	89.81
499.267	101.81
499.484	84.81
499.701	90.81
499.918	95.81
500.135	82.81
500.352	99.81
500.569	88.81
500.786	77.81
501.003	90.81
501.22	83.81
501.437	93.81
501.654	97.81
501.871	87.81
502.088	100.81
502.305	95.81
502.522	94.81
502.739	85.81
502.956	81.81
503.172	89.81
503.389	98.81
503.606	102.81
503.823	86.81
504.04	105.81
504.256	97.81
504.473	100.81
504.69	91.81
504.907	92.81
505.123	94.81
505.34	80.81
505.557	97.81
505.773	92.81
505.99	85.81
506.207	91.81
506.423	86.81
506.64	81.81
506.856	96.81
507.073	76.81
507.289	84.81
507.506	90.81
507.722	86.81
507.939	96.81
508.155	94.81
508.372	75.81
508.588	92.81
508.805	100.81
509.021	86.81
509.238	97.81
509.454	103.81
509.67	87.81
509.887	89.81
510.103	76.81
510.319	91.81
510.536	99.81
510.752	91.81
510.968	91.81
511.184	100.81
511.401	103.81
511.617	79.81
511.833	104.81
512.049	93.81
512.265	89.81
512.481	100.81
512.698	91.81
512.914	73.81
513.13	93.81
513.346	83.81
513.562	90.81
513.778	77.81
513.994	84.81
514.21	87.81
514.426	101.81
514.642	71.81
514.858	98.81
515.074	107.81
515.29	90.81
515.506	93.81
515.721	90.81
515.937	94.81
516.153	91.81
516.369	84.81
516.585	91.81
516.801	77.81
517.016	80.81
517.232	84.81
517.448	87.81
517.664	84.81
517.879	88.81
518.095	83.81
518.311	87.81
518.527	90.81
518.742	78.81
518.958	91.81
