Data from KBrHeat1_HRD10591_00007.txt Node
Date: Fri Dec 27 14:51:26 EST 2024
User: Yrep
Spectrometer: HR+D1059
Trigger mode: 1
Integration Time (sec): 1.000000E-1
Scans to average: 1
Electric dark correction enabled: true
Nonlinearity correction enabled: false
Boxcar width: 0
XAxis mode: Wavelengths
Number of Pixels in Spectrum: 2048
>>>>>Begin Spectral Data<<<<<
223.165	-19.31
223.4	-19.31
223.635	-19.31
223.869	-24.31
224.104	-31.31
224.338	-26.31
224.573	-5.31
224.808	-6.31
225.042	3.69
225.277	1.69
225.511	-5.31
225.746	-9.31
225.98	5.69
226.215	8.69
226.449	24.69
226.683	21.69
226.918	22.69
227.152	38.69
227.387	50.69
227.621	44.69
227.856	35.69
228.09	50.69
228.324	56.69
228.559	42.69
228.793	65.69
229.027	65.69
229.262	70.69
229.496	78.69
229.73	75.69
229.964	78.69
230.199	85.69
230.433	75.69
230.667	73.69
230.901	78.69
231.136	66.69
231.37	79.69
231.604	82.69
231.838	73.69
232.072	84.69
232.306	74.69
232.541	80.69
232.775	81.69
233.009	71.69
233.243	80.69
233.477	73.69
233.711	80.69
233.945	83.69
234.179	83.69
234.413	77.69
234.647	75.69
234.881	81.69
235.115	76.69
235.349	82.69
235.583	76.69
235.817	75.69
236.051	83.69
236.285	88.69
236.519	85.69
236.753	82.69
236.987	70.69
237.221	72.69
237.455	76.69
237.689	74.69
237.922	75.69
238.156	70.69
238.39	87.69
238.624	77.69
238.858	83.69
239.091	80.69
239.325	69.69
239.559	86.69
239.793	87.69
240.027	76.69
240.26	65.69
240.494	60.69
240.728	88.69
240.961	72.69
241.195	80.69
241.429	74.69
241.662	81.69
241.896	76.69
242.13	86.69
242.363	71.69
242.597	69.69
242.83	69.69
243.064	77.69
243.298	75.69
243.531	74.69
243.765	74.69
243.998	86.69
244.232	87.69
244.465	73.69
244.699	75.69
244.932	78.69
245.166	80.69
245.399	82.69
245.633	80.69
245.866	70.69
246.099	70.69
246.333	72.69
246.566	73.69
246.8	73.69
247.033	84.69
247.266	94.69
247.5	74.69
247.733	80.69
247.966	80.69
248.2	63.69
248.433	77.69
248.666	69.69
248.899	70.69
249.133	89.69
249.366	69.69
249.599	76.69
249.832	74.69
250.066	81.69
250.299	75.69
250.532	88.69
250.765	81.69
250.998	73.69
251.231	101.69
251.465	83.69
251.698	64.69
251.931	77.69
252.164	73.69
252.397	64.69
252.63	71.69
252.863	82.69
253.096	83.69
253.329	82.69
253.562	84.69
253.795	88.69
254.028	70.69
254.261	77.69
254.494	73.69
254.727	73.69
254.96	92.69
255.193	82.69
255.426	85.69
255.659	83.69
255.892	84.69
256.124	79.69
256.357	75.69
256.59	90.69
256.823	88.69
257.056	61.69
257.289	78.69
257.521	75.69
257.754	82.69
257.987	79.69
258.22	89.69
258.452	69.69
258.685	87.69
258.918	81.69
259.151	78.69
259.383	90.69
259.616	79.69
259.849	66.69
260.081	77.69
260.314	83.69
260.547	84.69
260.779	91.69
261.012	79.69
261.244	86.69
261.477	87.69
261.71	85.69
261.942	84.69
262.175	89.69
262.407	68.69
262.64	84.69
262.872	90.69
263.105	81.69
263.337	90.69
263.57	81.69
263.802	89.69
264.035	93.69
264.267	83.69
264.499	80.69
264.732	92.69
264.964	87.69
265.197	74.69
265.429	77.69
265.661	76.69
265.894	92.69
266.126	94.69
266.358	73.69
266.591	78.69
266.823	90.69
267.055	80.69
267.287	81.69
267.52	91.69
267.752	90.69
267.984	86.69
268.216	78.69
268.448	69.69
268.681	77.69
268.913	81.69
269.145	80.69
269.377	80.69
269.609	99.69
269.841	71.69
270.073	65.69
270.306	94.69
270.538	81.69
270.77	76.69
271.002	75.69
271.234	75.69
271.466	88.69
271.698	79.69
271.93	84.69
272.162	94.69
272.394	78.69
272.626	85.69
272.858	85.69
273.09	84.69
273.322	87.69
273.553	78.69
273.785	74.69
274.017	76.69
274.249	90.69
274.481	92.69
274.713	66.69
274.945	85.69
275.176	83.69
275.408	80.69
275.64	79.69
275.872	76.69
276.104	78.69
276.335	89.69
276.567	86.69
276.799	77.69
277.031	82.69
277.262	74.69
277.494	92.69
277.726	72.69
277.957	93.69
278.189	80.69
278.421	71.69
278.652	85.69
278.884	88.69
279.115	84.69
279.347	74.69
279.579	76.69
279.81	78.69
280.042	84.69
280.273	80.69
280.505	83.69
280.736	89.69
280.968	75.69
281.199	85.69
281.431	77.69
281.662	80.69
281.894	75.69
282.125	102.69
282.356	85.69
282.588	75.69
282.819	72.69
283.051	92.69
283.282	87.69
283.513	66.69
283.745	81.69
283.976	78.69
284.207	89.69
284.439	86.69
284.67	90.69
284.901	80.69
285.132	88.69
285.364	90.69
285.595	75.69
285.826	72.69
286.057	82.69
286.288	78.69
286.52	77.69
286.751	90.69
286.982	80.69
287.213	89.69
287.444	103.69
287.675	61.69
287.906	88.69
288.138	82.69
288.369	91.69
288.6	79.69
288.831	78.69
289.062	85.69
289.293	94.69
289.524	93.69
289.755	78.69
289.986	81.69
290.217	87.69
290.448	85.69
290.679	98.69
290.91	93.69
291.141	67.69
291.371	80.69
291.602	68.69
291.833	85.69
292.064	86.69
292.295	85.69
292.526	80.69
292.757	90.69
292.987	82.69
293.218	91.69
293.449	78.69
293.68	80.69
293.91	82.69
294.141	88.69
294.372	82.69
294.603	83.69
294.833	88.69
295.064	83.69
295.295	87.69
295.525	86.69
295.756	86.69
295.987	85.69
296.217	73.69
296.448	86.69
296.679	91.69
296.909	97.69
297.14	103.69
297.37	89.69
297.601	77.69
297.831	78.69
298.062	86.69
298.292	84.69
298.523	85.69
298.753	86.69
298.984	70.69
299.214	69.69
299.445	91.69
299.675	78.69
299.905	84.69
300.136	88.69
300.366	83.69
300.597	75.69
300.827	85.69
301.057	91.69
301.288	88.69
301.518	83.69
301.748	92.69
301.979	101.69
302.209	88.69
302.439	71.69
302.669	87.69
302.9	76.69
303.13	77.69
303.36	81.69
303.59	69.69
303.82	67.69
304.051	84.69
304.281	69.69
304.511	91.69
304.741	85.69
304.971	81.69
305.201	86.69
305.431	82.69
305.661	91.69
305.891	82.69
306.121	80.69
306.352	91.69
306.582	84.69
306.812	91.69
307.042	88.69
307.272	86.69
307.502	82.69
307.731	83.69
307.961	76.69
308.191	87.69
308.421	76.69
308.651	82.69
308.881	91.69
309.111	92.69
309.341	98.69
309.571	84.69
309.8	84.69
310.03	75.69
310.26	90.69
310.49	88.69
310.72	93.69
310.949	81.69
311.179	80.69
311.409	80.69
311.639	82.69
311.868	86.69
312.098	94.69
312.328	83.69
312.557	73.69
312.787	91.69
313.017	69.69
313.246	80.69
313.476	73.69
313.706	76.69
313.935	93.69
314.165	84.69
314.394	91.69
314.624	105.69
314.853	84.69
315.083	76.69
315.312	90.69
315.542	84.69
315.771	91.69
316.001	92.69
316.23	89.69
316.46	96.69
316.689	70.69
316.919	76.69
317.148	84.69
317.377	87.69
317.607	82.69
317.836	76.69
318.065	76.69
318.295	86.69
318.524	80.69
318.753	80.69
318.983	86.69
319.212	83.69
319.441	99.69
319.67	77.69
319.9	88.69
320.129	79.69
320.358	89.69
320.587	85.69
320.816	95.69
321.046	92.69
321.275	91.69
321.504	85.69
321.733	83.69
321.962	83.69
322.191	97.69
322.42	86.69
322.649	79.69
322.878	98.69
323.108	87.69
323.337	91.69
323.566	91.69
323.795	85.69
324.024	92.69
324.253	92.69
324.482	83.69
324.71	84.69
324.939	87.69
325.168	97.69
325.397	94.69
325.626	87.69
325.855	78.69
326.084	88.69
326.313	101.69
326.542	88.69
326.77	84.69
326.999	86.69
327.228	89.69
327.457	75.69
327.686	78.69
327.914	93.69
328.143	92.69
328.372	83.69
328.6	76.69
328.829	84.69
329.058	99.69
329.287	88.69
329.515	90.69
329.744	86.69
329.972	97.69
330.201	71.69
330.43	79.69
330.658	83.69
330.887	85.69
331.115	79.69
331.344	82.69
331.572	83.69
331.801	84.69
332.03	79.69
332.258	91.69
332.486	89.69
332.715	78.69
332.943	90.69
333.172	96.69
333.4	90.69
333.629	90.69
333.857	66.69
334.085	80.69
334.314	95.69
334.542	77.69
334.771	89.69
334.999	87.69
335.227	83.69
335.455	92.69
335.684	89.69
335.912	91.69
336.14	82.69
336.369	81.69
336.597	77.69
336.825	78.69
337.053	91.69
337.281	96.69
337.51	89.69
337.738	92.69
337.966	75.69
338.194	100.69
338.422	78.69
338.65	87.69
338.878	86.69
339.106	99.69
339.334	88.69
339.562	92.69
339.79	80.69
340.018	89.69
340.246	93.69
340.474	82.69
340.702	93.69
340.93	90.69
341.158	82.69
341.386	92.69
341.614	73.69
341.842	85.69
342.07	103.69
342.298	77.69
342.526	75.69
342.754	84.69
342.981	86.69
343.209	63.69
343.437	98.69
343.665	81.69
343.893	87.69
344.12	86.69
344.348	83.69
344.576	87.69
344.804	105.69
345.031	103.69
345.259	78.69
345.487	104.69
345.714	89.69
345.942	90.69
346.17	77.69
346.397	82.69
346.625	86.69
346.853	86.69
347.08	89.69
347.308	92.69
347.535	83.69
347.763	89.69
347.99	86.69
348.218	82.69
348.445	77.69
348.673	91.69
348.9	82.69
349.128	77.69
349.355	85.69
349.583	91.69
349.81	96.69
350.037	88.69
350.265	90.69
350.492	90.69
350.72	96.69
350.947	84.69
351.174	80.69
351.402	87.69
351.629	80.69
351.856	85.69
352.083	84.69
352.311	88.69
352.538	87.69
352.765	86.69
352.992	108.69
353.22	82.69
353.447	90.69
353.674	80.69
353.901	92.69
354.128	80.69
354.355	85.69
354.583	88.69
354.81	78.69
355.037	92.69
355.264	92.69
355.491	81.69
355.718	95.69
355.945	89.69
356.172	98.69
356.399	101.69
356.626	82.69
356.853	96.69
357.08	93.69
357.307	87.69
357.534	75.69
357.761	89.69
357.988	84.69
358.215	74.69
358.441	87.69
358.668	81.69
358.895	85.69
359.122	90.69
359.349	82.69
359.576	77.69
359.802	78.69
360.029	78.69
360.256	81.69
360.483	72.69
360.709	85.69
360.936	93.69
361.163	97.69
361.39	92.69
361.616	84.69
361.843	79.69
362.07	83.69
362.296	84.69
362.523	80.69
362.749	74.69
362.976	77.69
363.203	83.69
363.429	85.69
363.656	86.69
363.882	99.69
364.109	96.69
364.335	85.69
364.562	98.69
364.788	82.69
365.015	79.69
365.241	93.69
365.468	100.69
365.694	86.69
365.92	96.69
366.147	74.69
366.373	71.69
366.599	88.69
366.826	85.69
367.052	80.69
367.278	91.69
367.505	96.69
367.731	86.69
367.957	79.69
368.184	76.69
368.41	57.69
368.636	83.69
368.862	87.69
369.089	77.69
369.315	79.69
369.541	97.69
369.767	98.69
369.993	82.69
370.219	86.69
370.445	89.69
370.672	85.69
370.898	85.69
371.124	80.69
371.35	84.69
371.576	84.69
371.802	92.69
372.028	93.69
372.254	101.69
372.48	87.69
372.706	84.69
372.932	75.69
373.158	85.69
373.384	83.69
373.61	89.69
373.835	78.69
374.061	90.69
374.287	88.69
374.513	69.69
374.739	83.69
374.965	86.69
375.191	82.69
375.416	86.69
375.642	82.69
375.868	83.69
376.094	88.69
376.319	87.69
376.545	83.69
376.771	85.69
376.997	86.69
377.222	81.69
377.448	91.69
377.674	93.69
377.899	93.69
378.125	90.69
378.35	85.69
378.576	72.69
378.802	70.69
379.027	98.69
379.253	89.69
379.478	81.69
379.704	91.69
379.929	79.69
380.155	86.69
380.38	71.69
380.606	80.69
380.831	88.69
381.057	90.69
381.282	89.69
381.507	89.69
381.733	82.69
381.958	98.69
382.184	72.69
382.409	79.69
382.634	80.69
382.86	83.69
383.085	92.69
383.31	93.69
383.535	90.69
383.761	78.69
383.986	90.69
384.211	74.69
384.436	83.69
384.662	86.69
384.887	88.69
385.112	93.69
385.337	97.69
385.562	74.69
385.787	74.69
386.013	80.69
386.238	80.69
386.463	79.69
386.688	77.69
386.913	78.69
387.138	88.69
387.363	72.69
387.588	88.69
387.813	91.69
388.038	86.69
388.263	72.69
388.488	105.69
388.713	94.69
388.938	99.69
389.163	83.69
389.387	72.69
389.612	84.69
389.837	79.69
390.062	92.69
390.287	80.69
390.512	100.69
390.736	82.69
390.961	81.69
391.186	83.69
391.411	86.69
391.636	103.69
391.86	88.69
392.085	87.69
392.31	103.69
392.534	86.69
392.759	80.69
392.984	91.69
393.208	101.69
393.433	92.69
393.658	82.69
393.882	89.69
394.107	87.69
394.331	95.69
394.556	97.69
394.78	91.69
395.005	74.69
395.229	84.69
395.454	90.69
395.678	96.69
395.903	86.69
396.127	93.69
396.352	61.69
396.576	100.69
396.801	102.69
397.025	82.69
397.249	76.69
397.474	92.69
397.698	86.69
397.922	88.69
398.147	85.69
398.371	93.69
398.595	88.69
398.82	88.69
399.044	73.69
399.268	78.69
399.492	78.69
399.717	86.69
399.941	93.69
400.165	90.69
400.389	84.69
400.613	83.69
400.837	93.69
401.062	70.69
401.286	76.69
401.51	81.69
401.734	92.69
401.958	88.69
402.182	76.69
402.406	98.69
402.63	76.69
402.854	96.69
403.078	91.69
403.302	87.69
403.526	103.69
403.75	99.69
403.974	105.69
404.198	134.69
404.422	197.69
404.645	215.69
404.869	170.69
405.093	132.69
405.317	118.69
405.541	108.69
405.765	92.69
405.988	93.69
406.212	86.69
406.436	97.69
406.66	87.69
406.883	109.69
407.107	73.69
407.331	86.69
407.555	75.69
407.778	82.69
408.002	80.69
408.226	77.69
408.449	81.69
408.673	82.69
408.896	92.69
409.12	87.69
409.344	84.69
409.567	88.69
409.791	99.69
410.014	84.69
410.238	91.69
410.461	77.69
410.685	87.69
410.908	88.69
411.132	91.69
411.355	89.69
411.578	87.69
411.802	106.69
412.025	78.69
412.249	75.69
412.472	93.69
412.695	81.69
412.919	93.69
413.142	74.69
413.365	97.69
413.589	86.69
413.812	88.69
414.035	98.69
414.258	88.69
414.482	72.69
414.705	87.69
414.928	88.69
415.151	82.69
415.374	91.69
415.597	87.69
415.821	87.69
416.044	70.69
416.267	69.69
416.49	74.69
416.713	98.69
416.936	89.69
417.159	86.69
417.382	83.69
417.605	68.69
417.828	79.69
418.051	95.69
418.274	91.69
418.497	92.69
418.72	78.69
418.943	83.69
419.166	85.69
419.389	82.69
419.611	90.69
419.834	94.69
420.057	84.69
420.28	89.69
420.503	91.69
420.726	90.69
420.948	74.69
421.171	77.69
421.394	69.69
421.617	84.69
421.839	77.69
422.062	88.69
422.285	74.69
422.507	86.69
422.73	95.69
422.953	92.69
423.175	92.69
423.398	79.69
423.621	78.69
423.843	87.69
424.066	91.69
424.288	89.69
424.511	76.69
424.733	85.69
424.956	81.69
425.178	83.69
425.401	90.69
425.623	89.69
425.846	98.69
426.068	92.69
426.291	96.69
426.513	68.69
426.735	84.69
426.958	95.69
427.18	84.69
427.402	78.69
427.625	92.69
427.847	93.69
428.069	83.69
428.292	79.69
428.514	102.69
428.736	85.69
428.958	77.69
429.181	85.69
429.403	88.69
429.625	93.69
429.847	93.69
430.069	99.69
430.292	93.69
430.514	91.69
430.736	82.69
430.958	85.69
431.18	86.69
431.402	97.69
431.624	80.69
431.846	93.69
432.068	78.69
432.29	91.69
432.512	86.69
432.734	102.69
432.956	91.69
433.178	95.69
433.4	70.69
433.622	103.69
433.844	81.69
434.066	89.69
434.287	75.69
434.509	91.69
434.731	82.69
434.953	99.69
435.175	85.69
435.397	96.69
435.618	76.69
435.84	87.69
436.062	93.69
436.284	81.69
436.505	74.69
436.727	101.69
436.949	83.69
437.17	88.69
437.392	98.69
437.614	76.69
437.835	82.69
438.057	78.69
438.278	95.69
438.5	74.69
438.721	87.69
438.943	89.69
439.165	82.69
439.386	83.69
439.608	89.69
439.829	86.69
440.05	85.69
440.272	89.69
440.493	85.69
440.715	80.69
440.936	76.69
441.158	89.69
441.379	88.69
441.6	98.69
441.822	81.69
442.043	70.69
442.264	88.69
442.486	67.69
442.707	83.69
442.928	89.69
443.149	98.69
443.371	93.69
443.592	96.69
443.813	98.69
444.034	102.69
444.255	90.69
444.476	78.69
444.698	82.69
444.919	72.69
445.14	129.69
445.361	113.69
445.582	93.69
445.803	92.69
446.024	82.69
446.245	95.69
446.466	88.69
446.687	80.69
446.908	83.69
447.129	91.69
447.35	88.69
447.571	92.69
447.792	82.69
448.013	82.69
448.234	89.69
448.455	96.69
448.675	88.69
448.896	99.69
449.117	90.69
449.338	71.69
449.559	76.69
449.779	69.69
450	89.69
450.221	80.69
450.442	85.69
450.662	73.69
450.883	79.69
451.104	90.69
451.324	90.69
451.545	84.69
451.766	82.69
451.986	67.69
452.207	105.69
452.428	94.69
452.648	71.69
452.869	73.69
453.089	80.69
453.31	70.69
453.53	77.69
453.751	83.69
453.971	79.69
454.192	73.69
454.412	69.69
454.633	79.69
454.853	86.69
455.073	88.69
455.294	76.69
455.514	76.69
455.734	85.69
455.955	78.69
456.175	77.69
456.395	80.69
456.616	92.69
456.836	82.69
457.056	82.69
457.276	86.69
457.497	86.69
457.717	81.69
457.937	86.69
458.157	94.69
458.377	85.69
458.598	70.69
458.818	89.69
459.038	89.69
459.258	81.69
459.478	81.69
459.698	81.69
459.918	75.69
460.138	78.69
460.358	92.69
460.578	91.69
460.798	99.69
461.018	97.69
461.238	83.69
461.458	87.69
461.678	83.69
461.898	82.69
462.118	82.69
462.338	90.69
462.558	77.69
462.777	80.69
462.997	88.69
463.217	85.69
463.437	86.69
463.657	93.69
463.876	74.69
464.096	89.69
464.316	85.69
464.536	92.69
464.755	81.69
464.975	76.69
465.195	96.69
465.414	91.69
465.634	93.69
465.854	87.69
466.073	84.69
466.293	86.69
466.512	92.69
466.732	68.69
466.951	102.69
467.171	88.69
467.391	94.69
467.61	93.69
467.829	88.69
468.049	79.69
468.268	77.69
468.488	74.69
468.707	81.69
468.927	89.69
469.146	103.69
469.365	88.69
469.585	80.69
469.804	81.69
470.023	82.69
470.243	83.69
470.462	99.69
470.681	91.69
470.901	99.69
471.12	90.69
471.339	78.69
471.558	88.69
471.777	90.69
471.997	92.69
472.216	89.69
472.435	96.69
472.654	78.69
472.873	83.69
473.092	102.69
473.311	84.69
473.53	89.69
473.749	88.69
473.968	75.69
474.187	92.69
474.406	82.69
474.625	89.69
474.844	90.69
475.063	86.69
475.282	83.69
475.501	86.69
475.72	88.69
475.939	83.69
476.158	78.69
476.377	86.69
476.596	89.69
476.814	99.69
477.033	91.69
477.252	80.69
477.471	83.69
477.69	86.69
477.908	95.69
478.127	87.69
478.346	85.69
478.564	88.69
478.783	77.69
479.002	88.69
479.22	89.69
479.439	98.69
479.658	91.69
479.876	96.69
480.095	74.69
480.313	93.69
480.532	92.69
480.751	102.69
480.969	78.69
481.188	96.69
481.406	78.69
481.624	84.69
481.843	103.69
482.061	87.69
482.28	91.69
482.498	91.69
482.717	92.69
482.935	102.69
483.153	100.69
483.372	82.69
483.59	96.69
483.808	91.69
484.027	92.69
484.245	87.69
484.463	101.69
484.681	91.69
484.9	90.69
485.118	99.69
485.336	83.69
485.554	86.69
485.772	101.69
485.99	88.69
486.209	88.69
486.427	72.69
486.645	87.69
486.863	80.69
487.081	85.69
487.299	76.69
487.517	101.69
487.735	89.69
487.953	100.69
488.171	81.69
488.389	80.69
488.607	87.69
488.825	109.69
489.043	77.69
489.261	87.69
489.479	100.69
489.696	102.69
489.914	85.69
490.132	97.69
490.35	100.69
490.568	88.69
490.786	91.69
491.003	91.69
491.221	106.69
491.439	87.69
491.657	90.69
491.874	108.69
492.092	96.69
492.31	94.69
492.527	78.69
492.745	89.69
492.963	72.69
493.18	93.69
493.398	91.69
493.615	95.69
493.833	92.69
494.05	98.69
494.268	90.69
494.485	93.69
494.703	88.69
494.92	92.69
495.138	84.69
495.355	99.69
495.573	94.69
495.79	96.69
496.008	105.69
496.225	98.69
496.442	89.69
496.66	85.69
496.877	109.69
497.094	99.69
497.312	85.69
497.529	100.69
497.746	103.69
497.963	86.69
498.181	82.69
498.398	84.69
498.615	93.69
498.832	88.69
499.049	101.69
499.267	84.69
499.484	99.69
499.701	98.69
499.918	91.69
500.135	96.69
500.352	93.69
500.569	89.69
500.786	96.69
501.003	90.69
501.22	100.69
501.437	79.69
501.654	103.69
501.871	85.69
502.088	84.69
502.305	101.69
502.522	78.69
502.739	100.69
502.956	90.69
503.172	90.69
503.389	91.69
503.606	96.69
503.823	90.69
504.04	85.69
504.256	98.69
504.473	91.69
504.69	76.69
504.907	98.69
505.123	91.69
505.34	75.69
505.557	83.69
505.773	102.69
505.99	89.69
506.207	89.69
506.423	100.69
506.64	89.69
506.856	84.69
507.073	85.69
507.289	89.69
507.506	100.69
507.722	92.69
507.939	100.69
508.155	98.69
508.372	91.69
508.588	83.69
508.805	82.69
509.021	106.69
509.238	96.69
509.454	78.69
509.67	83.69
509.887	83.69
510.103	114.69
510.319	92.69
510.536	92.69
510.752	92.69
510.968	105.69
511.184	86.69
511.401	88.69
511.617	98.69
511.833	89.69
512.049	96.69
512.265	106.69
512.481	108.69
512.698	89.69
512.914	90.69
513.13	106.69
513.346	93.69
513.562	106.69
513.778	85.69
513.994	92.69
514.21	90.69
514.426	88.69
514.642	82.69
514.858	86.69
515.074	96.69
515.29	84.69
515.506	83.69
515.721	85.69
515.937	91.69
516.153	82.69
516.369	93.69
516.585	93.69
516.801	91.69
517.016	85.69
517.232	92.69
517.448	76.69
517.664	81.69
517.879	88.69
518.095	90.69
518.311	93.69
518.527	89.69
518.742	97.69
518.958	87.69
519.173	75.69
