Data from KBrHeat1_HRD10591_00005.txt Node
Date: Fri Dec 27 14:51:24 EST 2024
User: Yrep
Spectrometer: HR+D1059
Trigger mode: 1
Integration Time (sec): 1.000000E-1
Scans to average: 1
Electric dark correction enabled: true
Nonlinearity correction enabled: false
Boxcar width: 0
XAxis mode: Wavelengths
Number of Pixels in Spectrum: 2048
>>>>>Begin Spectral Data<<<<<
223.165	-32.75
223.4	-32.75
223.635	-32.75
223.869	-16.75
224.104	-16.75
224.338	-14.75
224.573	-12.75
224.808	-11.75
225.042	1.25
225.277	8.25
225.511	-2.75
225.746	1.25
225.98	-12.75
226.215	18.25
226.449	26.25
226.683	20.25
226.918	17.25
227.152	28.25
227.387	32.25
227.621	31.25
227.856	38.25
228.09	55.25
228.324	54.25
228.559	59.25
228.793	60.25
229.027	77.25
229.262	65.25
229.496	68.25
229.73	71.25
229.964	74.25
230.199	77.25
230.433	74.25
230.667	69.25
230.901	84.25
231.136	72.25
231.37	72.25
231.604	70.25
231.838	76.25
232.072	56.25
232.306	82.25
232.541	70.25
232.775	79.25
233.009	83.25
233.243	78.25
233.477	87.25
233.711	80.25
233.945	85.25
234.179	83.25
234.413	70.25
234.647	78.25
234.881	87.25
235.115	72.25
235.349	74.25
235.583	85.25
235.817	72.25
236.051	87.25
236.285	78.25
236.519	90.25
236.753	86.25
236.987	71.25
237.221	85.25
237.455	87.25
237.689	90.25
237.922	66.25
238.156	79.25
238.39	67.25
238.624	66.25
238.858	67.25
239.091	88.25
239.325	73.25
239.559	92.25
239.793	90.25
240.027	80.25
240.26	75.25
240.494	88.25
240.728	72.25
240.961	76.25
241.195	70.25
241.429	73.25
241.662	76.25
241.896	77.25
242.13	74.25
242.363	78.25
242.597	77.25
242.83	79.25
243.064	97.25
243.298	64.25
243.531	64.25
243.765	78.25
243.998	77.25
244.232	87.25
244.465	76.25
244.699	89.25
244.932	88.25
245.166	79.25
245.399	70.25
245.633	71.25
245.866	80.25
246.099	92.25
246.333	88.25
246.566	72.25
246.8	82.25
247.033	77.25
247.266	83.25
247.5	79.25
247.733	81.25
247.966	67.25
248.2	76.25
248.433	79.25
248.666	75.25
248.899	71.25
249.133	66.25
249.366	77.25
249.599	68.25
249.832	87.25
250.066	90.25
250.299	83.25
250.532	74.25
250.765	68.25
250.998	72.25
251.231	85.25
251.465	80.25
251.698	86.25
251.931	71.25
252.164	83.25
252.397	84.25
252.63	80.25
252.863	84.25
253.096	78.25
253.329	78.25
253.562	68.25
253.795	77.25
254.028	88.25
254.261	79.25
254.494	88.25
254.727	87.25
254.96	77.25
255.193	66.25
255.426	81.25
255.659	81.25
255.892	83.25
256.124	91.25
256.357	78.25
256.59	84.25
256.823	72.25
257.056	91.25
257.289	103.25
257.521	92.25
257.754	73.25
257.987	88.25
258.22	89.25
258.452	91.25
258.685	73.25
258.918	64.25
259.151	67.25
259.383	74.25
259.616	75.25
259.849	86.25
260.081	85.25
260.314	88.25
260.547	77.25
260.779	87.25
261.012	92.25
261.244	86.25
261.477	95.25
261.71	81.25
261.942	88.25
262.175	80.25
262.407	81.25
262.64	69.25
262.872	89.25
263.105	75.25
263.337	77.25
263.57	81.25
263.802	88.25
264.035	93.25
264.267	71.25
264.499	85.25
264.732	82.25
264.964	94.25
265.197	83.25
265.429	79.25
265.661	90.25
265.894	79.25
266.126	89.25
266.358	89.25
266.591	78.25
266.823	78.25
267.055	69.25
267.287	85.25
267.52	87.25
267.752	84.25
267.984	101.25
268.216	84.25
268.448	80.25
268.681	73.25
268.913	91.25
269.145	90.25
269.377	78.25
269.609	85.25
269.841	74.25
270.073	86.25
270.306	74.25
270.538	85.25
270.77	91.25
271.002	83.25
271.234	81.25
271.466	76.25
271.698	74.25
271.93	77.25
272.162	84.25
272.394	87.25
272.626	73.25
272.858	75.25
273.09	90.25
273.322	92.25
273.553	77.25
273.785	77.25
274.017	78.25
274.249	84.25
274.481	86.25
274.713	87.25
274.945	89.25
275.176	84.25
275.408	90.25
275.64	81.25
275.872	68.25
276.104	87.25
276.335	84.25
276.567	76.25
276.799	77.25
277.031	91.25
277.262	94.25
277.494	85.25
277.726	82.25
277.957	81.25
278.189	79.25
278.421	87.25
278.652	71.25
278.884	76.25
279.115	84.25
279.347	85.25
279.579	81.25
279.81	70.25
280.042	81.25
280.273	86.25
280.505	93.25
280.736	86.25
280.968	89.25
281.199	86.25
281.431	99.25
281.662	77.25
281.894	72.25
282.125	92.25
282.356	86.25
282.588	92.25
282.819	85.25
283.051	88.25
283.282	87.25
283.513	80.25
283.745	92.25
283.976	88.25
284.207	78.25
284.439	86.25
284.67	93.25
284.901	68.25
285.132	75.25
285.364	88.25
285.595	86.25
285.826	72.25
286.057	77.25
286.288	92.25
286.52	76.25
286.751	102.25
286.982	94.25
287.213	77.25
287.444	71.25
287.675	87.25
287.906	85.25
288.138	68.25
288.369	85.25
288.6	85.25
288.831	73.25
289.062	80.25
289.293	86.25
289.524	77.25
289.755	70.25
289.986	92.25
290.217	78.25
290.448	81.25
290.679	85.25
290.91	79.25
291.141	99.25
291.371	87.25
291.602	85.25
291.833	84.25
292.064	91.25
292.295	83.25
292.526	84.25
292.757	82.25
292.987	89.25
293.218	89.25
293.449	92.25
293.68	85.25
293.91	75.25
294.141	72.25
294.372	86.25
294.603	77.25
294.833	78.25
295.064	85.25
295.295	77.25
295.525	75.25
295.756	108.25
295.987	82.25
296.217	89.25
296.448	89.25
296.679	88.25
296.909	92.25
297.14	86.25
297.37	77.25
297.601	88.25
297.831	89.25
298.062	75.25
298.292	74.25
298.523	83.25
298.753	80.25
298.984	91.25
299.214	83.25
299.445	107.25
299.675	89.25
299.905	88.25
300.136	91.25
300.366	65.25
300.597	78.25
300.827	64.25
301.057	86.25
301.288	71.25
301.518	91.25
301.748	87.25
301.979	96.25
302.209	79.25
302.439	82.25
302.669	77.25
302.9	84.25
303.13	97.25
303.36	89.25
303.59	86.25
303.82	102.25
304.051	93.25
304.281	86.25
304.511	74.25
304.741	87.25
304.971	89.25
305.201	74.25
305.431	90.25
305.661	87.25
305.891	86.25
306.121	77.25
306.352	74.25
306.582	90.25
306.812	98.25
307.042	83.25
307.272	90.25
307.502	71.25
307.731	90.25
307.961	88.25
308.191	90.25
308.421	86.25
308.651	82.25
308.881	91.25
309.111	100.25
309.341	85.25
309.571	85.25
309.8	88.25
310.03	86.25
310.26	78.25
310.49	90.25
310.72	97.25
310.949	90.25
311.179	81.25
311.409	86.25
311.639	82.25
311.868	83.25
312.098	77.25
312.328	82.25
312.557	91.25
312.787	88.25
313.017	98.25
313.246	92.25
313.476	95.25
313.706	80.25
313.935	86.25
314.165	87.25
314.394	77.25
314.624	99.25
314.853	94.25
315.083	77.25
315.312	98.25
315.542	82.25
315.771	97.25
316.001	89.25
316.23	86.25
316.46	86.25
316.689	77.25
316.919	85.25
317.148	85.25
317.377	85.25
317.607	74.25
317.836	73.25
318.065	87.25
318.295	69.25
318.524	86.25
318.753	84.25
318.983	93.25
319.212	75.25
319.441	79.25
319.67	84.25
319.9	85.25
320.129	91.25
320.358	84.25
320.587	90.25
320.816	93.25
321.046	100.25
321.275	89.25
321.504	82.25
321.733	76.25
321.962	92.25
322.191	82.25
322.42	85.25
322.649	93.25
322.878	89.25
323.108	91.25
323.337	95.25
323.566	94.25
323.795	90.25
324.024	78.25
324.253	97.25
324.482	84.25
324.71	90.25
324.939	82.25
325.168	100.25
325.397	93.25
325.626	95.25
325.855	88.25
326.084	89.25
326.313	84.25
326.542	83.25
326.77	84.25
326.999	84.25
327.228	92.25
327.457	93.25
327.686	87.25
327.914	76.25
328.143	84.25
328.372	83.25
328.6	92.25
328.829	90.25
329.058	69.25
329.287	80.25
329.515	83.25
329.744	94.25
329.972	88.25
330.201	91.25
330.43	64.25
330.658	83.25
330.887	86.25
331.115	94.25
331.344	99.25
331.572	94.25
331.801	79.25
332.03	88.25
332.258	76.25
332.486	97.25
332.715	87.25
332.943	94.25
333.172	90.25
333.4	93.25
333.629	86.25
333.857	84.25
334.085	97.25
334.314	87.25
334.542	78.25
334.771	85.25
334.999	86.25
335.227	90.25
335.455	76.25
335.684	69.25
335.912	102.25
336.14	95.25
336.369	86.25
336.597	101.25
336.825	93.25
337.053	80.25
337.281	84.25
337.51	84.25
337.738	79.25
337.966	88.25
338.194	106.25
338.422	82.25
338.65	101.25
338.878	89.25
339.106	83.25
339.334	101.25
339.562	93.25
339.79	79.25
340.018	84.25
340.246	104.25
340.474	97.25
340.702	83.25
340.93	98.25
341.158	85.25
341.386	96.25
341.614	75.25
341.842	91.25
342.07	94.25
342.298	77.25
342.526	70.25
342.754	88.25
342.981	86.25
343.209	97.25
343.437	107.25
343.665	86.25
343.893	79.25
344.12	91.25
344.348	91.25
344.576	97.25
344.804	97.25
345.031	93.25
345.259	109.25
345.487	105.25
345.714	84.25
345.942	89.25
346.17	87.25
346.397	85.25
346.625	99.25
346.853	84.25
347.08	83.25
347.308	87.25
347.535	83.25
347.763	78.25
347.99	97.25
348.218	92.25
348.445	89.25
348.673	91.25
348.9	86.25
349.128	86.25
349.355	76.25
349.583	89.25
349.81	73.25
350.037	78.25
350.265	101.25
350.492	73.25
350.72	92.25
350.947	97.25
351.174	77.25
351.402	97.25
351.629	74.25
351.856	73.25
352.083	91.25
352.311	90.25
352.538	94.25
352.765	72.25
352.992	83.25
353.22	91.25
353.447	89.25
353.674	94.25
353.901	77.25
354.128	79.25
354.355	82.25
354.583	89.25
354.81	90.25
355.037	85.25
355.264	79.25
355.491	91.25
355.718	69.25
355.945	90.25
356.172	104.25
356.399	94.25
356.626	91.25
356.853	85.25
357.08	90.25
357.307	90.25
357.534	87.25
357.761	86.25
357.988	84.25
358.215	83.25
358.441	75.25
358.668	88.25
358.895	86.25
359.122	101.25
359.349	83.25
359.576	79.25
359.802	74.25
360.029	92.25
360.256	86.25
360.483	79.25
360.709	65.25
360.936	97.25
361.163	90.25
361.39	91.25
361.616	86.25
361.843	96.25
362.07	102.25
362.296	79.25
362.523	94.25
362.749	80.25
362.976	79.25
363.203	97.25
363.429	92.25
363.656	73.25
363.882	87.25
364.109	79.25
364.335	87.25
364.562	70.25
364.788	86.25
365.015	98.25
365.241	102.25
365.468	82.25
365.694	84.25
365.92	81.25
366.147	78.25
366.373	95.25
366.599	88.25
366.826	82.25
367.052	85.25
367.278	92.25
367.505	95.25
367.731	90.25
367.957	102.25
368.184	78.25
368.41	93.25
368.636	84.25
368.862	85.25
369.089	79.25
369.315	84.25
369.541	104.25
369.767	80.25
369.993	87.25
370.219	81.25
370.445	86.25
370.672	80.25
370.898	90.25
371.124	75.25
371.35	73.25
371.576	91.25
371.802	81.25
372.028	85.25
372.254	88.25
372.48	91.25
372.706	91.25
372.932	82.25
373.158	86.25
373.384	81.25
373.61	88.25
373.835	96.25
374.061	87.25
374.287	80.25
374.513	94.25
374.739	74.25
374.965	82.25
375.191	77.25
375.416	93.25
375.642	77.25
375.868	98.25
376.094	81.25
376.319	85.25
376.545	103.25
376.771	74.25
376.997	79.25
377.222	87.25
377.448	76.25
377.674	105.25
377.899	95.25
378.125	84.25
378.35	78.25
378.576	92.25
378.802	82.25
379.027	96.25
379.253	82.25
379.478	86.25
379.704	86.25
379.929	84.25
380.155	79.25
380.38	93.25
380.606	81.25
380.831	90.25
381.057	89.25
381.282	81.25
381.507	94.25
381.733	82.25
381.958	75.25
382.184	82.25
382.409	87.25
382.634	81.25
382.86	101.25
383.085	99.25
383.31	86.25
383.535	88.25
383.761	90.25
383.986	80.25
384.211	82.25
384.436	79.25
384.662	69.25
384.887	76.25
385.112	78.25
385.337	87.25
385.562	71.25
385.787	92.25
386.013	86.25
386.238	86.25
386.463	97.25
386.688	90.25
386.913	85.25
387.138	89.25
387.363	81.25
387.588	91.25
387.813	87.25
388.038	92.25
388.263	89.25
388.488	77.25
388.713	69.25
388.938	85.25
389.163	74.25
389.387	82.25
389.612	98.25
389.837	76.25
390.062	92.25
390.287	91.25
390.512	88.25
390.736	82.25
390.961	79.25
391.186	79.25
391.411	82.25
391.636	92.25
391.86	89.25
392.085	97.25
392.31	89.25
392.534	87.25
392.759	65.25
392.984	88.25
393.208	84.25
393.433	95.25
393.658	91.25
393.882	84.25
394.107	80.25
394.331	85.25
394.556	61.25
394.78	98.25
395.005	84.25
395.229	83.25
395.454	93.25
395.678	98.25
395.903	82.25
396.127	79.25
396.352	93.25
396.576	89.25
396.801	85.25
397.025	87.25
397.249	89.25
397.474	86.25
397.698	91.25
397.922	94.25
398.147	78.25
398.371	83.25
398.595	98.25
398.82	87.25
399.044	78.25
399.268	77.25
399.492	83.25
399.717	79.25
399.941	104.25
400.165	89.25
400.389	87.25
400.613	87.25
400.837	97.25
401.062	94.25
401.286	86.25
401.51	95.25
401.734	86.25
401.958	83.25
402.182	86.25
402.406	81.25
402.63	74.25
402.854	87.25
403.078	84.25
403.302	64.25
403.526	105.25
403.75	90.25
403.974	101.25
404.198	143.25
404.422	168.25
404.645	200.25
404.869	167.25
405.093	141.25
405.317	116.25
405.541	93.25
405.765	94.25
405.988	84.25
406.212	79.25
406.436	81.25
406.66	99.25
406.883	98.25
407.107	94.25
407.331	88.25
407.555	91.25
407.778	78.25
408.002	74.25
408.226	85.25
408.449	79.25
408.673	80.25
408.896	88.25
409.12	79.25
409.344	99.25
409.567	79.25
409.791	85.25
410.014	75.25
410.238	85.25
410.461	85.25
410.685	96.25
410.908	81.25
411.132	85.25
411.355	81.25
411.578	87.25
411.802	99.25
412.025	103.25
412.249	86.25
412.472	97.25
412.695	77.25
412.919	94.25
413.142	92.25
413.365	89.25
413.589	88.25
413.812	98.25
414.035	101.25
414.258	101.25
414.482	88.25
414.705	84.25
414.928	86.25
415.151	97.25
415.374	75.25
415.597	93.25
415.821	92.25
416.044	89.25
416.267	100.25
416.49	95.25
416.713	97.25
416.936	69.25
417.159	82.25
417.382	89.25
417.605	92.25
417.828	105.25
418.051	87.25
418.274	95.25
418.497	83.25
418.72	80.25
418.943	84.25
419.166	86.25
419.389	79.25
419.611	95.25
419.834	90.25
420.057	89.25
420.28	98.25
420.503	97.25
420.726	85.25
420.948	89.25
421.171	92.25
421.394	92.25
421.617	84.25
421.839	78.25
422.062	101.25
422.285	87.25
422.507	84.25
422.73	91.25
422.953	99.25
423.175	93.25
423.398	97.25
423.621	95.25
423.843	79.25
424.066	85.25
424.288	80.25
424.511	85.25
424.733	104.25
424.956	86.25
425.178	86.25
425.401	78.25
425.623	77.25
425.846	81.25
426.068	83.25
426.291	78.25
426.513	83.25
426.735	92.25
426.958	87.25
427.18	93.25
427.402	89.25
427.625	92.25
427.847	89.25
428.069	94.25
428.292	89.25
428.514	86.25
428.736	83.25
428.958	85.25
429.181	78.25
429.403	91.25
429.625	101.25
429.847	78.25
430.069	73.25
430.292	90.25
430.514	89.25
430.736	92.25
430.958	91.25
431.18	83.25
431.402	73.25
431.624	93.25
431.846	84.25
432.068	71.25
432.29	90.25
432.512	100.25
432.734	81.25
432.956	99.25
433.178	85.25
433.4	81.25
433.622	78.25
433.844	83.25
434.066	81.25
434.287	88.25
434.509	86.25
434.731	91.25
434.953	84.25
435.175	91.25
435.397	87.25
435.618	91.25
435.84	98.25
436.062	87.25
436.284	87.25
436.505	84.25
436.727	79.25
436.949	98.25
437.17	75.25
437.392	92.25
437.614	82.25
437.835	95.25
438.057	59.25
438.278	78.25
438.5	82.25
438.721	96.25
438.943	98.25
439.165	91.25
439.386	97.25
439.608	85.25
439.829	90.25
440.05	77.25
440.272	88.25
440.493	87.25
440.715	77.25
440.936	90.25
441.158	90.25
441.379	83.25
441.6	82.25
441.822	90.25
442.043	84.25
442.264	87.25
442.486	89.25
442.707	89.25
442.928	82.25
443.149	86.25
443.371	95.25
443.592	94.25
443.813	80.25
444.034	76.25
444.255	79.25
444.476	110.25
444.698	98.25
444.919	89.25
445.14	139.25
445.361	123.25
445.582	98.25
445.803	84.25
446.024	77.25
446.245	87.25
446.466	92.25
446.687	76.25
446.908	91.25
447.129	85.25
447.35	91.25
447.571	89.25
447.792	77.25
448.013	93.25
448.234	82.25
448.455	80.25
448.675	93.25
448.896	80.25
449.117	90.25
449.338	98.25
449.559	88.25
449.779	87.25
450	77.25
450.221	104.25
450.442	94.25
450.662	93.25
450.883	74.25
451.104	87.25
451.324	85.25
451.545	94.25
451.766	91.25
451.986	90.25
452.207	93.25
452.428	77.25
452.648	82.25
452.869	99.25
453.089	82.25
453.31	93.25
453.53	83.25
453.751	89.25
453.971	89.25
454.192	93.25
454.412	77.25
454.633	90.25
454.853	83.25
455.073	93.25
455.294	87.25
455.514	92.25
455.734	76.25
455.955	90.25
456.175	94.25
456.395	78.25
456.616	82.25
456.836	86.25
457.056	93.25
457.276	81.25
457.497	83.25
457.717	74.25
457.937	88.25
458.157	80.25
458.377	82.25
458.598	79.25
458.818	89.25
459.038	94.25
459.258	76.25
459.478	81.25
459.698	84.25
459.918	79.25
460.138	85.25
460.358	81.25
460.578	85.25
460.798	92.25
461.018	89.25
461.238	72.25
461.458	64.25
461.678	90.25
461.898	90.25
462.118	84.25
462.338	90.25
462.558	85.25
462.777	80.25
462.997	95.25
463.217	73.25
463.437	85.25
463.657	87.25
463.876	75.25
464.096	84.25
464.316	85.25
464.536	86.25
464.755	95.25
464.975	77.25
465.195	86.25
465.414	92.25
465.634	96.25
465.854	77.25
466.073	88.25
466.293	82.25
466.512	90.25
466.732	84.25
466.951	91.25
467.171	80.25
467.391	70.25
467.61	97.25
467.829	81.25
468.049	97.25
468.268	75.25
468.488	88.25
468.707	95.25
468.927	99.25
469.146	86.25
469.365	84.25
469.585	98.25
469.804	102.25
470.023	91.25
470.243	97.25
470.462	101.25
470.681	90.25
470.901	79.25
471.12	87.25
471.339	87.25
471.558	84.25
471.777	83.25
471.997	88.25
472.216	76.25
472.435	89.25
472.654	89.25
472.873	92.25
473.092	83.25
473.311	103.25
473.53	87.25
473.749	91.25
473.968	90.25
474.187	63.25
474.406	82.25
474.625	79.25
474.844	88.25
475.063	81.25
475.282	84.25
475.501	93.25
475.72	91.25
475.939	86.25
476.158	92.25
476.377	89.25
476.596	94.25
476.814	90.25
477.033	83.25
477.252	97.25
477.471	92.25
477.69	85.25
477.908	99.25
478.127	85.25
478.346	101.25
478.564	79.25
478.783	85.25
479.002	95.25
479.22	102.25
479.439	93.25
479.658	90.25
479.876	87.25
480.095	83.25
480.313	71.25
480.532	85.25
480.751	87.25
480.969	91.25
481.188	82.25
481.406	93.25
481.624	99.25
481.843	88.25
482.061	78.25
482.28	87.25
482.498	85.25
482.717	87.25
482.935	105.25
483.153	81.25
483.372	92.25
483.59	97.25
483.808	108.25
484.027	100.25
484.245	78.25
484.463	93.25
484.681	82.25
484.9	89.25
485.118	102.25
485.336	84.25
485.554	94.25
485.772	90.25
485.99	81.25
486.209	81.25
486.427	84.25
486.645	84.25
486.863	83.25
487.081	85.25
487.299	82.25
487.517	93.25
487.735	89.25
487.953	92.25
488.171	83.25
488.389	78.25
488.607	102.25
488.825	91.25
489.043	86.25
489.261	93.25
489.479	101.25
489.696	97.25
489.914	104.25
490.132	93.25
490.35	99.25
490.568	91.25
490.786	86.25
491.003	93.25
491.221	101.25
491.439	81.25
491.657	92.25
491.874	91.25
492.092	101.25
492.31	111.25
492.527	103.25
492.745	106.25
492.963	99.25
493.18	86.25
493.398	88.25
493.615	90.25
493.833	97.25
494.05	86.25
494.268	89.25
494.485	99.25
494.703	73.25
494.92	97.25
495.138	108.25
495.355	90.25
495.573	101.25
495.79	98.25
496.008	106.25
496.225	102.25
496.442	87.25
496.66	90.25
496.877	92.25
497.094	89.25
497.312	97.25
497.529	99.25
497.746	98.25
497.963	98.25
498.181	100.25
498.398	91.25
498.615	110.25
498.832	80.25
499.049	87.25
499.267	89.25
499.484	93.25
499.701	90.25
499.918	97.25
500.135	86.25
500.352	95.25
500.569	92.25
500.786	102.25
501.003	88.25
501.22	81.25
501.437	91.25
501.654	95.25
501.871	96.25
502.088	95.25
502.305	99.25
502.522	105.25
502.739	104.25
502.956	92.25
503.172	89.25
503.389	102.25
503.606	96.25
503.823	86.25
504.04	99.25
504.256	83.25
504.473	80.25
504.69	97.25
504.907	106.25
505.123	77.25
505.34	91.25
505.557	104.25
505.773	94.25
505.99	97.25
506.207	90.25
506.423	107.25
506.64	98.25
506.856	94.25
507.073	109.25
507.289	90.25
507.506	89.25
507.722	102.25
507.939	75.25
508.155	89.25
508.372	84.25
508.588	81.25
508.805	89.25
509.021	104.25
509.238	91.25
509.454	82.25
509.67	82.25
509.887	89.25
510.103	84.25
510.319	94.25
510.536	101.25
510.752	93.25
510.968	92.25
511.184	92.25
511.401	94.25
511.617	90.25
511.833	83.25
512.049	93.25
512.265	107.25
512.481	90.25
512.698	82.25
512.914	94.25
513.13	93.25
513.346	84.25
513.562	90.25
513.778	83.25
513.994	82.25
514.21	107.25
514.426	85.25
514.642	94.25
514.858	88.25
515.074	72.25
515.29	90.25
515.506	87.25
515.721	93.25
515.937	92.25
516.153	92.25
516.369	86.25
516.585	87.25
516.801	106.25
517.016	79.25
517.232	99.25
517.448	74.25
517.664	94.25
517.879	89.25
518.095	96.25
518.311	94.25
518.527	98.25
518.742	86.25
518.958	100.25
