Data from KBrHeat1_HRD10591_00016.txt Node
Date: Fri Dec 27 14:51:35 EST 2024
User: Yrep
Spectrometer: HR+D1059
Trigger mode: 1
Integration Time (sec): 1.000000E-1
Scans to average: 1
Electric dark correction enabled: true
Nonlinearity correction enabled: false
Boxcar width: 0
XAxis mode: Wavelengths
Number of Pixels in Spectrum: 2048
>>>>>Begin Spectral Data<<<<<
223.165	-14.25
223.4	-14.25
223.635	-14.25
223.869	-13.25
224.104	-17.25
224.338	-12.25
224.573	-14.25
224.808	-11.25
225.042	-10.25
225.277	-25.25
225.511	3.75
225.746	6.75
225.98	4.75
226.215	12.75
226.449	18.75
226.683	23.75
226.918	15.75
227.152	31.75
227.387	48.75
227.621	45.75
227.856	35.75
228.09	42.75
228.324	55.75
228.559	65.75
228.793	65.75
229.027	73.75
229.262	65.75
229.496	72.75
229.73	71.75
229.964	68.75
230.199	75.75
230.433	75.75
230.667	77.75
230.901	82.75
231.136	100.75
231.37	92.75
231.604	76.75
231.838	85.75
232.072	80.75
232.306	73.75
232.541	92.75
232.775	81.75
233.009	84.75
233.243	75.75
233.477	88.75
233.711	74.75
233.945	93.75
234.179	73.75
234.413	86.75
234.647	81.75
234.881	64.75
235.115	83.75
235.349	81.75
235.583	81.75
235.817	72.75
236.051	78.75
236.285	80.75
236.519	79.75
236.753	86.75
236.987	78.75
237.221	84.75
237.455	62.75
237.689	90.75
237.922	85.75
238.156	89.75
238.39	74.75
238.624	75.75
238.858	69.75
239.091	85.75
239.325	81.75
239.559	67.75
239.793	83.75
240.027	98.75
240.26	88.75
240.494	71.75
240.728	79.75
240.961	85.75
241.195	76.75
241.429	73.75
241.662	73.75
241.896	87.75
242.13	72.75
242.363	71.75
242.597	73.75
242.83	76.75
243.064	81.75
243.298	80.75
243.531	83.75
243.765	83.75
243.998	71.75
244.232	80.75
244.465	92.75
244.699	84.75
244.932	91.75
245.166	80.75
245.399	79.75
245.633	86.75
245.866	81.75
246.099	59.75
246.333	76.75
246.566	80.75
246.8	79.75
247.033	86.75
247.266	80.75
247.5	92.75
247.733	73.75
247.966	80.75
248.2	81.75
248.433	69.75
248.666	94.75
248.899	90.75
249.133	83.75
249.366	69.75
249.599	87.75
249.832	84.75
250.066	93.75
250.299	100.75
250.532	79.75
250.765	63.75
250.998	77.75
251.231	85.75
251.465	81.75
251.698	74.75
251.931	90.75
252.164	71.75
252.397	81.75
252.63	86.75
252.863	81.75
253.096	85.75
253.329	92.75
253.562	93.75
253.795	81.75
254.028	85.75
254.261	73.75
254.494	77.75
254.727	87.75
254.96	76.75
255.193	79.75
255.426	85.75
255.659	90.75
255.892	92.75
256.124	90.75
256.357	92.75
256.59	88.75
256.823	78.75
257.056	82.75
257.289	76.75
257.521	99.75
257.754	77.75
257.987	67.75
258.22	82.75
258.452	86.75
258.685	80.75
258.918	82.75
259.151	74.75
259.383	69.75
259.616	86.75
259.849	83.75
260.081	88.75
260.314	90.75
260.547	91.75
260.779	83.75
261.012	76.75
261.244	89.75
261.477	85.75
261.71	88.75
261.942	75.75
262.175	74.75
262.407	77.75
262.64	87.75
262.872	88.75
263.105	93.75
263.337	86.75
263.57	72.75
263.802	93.75
264.035	78.75
264.267	89.75
264.499	90.75
264.732	71.75
264.964	81.75
265.197	77.75
265.429	91.75
265.661	80.75
265.894	82.75
266.126	69.75
266.358	79.75
266.591	79.75
266.823	83.75
267.055	83.75
267.287	83.75
267.52	77.75
267.752	83.75
267.984	95.75
268.216	91.75
268.448	75.75
268.681	83.75
268.913	82.75
269.145	79.75
269.377	79.75
269.609	95.75
269.841	92.75
270.073	75.75
270.306	85.75
270.538	88.75
270.77	81.75
271.002	81.75
271.234	76.75
271.466	93.75
271.698	79.75
271.93	89.75
272.162	81.75
272.394	88.75
272.626	89.75
272.858	83.75
273.09	90.75
273.322	90.75
273.553	90.75
273.785	84.75
274.017	101.75
274.249	83.75
274.481	89.75
274.713	87.75
274.945	88.75
275.176	85.75
275.408	101.75
275.64	70.75
275.872	81.75
276.104	85.75
276.335	82.75
276.567	78.75
276.799	88.75
277.031	92.75
277.262	83.75
277.494	85.75
277.726	88.75
277.957	76.75
278.189	88.75
278.421	86.75
278.652	93.75
278.884	88.75
279.115	97.75
279.347	88.75
279.579	89.75
279.81	95.75
280.042	92.75
280.273	88.75
280.505	90.75
280.736	92.75
280.968	78.75
281.199	78.75
281.431	86.75
281.662	89.75
281.894	83.75
282.125	86.75
282.356	87.75
282.588	83.75
282.819	87.75
283.051	88.75
283.282	81.75
283.513	89.75
283.745	78.75
283.976	83.75
284.207	88.75
284.439	93.75
284.67	81.75
284.901	102.75
285.132	80.75
285.364	91.75
285.595	91.75
285.826	79.75
286.057	80.75
286.288	93.75
286.52	84.75
286.751	78.75
286.982	85.75
287.213	79.75
287.444	99.75
287.675	85.75
287.906	92.75
288.138	97.75
288.369	86.75
288.6	86.75
288.831	74.75
289.062	77.75
289.293	98.75
289.524	73.75
289.755	76.75
289.986	90.75
290.217	88.75
290.448	90.75
290.679	81.75
290.91	87.75
291.141	87.75
291.371	84.75
291.602	75.75
291.833	75.75
292.064	88.75
292.295	100.75
292.526	87.75
292.757	93.75
292.987	91.75
293.218	81.75
293.449	81.75
293.68	87.75
293.91	85.75
294.141	84.75
294.372	84.75
294.603	88.75
294.833	80.75
295.064	75.75
295.295	98.75
295.525	73.75
295.756	80.75
295.987	78.75
296.217	83.75
296.448	95.75
296.679	94.75
296.909	85.75
297.14	96.75
297.37	82.75
297.601	86.75
297.831	81.75
298.062	87.75
298.292	95.75
298.523	77.75
298.753	84.75
298.984	86.75
299.214	72.75
299.445	91.75
299.675	97.75
299.905	85.75
300.136	86.75
300.366	84.75
300.597	86.75
300.827	81.75
301.057	106.75
301.288	93.75
301.518	95.75
301.748	89.75
301.979	93.75
302.209	83.75
302.439	89.75
302.669	75.75
302.9	84.75
303.13	92.75
303.36	90.75
303.59	95.75
303.82	103.75
304.051	77.75
304.281	90.75
304.511	96.75
304.741	88.75
304.971	79.75
305.201	99.75
305.431	86.75
305.661	80.75
305.891	81.75
306.121	85.75
306.352	84.75
306.582	92.75
306.812	94.75
307.042	84.75
307.272	88.75
307.502	84.75
307.731	94.75
307.961	94.75
308.191	100.75
308.421	86.75
308.651	92.75
308.881	85.75
309.111	94.75
309.341	78.75
309.571	79.75
309.8	83.75
310.03	83.75
310.26	87.75
310.49	93.75
310.72	85.75
310.949	87.75
311.179	85.75
311.409	89.75
311.639	99.75
311.868	95.75
312.098	86.75
312.328	83.75
312.557	85.75
312.787	103.75
313.017	95.75
313.246	96.75
313.476	104.75
313.706	95.75
313.935	83.75
314.165	87.75
314.394	91.75
314.624	87.75
314.853	83.75
315.083	87.75
315.312	87.75
315.542	95.75
315.771	89.75
316.001	77.75
316.23	96.75
316.46	95.75
316.689	78.75
316.919	87.75
317.148	74.75
317.377	85.75
317.607	96.75
317.836	88.75
318.065	101.75
318.295	77.75
318.524	99.75
318.753	90.75
318.983	89.75
319.212	95.75
319.441	91.75
319.67	83.75
319.9	98.75
320.129	91.75
320.358	90.75
320.587	81.75
320.816	76.75
321.046	80.75
321.275	89.75
321.504	95.75
321.733	81.75
321.962	111.75
322.191	92.75
322.42	80.75
322.649	85.75
322.878	80.75
323.108	88.75
323.337	77.75
323.566	90.75
323.795	83.75
324.024	94.75
324.253	87.75
324.482	91.75
324.71	101.75
324.939	78.75
325.168	95.75
325.397	88.75
325.626	85.75
325.855	91.75
326.084	96.75
326.313	82.75
326.542	84.75
326.77	92.75
326.999	83.75
327.228	96.75
327.457	83.75
327.686	102.75
327.914	103.75
328.143	91.75
328.372	86.75
328.6	87.75
328.829	85.75
329.058	99.75
329.287	95.75
329.515	69.75
329.744	96.75
329.972	91.75
330.201	84.75
330.43	87.75
330.658	78.75
330.887	86.75
331.115	108.75
331.344	89.75
331.572	97.75
331.801	91.75
332.03	90.75
332.258	93.75
332.486	104.75
332.715	94.75
332.943	91.75
333.172	86.75
333.4	93.75
333.629	72.75
333.857	99.75
334.085	96.75
334.314	86.75
334.542	86.75
334.771	99.75
334.999	97.75
335.227	101.75
335.455	95.75
335.684	92.75
335.912	85.75
336.14	86.75
336.369	85.75
336.597	77.75
336.825	99.75
337.053	81.75
337.281	88.75
337.51	89.75
337.738	90.75
337.966	92.75
338.194	80.75
338.422	89.75
338.65	80.75
338.878	90.75
339.106	91.75
339.334	91.75
339.562	81.75
339.79	87.75
340.018	79.75
340.246	86.75
340.474	97.75
340.702	100.75
340.93	91.75
341.158	93.75
341.386	79.75
341.614	95.75
341.842	104.75
342.07	93.75
342.298	82.75
342.526	79.75
342.754	88.75
342.981	89.75
343.209	87.75
343.437	91.75
343.665	80.75
343.893	99.75
344.12	87.75
344.348	95.75
344.576	95.75
344.804	103.75
345.031	101.75
345.259	112.75
345.487	92.75
345.714	100.75
345.942	84.75
346.17	89.75
346.397	80.75
346.625	95.75
346.853	84.75
347.08	81.75
347.308	83.75
347.535	85.75
347.763	93.75
347.99	92.75
348.218	92.75
348.445	93.75
348.673	94.75
348.9	105.75
349.128	99.75
349.355	91.75
349.583	78.75
349.81	100.75
350.037	103.75
350.265	89.75
350.492	88.75
350.72	90.75
350.947	81.75
351.174	81.75
351.402	76.75
351.629	88.75
351.856	84.75
352.083	87.75
352.311	101.75
352.538	89.75
352.765	83.75
352.992	94.75
353.22	87.75
353.447	83.75
353.674	85.75
353.901	88.75
354.128	96.75
354.355	87.75
354.583	95.75
354.81	92.75
355.037	104.75
355.264	96.75
355.491	79.75
355.718	92.75
355.945	89.75
356.172	103.75
356.399	79.75
356.626	86.75
356.853	96.75
357.08	83.75
357.307	90.75
357.534	88.75
357.761	92.75
357.988	97.75
358.215	89.75
358.441	89.75
358.668	86.75
358.895	78.75
359.122	90.75
359.349	99.75
359.576	81.75
359.802	80.75
360.029	78.75
360.256	89.75
360.483	104.75
360.709	97.75
360.936	87.75
361.163	83.75
361.39	77.75
361.616	71.75
361.843	98.75
362.07	79.75
362.296	93.75
362.523	88.75
362.749	93.75
362.976	81.75
363.203	90.75
363.429	92.75
363.656	96.75
363.882	84.75
364.109	89.75
364.335	73.75
364.562	83.75
364.788	92.75
365.015	86.75
365.241	94.75
365.468	105.75
365.694	93.75
365.92	88.75
366.147	83.75
366.373	76.75
366.599	92.75
366.826	85.75
367.052	76.75
367.278	91.75
367.505	91.75
367.731	103.75
367.957	81.75
368.184	90.75
368.41	98.75
368.636	92.75
368.862	79.75
369.089	88.75
369.315	82.75
369.541	82.75
369.767	92.75
369.993	77.75
370.219	68.75
370.445	85.75
370.672	95.75
370.898	83.75
371.124	88.75
371.35	82.75
371.576	88.75
371.802	91.75
372.028	96.75
372.254	96.75
372.48	81.75
372.706	77.75
372.932	88.75
373.158	83.75
373.384	85.75
373.61	95.75
373.835	93.75
374.061	86.75
374.287	92.75
374.513	91.75
374.739	99.75
374.965	89.75
375.191	82.75
375.416	91.75
375.642	96.75
375.868	99.75
376.094	80.75
376.319	95.75
376.545	90.75
376.771	68.75
376.997	84.75
377.222	83.75
377.448	87.75
377.674	103.75
377.899	74.75
378.125	87.75
378.35	101.75
378.576	83.75
378.802	85.75
379.027	101.75
379.253	90.75
379.478	89.75
379.704	97.75
379.929	86.75
380.155	85.75
380.38	79.75
380.606	91.75
380.831	80.75
381.057	94.75
381.282	86.75
381.507	91.75
381.733	92.75
381.958	102.75
382.184	93.75
382.409	94.75
382.634	96.75
382.86	84.75
383.085	84.75
383.31	96.75
383.535	79.75
383.761	85.75
383.986	89.75
384.211	84.75
384.436	99.75
384.662	81.75
384.887	75.75
385.112	92.75
385.337	89.75
385.562	90.75
385.787	99.75
386.013	87.75
386.238	106.75
386.463	86.75
386.688	105.75
386.913	109.75
387.138	90.75
387.363	82.75
387.588	90.75
387.813	85.75
388.038	78.75
388.263	95.75
388.488	80.75
388.713	79.75
388.938	77.75
389.163	81.75
389.387	86.75
389.612	88.75
389.837	80.75
390.062	88.75
390.287	82.75
390.512	94.75
390.736	88.75
390.961	79.75
391.186	91.75
391.411	81.75
391.636	75.75
391.86	101.75
392.085	87.75
392.31	88.75
392.534	90.75
392.759	94.75
392.984	80.75
393.208	93.75
393.433	103.75
393.658	95.75
393.882	73.75
394.107	73.75
394.331	94.75
394.556	84.75
394.78	91.75
395.005	86.75
395.229	91.75
395.454	92.75
395.678	92.75
395.903	78.75
396.127	96.75
396.352	101.75
396.576	90.75
396.801	77.75
397.025	90.75
397.249	81.75
397.474	85.75
397.698	81.75
397.922	94.75
398.147	94.75
398.371	84.75
398.595	82.75
398.82	79.75
399.044	89.75
399.268	94.75
399.492	90.75
399.717	94.75
399.941	102.75
400.165	91.75
400.389	94.75
400.613	95.75
400.837	88.75
401.062	97.75
401.286	92.75
401.51	103.75
401.734	103.75
401.958	85.75
402.182	94.75
402.406	102.75
402.63	99.75
402.854	82.75
403.078	97.75
403.302	93.75
403.526	95.75
403.75	105.75
403.974	115.75
404.198	149.75
404.422	207.75
404.645	248.75
404.869	215.75
405.093	149.75
405.317	114.75
405.541	101.75
405.765	87.75
405.988	86.75
406.212	89.75
406.436	93.75
406.66	92.75
406.883	82.75
407.107	105.75
407.331	89.75
407.555	87.75
407.778	94.75
408.002	84.75
408.226	89.75
408.449	83.75
408.673	91.75
408.896	97.75
409.12	83.75
409.344	85.75
409.567	78.75
409.791	73.75
410.014	83.75
410.238	100.75
410.461	87.75
410.685	91.75
410.908	74.75
411.132	91.75
411.355	76.75
411.578	101.75
411.802	86.75
412.025	90.75
412.249	96.75
412.472	102.75
412.695	85.75
412.919	79.75
413.142	81.75
413.365	86.75
413.589	81.75
413.812	82.75
414.035	99.75
414.258	84.75
414.482	73.75
414.705	101.75
414.928	80.75
415.151	100.75
415.374	76.75
415.597	81.75
415.821	83.75
416.044	84.75
416.267	85.75
416.49	85.75
416.713	88.75
416.936	85.75
417.159	91.75
417.382	73.75
417.605	88.75
417.828	90.75
418.051	95.75
418.274	90.75
418.497	84.75
418.72	69.75
418.943	92.75
419.166	103.75
419.389	73.75
419.611	96.75
419.834	94.75
420.057	92.75
420.28	103.75
420.503	96.75
420.726	79.75
420.948	84.75
421.171	83.75
421.394	89.75
421.617	84.75
421.839	79.75
422.062	91.75
422.285	91.75
422.507	101.75
422.73	92.75
422.953	93.75
423.175	79.75
423.398	82.75
423.621	90.75
423.843	91.75
424.066	83.75
424.288	105.75
424.511	88.75
424.733	86.75
424.956	73.75
425.178	86.75
425.401	92.75
425.623	89.75
425.846	93.75
426.068	80.75
426.291	99.75
426.513	90.75
426.735	84.75
426.958	95.75
427.18	101.75
427.402	91.75
427.625	85.75
427.847	82.75
428.069	77.75
428.292	90.75
428.514	84.75
428.736	86.75
428.958	86.75
429.181	87.75
429.403	103.75
429.625	85.75
429.847	81.75
430.069	88.75
430.292	84.75
430.514	85.75
430.736	105.75
430.958	84.75
431.18	98.75
431.402	93.75
431.624	91.75
431.846	100.75
432.068	82.75
432.29	95.75
432.512	87.75
432.734	91.75
432.956	84.75
433.178	96.75
433.4	93.75
433.622	96.75
433.844	72.75
434.066	79.75
434.287	80.75
434.509	75.75
434.731	99.75
434.953	88.75
435.175	93.75
435.397	92.75
435.618	94.75
435.84	100.75
436.062	97.75
436.284	100.75
436.505	96.75
436.727	94.75
436.949	80.75
437.17	81.75
437.392	101.75
437.614	87.75
437.835	77.75
438.057	77.75
438.278	87.75
438.5	95.75
438.721	85.75
438.943	100.75
439.165	91.75
439.386	80.75
439.608	88.75
439.829	94.75
440.05	89.75
440.272	96.75
440.493	91.75
440.715	82.75
440.936	97.75
441.158	94.75
441.379	96.75
441.6	104.75
441.822	93.75
442.043	77.75
442.264	94.75
442.486	90.75
442.707	92.75
442.928	87.75
443.149	84.75
443.371	93.75
443.592	87.75
443.813	100.75
444.034	93.75
444.255	93.75
444.476	78.75
444.698	83.75
444.919	88.75
445.14	143.75
445.361	115.75
445.582	99.75
445.803	105.75
446.024	89.75
446.245	94.75
446.466	84.75
446.687	87.75
446.908	74.75
447.129	83.75
447.35	77.75
447.571	104.75
447.792	86.75
448.013	83.75
448.234	90.75
448.455	87.75
448.675	87.75
448.896	83.75
449.117	85.75
449.338	83.75
449.559	91.75
449.779	89.75
450	84.75
450.221	93.75
450.442	97.75
450.662	90.75
450.883	84.75
451.104	95.75
451.324	109.75
451.545	110.75
451.766	102.75
451.986	94.75
452.207	93.75
452.428	84.75
452.648	96.75
452.869	94.75
453.089	99.75
453.31	83.75
453.53	80.75
453.751	87.75
453.971	87.75
454.192	78.75
454.412	87.75
454.633	101.75
454.853	89.75
455.073	92.75
455.294	90.75
455.514	91.75
455.734	91.75
455.955	86.75
456.175	77.75
456.395	71.75
456.616	88.75
456.836	84.75
457.056	89.75
457.276	84.75
457.497	70.75
457.717	62.75
457.937	89.75
458.157	86.75
458.377	82.75
458.598	84.75
458.818	79.75
459.038	83.75
459.258	74.75
459.478	94.75
459.698	88.75
459.918	104.75
460.138	73.75
460.358	75.75
460.578	101.75
460.798	97.75
461.018	93.75
461.238	83.75
461.458	86.75
461.678	98.75
461.898	82.75
462.118	93.75
462.338	85.75
462.558	92.75
462.777	87.75
462.997	88.75
463.217	89.75
463.437	96.75
463.657	87.75
463.876	79.75
464.096	89.75
464.316	95.75
464.536	74.75
464.755	86.75
464.975	87.75
465.195	96.75
465.414	89.75
465.634	93.75
465.854	102.75
466.073	101.75
466.293	84.75
466.512	98.75
466.732	87.75
466.951	77.75
467.171	87.75
467.391	85.75
467.61	97.75
467.829	88.75
468.049	87.75
468.268	92.75
468.488	102.75
468.707	94.75
468.927	87.75
469.146	83.75
469.365	78.75
469.585	105.75
469.804	86.75
470.023	84.75
470.243	89.75
470.462	91.75
470.681	96.75
470.901	105.75
471.12	99.75
471.339	80.75
471.558	94.75
471.777	87.75
471.997	91.75
472.216	83.75
472.435	91.75
472.654	90.75
472.873	87.75
473.092	93.75
473.311	99.75
473.53	98.75
473.749	91.75
473.968	109.75
474.187	100.75
474.406	91.75
474.625	89.75
474.844	88.75
475.063	93.75
475.282	93.75
475.501	96.75
475.72	103.75
475.939	96.75
476.158	95.75
476.377	87.75
476.596	93.75
476.814	92.75
477.033	101.75
477.252	96.75
477.471	91.75
477.69	97.75
477.908	86.75
478.127	85.75
478.346	97.75
478.564	97.75
478.783	92.75
479.002	84.75
479.22	79.75
479.439	98.75
479.658	100.75
479.876	91.75
480.095	79.75
480.313	100.75
480.532	85.75
480.751	92.75
480.969	82.75
481.188	99.75
481.406	102.75
481.624	98.75
481.843	89.75
482.061	83.75
482.28	94.75
482.498	95.75
482.717	87.75
482.935	82.75
483.153	100.75
483.372	93.75
483.59	94.75
483.808	93.75
484.027	94.75
484.245	91.75
484.463	86.75
484.681	111.75
484.9	90.75
485.118	71.75
485.336	103.75
485.554	92.75
485.772	73.75
485.99	97.75
486.209	96.75
486.427	89.75
486.645	103.75
486.863	90.75
487.081	90.75
487.299	102.75
487.517	92.75
487.735	85.75
487.953	100.75
488.171	94.75
488.389	82.75
488.607	101.75
488.825	88.75
489.043	90.75
489.261	105.75
489.479	99.75
489.696	94.75
489.914	94.75
490.132	105.75
490.35	101.75
490.568	95.75
490.786	93.75
491.003	90.75
491.221	101.75
491.439	104.75
491.657	93.75
491.874	98.75
492.092	95.75
492.31	106.75
492.527	94.75
492.745	88.75
492.963	94.75
493.18	91.75
493.398	105.75
493.615	101.75
493.833	97.75
494.05	99.75
494.268	101.75
494.485	94.75
494.703	103.75
494.92	113.75
495.138	102.75
495.355	106.75
495.573	103.75
495.79	112.75
496.008	96.75
496.225	93.75
496.442	103.75
496.66	103.75
496.877	92.75
497.094	108.75
497.312	88.75
497.529	101.75
497.746	101.75
497.963	101.75
498.181	95.75
498.398	75.75
498.615	100.75
498.832	98.75
499.049	98.75
499.267	107.75
499.484	99.75
499.701	77.75
499.918	102.75
500.135	92.75
500.352	101.75
500.569	108.75
500.786	96.75
501.003	87.75
501.22	107.75
501.437	101.75
501.654	102.75
501.871	92.75
502.088	90.75
502.305	99.75
502.522	97.75
502.739	98.75
502.956	88.75
503.172	110.75
503.389	96.75
503.606	96.75
503.823	101.75
504.04	113.75
504.256	96.75
504.473	105.75
504.69	90.75
504.907	92.75
505.123	89.75
505.34	93.75
505.557	109.75
505.773	86.75
505.99	92.75
506.207	102.75
506.423	101.75
506.64	100.75
506.856	99.75
507.073	71.75
507.289	89.75
507.506	95.75
507.722	95.75
507.939	93.75
508.155	103.75
508.372	95.75
508.588	104.75
508.805	100.75
509.021	100.75
509.238	104.75
509.454	96.75
509.67	86.75
509.887	89.75
510.103	96.75
510.319	89.75
510.536	105.75
510.752	106.75
510.968	99.75
511.184	77.75
511.401	95.75
511.617	87.75
511.833	95.75
512.049	107.75
512.265	95.75
512.481	100.75
512.698	94.75
512.914	110.75
513.13	92.75
513.346	85.75
513.562	99.75
513.778	100.75
513.994	109.75
514.21	98.75
514.426	108.75
514.642	107.75
514.858	92.75
515.074	101.75
515.29	105.75
515.506	95.75
515.721	88.75
515.937	86.75
516.153	85.75
516.369	79.75
516.585	101.75
516.801	87.75
517.016	91.75
517.232	88.75
517.448	87.75
517.664	94.75
517.879	93.75
