Data from KBrHeat1_HRD10591_00019.txt Node
Date: Fri Dec 27 14:51:38 EST 2024
User: Yrep
Spectrometer: HR+D1059
Trigger mode: 1
Integration Time (sec): 1.000000E-1
Scans to average: 1
Electric dark correction enabled: true
Nonlinearity correction enabled: false
Boxcar width: 0
XAxis mode: Wavelengths
Number of Pixels in Spectrum: 2048
>>>>>Begin Spectral Data<<<<<
223.165	-0.25
223.4	-0.25
223.635	-0.25
223.869	-33.25
224.104	-24.25
224.338	-15.25
224.573	-15.25
224.808	-14.25
225.042	-7.25
225.277	-2.25
225.511	8.75
225.746	1.75
225.98	9.75
226.215	6.75
226.449	5.75
226.683	21.75
226.918	19.75
227.152	37.75
227.387	42.75
227.621	17.75
227.856	45.75
228.09	51.75
228.324	52.75
228.559	60.75
228.793	55.75
229.027	55.75
229.262	60.75
229.496	58.75
229.73	66.75
229.964	58.75
230.199	69.75
230.433	69.75
230.667	77.75
230.901	64.75
231.136	81.75
231.37	87.75
231.604	66.75
231.838	77.75
232.072	74.75
232.306	77.75
232.541	85.75
232.775	75.75
233.009	79.75
233.243	74.75
233.477	79.75
233.711	79.75
233.945	70.75
234.179	86.75
234.413	79.75
234.647	79.75
234.881	81.75
235.115	81.75
235.349	70.75
235.583	67.75
235.817	77.75
236.051	79.75
236.285	63.75
236.519	70.75
236.753	73.75
236.987	80.75
237.221	82.75
237.455	93.75
237.689	81.75
237.922	80.75
238.156	78.75
238.39	77.75
238.624	79.75
238.858	70.75
239.091	66.75
239.325	84.75
239.559	77.75
239.793	73.75
240.027	82.75
240.26	74.75
240.494	68.75
240.728	71.75
240.961	66.75
241.195	80.75
241.429	88.75
241.662	69.75
241.896	65.75
242.13	73.75
242.363	81.75
242.597	65.75
242.83	86.75
243.064	71.75
243.298	78.75
243.531	69.75
243.765	69.75
243.998	66.75
244.232	72.75
244.465	77.75
244.699	89.75
244.932	76.75
245.166	79.75
245.399	79.75
245.633	78.75
245.866	80.75
246.099	72.75
246.333	72.75
246.566	79.75
246.8	78.75
247.033	75.75
247.266	74.75
247.5	80.75
247.733	74.75
247.966	66.75
248.2	72.75
248.433	68.75
248.666	65.75
248.899	81.75
249.133	79.75
249.366	92.75
249.599	68.75
249.832	79.75
250.066	83.75
250.299	86.75
250.532	78.75
250.765	85.75
250.998	92.75
251.231	79.75
251.465	74.75
251.698	88.75
251.931	58.75
252.164	89.75
252.397	80.75
252.63	86.75
252.863	82.75
253.096	72.75
253.329	80.75
253.562	81.75
253.795	78.75
254.028	67.75
254.261	67.75
254.494	73.75
254.727	79.75
254.96	83.75
255.193	83.75
255.426	69.75
255.659	68.75
255.892	81.75
256.124	81.75
256.357	84.75
256.59	86.75
256.823	84.75
257.056	82.75
257.289	67.75
257.521	81.75
257.754	79.75
257.987	71.75
258.22	70.75
258.452	79.75
258.685	72.75
258.918	65.75
259.151	67.75
259.383	87.75
259.616	82.75
259.849	79.75
260.081	87.75
260.314	73.75
260.547	80.75
260.779	72.75
261.012	81.75
261.244	62.75
261.477	82.75
261.71	61.75
261.942	76.75
262.175	81.75
262.407	72.75
262.64	69.75
262.872	68.75
263.105	84.75
263.337	82.75
263.57	70.75
263.802	74.75
264.035	78.75
264.267	85.75
264.499	79.75
264.732	90.75
264.964	67.75
265.197	82.75
265.429	82.75
265.661	88.75
265.894	87.75
266.126	71.75
266.358	85.75
266.591	85.75
266.823	77.75
267.055	69.75
267.287	85.75
267.52	77.75
267.752	94.75
267.984	75.75
268.216	73.75
268.448	84.75
268.681	74.75
268.913	80.75
269.145	80.75
269.377	70.75
269.609	82.75
269.841	86.75
270.073	73.75
270.306	69.75
270.538	74.75
270.77	81.75
271.002	77.75
271.234	73.75
271.466	69.75
271.698	66.75
271.93	88.75
272.162	84.75
272.394	94.75
272.626	85.75
272.858	76.75
273.09	86.75
273.322	79.75
273.553	78.75
273.785	83.75
274.017	93.75
274.249	77.75
274.481	76.75
274.713	78.75
274.945	69.75
275.176	86.75
275.408	81.75
275.64	86.75
275.872	81.75
276.104	70.75
276.335	83.75
276.567	90.75
276.799	92.75
277.031	80.75
277.262	69.75
277.494	82.75
277.726	79.75
277.957	90.75
278.189	81.75
278.421	79.75
278.652	78.75
278.884	80.75
279.115	92.75
279.347	74.75
279.579	91.75
279.81	92.75
280.042	89.75
280.273	68.75
280.505	77.75
280.736	79.75
280.968	86.75
281.199	71.75
281.431	77.75
281.662	73.75
281.894	81.75
282.125	84.75
282.356	78.75
282.588	85.75
282.819	81.75
283.051	86.75
283.282	79.75
283.513	82.75
283.745	67.75
283.976	77.75
284.207	88.75
284.439	80.75
284.67	81.75
284.901	77.75
285.132	77.75
285.364	93.75
285.595	86.75
285.826	92.75
286.057	94.75
286.288	86.75
286.52	71.75
286.751	79.75
286.982	81.75
287.213	73.75
287.444	88.75
287.675	86.75
287.906	85.75
288.138	84.75
288.369	83.75
288.6	80.75
288.831	77.75
289.062	84.75
289.293	81.75
289.524	79.75
289.755	67.75
289.986	90.75
290.217	102.75
290.448	91.75
290.679	78.75
290.91	88.75
291.141	96.75
291.371	74.75
291.602	101.75
291.833	92.75
292.064	70.75
292.295	84.75
292.526	78.75
292.757	88.75
292.987	83.75
293.218	93.75
293.449	88.75
293.68	81.75
293.91	76.75
294.141	79.75
294.372	75.75
294.603	80.75
294.833	73.75
295.064	80.75
295.295	79.75
295.525	80.75
295.756	72.75
295.987	77.75
296.217	88.75
296.448	76.75
296.679	75.75
296.909	76.75
297.14	91.75
297.37	76.75
297.601	85.75
297.831	78.75
298.062	73.75
298.292	74.75
298.523	98.75
298.753	75.75
298.984	100.75
299.214	88.75
299.445	87.75
299.675	99.75
299.905	84.75
300.136	83.75
300.366	71.75
300.597	78.75
300.827	88.75
301.057	94.75
301.288	87.75
301.518	70.75
301.748	90.75
301.979	100.75
302.209	76.75
302.439	90.75
302.669	79.75
302.9	66.75
303.13	96.75
303.36	75.75
303.59	78.75
303.82	76.75
304.051	80.75
304.281	87.75
304.511	93.75
304.741	90.75
304.971	80.75
305.201	76.75
305.431	72.75
305.661	87.75
305.891	90.75
306.121	96.75
306.352	77.75
306.582	76.75
306.812	72.75
307.042	83.75
307.272	72.75
307.502	84.75
307.731	100.75
307.961	85.75
308.191	95.75
308.421	94.75
308.651	95.75
308.881	78.75
309.111	61.75
309.341	68.75
309.571	76.75
309.8	80.75
310.03	85.75
310.26	88.75
310.49	73.75
310.72	89.75
310.949	67.75
311.179	86.75
311.409	95.75
311.639	66.75
311.868	88.75
312.098	74.75
312.328	82.75
312.557	95.75
312.787	78.75
313.017	82.75
313.246	82.75
313.476	80.75
313.706	79.75
313.935	62.75
314.165	81.75
314.394	87.75
314.624	82.75
314.853	86.75
315.083	89.75
315.312	88.75
315.542	91.75
315.771	81.75
316.001	85.75
316.23	83.75
316.46	90.75
316.689	71.75
316.919	84.75
317.148	84.75
317.377	88.75
317.607	81.75
317.836	82.75
318.065	77.75
318.295	86.75
318.524	93.75
318.753	73.75
318.983	89.75
319.212	85.75
319.441	89.75
319.67	77.75
319.9	89.75
320.129	79.75
320.358	87.75
320.587	81.75
320.816	87.75
321.046	79.75
321.275	92.75
321.504	78.75
321.733	82.75
321.962	96.75
322.191	71.75
322.42	75.75
322.649	92.75
322.878	78.75
323.108	90.75
323.337	88.75
323.566	85.75
323.795	91.75
324.024	85.75
324.253	94.75
324.482	75.75
324.71	81.75
324.939	92.75
325.168	74.75
325.397	87.75
325.626	78.75
325.855	80.75
326.084	90.75
326.313	96.75
326.542	79.75
326.77	77.75
326.999	85.75
327.228	81.75
327.457	87.75
327.686	101.75
327.914	79.75
328.143	87.75
328.372	71.75
328.6	85.75
328.829	81.75
329.058	76.75
329.287	90.75
329.515	87.75
329.744	83.75
329.972	94.75
330.201	89.75
330.43	98.75
330.658	80.75
330.887	87.75
331.115	92.75
331.344	72.75
331.572	82.75
331.801	92.75
332.03	92.75
332.258	67.75
332.486	64.75
332.715	86.75
332.943	99.75
333.172	83.75
333.4	88.75
333.629	80.75
333.857	83.75
334.085	82.75
334.314	69.75
334.542	99.75
334.771	82.75
334.999	81.75
335.227	89.75
335.455	73.75
335.684	92.75
335.912	81.75
336.14	97.75
336.369	87.75
336.597	86.75
336.825	79.75
337.053	76.75
337.281	89.75
337.51	76.75
337.738	90.75
337.966	70.75
338.194	72.75
338.422	87.75
338.65	93.75
338.878	77.75
339.106	78.75
339.334	89.75
339.562	82.75
339.79	95.75
340.018	75.75
340.246	76.75
340.474	89.75
340.702	87.75
340.93	81.75
341.158	80.75
341.386	82.75
341.614	79.75
341.842	104.75
342.07	84.75
342.298	69.75
342.526	64.75
342.754	101.75
342.981	87.75
343.209	69.75
343.437	101.75
343.665	73.75
343.893	86.75
344.12	84.75
344.348	94.75
344.576	100.75
344.804	94.75
345.031	83.75
345.259	87.75
345.487	82.75
345.714	80.75
345.942	98.75
346.17	71.75
346.397	83.75
346.625	96.75
346.853	79.75
347.08	83.75
347.308	73.75
347.535	77.75
347.763	65.75
347.99	87.75
348.218	94.75
348.445	73.75
348.673	92.75
348.9	92.75
349.128	84.75
349.355	76.75
349.583	84.75
349.81	93.75
350.037	82.75
350.265	76.75
350.492	70.75
350.72	83.75
350.947	81.75
351.174	88.75
351.402	73.75
351.629	87.75
351.856	81.75
352.083	70.75
352.311	77.75
352.538	81.75
352.765	71.75
352.992	93.75
353.22	93.75
353.447	76.75
353.674	83.75
353.901	85.75
354.128	82.75
354.355	86.75
354.583	94.75
354.81	81.75
355.037	92.75
355.264	83.75
355.491	79.75
355.718	77.75
355.945	82.75
356.172	78.75
356.399	83.75
356.626	88.75
356.853	73.75
357.08	72.75
357.307	77.75
357.534	85.75
357.761	96.75
357.988	86.75
358.215	96.75
358.441	86.75
358.668	80.75
358.895	79.75
359.122	100.75
359.349	80.75
359.576	76.75
359.802	94.75
360.029	82.75
360.256	83.75
360.483	82.75
360.709	75.75
360.936	100.75
361.163	86.75
361.39	79.75
361.616	88.75
361.843	90.75
362.07	78.75
362.296	85.75
362.523	92.75
362.749	91.75
362.976	93.75
363.203	93.75
363.429	82.75
363.656	92.75
363.882	83.75
364.109	87.75
364.335	82.75
364.562	80.75
364.788	67.75
365.015	83.75
365.241	87.75
365.468	64.75
365.694	81.75
365.92	85.75
366.147	81.75
366.373	66.75
366.599	71.75
366.826	74.75
367.052	73.75
367.278	95.75
367.505	80.75
367.731	83.75
367.957	98.75
368.184	76.75
368.41	77.75
368.636	84.75
368.862	90.75
369.089	75.75
369.315	82.75
369.541	88.75
369.767	76.75
369.993	86.75
370.219	70.75
370.445	80.75
370.672	76.75
370.898	80.75
371.124	83.75
371.35	82.75
371.576	72.75
371.802	82.75
372.028	77.75
372.254	84.75
372.48	88.75
372.706	82.75
372.932	86.75
373.158	87.75
373.384	83.75
373.61	80.75
373.835	85.75
374.061	90.75
374.287	87.75
374.513	85.75
374.739	75.75
374.965	92.75
375.191	87.75
375.416	78.75
375.642	73.75
375.868	82.75
376.094	79.75
376.319	84.75
376.545	82.75
376.771	85.75
376.997	87.75
377.222	85.75
377.448	76.75
377.674	78.75
377.899	79.75
378.125	86.75
378.35	80.75
378.576	72.75
378.802	75.75
379.027	67.75
379.253	88.75
379.478	85.75
379.704	85.75
379.929	80.75
380.155	72.75
380.38	97.75
380.606	79.75
380.831	92.75
381.057	92.75
381.282	87.75
381.507	102.75
381.733	86.75
381.958	81.75
382.184	78.75
382.409	89.75
382.634	82.75
382.86	71.75
383.085	70.75
383.31	79.75
383.535	85.75
383.761	85.75
383.986	78.75
384.211	81.75
384.436	78.75
384.662	81.75
384.887	92.75
385.112	76.75
385.337	88.75
385.562	81.75
385.787	65.75
386.013	90.75
386.238	82.75
386.463	77.75
386.688	94.75
386.913	72.75
387.138	95.75
387.363	64.75
387.588	86.75
387.813	86.75
388.038	71.75
388.263	100.75
388.488	89.75
388.713	88.75
388.938	82.75
389.163	72.75
389.387	75.75
389.612	76.75
389.837	83.75
390.062	91.75
390.287	92.75
390.512	77.75
390.736	76.75
390.961	73.75
391.186	79.75
391.411	73.75
391.636	82.75
391.86	96.75
392.085	95.75
392.31	92.75
392.534	81.75
392.759	78.75
392.984	78.75
393.208	62.75
393.433	95.75
393.658	74.75
393.882	90.75
394.107	80.75
394.331	64.75
394.556	76.75
394.78	88.75
395.005	91.75
395.229	93.75
395.454	90.75
395.678	73.75
395.903	65.75
396.127	100.75
396.352	96.75
396.576	83.75
396.801	82.75
397.025	89.75
397.249	93.75
397.474	101.75
397.698	88.75
397.922	86.75
398.147	85.75
398.371	80.75
398.595	91.75
398.82	76.75
399.044	81.75
399.268	84.75
399.492	70.75
399.717	86.75
399.941	86.75
400.165	83.75
400.389	89.75
400.613	90.75
400.837	88.75
401.062	90.75
401.286	87.75
401.51	89.75
401.734	94.75
401.958	88.75
402.182	93.75
402.406	73.75
402.63	76.75
402.854	84.75
403.078	85.75
403.302	65.75
403.526	96.75
403.75	86.75
403.974	89.75
404.198	148.75
404.422	170.75
404.645	197.75
404.869	165.75
405.093	112.75
405.317	109.75
405.541	90.75
405.765	101.75
405.988	84.75
406.212	62.75
406.436	88.75
406.66	83.75
406.883	77.75
407.107	87.75
407.331	83.75
407.555	87.75
407.778	88.75
408.002	84.75
408.226	73.75
408.449	84.75
408.673	77.75
408.896	80.75
409.12	85.75
409.344	84.75
409.567	102.75
409.791	78.75
410.014	76.75
410.238	75.75
410.461	82.75
410.685	75.75
410.908	88.75
411.132	84.75
411.355	88.75
411.578	90.75
411.802	92.75
412.025	84.75
412.249	80.75
412.472	92.75
412.695	79.75
412.919	74.75
413.142	73.75
413.365	76.75
413.589	86.75
413.812	69.75
414.035	96.75
414.258	86.75
414.482	93.75
414.705	69.75
414.928	78.75
415.151	75.75
415.374	77.75
415.597	90.75
415.821	86.75
416.044	81.75
416.267	85.75
416.49	80.75
416.713	70.75
416.936	71.75
417.159	83.75
417.382	81.75
417.605	82.75
417.828	86.75
418.051	76.75
418.274	84.75
418.497	87.75
418.72	81.75
418.943	88.75
419.166	80.75
419.389	75.75
419.611	84.75
419.834	82.75
420.057	96.75
420.28	81.75
420.503	74.75
420.726	77.75
420.948	75.75
421.171	77.75
421.394	82.75
421.617	83.75
421.839	82.75
422.062	84.75
422.285	92.75
422.507	84.75
422.73	103.75
422.953	87.75
423.175	77.75
423.398	94.75
423.621	88.75
423.843	70.75
424.066	94.75
424.288	81.75
424.511	83.75
424.733	94.75
424.956	82.75
425.178	83.75
425.401	83.75
425.623	79.75
425.846	84.75
426.068	80.75
426.291	75.75
426.513	84.75
426.735	83.75
426.958	78.75
427.18	79.75
427.402	76.75
427.625	72.75
427.847	89.75
428.069	74.75
428.292	95.75
428.514	92.75
428.736	92.75
428.958	95.75
429.181	85.75
429.403	85.75
429.625	73.75
429.847	89.75
430.069	75.75
430.292	89.75
430.514	87.75
430.736	88.75
430.958	91.75
431.18	84.75
431.402	80.75
431.624	76.75
431.846	72.75
432.068	73.75
432.29	94.75
432.512	80.75
432.734	85.75
432.956	86.75
433.178	90.75
433.4	84.75
433.622	81.75
433.844	82.75
434.066	78.75
434.287	88.75
434.509	86.75
434.731	78.75
434.953	70.75
435.175	92.75
435.397	67.75
435.618	74.75
435.84	79.75
436.062	80.75
436.284	93.75
436.505	77.75
436.727	84.75
436.949	76.75
437.17	94.75
437.392	70.75
437.614	75.75
437.835	81.75
438.057	84.75
438.278	80.75
438.5	85.75
438.721	88.75
438.943	80.75
439.165	90.75
439.386	77.75
439.608	115.75
439.829	83.75
440.05	82.75
440.272	80.75
440.493	95.75
440.715	90.75
440.936	84.75
441.158	89.75
441.379	74.75
441.6	87.75
441.822	66.75
442.043	88.75
442.264	80.75
442.486	86.75
442.707	73.75
442.928	80.75
443.149	90.75
443.371	73.75
443.592	76.75
443.813	71.75
444.034	77.75
444.255	87.75
444.476	77.75
444.698	94.75
444.919	84.75
445.14	130.75
445.361	104.75
445.582	85.75
445.803	76.75
446.024	78.75
446.245	79.75
446.466	90.75
446.687	92.75
446.908	71.75
447.129	79.75
447.35	82.75
447.571	73.75
447.792	82.75
448.013	86.75
448.234	84.75
448.455	78.75
448.675	93.75
448.896	96.75
449.117	78.75
449.338	84.75
449.559	82.75
449.779	89.75
450	93.75
450.221	89.75
450.442	75.75
450.662	85.75
450.883	82.75
451.104	76.75
451.324	80.75
451.545	78.75
451.766	86.75
451.986	97.75
452.207	82.75
452.428	88.75
452.648	83.75
452.869	87.75
453.089	88.75
453.31	76.75
453.53	86.75
453.751	96.75
453.971	91.75
454.192	88.75
454.412	78.75
454.633	73.75
454.853	90.75
455.073	73.75
455.294	62.75
455.514	78.75
455.734	77.75
455.955	65.75
456.175	78.75
456.395	69.75
456.616	94.75
456.836	73.75
457.056	85.75
457.276	78.75
457.497	74.75
457.717	87.75
457.937	84.75
458.157	83.75
458.377	88.75
458.598	66.75
458.818	84.75
459.038	85.75
459.258	80.75
459.478	82.75
459.698	87.75
459.918	92.75
460.138	72.75
460.358	85.75
460.578	91.75
460.798	80.75
461.018	80.75
461.238	80.75
461.458	66.75
461.678	86.75
461.898	78.75
462.118	79.75
462.338	71.75
462.558	97.75
462.777	64.75
462.997	78.75
463.217	74.75
463.437	82.75
463.657	88.75
463.876	93.75
464.096	84.75
464.316	91.75
464.536	73.75
464.755	80.75
464.975	78.75
465.195	76.75
465.414	83.75
465.634	78.75
465.854	82.75
466.073	75.75
466.293	75.75
466.512	85.75
466.732	97.75
466.951	89.75
467.171	84.75
467.391	88.75
467.61	84.75
467.829	83.75
468.049	88.75
468.268	88.75
468.488	90.75
468.707	94.75
468.927	84.75
469.146	81.75
469.365	93.75
469.585	94.75
469.804	79.75
470.023	71.75
470.243	93.75
470.462	96.75
470.681	80.75
470.901	78.75
471.12	81.75
471.339	83.75
471.558	82.75
471.777	94.75
471.997	82.75
472.216	88.75
472.435	80.75
472.654	87.75
472.873	89.75
473.092	82.75
473.311	93.75
473.53	84.75
473.749	89.75
473.968	85.75
474.187	103.75
474.406	78.75
474.625	93.75
474.844	92.75
475.063	92.75
475.282	85.75
475.501	78.75
475.72	79.75
475.939	74.75
476.158	92.75
476.377	86.75
476.596	77.75
476.814	87.75
477.033	78.75
477.252	87.75
477.471	88.75
477.69	76.75
477.908	80.75
478.127	83.75
478.346	88.75
478.564	84.75
478.783	88.75
479.002	94.75
479.22	80.75
479.439	92.75
479.658	92.75
479.876	86.75
480.095	84.75
480.313	71.75
480.532	92.75
480.751	90.75
480.969	77.75
481.188	94.75
481.406	88.75
481.624	85.75
481.843	82.75
482.061	88.75
482.28	86.75
482.498	88.75
482.717	96.75
482.935	87.75
483.153	78.75
483.372	81.75
483.59	104.75
483.808	82.75
484.027	93.75
484.245	72.75
484.463	75.75
484.681	105.75
484.9	86.75
485.118	97.75
485.336	97.75
485.554	79.75
485.772	85.75
485.99	77.75
486.209	100.75
486.427	81.75
486.645	90.75
486.863	81.75
487.081	74.75
487.299	94.75
487.517	105.75
487.735	93.75
487.953	80.75
488.171	92.75
488.389	100.75
488.607	89.75
488.825	96.75
489.043	93.75
489.261	102.75
489.479	85.75
489.696	77.75
489.914	80.75
490.132	86.75
490.35	97.75
490.568	81.75
490.786	81.75
491.003	103.75
491.221	92.75
491.439	90.75
491.657	94.75
491.874	106.75
492.092	101.75
492.31	79.75
492.527	96.75
492.745	88.75
492.963	94.75
493.18	81.75
493.398	104.75
493.615	107.75
493.833	83.75
494.05	92.75
494.268	94.75
494.485	82.75
494.703	89.75
494.92	85.75
495.138	87.75
495.355	92.75
495.573	80.75
495.79	81.75
496.008	92.75
496.225	81.75
496.442	80.75
496.66	91.75
496.877	92.75
497.094	96.75
497.312	71.75
497.529	80.75
497.746	82.75
497.963	77.75
498.181	86.75
498.398	88.75
498.615	81.75
498.832	83.75
499.049	100.75
499.267	87.75
499.484	79.75
499.701	89.75
499.918	98.75
500.135	73.75
500.352	92.75
500.569	86.75
500.786	90.75
501.003	89.75
501.22	95.75
501.437	76.75
501.654	97.75
501.871	75.75
502.088	75.75
502.305	73.75
502.522	83.75
502.739	83.75
502.956	95.75
503.172	94.75
503.389	78.75
503.606	84.75
503.823	83.75
504.04	87.75
504.256	92.75
504.473	83.75
504.69	79.75
504.907	92.75
505.123	92.75
505.34	92.75
505.557	81.75
505.773	87.75
505.99	76.75
506.207	88.75
506.423	93.75
506.64	99.75
506.856	89.75
507.073	92.75
507.289	92.75
507.506	86.75
507.722	83.75
507.939	83.75
508.155	95.75
508.372	86.75
508.588	79.75
508.805	98.75
509.021	82.75
509.238	78.75
509.454	82.75
509.67	89.75
509.887	78.75
510.103	81.75
510.319	89.75
510.536	82.75
510.752	89.75
510.968	93.75
511.184	89.75
511.401	88.75
511.617	96.75
511.833	85.75
512.049	92.75
512.265	92.75
512.481	92.75
512.698	78.75
512.914	83.75
513.13	84.75
513.346	60.75
513.562	81.75
513.778	85.75
513.994	81.75
514.21	90.75
514.426	87.75
514.642	84.75
514.858	77.75
515.074	74.75
515.29	85.75
515.506	76.75
515.721	95.75
515.937	82.75
516.153	85.75
516.369	98.75
516.585	84.75
516.801	87.75
517.016	77.75
517.232	87.75
517.448	86.75
517.664	84.75
517.879	78.75
518.095	75.75
518.311	89.75
518.527	94.75
518.742	82.75
518.958	95.75
519.173	103.75
519.389	91.75
519.605	81.75
519.82	75.75
