Data from KBrHeat1_HRD10591_00020.txt Node
Date: Fri Dec 27 14:51:39 EST 2024
User: Yrep
Spectrometer: HR+D1059
Trigger mode: 1
Integration Time (sec): 1.000000E-1
Scans to average: 1
Electric dark correction enabled: true
Nonlinearity correction enabled: false
Boxcar width: 0
XAxis mode: Wavelengths
Number of Pixels in Spectrum: 2048
>>>>>Begin Spectral Data<<<<<
223.165	-27.31
223.4	-27.31
223.635	-27.31
223.869	-16.31
224.104	-15.31
224.338	-21.31
224.573	-4.31
224.808	0.69
225.042	-1.31
225.277	-3.31
225.511	-14.31
225.746	5.69
225.98	-2.31
226.215	7.69
226.449	7.69
226.683	16.69
226.918	25.69
227.152	41.69
227.387	40.69
227.621	41.69
227.856	40.69
228.09	47.69
228.324	51.69
228.559	59.69
228.793	54.69
229.027	58.69
229.262	57.69
229.496	66.69
229.73	79.69
229.964	69.69
230.199	63.69
230.433	76.69
230.667	84.69
230.901	72.69
231.136	73.69
231.37	90.69
231.604	85.69
231.838	90.69
232.072	76.69
232.306	84.69
232.541	79.69
232.775	87.69
233.009	80.69
233.243	69.69
233.477	88.69
233.711	69.69
233.945	81.69
234.179	79.69
234.413	75.69
234.647	90.69
234.881	76.69
235.115	77.69
235.349	84.69
235.583	79.69
235.817	72.69
236.051	71.69
236.285	73.69
236.519	77.69
236.753	75.69
236.987	76.69
237.221	83.69
237.455	80.69
237.689	84.69
237.922	79.69
238.156	89.69
238.39	80.69
238.624	73.69
238.858	86.69
239.091	65.69
239.325	80.69
239.559	74.69
239.793	80.69
240.027	78.69
240.26	67.69
240.494	86.69
240.728	60.69
240.961	69.69
241.195	80.69
241.429	87.69
241.662	73.69
241.896	72.69
242.13	65.69
242.363	65.69
242.597	84.69
242.83	60.69
243.064	76.69
243.298	87.69
243.531	77.69
243.765	80.69
243.998	79.69
244.232	76.69
244.465	80.69
244.699	78.69
244.932	76.69
245.166	68.69
245.399	70.69
245.633	78.69
245.866	81.69
246.099	84.69
246.333	76.69
246.566	77.69
246.8	62.69
247.033	79.69
247.266	87.69
247.5	79.69
247.733	79.69
247.966	78.69
248.2	88.69
248.433	86.69
248.666	76.69
248.899	92.69
249.133	69.69
249.366	81.69
249.599	76.69
249.832	82.69
250.066	77.69
250.299	80.69
250.532	75.69
250.765	77.69
250.998	67.69
251.231	92.69
251.465	79.69
251.698	86.69
251.931	87.69
252.164	64.69
252.397	78.69
252.63	88.69
252.863	66.69
253.096	80.69
253.329	81.69
253.562	67.69
253.795	83.69
254.028	93.69
254.261	85.69
254.494	72.69
254.727	88.69
254.96	68.69
255.193	66.69
255.426	83.69
255.659	73.69
255.892	79.69
256.124	79.69
256.357	92.69
256.59	79.69
256.823	64.69
257.056	81.69
257.289	76.69
257.521	91.69
257.754	79.69
257.987	76.69
258.22	85.69
258.452	87.69
258.685	75.69
258.918	73.69
259.151	90.69
259.383	83.69
259.616	87.69
259.849	79.69
260.081	69.69
260.314	75.69
260.547	82.69
260.779	81.69
261.012	89.69
261.244	84.69
261.477	93.69
261.71	72.69
261.942	63.69
262.175	61.69
262.407	77.69
262.64	81.69
262.872	82.69
263.105	88.69
263.337	68.69
263.57	73.69
263.802	62.69
264.035	77.69
264.267	87.69
264.499	93.69
264.732	80.69
264.964	96.69
265.197	82.69
265.429	82.69
265.661	88.69
265.894	75.69
266.126	87.69
266.358	84.69
266.591	79.69
266.823	91.69
267.055	70.69
267.287	85.69
267.52	73.69
267.752	68.69
267.984	88.69
268.216	89.69
268.448	90.69
268.681	74.69
268.913	97.69
269.145	83.69
269.377	85.69
269.609	86.69
269.841	66.69
270.073	88.69
270.306	88.69
270.538	93.69
270.77	66.69
271.002	70.69
271.234	96.69
271.466	91.69
271.698	92.69
271.93	74.69
272.162	90.69
272.394	89.69
272.626	86.69
272.858	89.69
273.09	85.69
273.322	79.69
273.553	86.69
273.785	83.69
274.017	79.69
274.249	84.69
274.481	74.69
274.713	73.69
274.945	86.69
275.176	81.69
275.408	79.69
275.64	92.69
275.872	83.69
276.104	97.69
276.335	87.69
276.567	80.69
276.799	92.69
277.031	92.69
277.262	93.69
277.494	93.69
277.726	80.69
277.957	78.69
278.189	87.69
278.421	77.69
278.652	93.69
278.884	76.69
279.115	84.69
279.347	87.69
279.579	86.69
279.81	75.69
280.042	89.69
280.273	87.69
280.505	81.69
280.736	85.69
280.968	92.69
281.199	76.69
281.431	88.69
281.662	88.69
281.894	89.69
282.125	90.69
282.356	85.69
282.588	82.69
282.819	84.69
283.051	87.69
283.282	81.69
283.513	91.69
283.745	82.69
283.976	89.69
284.207	79.69
284.439	92.69
284.67	72.69
284.901	87.69
285.132	85.69
285.364	84.69
285.595	87.69
285.826	86.69
286.057	94.69
286.288	73.69
286.52	88.69
286.751	78.69
286.982	99.69
287.213	78.69
287.444	90.69
287.675	87.69
287.906	83.69
288.138	83.69
288.369	102.69
288.6	87.69
288.831	84.69
289.062	87.69
289.293	84.69
289.524	87.69
289.755	92.69
289.986	85.69
290.217	100.69
290.448	80.69
290.679	87.69
290.91	100.69
291.141	85.69
291.371	80.69
291.602	88.69
291.833	83.69
292.064	77.69
292.295	88.69
292.526	104.69
292.757	77.69
292.987	81.69
293.218	83.69
293.449	80.69
293.68	88.69
293.91	93.69
294.141	86.69
294.372	101.69
294.603	74.69
294.833	85.69
295.064	71.69
295.295	87.69
295.525	81.69
295.756	90.69
295.987	89.69
296.217	90.69
296.448	74.69
296.679	75.69
296.909	83.69
297.14	79.69
297.37	92.69
297.601	78.69
297.831	85.69
298.062	88.69
298.292	92.69
298.523	77.69
298.753	89.69
298.984	74.69
299.214	98.69
299.445	79.69
299.675	83.69
299.905	86.69
300.136	79.69
300.366	64.69
300.597	91.69
300.827	89.69
301.057	80.69
301.288	67.69
301.518	79.69
301.748	102.69
301.979	108.69
302.209	82.69
302.439	79.69
302.669	77.69
302.9	85.69
303.13	84.69
303.36	99.69
303.59	90.69
303.82	85.69
304.051	83.69
304.281	86.69
304.511	86.69
304.741	88.69
304.971	77.69
305.201	86.69
305.431	77.69
305.661	76.69
305.891	90.69
306.121	77.69
306.352	93.69
306.582	79.69
306.812	84.69
307.042	86.69
307.272	95.69
307.502	98.69
307.731	83.69
307.961	93.69
308.191	89.69
308.421	100.69
308.651	77.69
308.881	86.69
309.111	85.69
309.341	95.69
309.571	103.69
309.8	98.69
310.03	96.69
310.26	86.69
310.49	83.69
310.72	84.69
310.949	76.69
311.179	99.69
311.409	83.69
311.639	83.69
311.868	81.69
312.098	84.69
312.328	74.69
312.557	80.69
312.787	83.69
313.017	92.69
313.246	88.69
313.476	89.69
313.706	89.69
313.935	73.69
314.165	85.69
314.394	76.69
314.624	85.69
314.853	93.69
315.083	80.69
315.312	88.69
315.542	85.69
315.771	84.69
316.001	84.69
316.23	90.69
316.46	93.69
316.689	89.69
316.919	84.69
317.148	93.69
317.377	84.69
317.607	86.69
317.836	91.69
318.065	90.69
318.295	87.69
318.524	80.69
318.753	89.69
318.983	77.69
319.212	77.69
319.441	95.69
319.67	84.69
319.9	77.69
320.129	90.69
320.358	75.69
320.587	82.69
320.816	71.69
321.046	89.69
321.275	85.69
321.504	87.69
321.733	82.69
321.962	95.69
322.191	85.69
322.42	78.69
322.649	100.69
322.878	87.69
323.108	90.69
323.337	101.69
323.566	87.69
323.795	71.69
324.024	80.69
324.253	83.69
324.482	74.69
324.71	83.69
324.939	81.69
325.168	79.69
325.397	88.69
325.626	72.69
325.855	89.69
326.084	86.69
326.313	86.69
326.542	81.69
326.77	90.69
326.999	74.69
327.228	80.69
327.457	90.69
327.686	82.69
327.914	87.69
328.143	85.69
328.372	75.69
328.6	80.69
328.829	83.69
329.058	81.69
329.287	73.69
329.515	82.69
329.744	86.69
329.972	96.69
330.201	83.69
330.43	82.69
330.658	90.69
330.887	89.69
331.115	89.69
331.344	78.69
331.572	88.69
331.801	79.69
332.03	78.69
332.258	82.69
332.486	91.69
332.715	89.69
332.943	96.69
333.172	79.69
333.4	75.69
333.629	67.69
333.857	92.69
334.085	97.69
334.314	80.69
334.542	79.69
334.771	89.69
334.999	93.69
335.227	69.69
335.455	84.69
335.684	108.69
335.912	87.69
336.14	78.69
336.369	91.69
336.597	99.69
336.825	86.69
337.053	77.69
337.281	79.69
337.51	91.69
337.738	84.69
337.966	75.69
338.194	89.69
338.422	74.69
338.65	93.69
338.878	85.69
339.106	71.69
339.334	71.69
339.562	77.69
339.79	82.69
340.018	74.69
340.246	95.69
340.474	97.69
340.702	76.69
340.93	83.69
341.158	86.69
341.386	80.69
341.614	81.69
341.842	92.69
342.07	90.69
342.298	104.69
342.526	92.69
342.754	98.69
342.981	81.69
343.209	83.69
343.437	88.69
343.665	78.69
343.893	91.69
344.12	96.69
344.348	83.69
344.576	90.69
344.804	97.69
345.031	110.69
345.259	85.69
345.487	99.69
345.714	103.69
345.942	90.69
346.17	72.69
346.397	81.69
346.625	79.69
346.853	90.69
347.08	89.69
347.308	85.69
347.535	90.69
347.763	92.69
347.99	88.69
348.218	87.69
348.445	88.69
348.673	87.69
348.9	73.69
349.128	89.69
349.355	93.69
349.583	87.69
349.81	97.69
350.037	97.69
350.265	77.69
350.492	93.69
350.72	81.69
350.947	86.69
351.174	86.69
351.402	86.69
351.629	78.69
351.856	83.69
352.083	78.69
352.311	83.69
352.538	83.69
352.765	87.69
352.992	87.69
353.22	87.69
353.447	80.69
353.674	78.69
353.901	95.69
354.128	89.69
354.355	86.69
354.583	93.69
354.81	86.69
355.037	80.69
355.264	89.69
355.491	88.69
355.718	83.69
355.945	91.69
356.172	83.69
356.399	85.69
356.626	96.69
356.853	87.69
357.08	89.69
357.307	81.69
357.534	93.69
357.761	86.69
357.988	81.69
358.215	90.69
358.441	92.69
358.668	95.69
358.895	76.69
359.122	90.69
359.349	76.69
359.576	78.69
359.802	78.69
360.029	89.69
360.256	82.69
360.483	80.69
360.709	85.69
360.936	89.69
361.163	72.69
361.39	95.69
361.616	78.69
361.843	88.69
362.07	84.69
362.296	83.69
362.523	78.69
362.749	84.69
362.976	88.69
363.203	99.69
363.429	83.69
363.656	68.69
363.882	80.69
364.109	81.69
364.335	88.69
364.562	86.69
364.788	80.69
365.015	88.69
365.241	98.69
365.468	93.69
365.694	91.69
365.92	84.69
366.147	72.69
366.373	83.69
366.599	82.69
366.826	77.69
367.052	73.69
367.278	99.69
367.505	97.69
367.731	100.69
367.957	99.69
368.184	79.69
368.41	86.69
368.636	90.69
368.862	83.69
369.089	82.69
369.315	80.69
369.541	84.69
369.767	105.69
369.993	85.69
370.219	73.69
370.445	83.69
370.672	97.69
370.898	78.69
371.124	78.69
371.35	77.69
371.576	71.69
371.802	87.69
372.028	86.69
372.254	85.69
372.48	82.69
372.706	77.69
372.932	90.69
373.158	102.69
373.384	103.69
373.61	76.69
373.835	97.69
374.061	86.69
374.287	88.69
374.513	88.69
374.739	87.69
374.965	83.69
375.191	78.69
375.416	81.69
375.642	92.69
375.868	99.69
376.094	73.69
376.319	95.69
376.545	87.69
376.771	91.69
376.997	77.69
377.222	81.69
377.448	93.69
377.674	87.69
377.899	103.69
378.125	80.69
378.35	80.69
378.576	82.69
378.802	87.69
379.027	74.69
379.253	101.69
379.478	81.69
379.704	87.69
379.929	83.69
380.155	86.69
380.38	65.69
380.606	77.69
380.831	100.69
381.057	91.69
381.282	87.69
381.507	85.69
381.733	85.69
381.958	76.69
382.184	79.69
382.409	96.69
382.634	97.69
382.86	72.69
383.085	78.69
383.31	84.69
383.535	84.69
383.761	71.69
383.986	71.69
384.211	88.69
384.436	89.69
384.662	76.69
384.887	81.69
385.112	91.69
385.337	101.69
385.562	73.69
385.787	75.69
386.013	80.69
386.238	79.69
386.463	90.69
386.688	112.69
386.913	83.69
387.138	85.69
387.363	82.69
387.588	95.69
387.813	97.69
388.038	95.69
388.263	76.69
388.488	76.69
388.713	85.69
388.938	91.69
389.163	86.69
389.387	78.69
389.612	89.69
389.837	86.69
390.062	83.69
390.287	92.69
390.512	93.69
390.736	99.69
390.961	87.69
391.186	81.69
391.411	96.69
391.636	74.69
391.86	81.69
392.085	89.69
392.31	89.69
392.534	76.69
392.759	71.69
392.984	98.69
393.208	93.69
393.433	89.69
393.658	97.69
393.882	79.69
394.107	77.69
394.331	81.69
394.556	92.69
394.78	82.69
395.005	91.69
395.229	100.69
395.454	87.69
395.678	78.69
395.903	81.69
396.127	85.69
396.352	95.69
396.576	85.69
396.801	93.69
397.025	84.69
397.249	83.69
397.474	102.69
397.698	79.69
397.922	78.69
398.147	88.69
398.371	73.69
398.595	97.69
398.82	74.69
399.044	88.69
399.268	82.69
399.492	83.69
399.717	82.69
399.941	81.69
400.165	90.69
400.389	84.69
400.613	75.69
400.837	85.69
401.062	77.69
401.286	88.69
401.51	89.69
401.734	84.69
401.958	85.69
402.182	83.69
402.406	66.69
402.63	77.69
402.854	83.69
403.078	84.69
403.302	81.69
403.526	101.69
403.75	108.69
403.974	105.69
404.198	133.69
404.422	174.69
404.645	196.69
404.869	171.69
405.093	129.69
405.317	88.69
405.541	93.69
405.765	83.69
405.988	97.69
406.212	84.69
406.436	91.69
406.66	95.69
406.883	91.69
407.107	85.69
407.331	85.69
407.555	80.69
407.778	106.69
408.002	110.69
408.226	92.69
408.449	89.69
408.673	89.69
408.896	92.69
409.12	86.69
409.344	91.69
409.567	95.69
409.791	87.69
410.014	87.69
410.238	85.69
410.461	79.69
410.685	83.69
410.908	88.69
411.132	90.69
411.355	95.69
411.578	85.69
411.802	88.69
412.025	91.69
412.249	75.69
412.472	86.69
412.695	87.69
412.919	86.69
413.142	93.69
413.365	88.69
413.589	97.69
413.812	72.69
414.035	103.69
414.258	83.69
414.482	85.69
414.705	71.69
414.928	89.69
415.151	80.69
415.374	80.69
415.597	81.69
415.821	87.69
416.044	93.69
416.267	86.69
416.49	80.69
416.713	95.69
416.936	91.69
417.159	81.69
417.382	83.69
417.605	96.69
417.828	89.69
418.051	87.69
418.274	91.69
418.497	105.69
418.72	77.69
418.943	93.69
419.166	97.69
419.389	85.69
419.611	89.69
419.834	86.69
420.057	84.69
420.28	84.69
420.503	87.69
420.726	86.69
420.948	89.69
421.171	74.69
421.394	84.69
421.617	91.69
421.839	82.69
422.062	84.69
422.285	92.69
422.507	102.69
422.73	89.69
422.953	91.69
423.175	85.69
423.398	93.69
423.621	86.69
423.843	82.69
424.066	75.69
424.288	81.69
424.511	91.69
424.733	89.69
424.956	96.69
425.178	102.69
425.401	72.69
425.623	86.69
425.846	71.69
426.068	84.69
426.291	96.69
426.513	88.69
426.735	82.69
426.958	75.69
427.18	84.69
427.402	76.69
427.625	88.69
427.847	83.69
428.069	78.69
428.292	86.69
428.514	86.69
428.736	84.69
428.958	72.69
429.181	92.69
429.403	86.69
429.625	68.69
429.847	88.69
430.069	70.69
430.292	81.69
430.514	89.69
430.736	84.69
430.958	90.69
431.18	85.69
431.402	74.69
431.624	84.69
431.846	88.69
432.068	84.69
432.29	64.69
432.512	83.69
432.734	101.69
432.956	95.69
433.178	89.69
433.4	96.69
433.622	87.69
433.844	86.69
434.066	81.69
434.287	87.69
434.509	75.69
434.731	80.69
434.953	77.69
435.175	93.69
435.397	95.69
435.618	83.69
435.84	93.69
436.062	102.69
436.284	89.69
436.505	92.69
436.727	83.69
436.949	81.69
437.17	81.69
437.392	82.69
437.614	78.69
437.835	74.69
438.057	91.69
438.278	58.69
438.5	81.69
438.721	78.69
438.943	83.69
439.165	63.69
439.386	78.69
439.608	80.69
439.829	88.69
440.05	93.69
440.272	83.69
440.493	100.69
440.715	85.69
440.936	77.69
441.158	98.69
441.379	95.69
441.6	85.69
441.822	87.69
442.043	84.69
442.264	96.69
442.486	73.69
442.707	82.69
442.928	86.69
443.149	79.69
443.371	79.69
443.592	87.69
443.813	88.69
444.034	85.69
444.255	85.69
444.476	92.69
444.698	90.69
444.919	90.69
445.14	120.69
445.361	101.69
445.582	86.69
445.803	87.69
446.024	85.69
446.245	89.69
446.466	91.69
446.687	77.69
446.908	85.69
447.129	95.69
447.35	85.69
447.571	95.69
447.792	97.69
448.013	87.69
448.234	94.69
448.455	78.69
448.675	85.69
448.896	95.69
449.117	83.69
449.338	79.69
449.559	89.69
449.779	86.69
450	85.69
450.221	92.69
450.442	86.69
450.662	85.69
450.883	90.69
451.104	80.69
451.324	86.69
451.545	80.69
451.766	77.69
451.986	93.69
452.207	96.69
452.428	86.69
452.648	74.69
452.869	88.69
453.089	95.69
453.31	83.69
453.53	82.69
453.751	98.69
453.971	79.69
454.192	90.69
454.412	94.69
454.633	81.69
454.853	86.69
455.073	84.69
455.294	88.69
455.514	68.69
455.734	97.69
455.955	86.69
456.175	88.69
456.395	68.69
456.616	92.69
456.836	88.69
457.056	68.69
457.276	83.69
457.497	82.69
457.717	74.69
457.937	74.69
458.157	84.69
458.377	83.69
458.598	86.69
458.818	85.69
459.038	76.69
459.258	83.69
459.478	78.69
459.698	99.69
459.918	87.69
460.138	82.69
460.358	80.69
460.578	103.69
460.798	70.69
461.018	82.69
461.238	79.69
461.458	76.69
461.678	83.69
461.898	97.69
462.118	96.69
462.338	84.69
462.558	81.69
462.777	87.69
462.997	85.69
463.217	81.69
463.437	93.69
463.657	90.69
463.876	90.69
464.096	84.69
464.316	84.69
464.536	72.69
464.755	92.69
464.975	88.69
465.195	90.69
465.414	84.69
465.634	89.69
465.854	82.69
466.073	97.69
466.293	92.69
466.512	81.69
466.732	80.69
466.951	99.69
467.171	84.69
467.391	91.69
467.61	86.69
467.829	88.69
468.049	85.69
468.268	82.69
468.488	78.69
468.707	90.69
468.927	73.69
469.146	87.69
469.365	84.69
469.585	89.69
469.804	73.69
470.023	88.69
470.243	90.69
470.462	84.69
470.681	81.69
470.901	86.69
471.12	96.69
471.339	103.69
471.558	85.69
471.777	77.69
471.997	87.69
472.216	95.69
472.435	88.69
472.654	97.69
472.873	84.69
473.092	81.69
473.311	85.69
473.53	84.69
473.749	88.69
473.968	91.69
474.187	90.69
474.406	89.69
474.625	87.69
474.844	86.69
475.063	97.69
475.282	90.69
475.501	92.69
475.72	74.69
475.939	90.69
476.158	87.69
476.377	75.69
476.596	76.69
476.814	87.69
477.033	61.69
477.252	72.69
477.471	88.69
477.69	88.69
477.908	83.69
478.127	87.69
478.346	93.69
478.564	96.69
478.783	93.69
479.002	92.69
479.22	90.69
479.439	95.69
479.658	81.69
479.876	92.69
480.095	76.69
480.313	99.69
480.532	86.69
480.751	97.69
480.969	91.69
481.188	79.69
481.406	95.69
481.624	92.69
481.843	85.69
482.061	80.69
482.28	76.69
482.498	90.69
482.717	87.69
482.935	86.69
483.153	88.69
483.372	89.69
483.59	93.69
483.808	91.69
484.027	87.69
484.245	87.69
484.463	88.69
484.681	75.69
484.9	96.69
485.118	82.69
485.336	87.69
485.554	79.69
485.772	90.69
485.99	78.69
486.209	108.69
486.427	85.69
486.645	86.69
486.863	91.69
487.081	88.69
487.299	99.69
487.517	91.69
487.735	69.69
487.953	101.69
488.171	99.69
488.389	83.69
488.607	105.69
488.825	96.69
489.043	82.69
489.261	104.69
489.479	86.69
489.696	107.69
489.914	79.69
490.132	85.69
490.35	96.69
490.568	90.69
490.786	89.69
491.003	95.69
491.221	97.69
491.439	83.69
491.657	100.69
491.874	105.69
492.092	92.69
492.31	91.69
492.527	97.69
492.745	96.69
492.963	104.69
493.18	93.69
493.398	76.69
493.615	87.69
493.833	82.69
494.05	90.69
494.268	82.69
494.485	88.69
494.703	89.69
494.92	97.69
495.138	100.69
495.355	89.69
495.573	105.69
495.79	91.69
496.008	89.69
496.225	92.69
496.442	91.69
496.66	103.69
496.877	98.69
497.094	113.69
497.312	98.69
497.529	99.69
497.746	92.69
497.963	95.69
498.181	91.69
498.398	89.69
498.615	104.69
498.832	95.69
499.049	95.69
499.267	92.69
499.484	114.69
499.701	101.69
499.918	99.69
500.135	83.69
500.352	84.69
500.569	88.69
500.786	79.69
501.003	94.69
501.22	86.69
501.437	91.69
501.654	89.69
501.871	85.69
502.088	89.69
502.305	99.69
502.522	109.69
502.739	89.69
502.956	105.69
503.172	102.69
503.389	101.69
503.606	99.69
503.823	101.69
504.04	102.69
504.256	97.69
504.473	85.69
504.69	96.69
504.907	90.69
505.123	92.69
505.34	85.69
505.557	90.69
505.773	81.69
505.99	82.69
506.207	94.69
506.423	92.69
506.64	79.69
506.856	83.69
507.073	90.69
507.289	93.69
507.506	87.69
507.722	89.69
507.939	95.69
508.155	93.69
508.372	99.69
508.588	97.69
508.805	90.69
509.021	91.69
509.238	85.69
509.454	83.69
509.67	76.69
509.887	74.69
510.103	81.69
510.319	103.69
510.536	87.69
510.752	96.69
510.968	103.69
511.184	78.69
511.401	97.69
511.617	77.69
511.833	85.69
512.049	82.69
512.265	85.69
512.481	80.69
512.698	80.69
512.914	90.69
513.13	91.69
513.346	84.69
513.562	90.69
513.778	68.69
513.994	89.69
514.21	84.69
514.426	89.69
514.642	96.69
514.858	94.69
515.074	79.69
515.29	97.69
515.506	84.69
515.721	101.69
515.937	101.69
516.153	94.69
516.369	73.69
516.585	92.69
516.801	75.69
517.016	74.69
517.232	80.69
517.448	75.69
517.664	76.69
517.879	80.69
518.095	87.69
518.311	95.69
518.527	86.69
518.742	88.69
518.958	112.69
519.173	83.69
