Data from Circ_2007_H10_HRD10591_00098.txt Node
Date: Wed Jan 03 10:22:16 EST 2024
User: Yrep
Spectrometer: HR+D1059
Trigger mode: 1
Integration Time (sec): 1.000000E-1
Scans to average: 1
Electric dark correction enabled: true
Nonlinearity correction enabled: false
Boxcar width: 0
XAxis mode: Wavelengths
Number of Pixels in Spectrum: 2048
>>>>>Begin Spectral Data<<<<<
223.165	-5.31
223.4	-5.31
223.635	-5.31
223.869	-26.31
224.104	-11.31
224.338	-12.31
224.573	-17.31
224.808	-14.31
225.042	-6.31
225.277	-15.31
225.511	-12.31
225.746	3.69
225.98	6.69
226.215	12.69
226.449	30.69
226.683	28.69
226.918	23.69
227.152	14.69
227.387	37.69
227.621	50.69
227.856	51.69
228.09	52.69
228.324	49.69
228.559	66.69
228.793	59.69
229.027	64.69
229.262	67.69
229.496	75.69
229.73	99.69
229.964	89.69
230.199	77.69
230.433	96.69
230.667	77.69
230.901	85.69
231.136	89.69
231.37	80.69
231.604	87.69
231.838	85.69
232.072	78.69
232.306	86.69
232.541	87.69
232.775	86.69
233.009	82.69
233.243	79.69
233.477	84.69
233.711	79.69
233.945	73.69
234.179	86.69
234.413	84.69
234.647	78.69
234.881	94.69
235.115	98.69
235.349	80.69
235.583	87.69
235.817	92.69
236.051	84.69
236.285	82.69
236.519	92.69
236.753	80.69
236.987	72.69
237.221	93.69
237.455	85.69
237.689	86.69
237.922	77.69
238.156	84.69
238.39	81.69
238.624	86.69
238.858	77.69
239.091	82.69
239.325	76.69
239.559	81.69
239.793	88.69
240.027	82.69
240.26	74.69
240.494	95.69
240.728	79.69
240.961	82.69
241.195	72.69
241.429	75.69
241.662	85.69
241.896	72.69
242.13	91.69
242.363	84.69
242.597	84.69
242.83	91.69
243.064	78.69
243.298	71.69
243.531	80.69
243.765	84.69
243.998	77.69
244.232	83.69
244.465	75.69
244.699	82.69
244.932	70.69
245.166	87.69
245.399	86.69
245.633	69.69
245.866	76.69
246.099	84.69
246.333	76.69
246.566	95.69
246.8	91.69
247.033	83.69
247.266	86.69
247.5	83.69
247.733	74.69
247.966	97.69
248.2	83.69
248.433	91.69
248.666	83.69
248.899	81.69
249.133	87.69
249.366	103.69
249.599	106.69
249.832	83.69
250.066	103.69
250.299	86.69
250.532	75.69
250.765	95.69
250.998	84.69
251.231	86.69
251.465	93.69
251.698	78.69
251.931	86.69
252.164	84.69
252.397	81.69
252.63	69.69
252.863	97.69
253.096	97.69
253.329	68.69
253.562	83.69
253.795	81.69
254.028	89.69
254.261	92.69
254.494	78.69
254.727	92.69
254.96	80.69
255.193	87.69
255.426	82.69
255.659	85.69
255.892	103.69
256.124	88.69
256.357	92.69
256.59	98.69
256.823	86.69
257.056	87.69
257.289	99.69
257.521	83.69
257.754	86.69
257.987	74.69
258.22	95.69
258.452	92.69
258.685	97.69
258.918	93.69
259.151	85.69
259.383	98.69
259.616	93.69
259.849	92.69
260.081	87.69
260.314	99.69
260.547	91.69
260.779	81.69
261.012	95.69
261.244	88.69
261.477	104.69
261.71	88.69
261.942	114.69
262.175	141.69
262.407	98.69
262.64	89.69
262.872	85.69
263.105	80.69
263.337	85.69
263.57	86.69
263.802	73.69
264.035	88.69
264.267	82.69
264.499	81.69
264.732	84.69
264.964	90.69
265.197	96.69
265.429	101.69
265.661	92.69
265.894	84.69
266.126	90.69
266.358	86.69
266.591	83.69
266.823	96.69
267.055	82.69
267.287	98.69
267.52	70.69
267.752	88.69
267.984	88.69
268.216	69.69
268.448	88.69
268.681	89.69
268.913	92.69
269.145	87.69
269.377	81.69
269.609	85.69
269.841	81.69
270.073	89.69
270.306	91.69
270.538	84.69
270.77	85.69
271.002	92.69
271.234	88.69
271.466	90.69
271.698	88.69
271.93	88.69
272.162	102.69
272.394	94.69
272.626	95.69
272.858	82.69
273.09	92.69
273.322	76.69
273.553	83.69
273.785	85.69
274.017	96.69
274.249	87.69
274.481	89.69
274.713	99.69
274.945	84.69
275.176	98.69
275.408	86.69
275.64	107.69
275.872	109.69
276.104	93.69
276.335	106.69
276.567	126.69
276.799	133.69
277.031	135.69
277.262	137.69
277.494	98.69
277.726	93.69
277.957	93.69
278.189	105.69
278.421	83.69
278.652	84.69
278.884	101.69
279.115	99.69
279.347	85.69
279.579	98.69
279.81	111.69
280.042	145.69
280.273	164.69
280.505	121.69
280.736	115.69
280.968	96.69
281.199	95.69
281.431	80.69
281.662	99.69
281.894	80.69
282.125	90.69
282.356	117.69
282.588	156.69
282.819	123.69
283.051	89.69
283.282	103.69
283.513	95.69
283.745	86.69
283.976	94.69
284.207	95.69
284.439	95.69
284.67	81.69
284.901	81.69
285.132	97.69
285.364	96.69
285.595	94.69
285.826	96.69
286.057	105.69
286.288	95.69
286.52	88.69
286.751	95.69
286.982	95.69
287.213	96.69
287.444	92.69
287.675	85.69
287.906	79.69
288.138	96.69
288.369	111.69
288.6	114.69
288.831	83.69
289.062	87.69
289.293	97.69
289.524	96.69
289.755	94.69
289.986	87.69
290.217	89.69
290.448	89.69
290.679	83.69
290.91	100.69
291.141	92.69
291.371	83.69
291.602	72.69
291.833	82.69
292.064	96.69
292.295	89.69
292.526	90.69
292.757	91.69
292.987	88.69
293.218	93.69
293.449	96.69
293.68	92.69
293.91	86.69
294.141	98.69
294.372	99.69
294.603	79.69
294.833	99.69
295.064	87.69
295.295	93.69
295.525	86.69
295.756	104.69
295.987	118.69
296.217	144.69
296.448	142.69
296.679	114.69
296.909	86.69
297.14	100.69
297.37	101.69
297.601	96.69
297.831	78.69
298.062	101.69
298.292	92.69
298.523	84.69
298.753	85.69
298.984	91.69
299.214	92.69
299.445	85.69
299.675	102.69
299.905	95.69
300.136	100.69
300.366	93.69
300.597	108.69
300.827	95.69
301.057	104.69
301.288	103.69
301.518	94.69
301.748	86.69
301.979	103.69
302.209	95.69
302.439	81.69
302.669	101.69
302.9	86.69
303.13	93.69
303.36	109.69
303.59	124.69
303.82	105.69
304.051	95.69
304.281	107.69
304.511	107.69
304.741	108.69
304.971	84.69
305.201	84.69
305.431	91.69
305.661	92.69
305.891	90.69
306.121	100.69
306.352	111.69
306.582	115.69
306.812	111.69
307.042	111.69
307.272	127.69
307.502	148.69
307.731	131.69
307.961	106.69
308.191	115.69
308.421	100.69
308.651	91.69
308.881	100.69
309.111	91.69
309.341	105.69
309.571	90.69
309.8	103.69
310.03	97.69
310.26	98.69
310.49	111.69
310.72	106.69
310.949	111.69
311.179	122.69
311.409	98.69
311.639	95.69
311.868	111.69
312.098	117.69
312.328	97.69
312.557	116.69
312.787	117.69
313.017	110.69
313.246	111.69
313.476	108.69
313.706	104.69
313.935	109.69
314.165	109.69
314.394	105.69
314.624	108.69
314.853	110.69
315.083	105.69
315.312	103.69
315.542	87.69
315.771	97.69
316.001	85.69
316.23	89.69
316.46	100.69
316.689	96.69
316.919	106.69
317.148	102.69
317.377	105.69
317.607	94.69
317.836	88.69
318.065	101.69
318.295	104.69
318.524	95.69
318.753	91.69
318.983	91.69
319.212	112.69
319.441	116.69
319.67	121.69
319.9	96.69
320.129	92.69
320.358	100.69
320.587	116.69
320.816	95.69
321.046	108.69
321.275	88.69
321.504	100.69
321.733	97.69
321.962	110.69
322.191	118.69
322.42	89.69
322.649	127.69
322.878	113.69
323.108	126.69
323.337	115.69
323.566	163.69
323.795	176.69
324.024	238.69
324.253	448.69
324.482	1003.69
324.71	2063.69
324.939	2799.69
325.168	1016.69
325.397	275.69
325.626	150.69
325.855	138.69
326.084	127.69
326.313	148.69
326.542	161.69
326.77	247.69
326.999	536.69
327.228	1097.69
327.457	2060.69
327.686	1675.69
327.914	501.69
328.143	343.69
328.372	408.69
328.6	259.69
328.829	170.69
329.058	169.69
329.287	169.69
329.515	150.69
329.744	181.69
329.972	301.69
330.201	535.69
330.43	783.69
330.658	388.69
330.887	222.69
331.115	136.69
331.344	125.69
331.572	112.69
331.801	125.69
332.03	115.69
332.258	119.69
332.486	93.69
332.715	103.69
332.943	101.69
333.172	116.69
333.4	116.69
333.629	118.69
333.857	162.69
334.085	277.69
334.314	519.69
334.542	991.69
334.771	973.69
334.999	300.69
335.227	131.69
335.455	123.69
335.684	102.69
335.912	107.69
336.14	99.69
336.369	102.69
336.597	103.69
336.825	111.69
337.053	92.69
337.281	101.69
337.51	99.69
337.738	103.69
337.966	95.69
338.194	97.69
338.422	93.69
338.65	101.69
338.878	91.69
339.106	100.69
339.334	100.69
339.562	98.69
339.79	94.69
340.018	92.69
340.246	97.69
340.474	86.69
340.702	92.69
340.93	98.69
341.158	87.69
341.386	102.69
341.614	102.69
341.842	97.69
342.07	93.69
342.298	85.69
342.526	95.69
342.754	95.69
342.981	92.69
343.209	91.69
343.437	103.69
343.665	89.69
343.893	88.69
344.12	102.69
344.348	86.69
344.576	93.69
344.804	96.69
345.031	88.69
345.259	96.69
345.487	97.69
345.714	87.69
345.942	97.69
346.17	89.69
346.397	92.69
346.625	82.69
346.853	95.69
347.08	83.69
347.308	98.69
347.535	98.69
347.763	92.69
347.99	87.69
348.218	112.69
348.445	121.69
348.673	110.69
348.9	94.69
349.128	100.69
349.355	92.69
349.583	103.69
349.81	83.69
350.037	101.69
350.265	96.69
350.492	100.69
350.72	102.69
350.947	92.69
351.174	113.69
351.402	104.69
351.629	108.69
351.856	114.69
352.083	95.69
352.311	109.69
352.538	92.69
352.765	102.69
352.992	118.69
353.22	134.69
353.447	118.69
353.674	96.69
353.901	112.69
354.128	113.69
354.355	105.69
354.583	99.69
354.81	94.69
355.037	99.69
355.264	90.69
355.491	84.69
355.718	94.69
355.945	105.69
356.172	113.69
356.399	95.69
356.626	93.69
356.853	87.69
357.08	100.69
357.307	92.69
357.534	89.69
357.761	93.69
357.988	91.69
358.215	93.69
358.441	101.69
358.668	101.69
358.895	87.69
359.122	101.69
359.349	102.69
359.576	101.69
359.802	108.69
360.029	120.69
360.256	139.69
360.483	95.69
360.709	92.69
360.936	98.69
361.163	100.69
361.39	102.69
361.616	107.69
361.843	115.69
362.07	89.69
362.296	102.69
362.523	88.69
362.749	104.69
362.976	93.69
363.203	105.69
363.429	99.69
363.656	93.69
363.882	99.69
364.109	83.69
364.335	94.69
364.562	81.69
364.788	95.69
365.015	92.69
365.241	91.69
365.468	111.69
365.694	107.69
365.92	91.69
366.147	95.69
366.373	98.69
366.599	98.69
366.826	93.69
367.052	79.69
367.278	98.69
367.505	89.69
367.731	99.69
367.957	92.69
368.184	102.69
368.41	107.69
368.636	120.69
368.862	129.69
369.089	121.69
369.315	96.69
369.541	92.69
369.767	82.69
369.993	86.69
370.219	86.69
370.445	109.69
370.672	83.69
370.898	90.69
371.124	86.69
371.35	89.69
371.576	84.69
371.802	107.69
372.028	80.69
372.254	88.69
372.48	96.69
372.706	99.69
372.932	93.69
373.158	89.69
373.384	93.69
373.61	94.69
373.835	92.69
374.061	99.69
374.287	91.69
374.513	88.69
374.739	98.69
374.965	97.69
375.191	88.69
375.416	94.69
375.642	95.69
375.868	108.69
376.094	85.69
376.319	95.69
376.545	93.69
376.771	99.69
376.997	93.69
377.222	92.69
377.448	95.69
377.674	76.69
377.899	94.69
378.125	84.69
378.35	98.69
378.576	92.69
378.802	97.69
379.027	96.69
379.253	102.69
379.478	95.69
379.704	102.69
379.929	92.69
380.155	93.69
380.38	91.69
380.606	113.69
380.831	113.69
381.057	100.69
381.282	88.69
381.507	95.69
381.733	100.69
381.958	100.69
382.184	101.69
382.409	89.69
382.634	101.69
382.86	115.69
383.085	108.69
383.31	107.69
383.535	103.69
383.761	96.69
383.986	108.69
384.211	101.69
384.436	96.69
384.662	99.69
384.887	97.69
385.112	111.69
385.337	102.69
385.562	100.69
385.787	108.69
386.013	104.69
386.238	109.69
386.463	84.69
386.688	112.69
386.913	108.69
387.138	95.69
387.363	101.69
387.588	103.69
387.813	92.69
388.038	103.69
388.263	113.69
388.488	105.69
388.713	95.69
388.938	101.69
389.163	116.69
389.387	86.69
389.612	98.69
389.837	93.69
390.062	92.69
390.287	94.69
390.512	91.69
390.736	95.69
390.961	82.69
391.186	101.69
391.411	104.69
391.636	96.69
391.86	79.69
392.085	80.69
392.31	83.69
392.534	94.69
392.759	90.69
392.984	91.69
393.208	96.69
393.433	87.69
393.658	86.69
393.882	80.69
394.107	81.69
394.331	89.69
394.556	88.69
394.78	100.69
395.005	84.69
395.229	92.69
395.454	105.69
395.678	96.69
395.903	88.69
396.127	94.69
396.352	101.69
396.576	83.69
396.801	99.69
397.025	115.69
397.249	80.69
397.474	88.69
397.698	81.69
397.922	93.69
398.147	87.69
398.371	88.69
398.595	86.69
398.82	92.69
399.044	95.69
399.268	86.69
399.492	76.69
399.717	86.69
399.941	101.69
400.165	112.69
400.389	100.69
400.613	95.69
400.837	95.69
401.062	92.69
401.286	106.69
401.51	93.69
401.734	101.69
401.958	105.69
402.182	135.69
402.406	180.69
402.63	140.69
402.854	110.69
403.078	81.69
403.302	84.69
403.526	87.69
403.75	87.69
403.974	92.69
404.198	86.69
404.422	85.69
404.645	105.69
404.869	100.69
405.093	112.69
405.317	126.69
405.541	111.69
405.765	111.69
405.988	117.69
406.212	194.69
406.436	253.69
406.66	170.69
406.883	123.69
407.107	93.69
407.331	103.69
407.555	110.69
407.778	97.69
408.002	104.69
408.226	90.69
408.449	98.69
408.673	101.69
408.896	95.69
409.12	90.69
409.344	95.69
409.567	88.69
409.791	94.69
410.014	99.69
410.238	96.69
410.461	91.69
410.685	101.69
410.908	105.69
411.132	110.69
411.355	90.69
411.578	92.69
411.802	100.69
412.025	99.69
412.249	96.69
412.472	104.69
412.695	127.69
412.919	106.69
413.142	97.69
413.365	95.69
413.589	108.69
413.812	104.69
414.035	88.69
414.258	89.69
414.482	96.69
414.705	103.69
414.928	87.69
415.151	71.69
415.374	95.69
415.597	89.69
415.821	81.69
416.044	94.69
416.267	95.69
416.49	84.69
416.713	84.69
416.936	81.69
417.159	88.69
417.382	105.69
417.605	99.69
417.828	112.69
418.051	105.69
418.274	92.69
418.497	97.69
418.72	75.69
418.943	95.69
419.166	76.69
419.389	103.69
419.611	104.69
419.834	84.69
420.057	85.69
420.28	87.69
420.503	87.69
420.726	96.69
420.948	104.69
421.171	107.69
421.394	107.69
421.617	95.69
421.839	103.69
422.062	95.69
422.285	80.69
422.507	104.69
422.73	101.69
422.953	102.69
423.175	95.69
423.398	116.69
423.621	89.69
423.843	75.69
424.066	72.69
424.288	84.69
424.511	87.69
424.733	114.69
424.956	115.69
425.178	94.69
425.401	114.69
425.623	107.69
425.846	96.69
426.068	83.69
426.291	105.69
426.513	99.69
426.735	84.69
426.958	99.69
427.18	119.69
427.402	174.69
427.625	230.69
427.847	196.69
428.069	200.69
428.292	103.69
428.514	109.69
428.736	91.69
428.958	83.69
429.181	87.69
429.403	96.69
429.625	94.69
429.847	95.69
430.069	113.69
430.292	101.69
430.514	78.69
430.736	87.69
430.958	84.69
431.18	99.69
431.402	90.69
431.624	86.69
431.846	87.69
432.068	96.69
432.29	81.69
432.512	82.69
432.734	88.69
432.956	101.69
433.178	109.69
433.4	109.69
433.622	93.69
433.844	86.69
434.066	99.69
434.287	96.69
434.509	91.69
434.731	88.69
434.953	85.69
435.175	95.69
435.397	91.69
435.618	97.69
435.84	119.69
436.062	120.69
436.284	126.69
436.505	99.69
436.727	111.69
436.949	98.69
437.17	91.69
437.392	104.69
437.614	103.69
437.835	109.69
438.057	133.69
438.278	115.69
438.5	115.69
438.721	144.69
438.943	103.69
439.165	83.69
439.386	95.69
439.608	85.69
439.829	107.69
440.05	121.69
440.272	159.69
440.493	103.69
440.715	94.69
440.936	100.69
441.158	85.69
441.379	81.69
441.6	86.69
441.822	94.69
442.043	104.69
442.264	104.69
442.486	119.69
442.707	88.69
442.928	107.69
443.149	149.69
443.371	167.69
443.592	127.69
443.813	119.69
444.034	119.69
444.255	95.69
444.476	103.69
444.698	91.69
444.919	88.69
445.14	143.69
445.361	119.69
445.582	143.69
445.803	167.69
446.024	148.69
446.245	163.69
446.466	132.69
446.687	99.69
446.908	75.69
447.129	95.69
447.35	91.69
447.571	93.69
447.792	98.69
448.013	103.69
448.234	112.69
448.455	101.69
448.675	129.69
448.896	139.69
449.117	121.69
449.338	114.69
449.559	126.69
449.779	141.69
450	104.69
450.221	86.69
450.442	87.69
450.662	109.69
450.883	107.69
451.104	125.69
451.324	112.69
451.545	84.69
451.766	101.69
451.986	100.69
452.207	98.69
452.428	99.69
452.648	111.69
452.869	108.69
453.089	106.69
453.31	133.69
453.53	100.69
453.751	79.69
453.971	109.69
454.192	126.69
454.412	110.69
454.633	79.69
454.853	96.69
455.073	94.69
455.294	95.69
455.514	113.69
455.734	100.69
455.955	104.69
456.175	81.69
456.395	94.69
456.616	93.69
456.836	93.69
457.056	76.69
457.276	90.69
457.497	92.69
457.717	94.69
457.937	92.69
458.157	92.69
458.377	96.69
458.598	118.69
458.818	171.69
459.038	192.69
459.258	143.69
459.478	103.69
459.698	89.69
459.918	91.69
460.138	95.69
460.358	87.69
460.578	89.69
460.798	82.69
461.018	89.69
461.238	96.69
461.458	80.69
461.678	67.69
461.898	97.69
462.118	103.69
462.338	95.69
462.558	93.69
462.777	96.69
462.997	96.69
463.217	96.69
463.437	94.69
463.657	95.69
463.876	85.69
464.096	91.69
464.316	101.69
464.536	93.69
464.755	101.69
464.975	114.69
465.195	197.69
465.414	202.69
465.634	107.69
465.854	96.69
466.073	87.69
466.293	91.69
466.512	86.69
466.732	95.69
466.951	86.69
467.171	107.69
467.391	93.69
467.61	129.69
467.829	171.69
468.049	340.69
468.268	463.69
468.488	150.69
468.707	98.69
468.927	103.69
469.146	109.69
469.365	94.69
469.585	98.69
469.804	105.69
470.023	100.69
470.243	107.69
470.462	105.69
470.681	127.69
470.901	92.69
471.12	85.69
471.339	96.69
471.558	104.69
471.777	127.69
471.997	192.69
472.216	626.69
472.435	1367.69
472.654	364.69
472.873	118.69
473.092	97.69
473.311	86.69
473.53	98.69
473.749	95.69
473.968	96.69
474.187	120.69
474.406	96.69
474.625	96.69
474.844	88.69
475.063	93.69
475.282	92.69
475.501	86.69
475.72	89.69
475.939	79.69
476.158	91.69
476.377	96.69
476.596	98.69
476.814	98.69
477.033	108.69
477.252	91.69
477.471	100.69
477.69	96.69
477.908	90.69
478.127	86.69
478.346	94.69
478.564	96.69
478.783	115.69
479.002	115.69
479.22	100.69
479.439	104.69
479.658	117.69
479.876	116.69
480.095	109.69
480.313	124.69
480.532	123.69
480.751	184.69
480.969	571.69
481.188	2292.69
481.406	1450.69
481.624	246.69
481.843	111.69
482.061	100.69
482.28	84.69
482.498	89.69
482.717	108.69
482.935	107.69
483.153	114.69
483.372	96.69
483.59	97.69
483.808	89.69
484.027	76.69
484.245	81.69
484.463	93.69
484.681	108.69
484.9	94.69
485.118	93.69
485.336	104.69
485.554	99.69
485.772	108.69
485.99	110.69
486.209	114.69
486.427	119.69
486.645	99.69
486.863	127.69
487.081	104.69
487.299	98.69
487.517	101.69
487.735	96.69
487.953	100.69
488.171	93.69
488.389	88.69
488.607	119.69
488.825	101.69
489.043	103.69
489.261	88.69
489.479	86.69
489.696	90.69
489.914	100.69
490.132	96.69
490.35	102.69
490.568	93.69
490.786	92.69
491.003	85.69
491.221	93.69
491.439	90.69
491.657	102.69
491.874	110.69
492.092	97.69
492.31	96.69
492.527	93.69
492.745	94.69
492.963	89.69
493.18	96.69
493.398	92.69
493.615	95.69
493.833	110.69
494.05	87.69
494.268	100.69
494.485	103.69
494.703	91.69
494.92	91.69
495.138	88.69
495.355	108.69
495.573	95.69
495.79	106.69
496.008	93.69
496.225	101.69
496.442	83.69
496.66	100.69
496.877	84.69
497.094	93.69
497.312	89.69
497.529	95.69
497.746	105.69
497.963	91.69
498.181	113.69
498.398	113.69
498.615	101.69
498.832	110.69
499.049	96.69
499.267	93.69
499.484	100.69
499.701	102.69
499.918	99.69
500.135	90.69
500.352	103.69
500.569	99.69
500.786	98.69
501.003	95.69
501.22	101.69
501.437	99.69
501.654	102.69
501.871	111.69
502.088	88.69
502.305	101.69
502.522	103.69
502.739	89.69
502.956	98.69
503.172	86.69
503.389	115.69
503.606	133.69
503.823	100.69
504.04	88.69
504.256	98.69
504.473	95.69
504.69	86.69
504.907	83.69
505.123	92.69
505.34	97.69
505.557	101.69
505.773	71.69
505.99	102.69
506.207	97.69
506.423	93.69
506.64	108.69
506.856	98.69
507.073	80.69
507.289	97.69
507.506	102.69
507.722	122.69
507.939	114.69
508.155	104.69
508.372	104.69
508.588	95.69
508.805	90.69
509.021	93.69
509.238	109.69
509.454	115.69
509.67	108.69
509.887	106.69
510.103	145.69
510.319	215.69
510.536	752.69
510.752	2509.69
510.968	736.69
511.184	164.69
511.401	108.69
511.617	108.69
511.833	96.69
512.049	84.69
512.265	101.69
512.481	100.69
512.698	104.69
512.914	96.69
