Data from Circ_2007_H10_HRD10591_00025.txt Node
Date: Wed Jan 03 10:22:02 EST 2024
User: Yrep
Spectrometer: HR+D1059
Trigger mode: 1
Integration Time (sec): 1.000000E-1
Scans to average: 1
Electric dark correction enabled: true
Nonlinearity correction enabled: false
Boxcar width: 0
XAxis mode: Wavelengths
Number of Pixels in Spectrum: 2048
>>>>>Begin Spectral Data<<<<<
223.165	-16.94
223.4	-16.94
223.635	-16.94
223.869	-29.94
224.104	-7.94
224.338	-12.94
224.573	-32.94
224.808	-5.94
225.042	-17.94
225.277	-6.94
225.511	0.06
225.746	14.06
225.98	23.06
226.215	17.06
226.449	7.06
226.683	12.06
226.918	31.06
227.152	27.06
227.387	45.06
227.621	37.06
227.856	46.06
228.09	56.06
228.324	53.06
228.559	50.06
228.793	67.06
229.027	70.06
229.262	62.06
229.496	81.06
229.73	117.06
229.964	115.06
230.199	73.06
230.433	81.06
230.667	82.06
230.901	88.06
231.136	87.06
231.37	83.06
231.604	75.06
231.838	76.06
232.072	80.06
232.306	75.06
232.541	94.06
232.775	82.06
233.009	81.06
233.243	88.06
233.477	90.06
233.711	83.06
233.945	66.06
234.179	69.06
234.413	87.06
234.647	94.06
234.881	90.06
235.115	89.06
235.349	72.06
235.583	76.06
235.817	87.06
236.051	82.06
236.285	91.06
236.519	74.06
236.753	75.06
236.987	86.06
237.221	103.06
237.455	99.06
237.689	82.06
237.922	85.06
238.156	92.06
238.39	85.06
238.624	72.06
238.858	76.06
239.091	81.06
239.325	79.06
239.559	73.06
239.793	87.06
240.027	80.06
240.26	87.06
240.494	93.06
240.728	77.06
240.961	84.06
241.195	86.06
241.429	74.06
241.662	69.06
241.896	89.06
242.13	83.06
242.363	87.06
242.597	76.06
242.83	92.06
243.064	99.06
243.298	87.06
243.531	69.06
243.765	86.06
243.998	72.06
244.232	85.06
244.465	91.06
244.699	89.06
244.932	83.06
245.166	91.06
245.399	74.06
245.633	78.06
245.866	88.06
246.099	94.06
246.333	80.06
246.566	79.06
246.8	77.06
247.033	90.06
247.266	86.06
247.5	86.06
247.733	78.06
247.966	98.06
248.2	85.06
248.433	78.06
248.666	98.06
248.899	92.06
249.133	98.06
249.366	98.06
249.599	122.06
249.832	82.06
250.066	78.06
250.299	91.06
250.532	82.06
250.765	89.06
250.998	97.06
251.231	69.06
251.465	81.06
251.698	89.06
251.931	92.06
252.164	86.06
252.397	97.06
252.63	81.06
252.863	92.06
253.096	82.06
253.329	71.06
253.562	64.06
253.795	77.06
254.028	87.06
254.261	92.06
254.494	70.06
254.727	87.06
254.96	90.06
255.193	87.06
255.426	76.06
255.659	82.06
255.892	99.06
256.124	105.06
256.357	90.06
256.59	90.06
256.823	93.06
257.056	81.06
257.289	82.06
257.521	85.06
257.754	103.06
257.987	81.06
258.22	96.06
258.452	87.06
258.685	87.06
258.918	99.06
259.151	79.06
259.383	72.06
259.616	77.06
259.849	82.06
260.081	91.06
260.314	85.06
260.547	82.06
260.779	91.06
261.012	102.06
261.244	103.06
261.477	104.06
261.71	116.06
261.942	137.06
262.175	165.06
262.407	112.06
262.64	86.06
262.872	91.06
263.105	104.06
263.337	96.06
263.57	80.06
263.802	88.06
264.035	63.06
264.267	70.06
264.499	77.06
264.732	87.06
264.964	77.06
265.197	82.06
265.429	81.06
265.661	78.06
265.894	82.06
266.126	87.06
266.358	87.06
266.591	83.06
266.823	90.06
267.055	92.06
267.287	85.06
267.52	84.06
267.752	86.06
267.984	82.06
268.216	94.06
268.448	86.06
268.681	71.06
268.913	90.06
269.145	94.06
269.377	93.06
269.609	87.06
269.841	86.06
270.073	87.06
270.306	86.06
270.538	85.06
270.77	91.06
271.002	98.06
271.234	82.06
271.466	97.06
271.698	98.06
271.93	92.06
272.162	82.06
272.394	106.06
272.626	104.06
272.858	87.06
273.09	88.06
273.322	99.06
273.553	83.06
273.785	87.06
274.017	97.06
274.249	84.06
274.481	90.06
274.713	92.06
274.945	76.06
275.176	93.06
275.408	114.06
275.64	111.06
275.872	117.06
276.104	108.06
276.335	94.06
276.567	121.06
276.799	154.06
277.031	165.06
277.262	175.06
277.494	142.06
277.726	102.06
277.957	98.06
278.189	99.06
278.421	102.06
278.652	93.06
278.884	111.06
279.115	93.06
279.347	104.06
279.579	97.06
279.81	119.06
280.042	166.06
280.273	227.06
280.505	167.06
280.736	106.06
280.968	100.06
281.199	85.06
281.431	96.06
281.662	101.06
281.894	108.06
282.125	121.06
282.356	148.06
282.588	175.06
282.819	151.06
283.051	103.06
283.282	95.06
283.513	88.06
283.745	100.06
283.976	93.06
284.207	97.06
284.439	76.06
284.67	106.06
284.901	93.06
285.132	83.06
285.364	85.06
285.595	85.06
285.826	89.06
286.057	87.06
286.288	89.06
286.52	81.06
286.751	91.06
286.982	79.06
287.213	84.06
287.444	93.06
287.675	83.06
287.906	84.06
288.138	102.06
288.369	94.06
288.6	101.06
288.831	93.06
289.062	83.06
289.293	91.06
289.524	103.06
289.755	83.06
289.986	98.06
290.217	86.06
290.448	93.06
290.679	86.06
290.91	80.06
291.141	101.06
291.371	91.06
291.602	101.06
291.833	85.06
292.064	97.06
292.295	107.06
292.526	88.06
292.757	89.06
292.987	100.06
293.218	82.06
293.449	86.06
293.68	99.06
293.91	90.06
294.141	97.06
294.372	95.06
294.603	83.06
294.833	86.06
295.064	82.06
295.295	102.06
295.525	90.06
295.756	110.06
295.987	140.06
296.217	166.06
296.448	165.06
296.679	104.06
296.909	87.06
297.14	89.06
297.37	95.06
297.601	81.06
297.831	89.06
298.062	98.06
298.292	83.06
298.523	99.06
298.753	91.06
298.984	100.06
299.214	85.06
299.445	99.06
299.675	96.06
299.905	94.06
300.136	85.06
300.366	83.06
300.597	102.06
300.827	97.06
301.057	116.06
301.288	122.06
301.518	109.06
301.748	99.06
301.979	117.06
302.209	96.06
302.439	102.06
302.669	93.06
302.9	89.06
303.13	102.06
303.36	104.06
303.59	128.06
303.82	137.06
304.051	110.06
304.281	92.06
304.511	85.06
304.741	89.06
304.971	97.06
305.201	80.06
305.431	87.06
305.661	105.06
305.891	86.06
306.121	91.06
306.352	129.06
306.582	114.06
306.812	115.06
307.042	119.06
307.272	141.06
307.502	145.06
307.731	138.06
307.961	129.06
308.191	97.06
308.421	93.06
308.651	104.06
308.881	103.06
309.111	109.06
309.341	102.06
309.571	108.06
309.8	113.06
310.03	117.06
310.26	109.06
310.49	89.06
310.72	107.06
310.949	117.06
311.179	105.06
311.409	102.06
311.639	110.06
311.868	109.06
312.098	96.06
312.328	111.06
312.557	119.06
312.787	135.06
313.017	104.06
313.246	98.06
313.476	91.06
313.706	97.06
313.935	100.06
314.165	117.06
314.394	113.06
314.624	113.06
314.853	115.06
315.083	110.06
315.312	92.06
315.542	105.06
315.771	118.06
316.001	91.06
316.23	107.06
316.46	97.06
316.689	97.06
316.919	94.06
317.148	104.06
317.377	98.06
317.607	111.06
317.836	102.06
318.065	97.06
318.295	87.06
318.524	97.06
318.753	90.06
318.983	96.06
319.212	109.06
319.441	127.06
319.67	118.06
319.9	107.06
320.129	91.06
320.358	110.06
320.587	111.06
320.816	109.06
321.046	119.06
321.275	109.06
321.504	100.06
321.733	101.06
321.962	109.06
322.191	101.06
322.42	127.06
322.649	133.06
322.878	128.06
323.108	127.06
323.337	162.06
323.566	176.06
323.795	193.06
324.024	282.06
324.253	569.06
324.482	1239.06
324.71	2603.06
324.939	3567.06
325.168	1247.06
325.397	323.06
325.626	183.06
325.855	161.06
326.084	165.06
326.313	163.06
326.542	189.06
326.77	301.06
326.999	657.06
327.228	1334.06
327.457	2546.06
327.686	2062.06
327.914	602.06
328.143	482.06
328.372	571.06
328.6	351.06
328.829	191.06
329.058	203.06
329.287	218.06
329.515	187.06
329.744	234.06
329.972	409.06
330.201	834.06
330.43	1200.06
330.658	553.06
330.887	279.06
331.115	201.06
331.344	140.06
331.572	122.06
331.801	129.06
332.03	128.06
332.258	120.06
332.486	110.06
332.715	97.06
332.943	118.06
333.172	113.06
333.4	120.06
333.629	159.06
333.857	218.06
334.085	374.06
334.314	786.06
334.542	1502.06
334.771	1435.06
334.999	395.06
335.227	176.06
335.455	144.06
335.684	109.06
335.912	119.06
336.14	118.06
336.369	106.06
336.597	121.06
336.825	111.06
337.053	102.06
337.281	100.06
337.51	85.06
337.738	102.06
337.966	107.06
338.194	114.06
338.422	104.06
338.65	107.06
338.878	99.06
339.106	101.06
339.334	104.06
339.562	92.06
339.79	85.06
340.018	99.06
340.246	108.06
340.474	102.06
340.702	100.06
340.93	94.06
341.158	96.06
341.386	102.06
341.614	97.06
341.842	114.06
342.07	85.06
342.298	94.06
342.526	91.06
342.754	95.06
342.981	100.06
343.209	87.06
343.437	102.06
343.665	85.06
343.893	85.06
344.12	87.06
344.348	107.06
344.576	92.06
344.804	97.06
345.031	115.06
345.259	121.06
345.487	98.06
345.714	94.06
345.942	94.06
346.17	74.06
346.397	92.06
346.625	108.06
346.853	89.06
347.08	100.06
347.308	108.06
347.535	107.06
347.763	104.06
347.99	99.06
348.218	105.06
348.445	135.06
348.673	121.06
348.9	115.06
349.128	105.06
349.355	88.06
349.583	85.06
349.81	111.06
350.037	109.06
350.265	99.06
350.492	114.06
350.72	104.06
350.947	106.06
351.174	130.06
351.402	117.06
351.629	114.06
351.856	113.06
352.083	122.06
352.311	119.06
352.538	128.06
352.765	118.06
352.992	131.06
353.22	114.06
353.447	113.06
353.674	110.06
353.901	107.06
354.128	99.06
354.355	103.06
354.583	105.06
354.81	97.06
355.037	100.06
355.264	101.06
355.491	108.06
355.718	89.06
355.945	103.06
356.172	90.06
356.399	110.06
356.626	107.06
356.853	83.06
357.08	95.06
357.307	99.06
357.534	101.06
357.761	85.06
357.988	90.06
358.215	109.06
358.441	99.06
358.668	102.06
358.895	99.06
359.122	87.06
359.349	110.06
359.576	101.06
359.802	113.06
360.029	156.06
360.256	159.06
360.483	116.06
360.709	95.06
360.936	100.06
361.163	104.06
361.39	110.06
361.616	109.06
361.843	101.06
362.07	107.06
362.296	117.06
362.523	106.06
362.749	90.06
362.976	107.06
363.203	112.06
363.429	92.06
363.656	96.06
363.882	98.06
364.109	108.06
364.335	101.06
364.562	80.06
364.788	97.06
365.015	103.06
365.241	113.06
365.468	123.06
365.694	121.06
365.92	126.06
366.147	91.06
366.373	83.06
366.599	97.06
366.826	84.06
367.052	80.06
367.278	91.06
367.505	93.06
367.731	101.06
367.957	102.06
368.184	106.06
368.41	115.06
368.636	140.06
368.862	149.06
369.089	122.06
369.315	115.06
369.541	109.06
369.767	99.06
369.993	116.06
370.219	95.06
370.445	97.06
370.672	86.06
370.898	97.06
371.124	104.06
371.35	98.06
371.576	74.06
371.802	77.06
372.028	96.06
372.254	91.06
372.48	85.06
372.706	95.06
372.932	100.06
373.158	95.06
373.384	94.06
373.61	98.06
373.835	93.06
374.061	92.06
374.287	81.06
374.513	100.06
374.739	85.06
374.965	98.06
375.191	109.06
375.416	101.06
375.642	93.06
375.868	111.06
376.094	99.06
376.319	92.06
376.545	97.06
376.771	105.06
376.997	99.06
377.222	104.06
377.448	92.06
377.674	94.06
377.899	100.06
378.125	102.06
378.35	93.06
378.576	104.06
378.802	95.06
379.027	96.06
379.253	98.06
379.478	102.06
379.704	110.06
379.929	109.06
380.155	108.06
380.38	107.06
380.606	92.06
380.831	106.06
381.057	113.06
381.282	96.06
381.507	99.06
381.733	81.06
381.958	96.06
382.184	117.06
382.409	109.06
382.634	91.06
382.86	101.06
383.085	102.06
383.31	104.06
383.535	110.06
383.761	114.06
383.986	103.06
384.211	92.06
384.436	105.06
384.662	108.06
384.887	101.06
385.112	101.06
385.337	121.06
385.562	112.06
385.787	113.06
386.013	126.06
386.238	139.06
386.463	113.06
386.688	106.06
386.913	116.06
387.138	112.06
387.363	107.06
387.588	94.06
387.813	113.06
388.038	124.06
388.263	130.06
388.488	106.06
388.713	102.06
388.938	87.06
389.163	96.06
389.387	98.06
389.612	92.06
389.837	92.06
390.062	85.06
390.287	99.06
390.512	103.06
390.736	85.06
390.961	77.06
391.186	108.06
391.411	99.06
391.636	89.06
391.86	75.06
392.085	95.06
392.31	97.06
392.534	108.06
392.759	102.06
392.984	103.06
393.208	92.06
393.433	108.06
393.658	100.06
393.882	60.06
394.107	84.06
394.331	80.06
394.556	83.06
394.78	94.06
395.005	91.06
395.229	96.06
395.454	96.06
395.678	86.06
395.903	87.06
396.127	96.06
396.352	101.06
396.576	101.06
396.801	99.06
397.025	114.06
397.249	94.06
397.474	91.06
397.698	93.06
397.922	86.06
398.147	82.06
398.371	94.06
398.595	96.06
398.82	92.06
399.044	80.06
399.268	79.06
399.492	79.06
399.717	85.06
399.941	96.06
400.165	97.06
400.389	98.06
400.613	107.06
400.837	82.06
401.062	86.06
401.286	97.06
401.51	99.06
401.734	100.06
401.958	115.06
402.182	150.06
402.406	218.06
402.63	159.06
402.854	100.06
403.078	93.06
403.302	95.06
403.526	92.06
403.75	98.06
403.974	100.06
404.198	83.06
404.422	89.06
404.645	83.06
404.869	106.06
405.093	117.06
405.317	150.06
405.541	164.06
405.765	130.06
405.988	137.06
406.212	246.06
406.436	343.06
406.66	239.06
406.883	128.06
407.107	100.06
407.331	115.06
407.555	115.06
407.778	108.06
408.002	95.06
408.226	82.06
408.449	83.06
408.673	96.06
408.896	102.06
409.12	118.06
409.344	100.06
409.567	92.06
409.791	93.06
410.014	89.06
410.238	84.06
410.461	95.06
410.685	100.06
410.908	91.06
411.132	99.06
411.355	118.06
411.578	114.06
411.802	85.06
412.025	115.06
412.249	124.06
412.472	122.06
412.695	151.06
412.919	114.06
413.142	93.06
413.365	96.06
413.589	84.06
413.812	98.06
414.035	87.06
414.258	97.06
414.482	101.06
414.705	94.06
414.928	81.06
415.151	96.06
415.374	93.06
415.597	87.06
415.821	73.06
416.044	101.06
416.267	109.06
416.49	93.06
416.713	103.06
416.936	90.06
417.159	98.06
417.382	95.06
417.605	106.06
417.828	124.06
418.051	109.06
418.274	90.06
418.497	91.06
418.72	73.06
418.943	77.06
419.166	94.06
419.389	94.06
419.611	89.06
419.834	94.06
420.057	94.06
420.28	114.06
420.503	90.06
420.726	97.06
420.948	109.06
421.171	114.06
421.394	109.06
421.617	94.06
421.839	87.06
422.062	74.06
422.285	90.06
422.507	100.06
422.73	114.06
422.953	100.06
423.175	82.06
423.398	83.06
423.621	85.06
423.843	99.06
424.066	93.06
424.288	89.06
424.511	101.06
424.733	117.06
424.956	137.06
425.178	107.06
425.401	121.06
425.623	104.06
425.846	106.06
426.068	99.06
426.291	107.06
426.513	95.06
426.735	97.06
426.958	103.06
427.18	119.06
427.402	196.06
427.625	287.06
427.847	273.06
428.069	238.06
428.292	140.06
428.514	98.06
428.736	97.06
428.958	99.06
429.181	98.06
429.403	94.06
429.625	91.06
429.847	114.06
430.069	117.06
430.292	92.06
430.514	99.06
430.736	87.06
430.958	82.06
431.18	75.06
431.402	101.06
431.624	90.06
431.846	89.06
432.068	92.06
432.29	78.06
432.512	85.06
432.734	75.06
432.956	94.06
433.178	91.06
433.4	117.06
433.622	94.06
433.844	93.06
434.066	107.06
434.287	98.06
434.509	102.06
434.731	90.06
434.953	84.06
435.175	91.06
435.397	97.06
435.618	97.06
435.84	126.06
436.062	153.06
436.284	159.06
436.505	123.06
436.727	128.06
436.949	109.06
437.17	95.06
437.392	74.06
437.614	109.06
437.835	129.06
438.057	162.06
438.278	144.06
438.5	127.06
438.721	157.06
438.943	122.06
439.165	93.06
439.386	105.06
439.608	104.06
439.829	128.06
440.05	177.06
440.272	228.06
440.493	114.06
440.715	85.06
440.936	104.06
441.158	88.06
441.379	99.06
441.6	112.06
441.822	114.06
442.043	115.06
442.264	129.06
442.486	131.06
442.707	108.06
442.928	139.06
443.149	185.06
443.371	180.06
443.592	137.06
443.813	146.06
444.034	127.06
444.255	97.06
444.476	84.06
444.698	106.06
444.919	90.06
445.14	145.06
445.361	155.06
445.582	152.06
445.803	216.06
446.024	208.06
446.245	197.06
446.466	136.06
446.687	96.06
446.908	78.06
447.129	91.06
447.35	74.06
447.571	101.06
447.792	107.06
448.013	107.06
448.234	126.06
448.455	129.06
448.675	150.06
448.896	161.06
449.117	117.06
449.338	128.06
449.559	155.06
449.779	166.06
450	105.06
450.221	93.06
450.442	88.06
450.662	116.06
450.883	139.06
451.104	156.06
451.324	110.06
451.545	108.06
451.766	94.06
451.986	90.06
452.207	97.06
452.428	93.06
452.648	119.06
452.869	140.06
453.089	147.06
453.31	161.06
453.53	118.06
453.751	91.06
453.971	120.06
454.192	158.06
454.412	111.06
454.633	87.06
454.853	90.06
455.073	91.06
455.294	103.06
455.514	114.06
455.734	95.06
455.955	90.06
456.175	84.06
456.395	79.06
456.616	89.06
456.836	97.06
457.056	95.06
457.276	81.06
457.497	95.06
457.717	93.06
457.937	85.06
458.157	90.06
458.377	96.06
458.598	140.06
458.818	244.06
459.038	260.06
459.258	163.06
459.478	106.06
459.698	86.06
459.918	97.06
460.138	86.06
460.358	103.06
460.578	77.06
460.798	91.06
461.018	87.06
461.238	78.06
461.458	95.06
461.678	83.06
461.898	89.06
462.118	95.06
462.338	95.06
462.558	89.06
462.777	82.06
462.997	105.06
463.217	92.06
463.437	91.06
463.657	89.06
463.876	118.06
464.096	109.06
464.316	95.06
464.536	97.06
464.755	95.06
464.975	133.06
465.195	265.06
465.414	275.06
465.634	116.06
465.854	94.06
466.073	87.06
466.293	85.06
466.512	86.06
466.732	87.06
466.951	98.06
467.171	116.06
467.391	126.06
467.61	161.06
467.829	182.06
468.049	395.06
468.268	629.06
468.488	176.06
468.707	91.06
468.927	104.06
469.146	88.06
469.365	95.06
469.585	101.06
469.804	114.06
470.023	112.06
470.243	101.06
470.462	129.06
470.681	145.06
470.901	101.06
471.12	91.06
471.339	105.06
471.558	108.06
471.777	131.06
471.997	233.06
472.216	781.06
472.435	1836.06
472.654	473.06
472.873	149.06
473.092	102.06
473.311	104.06
473.53	106.06
473.749	111.06
473.968	113.06
474.187	135.06
474.406	113.06
474.625	89.06
474.844	101.06
475.063	98.06
475.282	84.06
475.501	97.06
475.72	104.06
475.939	98.06
476.158	98.06
476.377	109.06
476.596	92.06
476.814	96.06
477.033	107.06
477.252	98.06
477.471	86.06
477.69	96.06
477.908	94.06
478.127	98.06
478.346	105.06
478.564	102.06
478.783	121.06
479.002	112.06
479.22	110.06
479.439	113.06
479.658	137.06
479.876	123.06
480.095	115.06
480.313	139.06
480.532	161.06
480.751	236.06
480.969	729.06
481.188	3183.06
481.406	1945.06
481.624	314.06
481.843	139.06
482.061	106.06
482.28	108.06
482.498	90.06
482.717	86.06
482.935	101.06
483.153	102.06
483.372	95.06
483.59	95.06
483.808	85.06
484.027	90.06
484.245	99.06
484.463	101.06
484.681	101.06
484.9	89.06
485.118	98.06
485.336	70.06
485.554	109.06
485.772	108.06
485.99	110.06
486.209	105.06
486.427	110.06
486.645	133.06
486.863	135.06
487.081	121.06
487.299	99.06
487.517	86.06
487.735	76.06
487.953	91.06
488.171	99.06
488.389	103.06
488.607	123.06
488.825	97.06
489.043	93.06
489.261	76.06
489.479	89.06
489.696	95.06
489.914	89.06
490.132	82.06
490.35	91.06
490.568	84.06
490.786	91.06
491.003	82.06
491.221	82.06
491.439	104.06
491.657	104.06
491.874	105.06
492.092	87.06
492.31	82.06
492.527	86.06
492.745	79.06
492.963	89.06
493.18	93.06
493.398	100.06
493.615	89.06
493.833	87.06
494.05	94.06
494.268	89.06
494.485	92.06
494.703	88.06
494.92	90.06
495.138	96.06
495.355	93.06
495.573	86.06
495.79	88.06
496.008	96.06
496.225	107.06
496.442	86.06
496.66	94.06
496.877	94.06
497.094	94.06
497.312	91.06
497.529	98.06
497.746	93.06
497.963	90.06
498.181	100.06
498.398	96.06
498.615	123.06
498.832	118.06
499.049	98.06
499.267	100.06
499.484	90.06
499.701	90.06
499.918	91.06
500.135	87.06
500.352	100.06
500.569	97.06
500.786	74.06
501.003	93.06
501.22	95.06
501.437	102.06
501.654	93.06
501.871	129.06
502.088	93.06
502.305	86.06
502.522	78.06
502.739	105.06
502.956	102.06
503.172	98.06
503.389	95.06
503.606	119.06
503.823	108.06
504.04	100.06
504.256	100.06
504.473	102.06
504.69	92.06
504.907	106.06
505.123	68.06
505.34	88.06
505.557	79.06
505.773	97.06
505.99	106.06
506.207	85.06
506.423	85.06
506.64	78.06
506.856	90.06
507.073	98.06
507.289	91.06
507.506	91.06
507.722	149.06
507.939	154.06
508.155	93.06
508.372	83.06
508.588	97.06
508.805	82.06
509.021	91.06
509.238	116.06
509.454	118.06
509.67	102.06
509.887	127.06
510.103	155.06
510.319	265.06
510.536	1002.06
510.752	3532.06
510.968	965.06
511.184	189.06
511.401	124.06
511.617	104.06
