Data from Circ_2007_H10_HRD10591_00001.txt Node
Date: Wed Jan 03 10:21:57 EST 2024
User: Yrep
Spectrometer: HR+D1059
Trigger mode: 1
Integration Time (sec): 1.000000E-1
Scans to average: 1
Electric dark correction enabled: true
Nonlinearity correction enabled: false
Boxcar width: 0
XAxis mode: Wavelengths
Number of Pixels in Spectrum: 2048
>>>>>Begin Spectral Data<<<<<
223.165	-13
223.4	-13
223.635	-13
223.869	-21
224.104	-24
224.338	-26
224.573	-11
224.808	-19
225.042	-20
225.277	1
225.511	5
225.746	0
225.98	9
226.215	23
226.449	27
226.683	18
226.918	19
227.152	32
227.387	26
227.621	48
227.856	40
228.09	45
228.324	54
228.559	54
228.793	66
229.027	70
229.262	65
229.496	57
229.73	82
229.964	89
230.199	66
230.433	79
230.667	92
230.901	80
231.136	77
231.37	60
231.604	83
231.838	76
232.072	84
232.306	82
232.541	65
232.775	91
233.009	74
233.243	78
233.477	84
233.711	80
233.945	90
234.179	87
234.413	76
234.647	77
234.881	82
235.115	90
235.349	74
235.583	79
235.817	81
236.051	81
236.285	79
236.519	89
236.753	94
236.987	74
237.221	89
237.455	86
237.689	91
237.922	88
238.156	79
238.39	79
238.624	86
238.858	77
239.091	83
239.325	78
239.559	76
239.793	79
240.027	87
240.26	76
240.494	80
240.728	72
240.961	77
241.195	94
241.429	67
241.662	76
241.896	62
242.13	66
242.363	87
242.597	66
242.83	75
243.064	72
243.298	73
243.531	81
243.765	63
243.998	66
244.232	83
244.465	78
244.699	87
244.932	77
245.166	73
245.399	89
245.633	65
245.866	63
246.099	76
246.333	79
246.566	78
246.8	76
247.033	80
247.266	67
247.5	74
247.733	66
247.966	88
248.2	89
248.433	75
248.666	70
248.899	82
249.133	99
249.366	90
249.599	95
249.832	76
250.066	78
250.299	74
250.532	87
250.765	74
250.998	92
251.231	83
251.465	84
251.698	75
251.931	80
252.164	71
252.397	75
252.63	70
252.863	79
253.096	80
253.329	90
253.562	84
253.795	82
254.028	75
254.261	76
254.494	71
254.727	85
254.96	89
255.193	77
255.426	81
255.659	75
255.892	77
256.124	103
256.357	89
256.59	84
256.823	83
257.056	84
257.289	81
257.521	83
257.754	77
257.987	79
258.22	86
258.452	94
258.685	80
258.918	79
259.151	71
259.383	89
259.616	73
259.849	76
260.081	77
260.314	79
260.547	78
260.779	91
261.012	80
261.244	87
261.477	91
261.71	93
261.942	120
262.175	134
262.407	97
262.64	98
262.872	78
263.105	78
263.337	83
263.57	75
263.802	81
264.035	87
264.267	77
264.499	72
264.732	81
264.964	73
265.197	83
265.429	85
265.661	82
265.894	82
266.126	79
266.358	93
266.591	76
266.823	90
267.055	77
267.287	93
267.52	78
267.752	86
267.984	78
268.216	79
268.448	86
268.681	88
268.913	87
269.145	69
269.377	81
269.609	85
269.841	96
270.073	83
270.306	69
270.538	84
270.77	82
271.002	77
271.234	76
271.466	73
271.698	79
271.93	65
272.162	81
272.394	78
272.626	88
272.858	83
273.09	87
273.322	87
273.553	86
273.785	91
274.017	98
274.249	77
274.481	92
274.713	90
274.945	85
275.176	81
275.408	82
275.64	98
275.872	93
276.104	102
276.335	81
276.567	106
276.799	133
277.031	96
277.262	102
277.494	98
277.726	79
277.957	93
278.189	78
278.421	83
278.652	78
278.884	82
279.115	85
279.347	81
279.579	79
279.81	100
280.042	128
280.273	161
280.505	118
280.736	89
280.968	86
281.199	78
281.431	66
281.662	96
281.894	103
282.125	99
282.356	138
282.588	151
282.819	116
283.051	85
283.282	94
283.513	81
283.745	95
283.976	101
284.207	81
284.439	74
284.67	83
284.901	90
285.132	95
285.364	97
285.595	89
285.826	74
286.057	69
286.288	82
286.52	83
286.751	73
286.982	85
287.213	89
287.444	98
287.675	82
287.906	92
288.138	87
288.369	96
288.6	97
288.831	92
289.062	74
289.293	90
289.524	93
289.755	81
289.986	77
290.217	91
290.448	80
290.679	80
290.91	95
291.141	77
291.371	95
291.602	85
291.833	82
292.064	77
292.295	73
292.526	95
292.757	82
292.987	90
293.218	97
293.449	97
293.68	82
293.91	85
294.141	91
294.372	92
294.603	93
294.833	91
295.064	85
295.295	81
295.525	87
295.756	94
295.987	108
296.217	153
296.448	143
296.679	92
296.909	99
297.14	94
297.37	91
297.601	93
297.831	98
298.062	96
298.292	92
298.523	91
298.753	90
298.984	92
299.214	90
299.445	96
299.675	93
299.905	93
300.136	108
300.366	87
300.597	103
300.827	93
301.057	90
301.288	98
301.518	89
301.748	93
301.979	98
302.209	96
302.439	90
302.669	97
302.9	81
303.13	77
303.36	102
303.59	114
303.82	112
304.051	95
304.281	89
304.511	91
304.741	90
304.971	101
305.201	94
305.431	81
305.661	102
305.891	93
306.121	79
306.352	102
306.582	107
306.812	81
307.042	104
307.272	121
307.502	131
307.731	110
307.961	105
308.191	91
308.421	104
308.651	93
308.881	97
309.111	93
309.341	101
309.571	99
309.8	106
310.03	99
310.26	105
310.49	95
310.72	101
310.949	106
311.179	96
311.409	90
311.639	103
311.868	100
312.098	96
312.328	103
312.557	112
312.787	125
313.017	120
313.246	114
313.476	92
313.706	82
313.935	87
314.165	101
314.394	123
314.624	94
314.853	106
315.083	95
315.312	82
315.542	98
315.771	80
316.001	97
316.23	84
316.46	91
316.689	89
316.919	90
317.148	96
317.377	89
317.607	97
317.836	97
318.065	90
318.295	92
318.524	75
318.753	94
318.983	88
319.212	102
319.441	111
319.67	114
319.9	100
320.129	94
320.358	82
320.587	103
320.816	101
321.046	94
321.275	94
321.504	106
321.733	100
321.962	92
322.191	96
322.42	124
322.649	120
322.878	117
323.108	118
323.337	123
323.566	135
323.795	167
324.024	252
324.253	471
324.482	967
324.71	2040
324.939	2738
325.168	992
325.397	279
325.626	153
325.855	133
326.084	137
326.313	140
326.542	183
326.77	255
326.999	524
327.228	1086
327.457	2037
327.686	1701
327.914	473
328.143	319
328.372	322
328.6	226
328.829	147
329.058	167
329.287	160
329.515	136
329.744	161
329.972	206
330.201	387
330.43	569
330.658	333
330.887	226
331.115	145
331.344	109
331.572	116
331.801	109
332.03	119
332.258	106
332.486	119
332.715	92
332.943	108
333.172	108
333.4	113
333.629	129
333.857	135
334.085	209
334.314	358
334.542	677
334.771	673
334.999	208
335.227	140
335.455	96
335.684	96
335.912	95
336.14	91
336.369	89
336.597	94
336.825	111
337.053	93
337.281	80
337.51	73
337.738	101
337.966	99
338.194	88
338.422	94
338.65	98
338.878	90
339.106	96
339.334	92
339.562	90
339.79	84
340.018	92
340.246	102
340.474	108
340.702	104
340.93	89
341.158	62
341.386	96
341.614	104
341.842	102
342.07	86
342.298	91
342.526	89
342.754	84
342.981	84
343.209	78
343.437	98
343.665	77
343.893	97
344.12	87
344.348	95
344.576	94
344.804	82
345.031	109
345.259	100
345.487	88
345.714	96
345.942	106
346.17	77
346.397	101
346.625	101
346.853	85
347.08	88
347.308	105
347.535	93
347.763	92
347.99	106
348.218	98
348.445	111
348.673	117
348.9	101
349.128	75
349.355	87
349.583	92
349.81	87
350.037	90
350.265	85
350.492	80
350.72	102
350.947	98
351.174	97
351.402	118
351.629	113
351.856	102
352.083	104
352.311	92
352.538	129
352.765	102
352.992	117
353.22	117
353.447	106
353.674	101
353.901	83
354.128	86
354.355	94
354.583	100
354.81	109
355.037	99
355.264	90
355.491	101
355.718	95
355.945	101
356.172	89
356.399	89
356.626	80
356.853	85
357.08	93
357.307	87
357.534	101
357.761	102
357.988	92
358.215	107
358.441	109
358.668	101
358.895	97
359.122	98
359.349	93
359.576	91
359.802	108
360.029	119
360.256	135
360.483	109
360.709	86
360.936	95
361.163	103
361.39	111
361.616	95
361.843	89
362.07	105
362.296	103
362.523	87
362.749	83
362.976	87
363.203	93
363.429	90
363.656	84
363.882	86
364.109	91
364.335	70
364.562	82
364.788	86
365.015	91
365.241	96
365.468	106
365.694	129
365.92	92
366.147	93
366.373	82
366.599	98
366.826	82
367.052	79
367.278	86
367.505	73
367.731	104
367.957	87
368.184	81
368.41	95
368.636	112
368.862	121
369.089	98
369.315	99
369.541	92
369.767	96
369.993	101
370.219	95
370.445	72
370.672	81
370.898	63
371.124	89
371.35	90
371.576	83
371.802	84
372.028	87
372.254	95
372.48	99
372.706	88
372.932	111
373.158	101
373.384	97
373.61	106
373.835	81
374.061	97
374.287	94
374.513	95
374.739	88
374.965	90
375.191	88
375.416	78
375.642	99
375.868	92
376.094	100
376.319	108
376.545	87
376.771	97
376.997	94
377.222	101
377.448	96
377.674	90
377.899	94
378.125	87
378.35	83
378.576	83
378.802	94
379.027	97
379.253	93
379.478	87
379.704	89
379.929	90
380.155	106
380.38	105
380.606	96
380.831	97
381.057	113
381.282	96
381.507	104
381.733	103
381.958	100
382.184	110
382.409	119
382.634	111
382.86	112
383.085	107
383.31	108
383.535	102
383.761	119
383.986	110
384.211	102
384.436	103
384.662	113
384.887	129
385.112	127
385.337	137
385.562	117
385.787	124
386.013	136
386.238	135
386.463	122
386.688	129
386.913	119
387.138	138
387.363	119
387.588	110
387.813	120
388.038	105
388.263	141
388.488	136
388.713	102
388.938	87
389.163	99
389.387	88
389.612	67
389.837	93
390.062	80
390.287	104
390.512	90
390.736	82
390.961	91
391.186	88
391.411	91
391.636	77
391.86	81
392.085	96
392.31	84
392.534	92
392.759	102
392.984	92
393.208	92
393.433	108
393.658	104
393.882	83
394.107	80
394.331	77
394.556	85
394.78	94
395.005	85
395.229	91
395.454	83
395.678	94
395.903	74
396.127	102
396.352	99
396.576	90
396.801	92
397.025	86
397.249	85
397.474	80
397.698	89
397.922	88
398.147	69
398.371	80
398.595	87
398.82	90
399.044	87
399.268	90
399.492	71
399.717	93
399.941	89
400.165	101
400.389	87
400.613	90
400.837	91
401.062	88
401.286	99
401.51	76
401.734	85
401.958	92
402.182	144
402.406	180
402.63	119
402.854	95
403.078	88
403.302	79
403.526	81
403.75	81
403.974	81
404.198	86
404.422	101
404.645	110
404.869	99
405.093	110
405.317	129
405.541	129
405.765	107
405.988	119
406.212	185
406.436	256
406.66	177
406.883	102
407.107	85
407.331	104
407.555	104
407.778	99
408.002	99
408.226	93
408.449	69
408.673	82
408.896	79
409.12	108
409.344	92
409.567	91
409.791	93
410.014	88
410.238	101
410.461	90
410.685	95
410.908	97
411.132	108
411.355	90
411.578	79
411.802	88
412.025	78
412.249	75
412.472	113
412.695	120
412.919	89
413.142	96
413.365	91
413.589	84
413.812	82
414.035	85
414.258	97
414.482	85
414.705	77
414.928	92
415.151	82
415.374	91
415.597	107
415.821	96
416.044	97
416.267	94
416.49	89
416.713	62
416.936	93
417.159	94
417.382	103
417.605	87
417.828	103
418.051	99
418.274	78
418.497	86
418.72	94
418.943	87
419.166	98
419.389	97
419.611	80
419.834	95
420.057	88
420.28	95
420.503	107
420.726	79
420.948	96
421.171	89
421.394	83
421.617	101
421.839	77
422.062	89
422.285	96
422.507	101
422.73	111
422.953	105
423.175	87
423.398	92
423.621	89
423.843	94
424.066	85
424.288	82
424.511	92
424.733	98
424.956	130
425.178	110
425.401	114
425.623	82
425.846	93
426.068	90
426.291	86
426.513	74
426.735	86
426.958	86
427.18	118
427.402	166
427.625	232
427.847	209
428.069	167
428.292	101
428.514	91
428.736	84
428.958	94
429.181	95
429.403	84
429.625	90
429.847	90
430.069	115
430.292	97
430.514	96
430.736	90
430.958	87
431.18	103
431.402	63
431.624	78
431.846	93
432.068	78
432.29	63
432.512	88
432.734	80
432.956	84
433.178	99
433.4	103
433.622	89
433.844	97
434.066	88
434.287	93
434.509	95
434.731	90
434.953	91
435.175	88
435.397	90
435.618	100
435.84	99
436.062	137
436.284	127
436.505	112
436.727	102
436.949	93
437.17	87
437.392	94
437.614	96
437.835	91
438.057	139
438.278	128
438.5	105
438.721	126
438.943	107
439.165	89
439.386	89
439.608	90
439.829	109
440.05	145
440.272	183
440.493	97
440.715	81
440.936	90
441.158	82
441.379	84
441.6	105
441.822	90
442.043	102
442.264	112
442.486	124
442.707	81
442.928	121
443.149	174
443.371	147
443.592	114
443.813	123
444.034	105
444.255	88
444.476	90
444.698	83
444.919	91
445.14	137
445.361	131
445.582	129
445.803	171
446.024	168
446.245	171
446.466	134
446.687	94
446.908	77
447.129	96
447.35	87
447.571	95
447.792	106
448.013	104
448.234	109
448.455	101
448.675	117
448.896	137
449.117	101
449.338	96
449.559	144
449.779	153
450	110
450.221	83
450.442	89
450.662	86
450.883	118
451.104	115
451.324	97
451.545	89
451.766	83
451.986	91
452.207	94
452.428	95
452.648	105
452.869	102
453.089	126
453.31	120
453.53	101
453.751	86
453.971	117
454.192	136
454.412	94
454.633	88
454.853	86
455.073	91
455.294	85
455.514	109
455.734	89
455.955	80
456.175	90
456.395	79
456.616	88
456.836	83
457.056	89
457.276	98
457.497	81
457.717	82
457.937	101
458.157	95
458.377	89
458.598	114
458.818	170
459.038	217
459.258	139
459.478	95
459.698	81
459.918	82
460.138	80
460.358	75
460.578	80
460.798	87
461.018	85
461.238	74
461.458	87
461.678	90
461.898	75
462.118	90
462.338	74
462.558	82
462.777	79
462.997	84
463.217	98
463.437	85
463.657	86
463.876	86
464.096	70
464.316	89
464.536	98
464.755	100
464.975	118
465.195	196
465.414	215
465.634	107
465.854	100
466.073	82
466.293	89
466.512	83
466.732	98
466.951	73
467.171	81
467.391	85
467.61	121
467.829	131
468.049	219
468.268	303
468.488	127
468.707	96
468.927	100
469.146	79
469.365	88
469.585	92
469.804	98
470.023	113
470.243	86
470.462	90
470.681	118
470.901	98
471.12	78
471.339	82
471.558	98
471.777	105
471.997	159
472.216	370
472.435	845
472.654	246
472.873	118
473.092	91
473.311	89
473.53	78
473.749	100
473.968	97
474.187	117
474.406	90
474.625	86
474.844	94
475.063	92
475.282	87
475.501	89
475.72	75
475.939	87
476.158	88
476.377	80
476.596	84
476.814	97
477.033	98
477.252	88
477.471	92
477.69	82
477.908	94
478.127	82
478.346	89
478.564	120
478.783	93
479.002	96
479.22	94
479.439	108
479.658	120
479.876	93
480.095	83
480.313	114
480.532	119
480.751	146
480.969	353
481.188	1349
481.406	910
481.624	181
481.843	105
482.061	93
482.28	92
482.498	87
482.717	83
482.935	83
483.153	92
483.372	90
483.59	95
483.808	94
484.027	88
484.245	111
484.463	94
484.681	98
484.9	92
485.118	90
485.336	113
485.554	96
485.772	113
485.99	114
486.209	111
486.427	105
486.645	122
486.863	127
487.081	105
487.299	101
487.517	92
487.735	98
487.953	81
488.171	98
488.389	96
488.607	108
488.825	96
489.043	86
489.261	89
489.479	87
489.696	78
489.914	89
490.132	82
490.35	90
490.568	91
490.786	68
491.003	78
491.221	101
491.439	96
491.657	95
491.874	99
492.092	91
492.31	85
492.527	91
492.745	91
492.963	86
493.18	94
493.398	86
493.615	91
493.833	79
494.05	84
494.268	95
494.485	87
494.703	85
494.92	86
495.138	88
495.355	95
495.573	85
495.79	92
496.008	96
496.225	88
496.442	81
496.66	101
496.877	80
497.094	87
497.312	97
497.529	88
497.746	78
497.963	86
498.181	87
498.398	91
498.615	110
498.832	96
499.049	96
499.267	108
499.484	75
499.701	93
499.918	77
500.135	74
500.352	78
500.569	85
500.786	97
501.003	105
501.22	98
501.437	93
501.654	94
501.871	108
502.088	89
502.305	74
502.522	98
502.739	91
502.956	91
503.172	90
503.389	96
503.606	114
503.823	97
504.04	88
504.256	91
504.473	73
504.69	80
504.907	88
505.123	95
505.34	89
505.557	79
505.773	84
505.99	96
506.207	99
506.423	84
506.64	80
506.856	80
507.073	94
507.289	81
507.506	112
507.722	112
507.939	123
508.155	102
508.372	91
508.588	101
508.805	108
509.021	85
509.238	101
509.454	93
509.67	86
509.887	99
510.103	118
510.319	233
510.536	764
510.752	2575
510.968	715
511.184	171
511.401	114
511.617	116
511.833	101
512.049	89
512.265	98
512.481	88
512.698	100
512.914	103
513.13	101
513.346	98
513.562	78
513.778	106
513.994	91
514.21	132
514.426	146
514.642	156
514.858	138
515.074	191
515.29	559
515.506	1936
515.721	746
515.937	187
516.153	135
516.369	113
516.585	102
516.801	94
517.016	99
517.232	94
517.448	93
517.664	102
517.879	102
518.095	95
518.311	85
518.527	105
518.742	97
518.958	86
519.173	101
519.389	91
519.605	99
519.82	113
520.036	101
520.251	114
520.467	113
520.682	91
520.898	110
521.113	111
521.329	157
521.544	237
521.76	708
521.975	3206
522.19	1981
522.406	392
522.621	147
522.836	109
523.052	106
523.267	96
523.482	95
523.698	105
523.913	136
524.128	98
524.343	103
524.559	101
524.774	89
524.989	102
525.204	104
525.419	112
525.634	91
525.849	107
526.064	96
526.28	88
526.495	102
526.71	88
526.925	75
527.14	86
527.355	76
527.57	89
527.785	90
527.999	86
528.214	90
528.429	83
528.644	91
528.859	97
529.074	107
529.289	124
529.503	236
529.718	114
529.933	105
530.148	83
530.363	88
530.577	94
530.792	96
531.007	93
531.221	89
531.436	96
531.651	70
531.865	93
532.08	86
532.295	73
532.509	87
532.724	95
532.938	87
533.153	101
533.367	88
533.582	84
533.796	92
534.011	94
534.225	76
534.44	81
534.654	109
534.868	72
535.083	87
535.297	87
535.511	107
535.726	106
535.94	93
536.154	92
536.369	88
536.583	93
536.797	104
537.011	95
537.225	88
537.44	61
537.654	95
537.868	77
538.082	79
538.296	97
538.51	94
538.724	82
538.938	93
539.153	88
539.367	95
539.581	91
539.795	83
540.009	89
540.222	85
540.436	76
540.65	89
540.864	92
541.078	94
541.292	82
541.506	86
541.72	94
541.934	98
542.147	90
542.361	86
542.575	75
542.789	83
543.002	80
543.216	90
543.43	109
543.644	90
543.857	105
544.071	101
544.285	93
544.498	82
544.712	98
544.925	87
545.139	88
545.352	87
545.566	98
545.779	95
545.993	89
546.206	87
546.42	87
546.633	82
546.847	105
547.06	79
547.274	87
547.487	76
547.7	93
547.914	82
548.127	98
548.34	84
548.554	79
548.767	82
548.98	94
549.193	97
549.407	97
549.62	98
549.833	88
550.046	86
550.259	93
550.473	75
550.686	82
550.899	94
551.112	85
551.325	98
551.538	93
551.751	88
551.964	82
552.177	95
552.39	75
552.603	89
552.816	90
553.029	86
553.242	87
553.455	93
553.667	101
553.88	118
554.093	94
554.306	100
554.519	102
554.732	96
554.944	90
555.157	82
555.37	98
555.583	87
555.795	83
556.008	93
556.221	84
556.433	95
556.646	91
556.859	96
557.071	88
557.284	93
557.496	90
557.709	82
557.921	87
558.134	81
558.346	78
558.559	90
558.771	88
558.984	93
559.196	96
559.409	94
559.621	74
559.833	89
560.046	89
560.258	94
560.47	93
560.683	85
560.895	88
561.107	73
561.32	87
561.532	74
561.744	86
561.956	106
562.168	96
562.381	77
562.593	79
562.805	88
563.017	92
563.229	87
563.441	92
563.653	94
563.865	76
564.077	69
564.289	85
564.501	90
564.713	78
564.925	94
565.137	114
565.349	96
565.561	91
565.773	69
565.985	83
566.197	92
566.408	82
566.62	83
566.832	75
567.044	80
567.255	87
567.467	76
567.679	83
567.891	97
568.102	74
568.314	73
568.526	86
568.737	78
568.949	86
569.161	91
569.372	86
569.584	81
569.795	98
570.007	103
570.218	264
570.43	138
570.641	84
570.853	87
571.064	82
571.276	90
571.487	82
571.698	87
571.91	85
572.121	63
572.333	84
572.544	86
572.755	90
572.966	75
573.178	101
573.389	91
573.6	97
573.811	87
574.023	78
574.234	76
574.445	89
574.656	75
574.867	71
575.078	87
575.289	78
575.501	89
575.712	74
575.923	91
576.134	91
576.345	91
576.556	66
576.767	78
576.978	101
577.188	83
577.399	81
577.61	84
577.821	89
578.032	129
578.243	267
578.454	815
578.665	224
578.875	98
579.086	92
579.297	84
579.508	83
579.718	89
579.929	83
580.14	86
580.35	92
580.561	89
580.772	88
580.982	75
581.193	82
581.403	67
581.614	87
581.825	91
582.035	79
582.246	97
582.456	74
582.667	91
582.877	73
