Data from Circ_2007_H10_HRD10591_00047.txt Node
Date: Wed Jan 03 10:22:06 EST 2024
User: Yrep
Spectrometer: HR+D1059
Trigger mode: 1
Integration Time (sec): 1.000000E-1
Scans to average: 1
Electric dark correction enabled: true
Nonlinearity correction enabled: false
Boxcar width: 0
XAxis mode: Wavelengths
Number of Pixels in Spectrum: 2048
>>>>>Begin Spectral Data<<<<<
223.165	-14.75
223.4	-14.75
223.635	-14.75
223.869	-22.75
224.104	-26.75
224.338	-16.75
224.573	-2.75
224.808	-15.75
225.042	11.25
225.277	-15.75
225.511	-7.75
225.746	19.25
225.98	6.25
226.215	15.25
226.449	17.25
226.683	11.25
226.918	12.25
227.152	30.25
227.387	33.25
227.621	30.25
227.856	41.25
228.09	44.25
228.324	43.25
228.559	46.25
228.793	58.25
229.027	48.25
229.262	82.25
229.496	78.25
229.73	111.25
229.964	106.25
230.199	94.25
230.433	78.25
230.667	82.25
230.901	73.25
231.136	76.25
231.37	86.25
231.604	73.25
231.838	66.25
232.072	74.25
232.306	76.25
232.541	84.25
232.775	92.25
233.009	93.25
233.243	92.25
233.477	76.25
233.711	84.25
233.945	66.25
234.179	88.25
234.413	81.25
234.647	90.25
234.881	77.25
235.115	84.25
235.349	76.25
235.583	82.25
235.817	78.25
236.051	84.25
236.285	82.25
236.519	76.25
236.753	78.25
236.987	85.25
237.221	95.25
237.455	105.25
237.689	84.25
237.922	86.25
238.156	68.25
238.39	78.25
238.624	77.25
238.858	91.25
239.091	71.25
239.325	76.25
239.559	85.25
239.793	91.25
240.027	83.25
240.26	86.25
240.494	86.25
240.728	81.25
240.961	76.25
241.195	71.25
241.429	88.25
241.662	69.25
241.896	65.25
242.13	88.25
242.363	95.25
242.597	83.25
242.83	89.25
243.064	81.25
243.298	73.25
243.531	75.25
243.765	77.25
243.998	82.25
244.232	84.25
244.465	93.25
244.699	82.25
244.932	83.25
245.166	81.25
245.399	69.25
245.633	72.25
245.866	93.25
246.099	77.25
246.333	89.25
246.566	98.25
246.8	81.25
247.033	91.25
247.266	78.25
247.5	77.25
247.733	83.25
247.966	95.25
248.2	74.25
248.433	86.25
248.666	69.25
248.899	78.25
249.133	90.25
249.366	113.25
249.599	110.25
249.832	85.25
250.066	85.25
250.299	99.25
250.532	90.25
250.765	89.25
250.998	76.25
251.231	84.25
251.465	84.25
251.698	86.25
251.931	84.25
252.164	89.25
252.397	84.25
252.63	76.25
252.863	74.25
253.096	87.25
253.329	88.25
253.562	76.25
253.795	80.25
254.028	78.25
254.261	83.25
254.494	72.25
254.727	93.25
254.96	70.25
255.193	82.25
255.426	82.25
255.659	80.25
255.892	98.25
256.124	104.25
256.357	93.25
256.59	85.25
256.823	81.25
257.056	85.25
257.289	92.25
257.521	92.25
257.754	78.25
257.987	96.25
258.22	105.25
258.452	82.25
258.685	97.25
258.918	84.25
259.151	86.25
259.383	90.25
259.616	81.25
259.849	84.25
260.081	90.25
260.314	83.25
260.547	98.25
260.779	98.25
261.012	98.25
261.244	96.25
261.477	109.25
261.71	130.25
261.942	140.25
262.175	171.25
262.407	97.25
262.64	73.25
262.872	107.25
263.105	86.25
263.337	99.25
263.57	87.25
263.802	91.25
264.035	90.25
264.267	73.25
264.499	76.25
264.732	86.25
264.964	83.25
265.197	86.25
265.429	100.25
265.661	78.25
265.894	79.25
266.126	93.25
266.358	103.25
266.591	96.25
266.823	94.25
267.055	88.25
267.287	91.25
267.52	86.25
267.752	73.25
267.984	71.25
268.216	76.25
268.448	85.25
268.681	87.25
268.913	70.25
269.145	89.25
269.377	84.25
269.609	79.25
269.841	88.25
270.073	93.25
270.306	102.25
270.538	85.25
270.77	77.25
271.002	105.25
271.234	108.25
271.466	107.25
271.698	98.25
271.93	101.25
272.162	104.25
272.394	114.25
272.626	87.25
272.858	88.25
273.09	89.25
273.322	82.25
273.553	77.25
273.785	82.25
274.017	72.25
274.249	85.25
274.481	86.25
274.713	98.25
274.945	85.25
275.176	93.25
275.408	115.25
275.64	117.25
275.872	133.25
276.104	97.25
276.335	105.25
276.567	122.25
276.799	171.25
277.031	185.25
277.262	200.25
277.494	153.25
277.726	116.25
277.957	106.25
278.189	81.25
278.421	93.25
278.652	92.25
278.884	96.25
279.115	91.25
279.347	95.25
279.579	108.25
279.81	120.25
280.042	181.25
280.273	262.25
280.505	177.25
280.736	105.25
280.968	98.25
281.199	92.25
281.431	109.25
281.662	97.25
281.894	103.25
282.125	105.25
282.356	164.25
282.588	218.25
282.819	150.25
283.051	99.25
283.282	90.25
283.513	89.25
283.745	93.25
283.976	81.25
284.207	97.25
284.439	96.25
284.67	98.25
284.901	95.25
285.132	90.25
285.364	91.25
285.595	85.25
285.826	96.25
286.057	87.25
286.288	93.25
286.52	93.25
286.751	93.25
286.982	77.25
287.213	88.25
287.444	96.25
287.675	89.25
287.906	86.25
288.138	95.25
288.369	100.25
288.6	82.25
288.831	72.25
289.062	77.25
289.293	91.25
289.524	94.25
289.755	84.25
289.986	95.25
290.217	108.25
290.448	95.25
290.679	84.25
290.91	91.25
291.141	84.25
291.371	91.25
291.602	98.25
291.833	103.25
292.064	94.25
292.295	97.25
292.526	90.25
292.757	91.25
292.987	99.25
293.218	105.25
293.449	93.25
293.68	94.25
293.91	98.25
294.141	93.25
294.372	81.25
294.603	101.25
294.833	105.25
295.064	92.25
295.295	96.25
295.525	87.25
295.756	122.25
295.987	147.25
296.217	186.25
296.448	162.25
296.679	113.25
296.909	90.25
297.14	96.25
297.37	99.25
297.601	88.25
297.831	93.25
298.062	101.25
298.292	90.25
298.523	88.25
298.753	88.25
298.984	81.25
299.214	96.25
299.445	108.25
299.675	104.25
299.905	107.25
300.136	101.25
300.366	95.25
300.597	85.25
300.827	94.25
301.057	106.25
301.288	109.25
301.518	103.25
301.748	93.25
301.979	108.25
302.209	91.25
302.439	107.25
302.669	108.25
302.9	123.25
303.13	107.25
303.36	112.25
303.59	141.25
303.82	151.25
304.051	112.25
304.281	104.25
304.511	94.25
304.741	98.25
304.971	95.25
305.201	83.25
305.431	94.25
305.661	105.25
305.891	106.25
306.121	108.25
306.352	125.25
306.582	135.25
306.812	121.25
307.042	104.25
307.272	151.25
307.502	165.25
307.731	163.25
307.961	118.25
308.191	92.25
308.421	101.25
308.651	108.25
308.881	97.25
309.111	104.25
309.341	113.25
309.571	97.25
309.8	105.25
310.03	97.25
310.26	128.25
310.49	108.25
310.72	118.25
310.949	147.25
311.179	126.25
311.409	112.25
311.639	101.25
311.868	106.25
312.098	95.25
312.328	114.25
312.557	135.25
312.787	148.25
313.017	131.25
313.246	106.25
313.476	93.25
313.706	110.25
313.935	113.25
314.165	129.25
314.394	126.25
314.624	105.25
314.853	115.25
315.083	106.25
315.312	110.25
315.542	90.25
315.771	97.25
316.001	98.25
316.23	85.25
316.46	94.25
316.689	107.25
316.919	100.25
317.148	109.25
317.377	109.25
317.607	112.25
317.836	97.25
318.065	100.25
318.295	100.25
318.524	98.25
318.753	111.25
318.983	106.25
319.212	115.25
319.441	132.25
319.67	136.25
319.9	114.25
320.129	93.25
320.358	100.25
320.587	109.25
320.816	112.25
321.046	129.25
321.275	117.25
321.504	112.25
321.733	113.25
321.962	107.25
322.191	126.25
322.42	125.25
322.649	130.25
322.878	130.25
323.108	143.25
323.337	159.25
323.566	186.25
323.795	223.25
324.024	308.25
324.253	627.25
324.482	1384.25
324.71	2913.25
324.939	3937.25
325.168	1392.25
325.397	367.25
325.626	210.25
325.855	165.25
326.084	154.25
326.313	163.25
326.542	201.25
326.77	332.25
326.999	710.25
327.228	1484.25
327.457	2769.25
327.686	2237.25
327.914	696.25
328.143	576.25
328.372	697.25
328.6	406.25
328.829	225.25
329.058	250.25
329.287	252.25
329.515	204.25
329.744	256.25
329.972	458.25
330.201	972.25
330.43	1427.25
330.658	669.25
330.887	348.25
331.115	256.25
331.344	144.25
331.572	132.25
331.801	136.25
332.03	130.25
332.258	123.25
332.486	100.25
332.715	122.25
332.943	122.25
333.172	116.25
333.4	131.25
333.629	173.25
333.857	246.25
334.085	440.25
334.314	891.25
334.542	1812.25
334.771	1699.25
334.999	457.25
335.227	198.25
335.455	127.25
335.684	111.25
335.912	121.25
336.14	117.25
336.369	118.25
336.597	134.25
336.825	117.25
337.053	102.25
337.281	102.25
337.51	99.25
337.738	105.25
337.966	111.25
338.194	107.25
338.422	122.25
338.65	112.25
338.878	101.25
339.106	89.25
339.334	106.25
339.562	90.25
339.79	99.25
340.018	100.25
340.246	104.25
340.474	107.25
340.702	98.25
340.93	100.25
341.158	99.25
341.386	104.25
341.614	106.25
341.842	115.25
342.07	86.25
342.298	115.25
342.526	97.25
342.754	98.25
342.981	109.25
343.209	79.25
343.437	123.25
343.665	93.25
343.893	96.25
344.12	94.25
344.348	96.25
344.576	96.25
344.804	98.25
345.031	126.25
345.259	106.25
345.487	116.25
345.714	116.25
345.942	100.25
346.17	101.25
346.397	104.25
346.625	117.25
346.853	103.25
347.08	110.25
347.308	107.25
347.535	111.25
347.763	114.25
347.99	120.25
348.218	115.25
348.445	118.25
348.673	117.25
348.9	113.25
349.128	97.25
349.355	95.25
349.583	94.25
349.81	99.25
350.037	111.25
350.265	109.25
350.492	101.25
350.72	101.25
350.947	121.25
351.174	129.25
351.402	142.25
351.629	104.25
351.856	112.25
352.083	122.25
352.311	134.25
352.538	165.25
352.765	150.25
352.992	128.25
353.22	140.25
353.447	112.25
353.674	116.25
353.901	100.25
354.128	99.25
354.355	100.25
354.583	92.25
354.81	96.25
355.037	96.25
355.264	90.25
355.491	95.25
355.718	86.25
355.945	106.25
356.172	82.25
356.399	104.25
356.626	95.25
356.853	76.25
357.08	90.25
357.307	82.25
357.534	82.25
357.761	101.25
357.988	96.25
358.215	99.25
358.441	96.25
358.668	90.25
358.895	94.25
359.122	98.25
359.349	80.25
359.576	117.25
359.802	144.25
360.029	179.25
360.256	179.25
360.483	141.25
360.709	106.25
360.936	95.25
361.163	101.25
361.39	120.25
361.616	116.25
361.843	88.25
362.07	124.25
362.296	116.25
362.523	124.25
362.749	94.25
362.976	98.25
363.203	99.25
363.429	98.25
363.656	101.25
363.882	96.25
364.109	112.25
364.335	86.25
364.562	100.25
364.788	102.25
365.015	106.25
365.241	114.25
365.468	138.25
365.694	128.25
365.92	117.25
366.147	117.25
366.373	97.25
366.599	92.25
366.826	113.25
367.052	97.25
367.278	86.25
367.505	94.25
367.731	106.25
367.957	114.25
368.184	111.25
368.41	124.25
368.636	119.25
368.862	168.25
369.089	124.25
369.315	99.25
369.541	96.25
369.767	98.25
369.993	95.25
370.219	109.25
370.445	92.25
370.672	82.25
370.898	85.25
371.124	86.25
371.35	89.25
371.576	85.25
371.802	70.25
372.028	91.25
372.254	103.25
372.48	97.25
372.706	100.25
372.932	75.25
373.158	87.25
373.384	99.25
373.61	93.25
373.835	86.25
374.061	102.25
374.287	95.25
374.513	95.25
374.739	91.25
374.965	90.25
375.191	87.25
375.416	87.25
375.642	80.25
375.868	97.25
376.094	95.25
376.319	94.25
376.545	91.25
376.771	103.25
376.997	91.25
377.222	90.25
377.448	107.25
377.674	100.25
377.899	100.25
378.125	87.25
378.35	73.25
378.576	104.25
378.802	86.25
379.027	92.25
379.253	86.25
379.478	104.25
379.704	100.25
379.929	104.25
380.155	107.25
380.38	103.25
380.606	101.25
380.831	94.25
381.057	97.25
381.282	100.25
381.507	112.25
381.733	115.25
381.958	100.25
382.184	101.25
382.409	99.25
382.634	109.25
382.86	96.25
383.085	112.25
383.31	105.25
383.535	91.25
383.761	110.25
383.986	110.25
384.211	98.25
384.436	97.25
384.662	93.25
384.887	101.25
385.112	98.25
385.337	103.25
385.562	110.25
385.787	98.25
386.013	124.25
386.238	145.25
386.463	129.25
386.688	109.25
386.913	109.25
387.138	113.25
387.363	101.25
387.588	106.25
387.813	108.25
388.038	120.25
388.263	115.25
388.488	104.25
388.713	111.25
388.938	100.25
389.163	111.25
389.387	92.25
389.612	86.25
389.837	90.25
390.062	91.25
390.287	97.25
390.512	103.25
390.736	92.25
390.961	95.25
391.186	87.25
391.411	89.25
391.636	95.25
391.86	81.25
392.085	86.25
392.31	89.25
392.534	94.25
392.759	105.25
392.984	98.25
393.208	87.25
393.433	77.25
393.658	96.25
393.882	83.25
394.107	77.25
394.331	93.25
394.556	80.25
394.78	102.25
395.005	83.25
395.229	97.25
395.454	111.25
395.678	92.25
395.903	88.25
396.127	81.25
396.352	92.25
396.576	96.25
396.801	96.25
397.025	100.25
397.249	93.25
397.474	90.25
397.698	101.25
397.922	98.25
398.147	84.25
398.371	86.25
398.595	81.25
398.82	99.25
399.044	102.25
399.268	104.25
399.492	102.25
399.717	91.25
399.941	99.25
400.165	104.25
400.389	104.25
400.613	101.25
400.837	80.25
401.062	85.25
401.286	88.25
401.51	94.25
401.734	96.25
401.958	120.25
402.182	166.25
402.406	254.25
402.63	172.25
402.854	123.25
403.078	109.25
403.302	109.25
403.526	98.25
403.75	89.25
403.974	80.25
404.198	90.25
404.422	105.25
404.645	101.25
404.869	126.25
405.093	125.25
405.317	155.25
405.541	162.25
405.765	141.25
405.988	155.25
406.212	268.25
406.436	440.25
406.66	267.25
406.883	150.25
407.107	121.25
407.331	116.25
407.555	142.25
407.778	109.25
408.002	115.25
408.226	112.25
408.449	83.25
408.673	89.25
408.896	109.25
409.12	112.25
409.344	105.25
409.567	98.25
409.791	96.25
410.014	88.25
410.238	80.25
410.461	91.25
410.685	97.25
410.908	90.25
411.132	117.25
411.355	109.25
411.578	102.25
411.802	107.25
412.025	98.25
412.249	100.25
412.472	123.25
412.695	163.25
412.919	111.25
413.142	93.25
413.365	98.25
413.589	83.25
413.812	98.25
414.035	102.25
414.258	93.25
414.482	106.25
414.705	101.25
414.928	96.25
415.151	96.25
415.374	92.25
415.597	80.25
415.821	92.25
416.044	106.25
416.267	96.25
416.49	98.25
416.713	105.25
416.936	102.25
417.159	104.25
417.382	101.25
417.605	117.25
417.828	126.25
418.051	120.25
418.274	84.25
418.497	98.25
418.72	96.25
418.943	101.25
419.166	75.25
419.389	80.25
419.611	88.25
419.834	101.25
420.057	105.25
420.28	91.25
420.503	93.25
420.726	90.25
420.948	89.25
421.171	118.25
421.394	116.25
421.617	104.25
421.839	96.25
422.062	103.25
422.285	103.25
422.507	105.25
422.73	116.25
422.953	101.25
423.175	107.25
423.398	111.25
423.621	86.25
423.843	85.25
424.066	99.25
424.288	80.25
424.511	100.25
424.733	127.25
424.956	132.25
425.178	104.25
425.401	107.25
425.623	103.25
425.846	105.25
426.068	121.25
426.291	109.25
426.513	88.25
426.735	100.25
426.958	107.25
427.18	128.25
427.402	221.25
427.625	351.25
427.847	296.25
428.069	257.25
428.292	130.25
428.514	95.25
428.736	89.25
428.958	91.25
429.181	97.25
429.403	93.25
429.625	93.25
429.847	94.25
430.069	143.25
430.292	114.25
430.514	88.25
430.736	89.25
430.958	88.25
431.18	84.25
431.402	78.25
431.624	86.25
431.846	94.25
432.068	87.25
432.29	83.25
432.512	80.25
432.734	89.25
432.956	101.25
433.178	113.25
433.4	113.25
433.622	87.25
433.844	92.25
434.066	102.25
434.287	106.25
434.509	83.25
434.731	100.25
434.953	104.25
435.175	95.25
435.397	93.25
435.618	118.25
435.84	122.25
436.062	174.25
436.284	160.25
436.505	112.25
436.727	108.25
436.949	106.25
437.17	95.25
437.392	91.25
437.614	125.25
437.835	160.25
438.057	180.25
438.278	136.25
438.5	137.25
438.721	155.25
438.943	117.25
439.165	99.25
439.386	101.25
439.608	106.25
439.829	134.25
440.05	188.25
440.272	233.25
440.493	122.25
440.715	92.25
440.936	98.25
441.158	96.25
441.379	94.25
441.6	100.25
441.822	120.25
442.043	115.25
442.264	141.25
442.486	135.25
442.707	122.25
442.928	152.25
443.149	227.25
443.371	226.25
443.592	153.25
443.813	154.25
444.034	154.25
444.255	112.25
444.476	108.25
444.698	90.25
444.919	94.25
445.14	150.25
445.361	150.25
445.582	172.25
445.803	239.25
446.024	229.25
446.245	204.25
446.466	157.25
446.687	101.25
446.908	104.25
447.129	100.25
447.35	98.25
447.571	96.25
447.792	97.25
448.013	125.25
448.234	128.25
448.455	117.25
448.675	160.25
448.896	151.25
449.117	121.25
449.338	126.25
449.559	163.25
449.779	196.25
450	112.25
450.221	103.25
450.442	90.25
450.662	103.25
450.883	156.25
451.104	171.25
451.324	116.25
451.545	97.25
451.766	89.25
451.986	113.25
452.207	94.25
452.428	106.25
452.648	122.25
452.869	153.25
453.089	170.25
453.31	170.25
453.53	130.25
453.751	113.25
453.971	127.25
454.192	166.25
454.412	120.25
454.633	105.25
454.853	81.25
455.073	77.25
455.294	93.25
455.514	130.25
455.734	124.25
455.955	92.25
456.175	77.25
456.395	80.25
456.616	99.25
456.836	82.25
457.056	85.25
457.276	93.25
457.497	89.25
457.717	89.25
457.937	95.25
458.157	108.25
458.377	110.25
458.598	142.25
458.818	265.25
459.038	328.25
459.258	201.25
459.478	126.25
459.698	95.25
459.918	94.25
460.138	98.25
460.358	85.25
460.578	89.25
460.798	97.25
461.018	104.25
461.238	96.25
461.458	101.25
461.678	94.25
461.898	91.25
462.118	81.25
462.338	95.25
462.558	81.25
462.777	86.25
462.997	99.25
463.217	112.25
463.437	95.25
463.657	91.25
463.876	83.25
464.096	93.25
464.316	103.25
464.536	109.25
464.755	98.25
464.975	144.25
465.195	316.25
465.414	326.25
465.634	124.25
465.854	89.25
466.073	96.25
466.293	90.25
466.512	97.25
466.732	100.25
466.951	103.25
467.171	93.25
467.391	111.25
467.61	146.25
467.829	209.25
468.049	490.25
468.268	726.25
468.488	211.25
468.707	114.25
468.927	80.25
469.146	77.25
469.365	104.25
469.585	99.25
469.804	116.25
470.023	133.25
470.243	101.25
470.462	132.25
470.681	154.25
470.901	109.25
471.12	105.25
471.339	93.25
471.558	114.25
471.777	141.25
471.997	292.25
472.216	975.25
472.435	2230.25
472.654	553.25
472.873	170.25
473.092	114.25
473.311	96.25
473.53	105.25
473.749	97.25
473.968	112.25
474.187	142.25
474.406	124.25
474.625	98.25
474.844	93.25
475.063	76.25
475.282	89.25
475.501	91.25
475.72	107.25
475.939	84.25
476.158	97.25
476.377	88.25
476.596	90.25
476.814	89.25
477.033	105.25
477.252	105.25
477.471	91.25
477.69	104.25
477.908	89.25
478.127	91.25
478.346	92.25
478.564	103.25
478.783	117.25
479.002	118.25
479.22	120.25
479.439	132.25
479.658	154.25
479.876	121.25
480.095	110.25
480.313	142.25
480.532	152.25
480.751	267.25
480.969	914.25
481.188	3816.25
481.406	2308.25
481.624	334.25
481.843	136.25
482.061	112.25
482.28	113.25
482.498	105.25
482.717	74.25
482.935	91.25
483.153	102.25
483.372	84.25
483.59	99.25
483.808	87.25
484.027	106.25
484.245	99.25
484.463	103.25
484.681	107.25
484.9	100.25
485.118	99.25
485.336	97.25
485.554	108.25
485.772	88.25
485.99	86.25
486.209	99.25
486.427	121.25
486.645	129.25
486.863	142.25
487.081	110.25
487.299	97.25
487.517	90.25
487.735	93.25
487.953	95.25
488.171	94.25
488.389	105.25
488.607	119.25
488.825	102.25
489.043	96.25
489.261	101.25
489.479	97.25
489.696	102.25
489.914	86.25
490.132	95.25
490.35	90.25
490.568	83.25
490.786	85.25
491.003	94.25
491.221	93.25
491.439	108.25
491.657	108.25
491.874	107.25
492.092	82.25
492.31	104.25
492.527	115.25
492.745	91.25
492.963	100.25
493.18	100.25
493.398	92.25
493.615	96.25
493.833	94.25
494.05	92.25
494.268	100.25
494.485	82.25
494.703	88.25
494.92	98.25
495.138	96.25
495.355	89.25
495.573	92.25
495.79	99.25
496.008	96.25
496.225	97.25
496.442	92.25
496.66	93.25
496.877	84.25
497.094	93.25
497.312	84.25
497.529	96.25
497.746	108.25
497.963	87.25
498.181	104.25
498.398	109.25
498.615	131.25
498.832	124.25
499.049	87.25
499.267	73.25
499.484	88.25
499.701	89.25
499.918	96.25
500.135	93.25
500.352	96.25
500.569	110.25
500.786	104.25
501.003	88.25
501.22	92.25
501.437	80.25
501.654	110.25
501.871	148.25
502.088	97.25
502.305	86.25
502.522	93.25
502.739	105.25
502.956	110.25
503.172	107.25
503.389	112.25
503.606	127.25
503.823	120.25
504.04	95.25
504.256	107.25
504.473	88.25
504.69	87.25
504.907	94.25
505.123	90.25
505.34	108.25
505.557	94.25
505.773	93.25
505.99	105.25
506.207	92.25
506.423	94.25
506.64	99.25
506.856	84.25
507.073	101.25
507.289	105.25
507.506	124.25
507.722	163.25
507.939	163.25
508.155	115.25
508.372	91.25
508.588	96.25
508.805	102.25
509.021	99.25
509.238	108.25
509.454	115.25
509.67	113.25
509.887	135.25
510.103	158.25
510.319	273.25
510.536	1143.25
510.752	4214.25
510.968	1102.25
