Data from Circ_2007_H10_HRD10591_00029.txt Node
Date: Wed Jan 03 10:22:03 EST 2024
User: Yrep
Spectrometer: HR+D1059
Trigger mode: 1
Integration Time (sec): 1.000000E-1
Scans to average: 1
Electric dark correction enabled: true
Nonlinearity correction enabled: false
Boxcar width: 0
XAxis mode: Wavelengths
Number of Pixels in Spectrum: 2048
>>>>>Begin Spectral Data<<<<<
223.165	-26.06
223.4	-26.06
223.635	-26.06
223.869	-31.06
224.104	-17.06
224.338	-13.06
224.573	-10.06
224.808	-0.06
225.042	-1.06
225.277	-15.06
225.511	-4.06
225.746	4.94
225.98	20.94
226.215	3.94
226.449	10.94
226.683	23.94
226.918	22.94
227.152	29.94
227.387	33.94
227.621	37.94
227.856	44.94
228.09	54.94
228.324	63.94
228.559	57.94
228.793	68.94
229.027	62.94
229.262	56.94
229.496	84.94
229.73	90.94
229.964	83.94
230.199	67.94
230.433	77.94
230.667	85.94
230.901	69.94
231.136	79.94
231.37	72.94
231.604	60.94
231.838	79.94
232.072	57.94
232.306	76.94
232.541	89.94
232.775	80.94
233.009	65.94
233.243	85.94
233.477	77.94
233.711	84.94
233.945	83.94
234.179	70.94
234.413	89.94
234.647	87.94
234.881	80.94
235.115	83.94
235.349	83.94
235.583	82.94
235.817	73.94
236.051	64.94
236.285	79.94
236.519	73.94
236.753	77.94
236.987	82.94
237.221	88.94
237.455	92.94
237.689	88.94
237.922	80.94
238.156	81.94
238.39	92.94
238.624	73.94
238.858	79.94
239.091	89.94
239.325	71.94
239.559	75.94
239.793	88.94
240.027	74.94
240.26	77.94
240.494	88.94
240.728	76.94
240.961	85.94
241.195	83.94
241.429	70.94
241.662	59.94
241.896	77.94
242.13	80.94
242.363	76.94
242.597	78.94
242.83	65.94
243.064	87.94
243.298	76.94
243.531	76.94
243.765	65.94
243.998	97.94
244.232	78.94
244.465	81.94
244.699	67.94
244.932	93.94
245.166	75.94
245.399	80.94
245.633	89.94
245.866	83.94
246.099	89.94
246.333	68.94
246.566	81.94
246.8	74.94
247.033	75.94
247.266	74.94
247.5	90.94
247.733	70.94
247.966	86.94
248.2	89.94
248.433	76.94
248.666	71.94
248.899	85.94
249.133	92.94
249.366	100.94
249.599	101.94
249.832	79.94
250.066	64.94
250.299	78.94
250.532	76.94
250.765	78.94
250.998	78.94
251.231	83.94
251.465	84.94
251.698	78.94
251.931	64.94
252.164	80.94
252.397	83.94
252.63	79.94
252.863	88.94
253.096	79.94
253.329	80.94
253.562	71.94
253.795	84.94
254.028	79.94
254.261	80.94
254.494	64.94
254.727	86.94
254.96	82.94
255.193	65.94
255.426	79.94
255.659	82.94
255.892	85.94
256.124	79.94
256.357	80.94
256.59	66.94
256.823	71.94
257.056	77.94
257.289	79.94
257.521	90.94
257.754	85.94
257.987	79.94
258.22	91.94
258.452	87.94
258.685	92.94
258.918	76.94
259.151	84.94
259.383	73.94
259.616	85.94
259.849	83.94
260.081	74.94
260.314	96.94
260.547	85.94
260.779	85.94
261.012	76.94
261.244	77.94
261.477	68.94
261.71	74.94
261.942	100.94
262.175	109.94
262.407	85.94
262.64	84.94
262.872	85.94
263.105	84.94
263.337	76.94
263.57	79.94
263.802	81.94
264.035	76.94
264.267	79.94
264.499	87.94
264.732	96.94
264.964	86.94
265.197	80.94
265.429	89.94
265.661	83.94
265.894	90.94
266.126	79.94
266.358	86.94
266.591	84.94
266.823	85.94
267.055	72.94
267.287	78.94
267.52	95.94
267.752	82.94
267.984	95.94
268.216	85.94
268.448	89.94
268.681	79.94
268.913	96.94
269.145	72.94
269.377	82.94
269.609	93.94
269.841	74.94
270.073	90.94
270.306	87.94
270.538	84.94
270.77	88.94
271.002	61.94
271.234	81.94
271.466	88.94
271.698	93.94
271.93	71.94
272.162	86.94
272.394	105.94
272.626	87.94
272.858	88.94
273.09	91.94
273.322	79.94
273.553	83.94
273.785	84.94
274.017	78.94
274.249	84.94
274.481	76.94
274.713	85.94
274.945	89.94
275.176	89.94
275.408	100.94
275.64	91.94
275.872	92.94
276.104	98.94
276.335	87.94
276.567	90.94
276.799	112.94
277.031	106.94
277.262	94.94
277.494	94.94
277.726	93.94
277.957	77.94
278.189	75.94
278.421	84.94
278.652	82.94
278.884	105.94
279.115	85.94
279.347	83.94
279.579	79.94
279.81	90.94
280.042	104.94
280.273	114.94
280.505	109.94
280.736	106.94
280.968	97.94
281.199	84.94
281.431	92.94
281.662	88.94
281.894	93.94
282.125	103.94
282.356	116.94
282.588	145.94
282.819	122.94
283.051	80.94
283.282	87.94
283.513	85.94
283.745	97.94
283.976	90.94
284.207	87.94
284.439	74.94
284.67	89.94
284.901	83.94
285.132	81.94
285.364	78.94
285.595	81.94
285.826	101.94
286.057	73.94
286.288	78.94
286.52	104.94
286.751	84.94
286.982	91.94
287.213	72.94
287.444	86.94
287.675	81.94
287.906	80.94
288.138	101.94
288.369	89.94
288.6	79.94
288.831	95.94
289.062	100.94
289.293	96.94
289.524	91.94
289.755	89.94
289.986	88.94
290.217	84.94
290.448	81.94
290.679	84.94
290.91	78.94
291.141	82.94
291.371	88.94
291.602	83.94
291.833	75.94
292.064	84.94
292.295	84.94
292.526	83.94
292.757	97.94
292.987	92.94
293.218	80.94
293.449	92.94
293.68	79.94
293.91	93.94
294.141	94.94
294.372	88.94
294.603	98.94
294.833	97.94
295.064	91.94
295.295	103.94
295.525	89.94
295.756	99.94
295.987	107.94
296.217	127.94
296.448	131.94
296.679	105.94
296.909	93.94
297.14	86.94
297.37	78.94
297.601	82.94
297.831	100.94
298.062	92.94
298.292	95.94
298.523	91.94
298.753	92.94
298.984	92.94
299.214	83.94
299.445	76.94
299.675	86.94
299.905	95.94
300.136	95.94
300.366	88.94
300.597	92.94
300.827	88.94
301.057	107.94
301.288	96.94
301.518	107.94
301.748	92.94
301.979	106.94
302.209	102.94
302.439	82.94
302.669	87.94
302.9	91.94
303.13	95.94
303.36	93.94
303.59	95.94
303.82	102.94
304.051	104.94
304.281	91.94
304.511	96.94
304.741	96.94
304.971	81.94
305.201	97.94
305.431	99.94
305.661	89.94
305.891	93.94
306.121	95.94
306.352	96.94
306.582	108.94
306.812	103.94
307.042	105.94
307.272	105.94
307.502	94.94
307.731	121.94
307.961	95.94
308.191	94.94
308.421	93.94
308.651	90.94
308.881	91.94
309.111	94.94
309.341	97.94
309.571	106.94
309.8	101.94
310.03	102.94
310.26	99.94
310.49	102.94
310.72	100.94
310.949	111.94
311.179	85.94
311.409	93.94
311.639	108.94
311.868	93.94
312.098	100.94
312.328	89.94
312.557	103.94
312.787	110.94
313.017	109.94
313.246	96.94
313.476	90.94
313.706	91.94
313.935	105.94
314.165	106.94
314.394	100.94
314.624	95.94
314.853	103.94
315.083	103.94
315.312	79.94
315.542	89.94
315.771	103.94
316.001	81.94
316.23	84.94
316.46	97.94
316.689	90.94
316.919	107.94
317.148	103.94
317.377	99.94
317.607	103.94
317.836	97.94
318.065	80.94
318.295	94.94
318.524	92.94
318.753	88.94
318.983	107.94
319.212	103.94
319.441	88.94
319.67	103.94
319.9	97.94
320.129	93.94
320.358	105.94
320.587	96.94
320.816	97.94
321.046	103.94
321.275	98.94
321.504	92.94
321.733	97.94
321.962	96.94
322.191	99.94
322.42	107.94
322.649	116.94
322.878	108.94
323.108	111.94
323.337	114.94
323.566	121.94
323.795	159.94
324.024	214.94
324.253	410.94
324.482	838.94
324.71	1767.94
324.939	2418.94
325.168	906.94
325.397	261.94
325.626	161.94
325.855	142.94
326.084	124.94
326.313	149.94
326.542	159.94
326.77	244.94
326.999	467.94
327.228	999.94
327.457	1826.94
327.686	1437.94
327.914	403.94
328.143	259.94
328.372	251.94
328.6	178.94
328.829	123.94
329.058	123.94
329.287	131.94
329.515	136.94
329.744	152.94
329.972	173.94
330.201	278.94
330.43	419.94
330.658	236.94
330.887	183.94
331.115	139.94
331.344	96.94
331.572	101.94
331.801	108.94
332.03	106.94
332.258	95.94
332.486	80.94
332.715	89.94
332.943	108.94
333.172	111.94
333.4	107.94
333.629	107.94
333.857	133.94
334.085	180.94
334.314	279.94
334.542	493.94
334.771	508.94
334.999	186.94
335.227	122.94
335.455	108.94
335.684	93.94
335.912	96.94
336.14	96.94
336.369	96.94
336.597	102.94
336.825	99.94
337.053	105.94
337.281	102.94
337.51	105.94
337.738	100.94
337.966	86.94
338.194	112.94
338.422	91.94
338.65	84.94
338.878	90.94
339.106	87.94
339.334	101.94
339.562	93.94
339.79	82.94
340.018	100.94
340.246	101.94
340.474	98.94
340.702	93.94
340.93	100.94
341.158	84.94
341.386	93.94
341.614	80.94
341.842	100.94
342.07	87.94
342.298	86.94
342.526	90.94
342.754	79.94
342.981	88.94
343.209	80.94
343.437	81.94
343.665	77.94
343.893	92.94
344.12	91.94
344.348	92.94
344.576	93.94
344.804	98.94
345.031	87.94
345.259	100.94
345.487	94.94
345.714	96.94
345.942	92.94
346.17	94.94
346.397	97.94
346.625	91.94
346.853	104.94
347.08	100.94
347.308	83.94
347.535	91.94
347.763	100.94
347.99	110.94
348.218	103.94
348.445	100.94
348.673	106.94
348.9	82.94
349.128	96.94
349.355	100.94
349.583	96.94
349.81	89.94
350.037	109.94
350.265	90.94
350.492	91.94
350.72	87.94
350.947	89.94
351.174	121.94
351.402	107.94
351.629	104.94
351.856	103.94
352.083	102.94
352.311	95.94
352.538	104.94
352.765	104.94
352.992	117.94
353.22	114.94
353.447	101.94
353.674	102.94
353.901	90.94
354.128	90.94
354.355	94.94
354.583	92.94
354.81	100.94
355.037	84.94
355.264	79.94
355.491	69.94
355.718	89.94
355.945	90.94
356.172	97.94
356.399	91.94
356.626	106.94
356.853	85.94
357.08	85.94
357.307	91.94
357.534	84.94
357.761	89.94
357.988	93.94
358.215	103.94
358.441	92.94
358.668	78.94
358.895	91.94
359.122	91.94
359.349	91.94
359.576	82.94
359.802	115.94
360.029	114.94
360.256	109.94
360.483	95.94
360.709	90.94
360.936	98.94
361.163	101.94
361.39	97.94
361.616	89.94
361.843	73.94
362.07	88.94
362.296	89.94
362.523	93.94
362.749	82.94
362.976	80.94
363.203	104.94
363.429	101.94
363.656	89.94
363.882	86.94
364.109	68.94
364.335	88.94
364.562	78.94
364.788	93.94
365.015	92.94
365.241	95.94
365.468	107.94
365.694	103.94
365.92	89.94
366.147	78.94
366.373	108.94
366.599	85.94
366.826	89.94
367.052	100.94
367.278	93.94
367.505	84.94
367.731	87.94
367.957	87.94
368.184	92.94
368.41	95.94
368.636	121.94
368.862	128.94
369.089	109.94
369.315	106.94
369.541	85.94
369.767	87.94
369.993	99.94
370.219	83.94
370.445	105.94
370.672	72.94
370.898	76.94
371.124	81.94
371.35	77.94
371.576	85.94
371.802	81.94
372.028	80.94
372.254	91.94
372.48	83.94
372.706	83.94
372.932	94.94
373.158	68.94
373.384	94.94
373.61	83.94
373.835	86.94
374.061	95.94
374.287	96.94
374.513	85.94
374.739	99.94
374.965	92.94
375.191	98.94
375.416	83.94
375.642	70.94
375.868	88.94
376.094	87.94
376.319	97.94
376.545	80.94
376.771	85.94
376.997	104.94
377.222	101.94
377.448	91.94
377.674	92.94
377.899	76.94
378.125	89.94
378.35	95.94
378.576	84.94
378.802	96.94
379.027	107.94
379.253	87.94
379.478	82.94
379.704	85.94
379.929	74.94
380.155	91.94
380.38	104.94
380.606	103.94
380.831	82.94
381.057	98.94
381.282	89.94
381.507	86.94
381.733	101.94
381.958	107.94
382.184	88.94
382.409	101.94
382.634	106.94
382.86	90.94
383.085	97.94
383.31	85.94
383.535	89.94
383.761	91.94
383.986	102.94
384.211	103.94
384.436	90.94
384.662	94.94
384.887	104.94
385.112	105.94
385.337	119.94
385.562	110.94
385.787	98.94
386.013	102.94
386.238	122.94
386.463	102.94
386.688	123.94
386.913	103.94
387.138	119.94
387.363	105.94
387.588	104.94
387.813	95.94
388.038	106.94
388.263	122.94
388.488	86.94
388.713	97.94
388.938	103.94
389.163	96.94
389.387	104.94
389.612	93.94
389.837	83.94
390.062	98.94
390.287	93.94
390.512	92.94
390.736	94.94
390.961	88.94
391.186	95.94
391.411	102.94
391.636	91.94
391.86	91.94
392.085	85.94
392.31	83.94
392.534	93.94
392.759	85.94
392.984	97.94
393.208	94.94
393.433	115.94
393.658	97.94
393.882	89.94
394.107	84.94
394.331	73.94
394.556	92.94
394.78	79.94
395.005	91.94
395.229	104.94
395.454	84.94
395.678	85.94
395.903	83.94
396.127	79.94
396.352	93.94
396.576	94.94
396.801	79.94
397.025	97.94
397.249	83.94
397.474	81.94
397.698	101.94
397.922	93.94
398.147	92.94
398.371	79.94
398.595	95.94
398.82	85.94
399.044	87.94
399.268	85.94
399.492	80.94
399.717	107.94
399.941	88.94
400.165	88.94
400.389	93.94
400.613	95.94
400.837	93.94
401.062	88.94
401.286	81.94
401.51	76.94
401.734	89.94
401.958	95.94
402.182	121.94
402.406	159.94
402.63	116.94
402.854	83.94
403.078	86.94
403.302	83.94
403.526	92.94
403.75	80.94
403.974	82.94
404.198	95.94
404.422	91.94
404.645	79.94
404.869	81.94
405.093	100.94
405.317	127.94
405.541	103.94
405.765	112.94
405.988	115.94
406.212	179.94
406.436	251.94
406.66	155.94
406.883	88.94
407.107	98.94
407.331	97.94
407.555	89.94
407.778	100.94
408.002	90.94
408.226	99.94
408.449	79.94
408.673	100.94
408.896	100.94
409.12	96.94
409.344	88.94
409.567	92.94
409.791	84.94
410.014	82.94
410.238	81.94
410.461	80.94
410.685	88.94
410.908	99.94
411.132	96.94
411.355	116.94
411.578	83.94
411.802	73.94
412.025	106.94
412.249	104.94
412.472	92.94
412.695	108.94
412.919	99.94
413.142	88.94
413.365	82.94
413.589	77.94
413.812	97.94
414.035	88.94
414.258	96.94
414.482	77.94
414.705	67.94
414.928	88.94
415.151	77.94
415.374	87.94
415.597	88.94
415.821	85.94
416.044	81.94
416.267	91.94
416.49	95.94
416.713	109.94
416.936	80.94
417.159	73.94
417.382	91.94
417.605	99.94
417.828	85.94
418.051	84.94
418.274	91.94
418.497	87.94
418.72	98.94
418.943	92.94
419.166	82.94
419.389	104.94
419.611	84.94
419.834	85.94
420.057	82.94
420.28	99.94
420.503	75.94
420.726	82.94
420.948	88.94
421.171	104.94
421.394	101.94
421.617	78.94
421.839	79.94
422.062	74.94
422.285	94.94
422.507	104.94
422.73	103.94
422.953	78.94
423.175	91.94
423.398	100.94
423.621	80.94
423.843	82.94
424.066	84.94
424.288	83.94
424.511	95.94
424.733	99.94
424.956	111.94
425.178	103.94
425.401	100.94
425.623	109.94
425.846	103.94
426.068	97.94
426.291	90.94
426.513	92.94
426.735	95.94
426.958	88.94
427.18	96.94
427.402	143.94
427.625	165.94
427.847	164.94
428.069	149.94
428.292	94.94
428.514	90.94
428.736	77.94
428.958	90.94
429.181	84.94
429.403	87.94
429.625	80.94
429.847	85.94
430.069	112.94
430.292	99.94
430.514	81.94
430.736	75.94
430.958	105.94
431.18	78.94
431.402	84.94
431.624	80.94
431.846	81.94
432.068	85.94
432.29	80.94
432.512	83.94
432.734	87.94
432.956	90.94
433.178	100.94
433.4	106.94
433.622	82.94
433.844	80.94
434.066	95.94
434.287	92.94
434.509	74.94
434.731	80.94
434.953	85.94
435.175	89.94
435.397	106.94
435.618	88.94
435.84	99.94
436.062	113.94
436.284	102.94
436.505	102.94
436.727	96.94
436.949	92.94
437.17	100.94
437.392	80.94
437.614	94.94
437.835	105.94
438.057	105.94
438.278	108.94
438.5	92.94
438.721	115.94
438.943	100.94
439.165	93.94
439.386	89.94
439.608	89.94
439.829	84.94
440.05	119.94
440.272	136.94
440.493	94.94
440.715	95.94
440.936	81.94
441.158	94.94
441.379	97.94
441.6	93.94
441.822	87.94
442.043	107.94
442.264	101.94
442.486	101.94
442.707	110.94
442.928	117.94
443.149	145.94
443.371	146.94
443.592	121.94
443.813	113.94
444.034	107.94
444.255	90.94
444.476	97.94
444.698	82.94
444.919	85.94
445.14	129.94
445.361	104.94
445.582	103.94
445.803	144.94
446.024	128.94
446.245	143.94
446.466	111.94
446.687	95.94
446.908	81.94
447.129	88.94
447.35	95.94
447.571	85.94
447.792	94.94
448.013	76.94
448.234	98.94
448.455	94.94
448.675	113.94
448.896	137.94
449.117	99.94
449.338	107.94
449.559	122.94
449.779	135.94
450	95.94
450.221	89.94
450.442	85.94
450.662	88.94
450.883	108.94
451.104	120.94
451.324	98.94
451.545	89.94
451.766	90.94
451.986	89.94
452.207	83.94
452.428	101.94
452.648	91.94
452.869	110.94
453.089	124.94
453.31	122.94
453.53	99.94
453.751	92.94
453.971	111.94
454.192	116.94
454.412	102.94
454.633	92.94
454.853	96.94
455.073	80.94
455.294	75.94
455.514	85.94
455.734	81.94
455.955	80.94
456.175	79.94
456.395	75.94
456.616	68.94
456.836	84.94
457.056	77.94
457.276	85.94
457.497	85.94
457.717	92.94
457.937	77.94
458.157	89.94
458.377	97.94
458.598	105.94
458.818	140.94
459.038	171.94
459.258	111.94
459.478	95.94
459.698	80.94
459.918	78.94
460.138	84.94
460.358	93.94
460.578	94.94
460.798	92.94
461.018	78.94
461.238	91.94
461.458	103.94
461.678	90.94
461.898	77.94
462.118	88.94
462.338	82.94
462.558	87.94
462.777	75.94
462.997	91.94
463.217	84.94
463.437	89.94
463.657	83.94
463.876	87.94
464.096	75.94
464.316	87.94
464.536	105.94
464.755	96.94
464.975	110.94
465.195	155.94
465.414	181.94
465.634	103.94
465.854	83.94
466.073	81.94
466.293	94.94
466.512	91.94
466.732	110.94
466.951	84.94
467.171	92.94
467.391	96.94
467.61	114.94
467.829	106.94
468.049	185.94
468.268	253.94
468.488	105.94
468.707	85.94
468.927	85.94
469.146	83.94
469.365	89.94
469.585	100.94
469.804	85.94
470.023	84.94
470.243	94.94
470.462	86.94
470.681	110.94
470.901	104.94
471.12	77.94
471.339	101.94
471.558	91.94
471.777	102.94
471.997	111.94
472.216	303.94
472.435	656.94
472.654	193.94
472.873	113.94
473.092	84.94
473.311	86.94
473.53	96.94
473.749	70.94
473.968	77.94
474.187	107.94
474.406	89.94
474.625	81.94
474.844	88.94
475.063	80.94
475.282	93.94
475.501	96.94
475.72	96.94
475.939	95.94
476.158	74.94
476.377	80.94
476.596	84.94
476.814	98.94
477.033	80.94
477.252	89.94
477.471	82.94
477.69	98.94
477.908	83.94
478.127	94.94
478.346	89.94
478.564	95.94
478.783	96.94
479.002	86.94
479.22	100.94
479.439	109.94
479.658	95.94
479.876	108.94
480.095	103.94
480.313	88.94
480.532	111.94
480.751	153.94
480.969	327.94
481.188	1103.94
481.406	712.94
481.624	162.94
481.843	83.94
482.061	90.94
482.28	91.94
482.498	82.94
482.717	75.94
482.935	87.94
483.153	90.94
483.372	82.94
483.59	82.94
483.808	93.94
484.027	92.94
484.245	96.94
484.463	98.94
484.681	85.94
484.9	81.94
485.118	97.94
485.336	84.94
485.554	95.94
485.772	92.94
485.99	101.94
486.209	102.94
486.427	96.94
486.645	123.94
486.863	116.94
487.081	109.94
487.299	88.94
487.517	90.94
487.735	89.94
487.953	97.94
488.171	93.94
488.389	98.94
488.607	97.94
488.825	99.94
489.043	92.94
489.261	80.94
489.479	84.94
489.696	87.94
489.914	78.94
490.132	85.94
490.35	96.94
490.568	87.94
490.786	95.94
491.003	87.94
491.221	79.94
491.439	88.94
491.657	96.94
491.874	83.94
492.092	83.94
492.31	80.94
492.527	71.94
492.745	91.94
492.963	94.94
493.18	81.94
493.398	88.94
493.615	96.94
493.833	91.94
494.05	81.94
494.268	75.94
494.485	80.94
494.703	80.94
494.92	81.94
495.138	76.94
495.355	92.94
495.573	97.94
495.79	99.94
496.008	92.94
496.225	86.94
496.442	79.94
496.66	107.94
496.877	91.94
497.094	88.94
497.312	101.94
497.529	87.94
497.746	82.94
497.963	99.94
498.181	97.94
498.398	98.94
498.615	111.94
498.832	107.94
499.049	75.94
499.267	85.94
499.484	90.94
499.701	99.94
499.918	88.94
500.135	97.94
500.352	89.94
500.569	86.94
500.786	80.94
501.003	92.94
501.22	82.94
501.437	89.94
501.654	88.94
501.871	95.94
502.088	86.94
502.305	93.94
502.522	84.94
502.739	91.94
502.956	98.94
503.172	91.94
503.389	108.94
503.606	115.94
503.823	98.94
504.04	78.94
504.256	84.94
504.473	92.94
504.69	93.94
504.907	99.94
505.123	92.94
505.34	99.94
505.557	83.94
505.773	81.94
505.99	89.94
506.207	77.94
506.423	98.94
506.64	87.94
506.856	78.94
507.073	89.94
507.289	88.94
507.506	100.94
507.722	126.94
507.939	107.94
508.155	94.94
508.372	85.94
508.588	92.94
508.805	85.94
509.021	108.94
509.238	108.94
509.454	87.94
509.67	103.94
509.887	106.94
510.103	125.94
510.319	210.94
510.536	752.94
510.752	2547.94
510.968	718.94
511.184	173.94
511.401	111.94
511.617	95.94
511.833	89.94
512.049	98.94
512.265	84.94
512.481	103.94
512.698	107.94
512.914	92.94
513.13	83.94
513.346	92.94
513.562	72.94
513.778	94.94
513.994	110.94
514.21	92.94
514.426	115.94
514.642	155.94
514.858	125.94
515.074	172.94
