Data from Circ_2007_H10_HRD10591_00087.txt Node
Date: Wed Jan 03 10:22:14 EST 2024
User: Yrep
Spectrometer: HR+D1059
Trigger mode: 1
Integration Time (sec): 1.000000E-1
Scans to average: 1
Electric dark correction enabled: true
Nonlinearity correction enabled: false
Boxcar width: 0
XAxis mode: Wavelengths
Number of Pixels in Spectrum: 2048
>>>>>Begin Spectral Data<<<<<
223.165	-3.62
223.4	-3.62
223.635	-3.62
223.869	-28.62
224.104	-27.62
224.338	3.38
224.573	-12.62
224.808	-20.62
225.042	-11.62
225.277	-6.62
225.511	-1.62
225.746	-2.62
225.98	-0.62
226.215	19.38
226.449	18.38
226.683	21.38
226.918	30.38
227.152	23.38
227.387	34.38
227.621	46.38
227.856	46.38
228.09	46.38
228.324	58.38
228.559	58.38
228.793	57.38
229.027	73.38
229.262	77.38
229.496	80.38
229.73	107.38
229.964	101.38
230.199	95.38
230.433	83.38
230.667	86.38
230.901	80.38
231.136	85.38
231.37	82.38
231.604	86.38
231.838	78.38
232.072	77.38
232.306	77.38
232.541	82.38
232.775	87.38
233.009	75.38
233.243	91.38
233.477	98.38
233.711	79.38
233.945	89.38
234.179	97.38
234.413	93.38
234.647	101.38
234.881	92.38
235.115	84.38
235.349	75.38
235.583	89.38
235.817	88.38
236.051	91.38
236.285	84.38
236.519	76.38
236.753	84.38
236.987	90.38
237.221	95.38
237.455	88.38
237.689	74.38
237.922	90.38
238.156	85.38
238.39	86.38
238.624	65.38
238.858	93.38
239.091	94.38
239.325	87.38
239.559	83.38
239.793	95.38
240.027	90.38
240.26	84.38
240.494	85.38
240.728	83.38
240.961	88.38
241.195	64.38
241.429	83.38
241.662	76.38
241.896	80.38
242.13	74.38
242.363	75.38
242.597	84.38
242.83	67.38
243.064	95.38
243.298	83.38
243.531	77.38
243.765	81.38
243.998	91.38
244.232	110.38
244.465	92.38
244.699	82.38
244.932	84.38
245.166	73.38
245.399	82.38
245.633	80.38
245.866	90.38
246.099	76.38
246.333	83.38
246.566	92.38
246.8	76.38
247.033	87.38
247.266	77.38
247.5	84.38
247.733	76.38
247.966	71.38
248.2	87.38
248.433	76.38
248.666	81.38
248.899	92.38
249.133	99.38
249.366	117.38
249.599	101.38
249.832	97.38
250.066	73.38
250.299	83.38
250.532	86.38
250.765	89.38
250.998	93.38
251.231	81.38
251.465	78.38
251.698	93.38
251.931	88.38
252.164	85.38
252.397	72.38
252.63	82.38
252.863	71.38
253.096	96.38
253.329	92.38
253.562	94.38
253.795	88.38
254.028	92.38
254.261	82.38
254.494	80.38
254.727	86.38
254.96	99.38
255.193	91.38
255.426	73.38
255.659	77.38
255.892	94.38
256.124	104.38
256.357	90.38
256.59	76.38
256.823	66.38
257.056	97.38
257.289	108.38
257.521	88.38
257.754	80.38
257.987	85.38
258.22	84.38
258.452	106.38
258.685	85.38
258.918	77.38
259.151	92.38
259.383	88.38
259.616	80.38
259.849	89.38
260.081	103.38
260.314	94.38
260.547	81.38
260.779	99.38
261.012	113.38
261.244	88.38
261.477	113.38
261.71	114.38
261.942	156.38
262.175	179.38
262.407	108.38
262.64	108.38
262.872	101.38
263.105	102.38
263.337	88.38
263.57	85.38
263.802	93.38
264.035	102.38
264.267	90.38
264.499	110.38
264.732	98.38
264.964	100.38
265.197	96.38
265.429	95.38
265.661	88.38
265.894	94.38
266.126	94.38
266.358	101.38
266.591	86.38
266.823	87.38
267.055	83.38
267.287	85.38
267.52	90.38
267.752	84.38
267.984	88.38
268.216	78.38
268.448	92.38
268.681	90.38
268.913	97.38
269.145	91.38
269.377	86.38
269.609	85.38
269.841	77.38
270.073	93.38
270.306	106.38
270.538	88.38
270.77	83.38
271.002	103.38
271.234	88.38
271.466	88.38
271.698	105.38
271.93	76.38
272.162	91.38
272.394	86.38
272.626	101.38
272.858	96.38
273.09	104.38
273.322	93.38
273.553	95.38
273.785	98.38
274.017	84.38
274.249	89.38
274.481	99.38
274.713	100.38
274.945	99.38
275.176	99.38
275.408	93.38
275.64	114.38
275.872	113.38
276.104	106.38
276.335	110.38
276.567	124.38
276.799	166.38
277.031	188.38
277.262	211.38
277.494	160.38
277.726	108.38
277.957	112.38
278.189	103.38
278.421	97.38
278.652	109.38
278.884	99.38
279.115	99.38
279.347	87.38
279.579	91.38
279.81	133.38
280.042	182.38
280.273	253.38
280.505	190.38
280.736	115.38
280.968	99.38
281.199	96.38
281.431	96.38
281.662	100.38
281.894	111.38
282.125	125.38
282.356	160.38
282.588	197.38
282.819	144.38
283.051	103.38
283.282	88.38
283.513	93.38
283.745	101.38
283.976	94.38
284.207	84.38
284.439	79.38
284.67	90.38
284.901	84.38
285.132	100.38
285.364	99.38
285.595	117.38
285.826	77.38
286.057	98.38
286.288	98.38
286.52	102.38
286.751	98.38
286.982	95.38
287.213	93.38
287.444	85.38
287.675	109.38
287.906	95.38
288.138	101.38
288.369	106.38
288.6	88.38
288.831	97.38
289.062	97.38
289.293	100.38
289.524	87.38
289.755	99.38
289.986	92.38
290.217	91.38
290.448	96.38
290.679	78.38
290.91	86.38
291.141	87.38
291.371	94.38
291.602	83.38
291.833	92.38
292.064	93.38
292.295	94.38
292.526	99.38
292.757	96.38
292.987	89.38
293.218	103.38
293.449	82.38
293.68	88.38
293.91	88.38
294.141	93.38
294.372	97.38
294.603	99.38
294.833	105.38
295.064	80.38
295.295	97.38
295.525	92.38
295.756	118.38
295.987	132.38
296.217	202.38
296.448	180.38
296.679	96.38
296.909	98.38
297.14	95.38
297.37	103.38
297.601	95.38
297.831	88.38
298.062	99.38
298.292	99.38
298.523	95.38
298.753	107.38
298.984	86.38
299.214	109.38
299.445	95.38
299.675	105.38
299.905	102.38
300.136	97.38
300.366	98.38
300.597	104.38
300.827	96.38
301.057	116.38
301.288	117.38
301.518	109.38
301.748	110.38
301.979	110.38
302.209	97.38
302.439	104.38
302.669	106.38
302.9	95.38
303.13	99.38
303.36	122.38
303.59	149.38
303.82	167.38
304.051	122.38
304.281	98.38
304.511	109.38
304.741	103.38
304.971	104.38
305.201	83.38
305.431	86.38
305.661	100.38
305.891	106.38
306.121	108.38
306.352	116.38
306.582	139.38
306.812	117.38
307.042	126.38
307.272	156.38
307.502	190.38
307.731	175.38
307.961	117.38
308.191	104.38
308.421	96.38
308.651	86.38
308.881	99.38
309.111	111.38
309.341	117.38
309.571	110.38
309.8	124.38
310.03	114.38
310.26	122.38
310.49	115.38
310.72	122.38
310.949	138.38
311.179	129.38
311.409	107.38
311.639	106.38
311.868	125.38
312.098	113.38
312.328	102.38
312.557	117.38
312.787	139.38
313.017	128.38
313.246	108.38
313.476	97.38
313.706	99.38
313.935	111.38
314.165	125.38
314.394	119.38
314.624	119.38
314.853	118.38
315.083	115.38
315.312	91.38
315.542	102.38
315.771	91.38
316.001	97.38
316.23	103.38
316.46	99.38
316.689	102.38
316.919	106.38
317.148	100.38
317.377	115.38
317.607	118.38
317.836	119.38
318.065	101.38
318.295	89.38
318.524	94.38
318.753	100.38
318.983	112.38
319.212	111.38
319.441	120.38
319.67	137.38
319.9	108.38
320.129	104.38
320.358	109.38
320.587	96.38
320.816	125.38
321.046	116.38
321.275	100.38
321.504	106.38
321.733	105.38
321.962	122.38
322.191	110.38
322.42	118.38
322.649	139.38
322.878	144.38
323.108	145.38
323.337	154.38
323.566	170.38
323.795	200.38
324.024	281.38
324.253	578.38
324.482	1247.38
324.71	2554.38
324.939	3427.38
325.168	1246.38
325.397	350.38
325.626	204.38
325.855	161.38
326.084	156.38
326.313	164.38
326.542	185.38
326.77	300.38
326.999	622.38
327.228	1326.38
327.457	2494.38
327.686	2050.38
327.914	631.38
328.143	560.38
328.372	698.38
328.6	394.38
328.829	195.38
329.058	220.38
329.287	240.38
329.515	195.38
329.744	259.38
329.972	490.38
330.201	973.38
330.43	1469.38
330.658	696.38
330.887	354.38
331.115	233.38
331.344	131.38
331.572	127.38
331.801	140.38
332.03	150.38
332.258	117.38
332.486	111.38
332.715	101.38
332.943	122.38
333.172	118.38
333.4	146.38
333.629	189.38
333.857	246.38
334.085	443.38
334.314	932.38
334.542	1786.38
334.771	1737.38
334.999	458.38
335.227	190.38
335.455	134.38
335.684	131.38
335.912	113.38
336.14	111.38
336.369	112.38
336.597	124.38
336.825	110.38
337.053	115.38
337.281	111.38
337.51	105.38
337.738	88.38
337.966	109.38
338.194	127.38
338.422	122.38
338.65	86.38
338.878	101.38
339.106	101.38
339.334	114.38
339.562	88.38
339.79	91.38
340.018	108.38
340.246	115.38
340.474	118.38
340.702	111.38
340.93	94.38
341.158	108.38
341.386	116.38
341.614	118.38
341.842	111.38
342.07	102.38
342.298	98.38
342.526	106.38
342.754	94.38
342.981	81.38
343.209	88.38
343.437	102.38
343.665	102.38
343.893	109.38
344.12	93.38
344.348	84.38
344.576	90.38
344.804	108.38
345.031	105.38
345.259	117.38
345.487	102.38
345.714	100.38
345.942	105.38
346.17	97.38
346.397	84.38
346.625	99.38
346.853	116.38
347.08	82.38
347.308	103.38
347.535	125.38
347.763	145.38
347.99	111.38
348.218	96.38
348.445	129.38
348.673	117.38
348.9	104.38
349.128	92.38
349.355	104.38
349.583	108.38
349.81	108.38
350.037	92.38
350.265	96.38
350.492	94.38
350.72	106.38
350.947	107.38
351.174	124.38
351.402	135.38
351.629	125.38
351.856	126.38
352.083	113.38
352.311	135.38
352.538	142.38
352.765	122.38
352.992	131.38
353.22	129.38
353.447	131.38
353.674	124.38
353.901	97.38
354.128	103.38
354.355	107.38
354.583	107.38
354.81	94.38
355.037	102.38
355.264	100.38
355.491	88.38
355.718	92.38
355.945	90.38
356.172	99.38
356.399	79.38
356.626	106.38
356.853	94.38
357.08	90.38
357.307	79.38
357.534	86.38
357.761	105.38
357.988	104.38
358.215	85.38
358.441	87.38
358.668	94.38
358.895	94.38
359.122	96.38
359.349	93.38
359.576	107.38
359.802	136.38
360.029	173.38
360.256	188.38
360.483	142.38
360.709	106.38
360.936	102.38
361.163	98.38
361.39	122.38
361.616	117.38
361.843	92.38
362.07	115.38
362.296	115.38
362.523	111.38
362.749	117.38
362.976	96.38
363.203	112.38
363.429	97.38
363.656	97.38
363.882	97.38
364.109	109.38
364.335	90.38
364.562	103.38
364.788	112.38
365.015	103.38
365.241	117.38
365.468	128.38
365.694	132.38
365.92	124.38
366.147	107.38
366.373	87.38
366.599	98.38
366.826	92.38
367.052	100.38
367.278	95.38
367.505	102.38
367.731	97.38
367.957	95.38
368.184	95.38
368.41	111.38
368.636	133.38
368.862	136.38
369.089	131.38
369.315	106.38
369.541	98.38
369.767	119.38
369.993	103.38
370.219	112.38
370.445	98.38
370.672	90.38
370.898	90.38
371.124	101.38
371.35	101.38
371.576	101.38
371.802	85.38
372.028	75.38
372.254	97.38
372.48	83.38
372.706	89.38
372.932	88.38
373.158	93.38
373.384	94.38
373.61	95.38
373.835	97.38
374.061	94.38
374.287	109.38
374.513	97.38
374.739	86.38
374.965	92.38
375.191	88.38
375.416	83.38
375.642	102.38
375.868	106.38
376.094	90.38
376.319	96.38
376.545	91.38
376.771	83.38
376.997	101.38
377.222	107.38
377.448	90.38
377.674	84.38
377.899	80.38
378.125	107.38
378.35	101.38
378.576	95.38
378.802	97.38
379.027	81.38
379.253	88.38
379.478	93.38
379.704	98.38
379.929	94.38
380.155	98.38
380.38	101.38
380.606	105.38
380.831	80.38
381.057	107.38
381.282	102.38
381.507	108.38
381.733	110.38
381.958	84.38
382.184	92.38
382.409	102.38
382.634	131.38
382.86	110.38
383.085	103.38
383.31	107.38
383.535	110.38
383.761	89.38
383.986	97.38
384.211	98.38
384.436	95.38
384.662	103.38
384.887	111.38
385.112	97.38
385.337	108.38
385.562	112.38
385.787	92.38
386.013	99.38
386.238	114.38
386.463	119.38
386.688	125.38
386.913	106.38
387.138	112.38
387.363	108.38
387.588	100.38
387.813	93.38
388.038	101.38
388.263	107.38
388.488	108.38
388.713	104.38
388.938	103.38
389.163	88.38
389.387	109.38
389.612	96.38
389.837	92.38
390.062	104.38
390.287	85.38
390.512	103.38
390.736	88.38
390.961	92.38
391.186	91.38
391.411	91.38
391.636	86.38
391.86	93.38
392.085	79.38
392.31	92.38
392.534	87.38
392.759	95.38
392.984	103.38
393.208	101.38
393.433	99.38
393.658	93.38
393.882	85.38
394.107	88.38
394.331	89.38
394.556	93.38
394.78	90.38
395.005	71.38
395.229	88.38
395.454	91.38
395.678	82.38
395.903	94.38
396.127	97.38
396.352	98.38
396.576	97.38
396.801	98.38
397.025	75.38
397.249	79.38
397.474	88.38
397.698	98.38
397.922	99.38
398.147	106.38
398.371	84.38
398.595	82.38
398.82	108.38
399.044	91.38
399.268	92.38
399.492	91.38
399.717	94.38
399.941	91.38
400.165	111.38
400.389	106.38
400.613	91.38
400.837	99.38
401.062	85.38
401.286	106.38
401.51	111.38
401.734	109.38
401.958	149.38
402.182	164.38
402.406	224.38
402.63	171.38
402.854	123.38
403.078	101.38
403.302	102.38
403.526	96.38
403.75	91.38
403.974	93.38
404.198	104.38
404.422	95.38
404.645	90.38
404.869	100.38
405.093	118.38
405.317	154.38
405.541	156.38
405.765	144.38
405.988	161.38
406.212	245.38
406.436	395.38
406.66	253.38
406.883	131.38
407.107	124.38
407.331	111.38
407.555	128.38
407.778	112.38
408.002	102.38
408.226	96.38
408.449	106.38
408.673	104.38
408.896	97.38
409.12	111.38
409.344	85.38
409.567	86.38
409.791	94.38
410.014	106.38
410.238	102.38
410.461	105.38
410.685	101.38
410.908	101.38
411.132	106.38
411.355	97.38
411.578	103.38
411.802	100.38
412.025	101.38
412.249	109.38
412.472	128.38
412.695	147.38
412.919	114.38
413.142	93.38
413.365	94.38
413.589	93.38
413.812	92.38
414.035	98.38
414.258	103.38
414.482	102.38
414.705	100.38
414.928	94.38
415.151	110.38
415.374	90.38
415.597	88.38
415.821	82.38
416.044	105.38
416.267	94.38
416.49	102.38
416.713	103.38
416.936	91.38
417.159	105.38
417.382	98.38
417.605	105.38
417.828	114.38
418.051	104.38
418.274	92.38
418.497	95.38
418.72	91.38
418.943	96.38
419.166	90.38
419.389	88.38
419.611	81.38
419.834	102.38
420.057	87.38
420.28	88.38
420.503	84.38
420.726	87.38
420.948	109.38
421.171	87.38
421.394	108.38
421.617	94.38
421.839	94.38
422.062	84.38
422.285	90.38
422.507	105.38
422.73	108.38
422.953	110.38
423.175	93.38
423.398	108.38
423.621	84.38
423.843	92.38
424.066	85.38
424.288	94.38
424.511	113.38
424.733	123.38
424.956	116.38
425.178	109.38
425.401	115.38
425.623	108.38
425.846	108.38
426.068	102.38
426.291	111.38
426.513	96.38
426.735	98.38
426.958	103.38
427.18	125.38
427.402	205.38
427.625	314.38
427.847	278.38
428.069	238.38
428.292	130.38
428.514	92.38
428.736	89.38
428.958	92.38
429.181	90.38
429.403	82.38
429.625	107.38
429.847	99.38
430.069	123.38
430.292	110.38
430.514	92.38
430.736	83.38
430.958	86.38
431.18	86.38
431.402	79.38
431.624	94.38
431.846	94.38
432.068	89.38
432.29	101.38
432.512	103.38
432.734	93.38
432.956	96.38
433.178	103.38
433.4	121.38
433.622	95.38
433.844	95.38
434.066	114.38
434.287	107.38
434.509	96.38
434.731	98.38
434.953	98.38
435.175	92.38
435.397	91.38
435.618	122.38
435.84	113.38
436.062	147.38
436.284	137.38
436.505	124.38
436.727	120.38
436.949	103.38
437.17	99.38
437.392	83.38
437.614	104.38
437.835	154.38
438.057	177.38
438.278	155.38
438.5	126.38
438.721	150.38
438.943	126.38
439.165	97.38
439.386	99.38
439.608	100.38
439.829	139.38
440.05	170.38
440.272	212.38
440.493	146.38
440.715	107.38
440.936	96.38
441.158	96.38
441.379	88.38
441.6	124.38
441.822	123.38
442.043	99.38
442.264	128.38
442.486	119.38
442.707	115.38
442.928	140.38
443.149	219.38
443.371	213.38
443.592	151.38
443.813	149.38
444.034	116.38
444.255	116.38
444.476	108.38
444.698	99.38
444.919	90.38
445.14	151.38
445.361	156.38
445.582	170.38
445.803	216.38
446.024	202.38
446.245	179.38
446.466	161.38
446.687	111.38
446.908	109.38
447.129	101.38
447.35	88.38
447.571	81.38
447.792	109.38
448.013	114.38
448.234	141.38
448.455	119.38
448.675	156.38
448.896	148.38
449.117	124.38
449.338	123.38
449.559	157.38
449.779	167.38
450	112.38
450.221	97.38
450.442	95.38
450.662	118.38
450.883	157.38
451.104	148.38
451.324	127.38
451.545	97.38
451.766	84.38
451.986	92.38
452.207	92.38
452.428	112.38
452.648	123.38
452.869	154.38
453.089	154.38
453.31	168.38
453.53	108.38
453.751	111.38
453.971	134.38
454.192	160.38
454.412	107.38
454.633	104.38
454.853	95.38
455.073	100.38
455.294	105.38
455.514	103.38
455.734	96.38
455.955	100.38
456.175	103.38
456.395	88.38
456.616	89.38
456.836	91.38
457.056	93.38
457.276	83.38
457.497	74.38
457.717	94.38
457.937	98.38
458.157	100.38
458.377	101.38
458.598	131.38
458.818	255.38
459.038	277.38
459.258	174.38
459.478	109.38
459.698	92.38
459.918	102.38
460.138	100.38
460.358	85.38
460.578	84.38
460.798	88.38
461.018	100.38
461.238	98.38
461.458	97.38
461.678	92.38
461.898	82.38
462.118	105.38
462.338	101.38
462.558	76.38
462.777	91.38
462.997	99.38
463.217	110.38
463.437	110.38
463.657	98.38
463.876	91.38
464.096	112.38
464.316	126.38
464.536	115.38
464.755	111.38
464.975	153.38
465.195	291.38
465.414	305.38
465.634	130.38
465.854	96.38
466.073	102.38
466.293	95.38
466.512	71.38
466.732	76.38
466.951	86.38
467.171	103.38
467.391	122.38
467.61	158.38
467.829	209.38
468.049	557.38
468.268	836.38
468.488	232.38
468.707	106.38
468.927	114.38
469.146	99.38
469.365	103.38
469.585	97.38
469.804	106.38
470.023	129.38
470.243	129.38
470.462	129.38
470.681	170.38
470.901	123.38
471.12	111.38
471.339	113.38
471.558	124.38
471.777	151.38
471.997	278.38
472.216	1035.38
472.435	2502.38
472.654	600.38
472.873	174.38
473.092	98.38
473.311	101.38
473.53	99.38
473.749	97.38
473.968	116.38
474.187	145.38
474.406	119.38
474.625	109.38
474.844	117.38
475.063	93.38
475.282	101.38
475.501	96.38
475.72	108.38
475.939	91.38
476.158	86.38
476.377	86.38
476.596	98.38
476.814	102.38
477.033	95.38
477.252	88.38
477.471	88.38
477.69	102.38
477.908	103.38
478.127	94.38
478.346	104.38
478.564	103.38
478.783	108.38
479.002	115.38
479.22	128.38
479.439	138.38
479.658	157.38
479.876	140.38
480.095	127.38
480.313	126.38
480.532	174.38
480.751	275.38
480.969	954.38
481.188	4126.38
481.406	2496.38
481.624	353.38
481.843	138.38
482.061	113.38
482.28	103.38
482.498	86.38
482.717	88.38
482.935	105.38
483.153	96.38
483.372	87.38
483.59	95.38
483.808	93.38
484.027	87.38
484.245	109.38
484.463	109.38
484.681	94.38
484.9	90.38
485.118	95.38
485.336	97.38
485.554	104.38
485.772	110.38
485.99	100.38
486.209	103.38
486.427	114.38
486.645	135.38
486.863	160.38
487.081	111.38
487.299	104.38
487.517	104.38
487.735	78.38
487.953	92.38
488.171	85.38
488.389	104.38
488.607	117.38
488.825	96.38
489.043	85.38
489.261	92.38
489.479	84.38
489.696	92.38
489.914	94.38
490.132	93.38
490.35	100.38
490.568	83.38
490.786	91.38
491.003	98.38
491.221	92.38
491.439	92.38
491.657	104.38
491.874	94.38
492.092	92.38
492.31	106.38
492.527	99.38
492.745	94.38
492.963	105.38
493.18	110.38
493.398	96.38
493.615	97.38
493.833	119.38
494.05	105.38
494.268	95.38
494.485	96.38
494.703	92.38
494.92	101.38
495.138	85.38
495.355	96.38
495.573	93.38
495.79	88.38
496.008	90.38
496.225	86.38
496.442	103.38
496.66	100.38
496.877	107.38
497.094	91.38
497.312	109.38
497.529	108.38
497.746	87.38
497.963	99.38
498.181	100.38
498.398	101.38
498.615	126.38
498.832	116.38
499.049	110.38
499.267	97.38
499.484	92.38
499.701	96.38
499.918	97.38
500.135	102.38
500.352	100.38
500.569	103.38
500.786	117.38
501.003	112.38
501.22	99.38
501.437	104.38
501.654	119.38
501.871	144.38
502.088	100.38
502.305	100.38
502.522	93.38
502.739	65.38
502.956	100.38
503.172	105.38
503.389	121.38
503.606	125.38
503.823	121.38
504.04	122.38
504.256	108.38
504.473	95.38
504.69	91.38
504.907	100.38
505.123	91.38
505.34	102.38
505.557	93.38
505.773	103.38
505.99	96.38
506.207	93.38
506.423	94.38
506.64	93.38
506.856	110.38
507.073	98.38
507.289	107.38
507.506	114.38
507.722	150.38
507.939	148.38
508.155	110.38
508.372	94.38
508.588	102.38
508.805	103.38
509.021	107.38
509.238	109.38
509.454	119.38
509.67	122.38
509.887	114.38
510.103	149.38
510.319	290.38
510.536	1096.38
