Data from Circ_2007_H10_HRD10591_00056.txt Node
Date: Wed Jan 03 10:22:08 EST 2024
User: Yrep
Spectrometer: HR+D1059
Trigger mode: 1
Integration Time (sec): 1.000000E-1
Scans to average: 1
Electric dark correction enabled: true
Nonlinearity correction enabled: false
Boxcar width: 0
XAxis mode: Wavelengths
Number of Pixels in Spectrum: 2048
>>>>>Begin Spectral Data<<<<<
223.165	-14.31
223.4	-14.31
223.635	-14.31
223.869	-23.31
224.104	-14.31
224.338	-29.31
224.573	-5.31
224.808	-1.31
225.042	-10.31
225.277	-14.31
225.511	-15.31
225.746	13.69
225.98	-4.31
226.215	17.69
226.449	21.69
226.683	31.69
226.918	22.69
227.152	24.69
227.387	42.69
227.621	42.69
227.856	53.69
228.09	32.69
228.324	59.69
228.559	51.69
228.793	66.69
229.027	60.69
229.262	79.69
229.496	79.69
229.73	115.69
229.964	96.69
230.199	88.69
230.433	85.69
230.667	70.69
230.901	70.69
231.136	77.69
231.37	87.69
231.604	84.69
231.838	87.69
232.072	67.69
232.306	76.69
232.541	82.69
232.775	68.69
233.009	81.69
233.243	94.69
233.477	76.69
233.711	94.69
233.945	78.69
234.179	80.69
234.413	69.69
234.647	78.69
234.881	78.69
235.115	72.69
235.349	67.69
235.583	85.69
235.817	74.69
236.051	72.69
236.285	79.69
236.519	70.69
236.753	84.69
236.987	75.69
237.221	108.69
237.455	103.69
237.689	85.69
237.922	85.69
238.156	79.69
238.39	71.69
238.624	83.69
238.858	94.69
239.091	73.69
239.325	80.69
239.559	98.69
239.793	86.69
240.027	81.69
240.26	66.69
240.494	82.69
240.728	83.69
240.961	86.69
241.195	74.69
241.429	76.69
241.662	76.69
241.896	80.69
242.13	77.69
242.363	68.69
242.597	87.69
242.83	66.69
243.064	80.69
243.298	86.69
243.531	80.69
243.765	85.69
243.998	90.69
244.232	88.69
244.465	94.69
244.699	83.69
244.932	95.69
245.166	77.69
245.399	74.69
245.633	79.69
245.866	85.69
246.099	95.69
246.333	79.69
246.566	76.69
246.8	92.69
247.033	103.69
247.266	87.69
247.5	80.69
247.733	70.69
247.966	94.69
248.2	87.69
248.433	91.69
248.666	87.69
248.899	88.69
249.133	99.69
249.366	115.69
249.599	116.69
249.832	80.69
250.066	88.69
250.299	96.69
250.532	82.69
250.765	82.69
250.998	87.69
251.231	87.69
251.465	82.69
251.698	78.69
251.931	95.69
252.164	81.69
252.397	81.69
252.63	85.69
252.863	97.69
253.096	97.69
253.329	86.69
253.562	74.69
253.795	83.69
254.028	91.69
254.261	74.69
254.494	82.69
254.727	87.69
254.96	82.69
255.193	86.69
255.426	83.69
255.659	91.69
255.892	94.69
256.124	106.69
256.357	97.69
256.59	86.69
256.823	80.69
257.056	81.69
257.289	90.69
257.521	88.69
257.754	90.69
257.987	85.69
258.22	81.69
258.452	85.69
258.685	88.69
258.918	100.69
259.151	68.69
259.383	77.69
259.616	78.69
259.849	85.69
260.081	89.69
260.314	92.69
260.547	93.69
260.779	98.69
261.012	110.69
261.244	94.69
261.477	103.69
261.71	132.69
261.942	154.69
262.175	158.69
262.407	113.69
262.64	96.69
262.872	99.69
263.105	109.69
263.337	105.69
263.57	86.69
263.802	100.69
264.035	87.69
264.267	95.69
264.499	74.69
264.732	77.69
264.964	76.69
265.197	98.69
265.429	68.69
265.661	88.69
265.894	92.69
266.126	101.69
266.358	76.69
266.591	90.69
266.823	76.69
267.055	79.69
267.287	85.69
267.52	92.69
267.752	102.69
267.984	95.69
268.216	97.69
268.448	84.69
268.681	77.69
268.913	82.69
269.145	96.69
269.377	85.69
269.609	93.69
269.841	86.69
270.073	81.69
270.306	102.69
270.538	82.69
270.77	88.69
271.002	92.69
271.234	98.69
271.466	95.69
271.698	93.69
271.93	89.69
272.162	93.69
272.394	106.69
272.626	83.69
272.858	92.69
273.09	98.69
273.322	81.69
273.553	82.69
273.785	78.69
274.017	81.69
274.249	82.69
274.481	88.69
274.713	96.69
274.945	90.69
275.176	93.69
275.408	97.69
275.64	119.69
275.872	126.69
276.104	104.69
276.335	100.69
276.567	140.69
276.799	145.69
277.031	154.69
277.262	179.69
277.494	125.69
277.726	103.69
277.957	98.69
278.189	85.69
278.421	101.69
278.652	90.69
278.884	91.69
279.115	103.69
279.347	99.69
279.579	106.69
279.81	112.69
280.042	178.69
280.273	227.69
280.505	172.69
280.736	114.69
280.968	90.69
281.199	93.69
281.431	87.69
281.662	102.69
281.894	101.69
282.125	124.69
282.356	154.69
282.588	197.69
282.819	144.69
283.051	92.69
283.282	76.69
283.513	102.69
283.745	116.69
283.976	91.69
284.207	86.69
284.439	94.69
284.67	105.69
284.901	88.69
285.132	98.69
285.364	86.69
285.595	81.69
285.826	87.69
286.057	95.69
286.288	75.69
286.52	96.69
286.751	85.69
286.982	85.69
287.213	104.69
287.444	100.69
287.675	98.69
287.906	99.69
288.138	90.69
288.369	117.69
288.6	93.69
288.831	97.69
289.062	97.69
289.293	99.69
289.524	100.69
289.755	81.69
289.986	87.69
290.217	91.69
290.448	98.69
290.679	101.69
290.91	98.69
291.141	89.69
291.371	90.69
291.602	112.69
291.833	94.69
292.064	87.69
292.295	92.69
292.526	97.69
292.757	96.69
292.987	88.69
293.218	93.69
293.449	91.69
293.68	98.69
293.91	95.69
294.141	98.69
294.372	87.69
294.603	80.69
294.833	83.69
295.064	93.69
295.295	87.69
295.525	94.69
295.756	111.69
295.987	129.69
296.217	173.69
296.448	161.69
296.679	100.69
296.909	91.69
297.14	86.69
297.37	95.69
297.601	109.69
297.831	103.69
298.062	85.69
298.292	100.69
298.523	99.69
298.753	89.69
298.984	95.69
299.214	85.69
299.445	103.69
299.675	114.69
299.905	110.69
300.136	114.69
300.366	105.69
300.597	108.69
300.827	101.69
301.057	95.69
301.288	115.69
301.518	105.69
301.748	98.69
301.979	107.69
302.209	114.69
302.439	87.69
302.669	97.69
302.9	87.69
303.13	80.69
303.36	101.69
303.59	129.69
303.82	139.69
304.051	108.69
304.281	98.69
304.511	101.69
304.741	81.69
304.971	99.69
305.201	92.69
305.431	90.69
305.661	101.69
305.891	95.69
306.121	114.69
306.352	123.69
306.582	125.69
306.812	112.69
307.042	122.69
307.272	160.69
307.502	149.69
307.731	138.69
307.961	110.69
308.191	107.69
308.421	92.69
308.651	99.69
308.881	93.69
309.111	107.69
309.341	107.69
309.571	114.69
309.8	128.69
310.03	109.69
310.26	120.69
310.49	105.69
310.72	108.69
310.949	119.69
311.179	109.69
311.409	113.69
311.639	103.69
311.868	109.69
312.098	104.69
312.328	113.69
312.557	128.69
312.787	134.69
313.017	129.69
313.246	110.69
313.476	109.69
313.706	115.69
313.935	117.69
314.165	117.69
314.394	131.69
314.624	112.69
314.853	122.69
315.083	110.69
315.312	98.69
315.542	98.69
315.771	93.69
316.001	88.69
316.23	102.69
316.46	98.69
316.689	105.69
316.919	100.69
317.148	108.69
317.377	116.69
317.607	121.69
317.836	104.69
318.065	94.69
318.295	99.69
318.524	95.69
318.753	77.69
318.983	99.69
319.212	128.69
319.441	123.69
319.67	130.69
319.9	101.69
320.129	102.69
320.358	100.69
320.587	100.69
320.816	109.69
321.046	122.69
321.275	111.69
321.504	116.69
321.733	112.69
321.962	101.69
322.191	110.69
322.42	131.69
322.649	136.69
322.878	142.69
323.108	152.69
323.337	155.69
323.566	191.69
323.795	207.69
324.024	287.69
324.253	578.69
324.482	1262.69
324.71	2602.69
324.939	3481.69
325.168	1212.69
325.397	343.69
325.626	187.69
325.855	154.69
326.084	158.69
326.313	151.69
326.542	192.69
326.77	309.69
326.999	626.69
327.228	1360.69
327.457	2450.69
327.686	1997.69
327.914	609.69
328.143	506.69
328.372	606.69
328.6	358.69
328.829	211.69
329.058	221.69
329.287	229.69
329.515	183.69
329.744	236.69
329.972	430.69
330.201	872.69
330.43	1242.69
330.658	584.69
330.887	332.69
331.115	220.69
331.344	134.69
331.572	144.69
331.801	161.69
332.03	134.69
332.258	105.69
332.486	98.69
332.715	128.69
332.943	115.69
333.172	118.69
333.4	128.69
333.629	163.69
333.857	220.69
334.085	396.69
334.314	819.69
334.542	1578.69
334.771	1447.69
334.999	407.69
335.227	186.69
335.455	124.69
335.684	135.69
335.912	123.69
336.14	108.69
336.369	115.69
336.597	127.69
336.825	121.69
337.053	120.69
337.281	104.69
337.51	108.69
337.738	112.69
337.966	110.69
338.194	119.69
338.422	103.69
338.65	102.69
338.878	101.69
339.106	94.69
339.334	101.69
339.562	104.69
339.79	110.69
340.018	96.69
340.246	115.69
340.474	106.69
340.702	108.69
340.93	97.69
341.158	113.69
341.386	116.69
341.614	104.69
341.842	98.69
342.07	96.69
342.298	100.69
342.526	97.69
342.754	92.69
342.981	101.69
343.209	86.69
343.437	115.69
343.665	95.69
343.893	98.69
344.12	107.69
344.348	101.69
344.576	100.69
344.804	116.69
345.031	115.69
345.259	111.69
345.487	96.69
345.714	117.69
345.942	102.69
346.17	88.69
346.397	102.69
346.625	114.69
346.853	106.69
347.08	91.69
347.308	101.69
347.535	110.69
347.763	133.69
347.99	114.69
348.218	105.69
348.445	126.69
348.673	125.69
348.9	103.69
349.128	113.69
349.355	100.69
349.583	112.69
349.81	102.69
350.037	112.69
350.265	94.69
350.492	105.69
350.72	107.69
350.947	106.69
351.174	134.69
351.402	140.69
351.629	117.69
351.856	110.69
352.083	135.69
352.311	118.69
352.538	128.69
352.765	138.69
352.992	145.69
353.22	134.69
353.447	114.69
353.674	118.69
353.901	106.69
354.128	100.69
354.355	78.69
354.583	109.69
354.81	105.69
355.037	106.69
355.264	100.69
355.491	90.69
355.718	91.69
355.945	86.69
356.172	94.69
356.399	100.69
356.626	92.69
356.853	91.69
357.08	95.69
357.307	87.69
357.534	94.69
357.761	96.69
357.988	103.69
358.215	100.69
358.441	93.69
358.668	100.69
358.895	86.69
359.122	96.69
359.349	98.69
359.576	98.69
359.802	123.69
360.029	148.69
360.256	158.69
360.483	130.69
360.709	95.69
360.936	117.69
361.163	109.69
361.39	112.69
361.616	122.69
361.843	109.69
362.07	106.69
362.296	112.69
362.523	103.69
362.749	117.69
362.976	88.69
363.203	109.69
363.429	101.69
363.656	109.69
363.882	84.69
364.109	98.69
364.335	91.69
364.562	112.69
364.788	89.69
365.015	98.69
365.241	114.69
365.468	130.69
365.694	136.69
365.92	118.69
366.147	105.69
366.373	93.69
366.599	103.69
366.826	104.69
367.052	95.69
367.278	103.69
367.505	98.69
367.731	106.69
367.957	113.69
368.184	95.69
368.41	123.69
368.636	134.69
368.862	153.69
369.089	125.69
369.315	116.69
369.541	102.69
369.767	93.69
369.993	94.69
370.219	118.69
370.445	80.69
370.672	103.69
370.898	88.69
371.124	90.69
371.35	100.69
371.576	103.69
371.802	99.69
372.028	112.69
372.254	94.69
372.48	92.69
372.706	93.69
372.932	101.69
373.158	91.69
373.384	84.69
373.61	94.69
373.835	87.69
374.061	95.69
374.287	93.69
374.513	99.69
374.739	104.69
374.965	95.69
375.191	96.69
375.416	88.69
375.642	94.69
375.868	85.69
376.094	87.69
376.319	100.69
376.545	98.69
376.771	90.69
376.997	85.69
377.222	101.69
377.448	100.69
377.674	90.69
377.899	94.69
378.125	99.69
378.35	115.69
378.576	96.69
378.802	91.69
379.027	87.69
379.253	98.69
379.478	98.69
379.704	91.69
379.929	99.69
380.155	95.69
380.38	104.69
380.606	110.69
380.831	96.69
381.057	108.69
381.282	96.69
381.507	92.69
381.733	96.69
381.958	95.69
382.184	111.69
382.409	98.69
382.634	101.69
382.86	93.69
383.085	98.69
383.31	102.69
383.535	105.69
383.761	102.69
383.986	91.69
384.211	85.69
384.436	101.69
384.662	102.69
384.887	104.69
385.112	119.69
385.337	95.69
385.562	104.69
385.787	116.69
386.013	128.69
386.238	134.69
386.463	130.69
386.688	110.69
386.913	101.69
387.138	105.69
387.363	93.69
387.588	126.69
387.813	98.69
388.038	103.69
388.263	93.69
388.488	101.69
388.713	103.69
388.938	89.69
389.163	95.69
389.387	96.69
389.612	84.69
389.837	90.69
390.062	95.69
390.287	87.69
390.512	87.69
390.736	97.69
390.961	88.69
391.186	104.69
391.411	90.69
391.636	81.69
391.86	95.69
392.085	95.69
392.31	94.69
392.534	97.69
392.759	92.69
392.984	90.69
393.208	82.69
393.433	100.69
393.658	88.69
393.882	87.69
394.107	92.69
394.331	99.69
394.556	83.69
394.78	102.69
395.005	100.69
395.229	75.69
395.454	88.69
395.678	73.69
395.903	102.69
396.127	107.69
396.352	94.69
396.576	100.69
396.801	95.69
397.025	95.69
397.249	91.69
397.474	99.69
397.698	105.69
397.922	97.69
398.147	91.69
398.371	82.69
398.595	80.69
398.82	83.69
399.044	80.69
399.268	89.69
399.492	93.69
399.717	94.69
399.941	106.69
400.165	107.69
400.389	99.69
400.613	97.69
400.837	87.69
401.062	96.69
401.286	99.69
401.51	103.69
401.734	109.69
401.958	114.69
402.182	163.69
402.406	225.69
402.63	180.69
402.854	101.69
403.078	90.69
403.302	85.69
403.526	81.69
403.75	82.69
403.974	75.69
404.198	97.69
404.422	102.69
404.645	103.69
404.869	98.69
405.093	99.69
405.317	167.69
405.541	158.69
405.765	138.69
405.988	165.69
406.212	245.69
406.436	354.69
406.66	247.69
406.883	162.69
407.107	145.69
407.331	126.69
407.555	119.69
407.778	118.69
408.002	104.69
408.226	107.69
408.449	87.69
408.673	93.69
408.896	110.69
409.12	100.69
409.344	81.69
409.567	90.69
409.791	91.69
410.014	102.69
410.238	97.69
410.461	90.69
410.685	98.69
410.908	102.69
411.132	133.69
411.355	122.69
411.578	96.69
411.802	89.69
412.025	98.69
412.249	97.69
412.472	118.69
412.695	142.69
412.919	107.69
413.142	94.69
413.365	95.69
413.589	83.69
413.812	88.69
414.035	94.69
414.258	86.69
414.482	89.69
414.705	91.69
414.928	87.69
415.151	107.69
415.374	82.69
415.597	90.69
415.821	89.69
416.044	94.69
416.267	101.69
416.49	86.69
416.713	90.69
416.936	100.69
417.159	84.69
417.382	97.69
417.605	116.69
417.828	122.69
418.051	95.69
418.274	96.69
418.497	93.69
418.72	91.69
418.943	105.69
419.166	101.69
419.389	92.69
419.611	82.69
419.834	88.69
420.057	84.69
420.28	109.69
420.503	94.69
420.726	85.69
420.948	101.69
421.171	115.69
421.394	107.69
421.617	88.69
421.839	88.69
422.062	85.69
422.285	95.69
422.507	110.69
422.73	120.69
422.953	101.69
423.175	111.69
423.398	96.69
423.621	99.69
423.843	87.69
424.066	86.69
424.288	96.69
424.511	94.69
424.733	101.69
424.956	147.69
425.178	123.69
425.401	117.69
425.623	123.69
425.846	103.69
426.068	114.69
426.291	120.69
426.513	100.69
426.735	98.69
426.958	105.69
427.18	119.69
427.402	188.69
427.625	297.69
427.847	272.69
428.069	243.69
428.292	125.69
428.514	96.69
428.736	109.69
428.958	102.69
429.181	101.69
429.403	86.69
429.625	89.69
429.847	100.69
430.069	119.69
430.292	104.69
430.514	101.69
430.736	103.69
430.958	94.69
431.18	97.69
431.402	80.69
431.624	80.69
431.846	87.69
432.068	83.69
432.29	108.69
432.512	92.69
432.734	95.69
432.956	105.69
433.178	107.69
433.4	122.69
433.622	88.69
433.844	97.69
434.066	107.69
434.287	102.69
434.509	102.69
434.731	102.69
434.953	93.69
435.175	92.69
435.397	97.69
435.618	107.69
435.84	126.69
436.062	164.69
436.284	138.69
436.505	127.69
436.727	120.69
436.949	99.69
437.17	82.69
437.392	99.69
437.614	101.69
437.835	146.69
438.057	164.69
438.278	147.69
438.5	140.69
438.721	170.69
438.943	124.69
439.165	115.69
439.386	97.69
439.608	115.69
439.829	133.69
440.05	182.69
440.272	226.69
440.493	116.69
440.715	110.69
440.936	103.69
441.158	85.69
441.379	85.69
441.6	101.69
441.822	108.69
442.043	127.69
442.264	141.69
442.486	131.69
442.707	111.69
442.928	130.69
443.149	198.69
443.371	224.69
443.592	138.69
443.813	143.69
444.034	132.69
444.255	101.69
444.476	95.69
444.698	98.69
444.919	90.69
445.14	131.69
445.361	148.69
445.582	160.69
445.803	209.69
446.024	210.69
446.245	194.69
446.466	147.69
446.687	103.69
446.908	99.69
447.129	87.69
447.35	99.69
447.571	103.69
447.792	100.69
448.013	108.69
448.234	138.69
448.455	116.69
448.675	153.69
448.896	156.69
449.117	123.69
449.338	118.69
449.559	151.69
449.779	174.69
450	102.69
450.221	96.69
450.442	110.69
450.662	99.69
450.883	147.69
451.104	156.69
451.324	117.69
451.545	103.69
451.766	93.69
451.986	94.69
452.207	104.69
452.428	102.69
452.648	114.69
452.869	131.69
453.089	147.69
453.31	151.69
453.53	122.69
453.751	112.69
453.971	139.69
454.192	145.69
454.412	113.69
454.633	93.69
454.853	90.69
455.073	90.69
455.294	101.69
455.514	114.69
455.734	111.69
455.955	103.69
456.175	96.69
456.395	90.69
456.616	74.69
456.836	97.69
457.056	91.69
457.276	87.69
457.497	88.69
457.717	98.69
457.937	85.69
458.157	87.69
458.377	106.69
458.598	130.69
458.818	239.69
459.038	276.69
459.258	186.69
459.478	106.69
459.698	107.69
459.918	96.69
460.138	77.69
460.358	86.69
460.578	100.69
460.798	95.69
461.018	86.69
461.238	73.69
461.458	95.69
461.678	85.69
461.898	108.69
462.118	85.69
462.338	99.69
462.558	80.69
462.777	96.69
462.997	110.69
463.217	100.69
463.437	104.69
463.657	98.69
463.876	98.69
464.096	91.69
464.316	104.69
464.536	107.69
464.755	99.69
464.975	134.69
465.195	273.69
465.414	277.69
465.634	128.69
465.854	98.69
466.073	110.69
466.293	99.69
466.512	92.69
466.732	99.69
466.951	93.69
467.171	103.69
467.391	115.69
467.61	168.69
467.829	202.69
468.049	444.69
468.268	658.69
468.488	181.69
468.707	116.69
468.927	90.69
469.146	100.69
469.365	107.69
469.585	103.69
469.804	118.69
470.023	122.69
470.243	112.69
470.462	140.69
470.681	165.69
470.901	119.69
471.12	96.69
471.339	99.69
471.558	122.69
471.777	126.69
471.997	253.69
472.216	864.69
472.435	1993.69
472.654	500.69
472.873	163.69
473.092	119.69
473.311	108.69
473.53	97.69
473.749	109.69
473.968	105.69
474.187	141.69
474.406	123.69
474.625	102.69
474.844	95.69
475.063	99.69
475.282	95.69
475.501	91.69
475.72	98.69
475.939	86.69
476.158	88.69
476.377	100.69
476.596	88.69
476.814	109.69
477.033	122.69
477.252	91.69
477.471	94.69
477.69	86.69
477.908	103.69
478.127	109.69
478.346	91.69
478.564	94.69
478.783	126.69
479.002	109.69
479.22	108.69
479.439	118.69
479.658	146.69
479.876	143.69
480.095	123.69
480.313	126.69
480.532	149.69
480.751	239.69
480.969	798.69
481.188	3341.69
481.406	2024.69
481.624	315.69
481.843	134.69
482.061	102.69
482.28	99.69
482.498	106.69
482.717	96.69
482.935	105.69
483.153	84.69
483.372	82.69
483.59	100.69
483.808	86.69
484.027	95.69
484.245	95.69
484.463	115.69
484.681	92.69
484.9	91.69
485.118	108.69
485.336	103.69
485.554	90.69
485.772	104.69
485.99	106.69
486.209	106.69
486.427	112.69
486.645	130.69
486.863	133.69
487.081	112.69
487.299	110.69
487.517	94.69
487.735	118.69
487.953	97.69
488.171	95.69
488.389	103.69
488.607	109.69
488.825	79.69
489.043	93.69
489.261	97.69
489.479	92.69
489.696	100.69
489.914	88.69
490.132	88.69
490.35	93.69
490.568	101.69
490.786	78.69
491.003	94.69
491.221	109.69
491.439	98.69
491.657	90.69
491.874	106.69
492.092	88.69
492.31	95.69
492.527	104.69
492.745	99.69
492.963	98.69
493.18	91.69
493.398	101.69
493.615	98.69
493.833	95.69
494.05	84.69
494.268	99.69
494.485	109.69
494.703	104.69
494.92	92.69
495.138	94.69
495.355	87.69
495.573	96.69
495.79	84.69
496.008	108.69
496.225	93.69
496.442	98.69
496.66	99.69
496.877	97.69
497.094	85.69
497.312	100.69
497.529	99.69
497.746	100.69
497.963	100.69
498.181	95.69
498.398	102.69
498.615	119.69
498.832	125.69
499.049	94.69
499.267	98.69
499.484	91.69
499.701	83.69
499.918	86.69
500.135	99.69
500.352	90.69
500.569	100.69
500.786	100.69
501.003	109.69
501.22	99.69
501.437	111.69
501.654	133.69
501.871	145.69
502.088	113.69
502.305	94.69
502.522	95.69
502.739	99.69
502.956	91.69
503.172	104.69
503.389	114.69
503.606	141.69
503.823	111.69
504.04	97.69
504.256	96.69
504.473	97.69
504.69	111.69
504.907	99.69
505.123	103.69
505.34	98.69
505.557	91.69
505.773	94.69
505.99	91.69
506.207	108.69
506.423	106.69
506.64	96.69
506.856	106.69
507.073	86.69
507.289	87.69
507.506	93.69
507.722	146.69
507.939	161.69
508.155	120.69
508.372	118.69
508.588	89.69
508.805	101.69
509.021	104.69
509.238	122.69
509.454	108.69
509.67	106.69
509.887	132.69
510.103	150.69
510.319	262.69
510.536	974.69
510.752	3568.69
