Data from Circ_2007_H10_HRD10591_00094.txt Node
Date: Wed Jan 03 10:22:16 EST 2024
User: Yrep
Spectrometer: HR+D1059
Trigger mode: 1
Integration Time (sec): 1.000000E-1
Scans to average: 1
Electric dark correction enabled: true
Nonlinearity correction enabled: false
Boxcar width: 0
XAxis mode: Wavelengths
Number of Pixels in Spectrum: 2048
>>>>>Begin Spectral Data<<<<<
223.165	-20.69
223.4	-20.69
223.635	-20.69
223.869	-15.69
224.104	-5.69
224.338	-19.69
224.573	-12.69
224.808	-25.69
225.042	-18.69
225.277	0.31
225.511	-7.69
225.746	2.31
225.98	14.31
226.215	8.31
226.449	27.31
226.683	28.31
226.918	24.31
227.152	21.31
227.387	38.31
227.621	38.31
227.856	52.31
228.09	40.31
228.324	45.31
228.559	47.31
228.793	62.31
229.027	60.31
229.262	59.31
229.496	77.31
229.73	111.31
229.964	92.31
230.199	85.31
230.433	80.31
230.667	70.31
230.901	84.31
231.136	95.31
231.37	86.31
231.604	71.31
231.838	79.31
232.072	97.31
232.306	95.31
232.541	69.31
232.775	73.31
233.009	77.31
233.243	82.31
233.477	67.31
233.711	67.31
233.945	67.31
234.179	71.31
234.413	83.31
234.647	80.31
234.881	72.31
235.115	79.31
235.349	83.31
235.583	83.31
235.817	88.31
236.051	89.31
236.285	87.31
236.519	82.31
236.753	86.31
236.987	81.31
237.221	77.31
237.455	95.31
237.689	62.31
237.922	60.31
238.156	79.31
238.39	81.31
238.624	76.31
238.858	82.31
239.091	84.31
239.325	78.31
239.559	69.31
239.793	62.31
240.027	82.31
240.26	82.31
240.494	80.31
240.728	80.31
240.961	79.31
241.195	83.31
241.429	66.31
241.662	65.31
241.896	69.31
242.13	84.31
242.363	75.31
242.597	75.31
242.83	76.31
243.064	94.31
243.298	67.31
243.531	71.31
243.765	77.31
243.998	76.31
244.232	94.31
244.465	91.31
244.699	71.31
244.932	94.31
245.166	70.31
245.399	88.31
245.633	94.31
245.866	64.31
246.099	100.31
246.333	71.31
246.566	81.31
246.8	68.31
247.033	75.31
247.266	82.31
247.5	79.31
247.733	76.31
247.966	67.31
248.2	76.31
248.433	80.31
248.666	79.31
248.899	84.31
249.133	94.31
249.366	104.31
249.599	97.31
249.832	93.31
250.066	88.31
250.299	80.31
250.532	82.31
250.765	87.31
250.998	81.31
251.231	78.31
251.465	83.31
251.698	81.31
251.931	77.31
252.164	77.31
252.397	71.31
252.63	89.31
252.863	67.31
253.096	81.31
253.329	91.31
253.562	92.31
253.795	87.31
254.028	82.31
254.261	75.31
254.494	83.31
254.727	82.31
254.96	84.31
255.193	78.31
255.426	86.31
255.659	82.31
255.892	96.31
256.124	83.31
256.357	87.31
256.59	93.31
256.823	96.31
257.056	89.31
257.289	92.31
257.521	79.31
257.754	63.31
257.987	75.31
258.22	91.31
258.452	95.31
258.685	83.31
258.918	89.31
259.151	92.31
259.383	79.31
259.616	80.31
259.849	69.31
260.081	86.31
260.314	90.31
260.547	93.31
260.779	93.31
261.012	96.31
261.244	114.31
261.477	104.31
261.71	109.31
261.942	146.31
262.175	148.31
262.407	96.31
262.64	91.31
262.872	83.31
263.105	84.31
263.337	93.31
263.57	91.31
263.802	89.31
264.035	83.31
264.267	76.31
264.499	86.31
264.732	90.31
264.964	88.31
265.197	84.31
265.429	85.31
265.661	84.31
265.894	80.31
266.126	100.31
266.358	92.31
266.591	90.31
266.823	87.31
267.055	87.31
267.287	69.31
267.52	89.31
267.752	71.31
267.984	86.31
268.216	83.31
268.448	76.31
268.681	83.31
268.913	88.31
269.145	89.31
269.377	81.31
269.609	96.31
269.841	84.31
270.073	70.31
270.306	92.31
270.538	93.31
270.77	86.31
271.002	83.31
271.234	85.31
271.466	86.31
271.698	98.31
271.93	87.31
272.162	89.31
272.394	98.31
272.626	93.31
272.858	79.31
273.09	72.31
273.322	83.31
273.553	86.31
273.785	78.31
274.017	70.31
274.249	101.31
274.481	79.31
274.713	84.31
274.945	91.31
275.176	95.31
275.408	117.31
275.64	104.31
275.872	132.31
276.104	113.31
276.335	96.31
276.567	117.31
276.799	142.31
277.031	157.31
277.262	192.31
277.494	136.31
277.726	76.31
277.957	94.31
278.189	107.31
278.421	86.31
278.652	87.31
278.884	79.31
279.115	86.31
279.347	105.31
279.579	96.31
279.81	122.31
280.042	186.31
280.273	260.31
280.505	174.31
280.736	112.31
280.968	90.31
281.199	102.31
281.431	79.31
281.662	97.31
281.894	98.31
282.125	108.31
282.356	135.31
282.588	179.31
282.819	154.31
283.051	102.31
283.282	95.31
283.513	92.31
283.745	89.31
283.976	75.31
284.207	90.31
284.439	83.31
284.67	85.31
284.901	81.31
285.132	88.31
285.364	84.31
285.595	81.31
285.826	85.31
286.057	95.31
286.288	78.31
286.52	95.31
286.751	86.31
286.982	80.31
287.213	97.31
287.444	78.31
287.675	75.31
287.906	101.31
288.138	94.31
288.369	90.31
288.6	99.31
288.831	80.31
289.062	86.31
289.293	94.31
289.524	89.31
289.755	81.31
289.986	97.31
290.217	87.31
290.448	77.31
290.679	81.31
290.91	99.31
291.141	85.31
291.371	77.31
291.602	84.31
291.833	98.31
292.064	88.31
292.295	91.31
292.526	98.31
292.757	91.31
292.987	95.31
293.218	86.31
293.449	90.31
293.68	89.31
293.91	90.31
294.141	80.31
294.372	82.31
294.603	94.31
294.833	87.31
295.064	95.31
295.295	84.31
295.525	90.31
295.756	104.31
295.987	142.31
296.217	184.31
296.448	155.31
296.679	105.31
296.909	93.31
297.14	109.31
297.37	98.31
297.601	86.31
297.831	100.31
298.062	86.31
298.292	97.31
298.523	83.31
298.753	90.31
298.984	97.31
299.214	97.31
299.445	87.31
299.675	87.31
299.905	107.31
300.136	92.31
300.366	102.31
300.597	71.31
300.827	100.31
301.057	103.31
301.288	100.31
301.518	107.31
301.748	110.31
301.979	104.31
302.209	112.31
302.439	109.31
302.669	93.31
302.9	89.31
303.13	90.31
303.36	110.31
303.59	142.31
303.82	132.31
304.051	109.31
304.281	96.31
304.511	95.31
304.741	87.31
304.971	76.31
305.201	94.31
305.431	90.31
305.661	99.31
305.891	103.31
306.121	100.31
306.352	117.31
306.582	123.31
306.812	113.31
307.042	132.31
307.272	147.31
307.502	160.31
307.731	148.31
307.961	110.31
308.191	106.31
308.421	107.31
308.651	104.31
308.881	83.31
309.111	91.31
309.341	106.31
309.571	108.31
309.8	95.31
310.03	122.31
310.26	107.31
310.49	103.31
310.72	95.31
310.949	120.31
311.179	125.31
311.409	115.31
311.639	98.31
311.868	107.31
312.098	108.31
312.328	119.31
312.557	105.31
312.787	127.31
313.017	114.31
313.246	105.31
313.476	92.31
313.706	102.31
313.935	107.31
314.165	111.31
314.394	132.31
314.624	111.31
314.853	123.31
315.083	101.31
315.312	93.31
315.542	86.31
315.771	110.31
316.001	97.31
316.23	80.31
316.46	96.31
316.689	94.31
316.919	100.31
317.148	102.31
317.377	97.31
317.607	98.31
317.836	106.31
318.065	93.31
318.295	84.31
318.524	89.31
318.753	94.31
318.983	99.31
319.212	102.31
319.441	114.31
319.67	122.31
319.9	81.31
320.129	96.31
320.358	89.31
320.587	103.31
320.816	116.31
321.046	106.31
321.275	108.31
321.504	105.31
321.733	96.31
321.962	100.31
322.191	113.31
322.42	110.31
322.649	121.31
322.878	122.31
323.108	137.31
323.337	138.31
323.566	147.31
323.795	188.31
324.024	250.31
324.253	482.31
324.482	1052.31
324.71	2182.31
324.939	2908.31
325.168	1056.31
325.397	302.31
325.626	172.31
325.855	152.31
326.084	139.31
326.313	154.31
326.542	160.31
326.77	263.31
326.999	523.31
327.228	1106.31
327.457	1992.31
327.686	1657.31
327.914	566.31
328.143	532.31
328.372	644.31
328.6	378.31
328.829	207.31
329.058	203.31
329.287	230.31
329.515	183.31
329.744	249.31
329.972	448.31
330.201	924.31
330.43	1370.31
330.658	630.31
330.887	311.31
331.115	196.31
331.344	135.31
331.572	114.31
331.801	131.31
332.03	136.31
332.258	119.31
332.486	112.31
332.715	110.31
332.943	115.31
333.172	135.31
333.4	145.31
333.629	168.31
333.857	233.31
334.085	440.31
334.314	886.31
334.542	1682.31
334.771	1599.31
334.999	434.31
335.227	174.31
335.455	120.31
335.684	111.31
335.912	102.31
336.14	93.31
336.369	120.31
336.597	111.31
336.825	112.31
337.053	94.31
337.281	107.31
337.51	107.31
337.738	100.31
337.966	92.31
338.194	116.31
338.422	107.31
338.65	110.31
338.878	81.31
339.106	90.31
339.334	97.31
339.562	82.31
339.79	97.31
340.018	90.31
340.246	102.31
340.474	87.31
340.702	105.31
340.93	86.31
341.158	86.31
341.386	101.31
341.614	111.31
341.842	111.31
342.07	110.31
342.298	96.31
342.526	102.31
342.754	98.31
342.981	85.31
343.209	85.31
343.437	101.31
343.665	96.31
343.893	89.31
344.12	93.31
344.348	99.31
344.576	99.31
344.804	95.31
345.031	105.31
345.259	107.31
345.487	104.31
345.714	100.31
345.942	87.31
346.17	91.31
346.397	96.31
346.625	103.31
346.853	104.31
347.08	90.31
347.308	104.31
347.535	111.31
347.763	115.31
347.99	95.31
348.218	111.31
348.445	133.31
348.673	119.31
348.9	101.31
349.128	105.31
349.355	92.31
349.583	100.31
349.81	99.31
350.037	96.31
350.265	96.31
350.492	83.31
350.72	92.31
350.947	114.31
351.174	116.31
351.402	126.31
351.629	118.31
351.856	108.31
352.083	129.31
352.311	122.31
352.538	138.31
352.765	125.31
352.992	124.31
353.22	107.31
353.447	110.31
353.674	90.31
353.901	104.31
354.128	84.31
354.355	88.31
354.583	78.31
354.81	99.31
355.037	92.31
355.264	79.31
355.491	94.31
355.718	92.31
355.945	88.31
356.172	96.31
356.399	83.31
356.626	87.31
356.853	85.31
357.08	85.31
357.307	99.31
357.534	85.31
357.761	97.31
357.988	95.31
358.215	86.31
358.441	99.31
358.668	74.31
358.895	95.31
359.122	84.31
359.349	92.31
359.576	103.31
359.802	123.31
360.029	147.31
360.256	147.31
360.483	99.31
360.709	89.31
360.936	92.31
361.163	112.31
361.39	106.31
361.616	107.31
361.843	110.31
362.07	106.31
362.296	112.31
362.523	97.31
362.749	106.31
362.976	93.31
363.203	97.31
363.429	104.31
363.656	83.31
363.882	75.31
364.109	96.31
364.335	80.31
364.562	90.31
364.788	84.31
365.015	107.31
365.241	102.31
365.468	111.31
365.694	118.31
365.92	116.31
366.147	96.31
366.373	83.31
366.599	99.31
366.826	100.31
367.052	89.31
367.278	97.31
367.505	97.31
367.731	108.31
367.957	90.31
368.184	99.31
368.41	110.31
368.636	122.31
368.862	134.31
369.089	119.31
369.315	109.31
369.541	105.31
369.767	96.31
369.993	79.31
370.219	97.31
370.445	105.31
370.672	86.31
370.898	90.31
371.124	77.31
371.35	78.31
371.576	84.31
371.802	81.31
372.028	88.31
372.254	89.31
372.48	79.31
372.706	81.31
372.932	72.31
373.158	99.31
373.384	87.31
373.61	83.31
373.835	91.31
374.061	88.31
374.287	97.31
374.513	84.31
374.739	83.31
374.965	92.31
375.191	81.31
375.416	87.31
375.642	91.31
375.868	98.31
376.094	88.31
376.319	85.31
376.545	87.31
376.771	86.31
376.997	99.31
377.222	77.31
377.448	96.31
377.674	90.31
377.899	85.31
378.125	79.31
378.35	96.31
378.576	77.31
378.802	89.31
379.027	99.31
379.253	96.31
379.478	88.31
379.704	84.31
379.929	82.31
380.155	84.31
380.38	92.31
380.606	81.31
380.831	97.31
381.057	88.31
381.282	98.31
381.507	97.31
381.733	83.31
381.958	82.31
382.184	88.31
382.409	103.31
382.634	100.31
382.86	94.31
383.085	102.31
383.31	96.31
383.535	93.31
383.761	94.31
383.986	98.31
384.211	94.31
384.436	93.31
384.662	96.31
384.887	104.31
385.112	105.31
385.337	106.31
385.562	109.31
385.787	96.31
386.013	107.31
386.238	123.31
386.463	107.31
386.688	99.31
386.913	94.31
387.138	106.31
387.363	82.31
387.588	98.31
387.813	101.31
388.038	111.31
388.263	114.31
388.488	111.31
388.713	84.31
388.938	97.31
389.163	80.31
389.387	97.31
389.612	94.31
389.837	96.31
390.062	86.31
390.287	80.31
390.512	105.31
390.736	91.31
390.961	86.31
391.186	94.31
391.411	94.31
391.636	77.31
391.86	76.31
392.085	78.31
392.31	90.31
392.534	81.31
392.759	88.31
392.984	99.31
393.208	80.31
393.433	97.31
393.658	70.31
393.882	83.31
394.107	93.31
394.331	87.31
394.556	80.31
394.78	77.31
395.005	105.31
395.229	82.31
395.454	93.31
395.678	91.31
395.903	92.31
396.127	88.31
396.352	70.31
396.576	80.31
396.801	96.31
397.025	109.31
397.249	84.31
397.474	85.31
397.698	80.31
397.922	96.31
398.147	90.31
398.371	76.31
398.595	83.31
398.82	87.31
399.044	88.31
399.268	88.31
399.492	95.31
399.717	84.31
399.941	84.31
400.165	87.31
400.389	90.31
400.613	102.31
400.837	80.31
401.062	92.31
401.286	84.31
401.51	72.31
401.734	84.31
401.958	109.31
402.182	158.31
402.406	214.31
402.63	151.31
402.854	96.31
403.078	98.31
403.302	97.31
403.526	88.31
403.75	86.31
403.974	74.31
404.198	88.31
404.422	79.31
404.645	111.31
404.869	91.31
405.093	104.31
405.317	144.31
405.541	137.31
405.765	132.31
405.988	148.31
406.212	248.31
406.436	363.31
406.66	235.31
406.883	124.31
407.107	125.31
407.331	104.31
407.555	102.31
407.778	114.31
408.002	85.31
408.226	98.31
408.449	84.31
408.673	97.31
408.896	94.31
409.12	87.31
409.344	88.31
409.567	74.31
409.791	96.31
410.014	107.31
410.238	93.31
410.461	100.31
410.685	82.31
410.908	102.31
411.132	90.31
411.355	112.31
411.578	85.31
411.802	96.31
412.025	88.31
412.249	103.31
412.472	109.31
412.695	142.31
412.919	112.31
413.142	94.31
413.365	87.31
413.589	83.31
413.812	83.31
414.035	88.31
414.258	90.31
414.482	84.31
414.705	88.31
414.928	83.31
415.151	97.31
415.374	86.31
415.597	90.31
415.821	95.31
416.044	91.31
416.267	97.31
416.49	93.31
416.713	75.31
416.936	89.31
417.159	71.31
417.382	92.31
417.605	98.31
417.828	108.31
418.051	100.31
418.274	104.31
418.497	96.31
418.72	99.31
418.943	96.31
419.166	96.31
419.389	76.31
419.611	89.31
419.834	89.31
420.057	83.31
420.28	97.31
420.503	91.31
420.726	60.31
420.948	96.31
421.171	102.31
421.394	88.31
421.617	86.31
421.839	89.31
422.062	85.31
422.285	95.31
422.507	107.31
422.73	110.31
422.953	105.31
423.175	87.31
423.398	91.31
423.621	72.31
423.843	86.31
424.066	83.31
424.288	97.31
424.511	95.31
424.733	103.31
424.956	127.31
425.178	90.31
425.401	105.31
425.623	104.31
425.846	98.31
426.068	89.31
426.291	103.31
426.513	84.31
426.735	92.31
426.958	89.31
427.18	135.31
427.402	175.31
427.625	281.31
427.847	236.31
428.069	223.31
428.292	125.31
428.514	105.31
428.736	82.31
428.958	86.31
429.181	97.31
429.403	89.31
429.625	84.31
429.847	102.31
430.069	107.31
430.292	98.31
430.514	97.31
430.736	81.31
430.958	87.31
431.18	92.31
431.402	81.31
431.624	74.31
431.846	76.31
432.068	75.31
432.29	89.31
432.512	90.31
432.734	86.31
432.956	83.31
433.178	102.31
433.4	93.31
433.622	88.31
433.844	89.31
434.066	88.31
434.287	85.31
434.509	75.31
434.731	99.31
434.953	89.31
435.175	81.31
435.397	97.31
435.618	86.31
435.84	106.31
436.062	143.31
436.284	136.31
436.505	109.31
436.727	115.31
436.949	90.31
437.17	90.31
437.392	92.31
437.614	93.31
437.835	123.31
438.057	154.31
438.278	135.31
438.5	129.31
438.721	138.31
438.943	115.31
439.165	94.31
439.386	99.31
439.608	110.31
439.829	100.31
440.05	154.31
440.272	183.31
440.493	122.31
440.715	99.31
440.936	91.31
441.158	86.31
441.379	96.31
441.6	97.31
441.822	104.31
442.043	106.31
442.264	120.31
442.486	113.31
442.707	102.31
442.928	129.31
443.149	182.31
443.371	177.31
443.592	137.31
443.813	122.31
444.034	145.31
444.255	112.31
444.476	86.31
444.698	92.31
444.919	114.31
445.14	152.31
445.361	133.31
445.582	153.31
445.803	194.31
446.024	177.31
446.245	173.31
446.466	126.31
446.687	87.31
446.908	95.31
447.129	85.31
447.35	75.31
447.571	101.31
447.792	112.31
448.013	129.31
448.234	123.31
448.455	114.31
448.675	137.31
448.896	148.31
449.117	114.31
449.338	118.31
449.559	146.31
449.779	162.31
450	102.31
450.221	82.31
450.442	89.31
450.662	111.31
450.883	140.31
451.104	156.31
451.324	113.31
451.545	102.31
451.766	96.31
451.986	88.31
452.207	91.31
452.428	93.31
452.648	112.31
452.869	145.31
453.089	138.31
453.31	135.31
453.53	102.31
453.751	100.31
453.971	106.31
454.192	163.31
454.412	117.31
454.633	111.31
454.853	87.31
455.073	86.31
455.294	83.31
455.514	120.31
455.734	110.31
455.955	82.31
456.175	87.31
456.395	79.31
456.616	78.31
456.836	96.31
457.056	87.31
457.276	77.31
457.497	98.31
457.717	91.31
457.937	93.31
458.157	90.31
458.377	92.31
458.598	127.31
458.818	224.31
459.038	247.31
459.258	177.31
459.478	99.31
459.698	80.31
459.918	100.31
460.138	92.31
460.358	107.31
460.578	90.31
460.798	87.31
461.018	102.31
461.238	83.31
461.458	74.31
461.678	82.31
461.898	88.31
462.118	83.31
462.338	93.31
462.558	103.31
462.777	97.31
462.997	95.31
463.217	100.31
463.437	99.31
463.657	92.31
463.876	94.31
464.096	96.31
464.316	97.31
464.536	100.31
464.755	113.31
464.975	138.31
465.195	265.31
465.414	274.31
465.634	105.31
465.854	101.31
466.073	88.31
466.293	91.31
466.512	93.31
466.732	85.31
466.951	94.31
467.171	103.31
467.391	108.31
467.61	163.31
467.829	209.31
468.049	521.31
468.268	749.31
468.488	195.31
468.707	108.31
468.927	97.31
469.146	88.31
469.365	90.31
469.585	91.31
469.804	99.31
470.023	125.31
470.243	109.31
470.462	115.31
470.681	142.31
470.901	103.31
471.12	87.31
471.339	100.31
471.558	109.31
471.777	148.31
471.997	272.31
472.216	988.31
472.435	2307.31
472.654	546.31
472.873	158.31
473.092	120.31
473.311	91.31
473.53	87.31
473.749	96.31
473.968	106.31
474.187	124.31
474.406	112.31
474.625	94.31
474.844	85.31
475.063	83.31
475.282	99.31
475.501	84.31
475.72	84.31
475.939	79.31
476.158	82.31
476.377	91.31
476.596	82.31
476.814	104.31
477.033	104.31
477.252	93.31
477.471	92.31
477.69	91.31
477.908	86.31
478.127	90.31
478.346	98.31
478.564	97.31
478.783	107.31
479.002	104.31
479.22	118.31
479.439	127.31
479.658	145.31
479.876	134.31
480.095	136.31
480.313	135.31
480.532	179.31
480.751	263.31
480.969	873.31
481.188	3818.31
481.406	2310.31
481.624	357.31
481.843	132.31
482.061	103.31
482.28	98.31
482.498	105.31
482.717	90.31
482.935	103.31
483.153	85.31
483.372	102.31
483.59	84.31
483.808	83.31
484.027	89.31
484.245	95.31
484.463	91.31
484.681	111.31
484.9	96.31
485.118	106.31
485.336	112.31
485.554	82.31
485.772	98.31
485.99	110.31
486.209	90.31
486.427	98.31
486.645	126.31
486.863	135.31
487.081	120.31
487.299	112.31
487.517	92.31
487.735	90.31
487.953	79.31
488.171	109.31
488.389	84.31
488.607	104.31
488.825	101.31
489.043	81.31
489.261	93.31
489.479	102.31
489.696	102.31
489.914	87.31
490.132	100.31
490.35	100.31
490.568	88.31
490.786	91.31
491.003	94.31
491.221	96.31
491.439	99.31
491.657	89.31
491.874	89.31
492.092	84.31
492.31	99.31
492.527	107.31
492.745	110.31
492.963	95.31
493.18	107.31
493.398	92.31
493.615	106.31
493.833	90.31
494.05	91.31
494.268	82.31
494.485	95.31
494.703	93.31
494.92	83.31
495.138	84.31
495.355	93.31
495.573	102.31
495.79	71.31
496.008	85.31
496.225	87.31
496.442	94.31
496.66	84.31
496.877	76.31
497.094	104.31
497.312	95.31
497.529	91.31
497.746	98.31
497.963	104.31
498.181	95.31
498.398	95.31
498.615	118.31
498.832	102.31
499.049	92.31
499.267	93.31
499.484	92.31
499.701	80.31
499.918	101.31
500.135	79.31
500.352	79.31
500.569	101.31
500.786	84.31
501.003	106.31
501.22	87.31
501.437	102.31
501.654	88.31
501.871	154.31
502.088	104.31
502.305	81.31
502.522	92.31
502.739	82.31
502.956	86.31
503.172	98.31
503.389	96.31
503.606	132.31
503.823	116.31
504.04	98.31
504.256	89.31
504.473	91.31
504.69	109.31
504.907	95.31
505.123	90.31
505.34	98.31
505.557	92.31
505.773	99.31
505.99	87.31
506.207	91.31
506.423	89.31
506.64	88.31
506.856	86.31
507.073	91.31
507.289	106.31
507.506	98.31
507.722	154.31
507.939	132.31
508.155	111.31
508.372	100.31
508.588	91.31
508.805	87.31
509.021	111.31
509.238	102.31
509.454	103.31
509.67	104.31
509.887	109.31
510.103	143.31
510.319	247.31
510.536	999.31
510.752	3552.31
510.968	983.31
511.184	180.31
511.401	132.31
511.617	112.31
511.833	121.31
512.049	105.31
512.265	88.31
512.481	99.31
512.698	104.31
512.914	91.31
513.13	97.31
