Data from Circ_2007_H10_HRD10591_00022.txt Node
Date: Wed Jan 03 10:22:01 EST 2024
User: Yrep
Spectrometer: HR+D1059
Trigger mode: 1
Integration Time (sec): 1.000000E-1
Scans to average: 1
Electric dark correction enabled: true
Nonlinearity correction enabled: false
Boxcar width: 0
XAxis mode: Wavelengths
Number of Pixels in Spectrum: 2048
>>>>>Begin Spectral Data<<<<<
223.165	-19.56
223.4	-19.56
223.635	-19.56
223.869	-29.56
224.104	-24.56
224.338	-4.56
224.573	-11.56
224.808	-14.56
225.042	-13.56
225.277	-6.56
225.511	-0.56
225.746	-4.56
225.98	-0.56
226.215	7.44
226.449	31.44
226.683	15.44
226.918	34.44
227.152	41.44
227.387	39.44
227.621	37.44
227.856	38.44
228.09	42.44
228.324	47.44
228.559	58.44
228.793	52.44
229.027	52.44
229.262	83.44
229.496	68.44
229.73	101.44
229.964	98.44
230.199	71.44
230.433	49.44
230.667	84.44
230.901	85.44
231.136	84.44
231.37	75.44
231.604	76.44
231.838	80.44
232.072	74.44
232.306	81.44
232.541	88.44
232.775	79.44
233.009	66.44
233.243	91.44
233.477	75.44
233.711	68.44
233.945	74.44
234.179	64.44
234.413	93.44
234.647	87.44
234.881	71.44
235.115	81.44
235.349	67.44
235.583	69.44
235.817	92.44
236.051	88.44
236.285	77.44
236.519	84.44
236.753	76.44
236.987	65.44
237.221	91.44
237.455	93.44
237.689	68.44
237.922	72.44
238.156	86.44
238.39	79.44
238.624	90.44
238.858	84.44
239.091	82.44
239.325	80.44
239.559	72.44
239.793	84.44
240.027	87.44
240.26	87.44
240.494	74.44
240.728	77.44
240.961	79.44
241.195	65.44
241.429	77.44
241.662	75.44
241.896	61.44
242.13	76.44
242.363	77.44
242.597	91.44
242.83	91.44
243.064	83.44
243.298	87.44
243.531	80.44
243.765	88.44
243.998	60.44
244.232	74.44
244.465	84.44
244.699	84.44
244.932	71.44
245.166	89.44
245.399	80.44
245.633	63.44
245.866	79.44
246.099	76.44
246.333	72.44
246.566	89.44
246.8	66.44
247.033	80.44
247.266	89.44
247.5	80.44
247.733	79.44
247.966	80.44
248.2	89.44
248.433	77.44
248.666	78.44
248.899	71.44
249.133	91.44
249.366	96.44
249.599	94.44
249.832	69.44
250.066	79.44
250.299	83.44
250.532	75.44
250.765	75.44
250.998	84.44
251.231	81.44
251.465	89.44
251.698	88.44
251.931	79.44
252.164	81.44
252.397	79.44
252.63	77.44
252.863	74.44
253.096	65.44
253.329	74.44
253.562	88.44
253.795	79.44
254.028	79.44
254.261	80.44
254.494	79.44
254.727	77.44
254.96	64.44
255.193	84.44
255.426	71.44
255.659	76.44
255.892	90.44
256.124	95.44
256.357	70.44
256.59	80.44
256.823	82.44
257.056	75.44
257.289	71.44
257.521	96.44
257.754	95.44
257.987	85.44
258.22	83.44
258.452	83.44
258.685	82.44
258.918	83.44
259.151	80.44
259.383	89.44
259.616	72.44
259.849	79.44
260.081	68.44
260.314	90.44
260.547	89.44
260.779	92.44
261.012	96.44
261.244	93.44
261.477	106.44
261.71	94.44
261.942	125.44
262.175	130.44
262.407	97.44
262.64	95.44
262.872	86.44
263.105	81.44
263.337	75.44
263.57	83.44
263.802	83.44
264.035	79.44
264.267	83.44
264.499	87.44
264.732	73.44
264.964	87.44
265.197	76.44
265.429	73.44
265.661	69.44
265.894	78.44
266.126	81.44
266.358	74.44
266.591	92.44
266.823	78.44
267.055	84.44
267.287	78.44
267.52	93.44
267.752	82.44
267.984	87.44
268.216	96.44
268.448	86.44
268.681	88.44
268.913	79.44
269.145	99.44
269.377	76.44
269.609	89.44
269.841	95.44
270.073	89.44
270.306	96.44
270.538	91.44
270.77	92.44
271.002	89.44
271.234	103.44
271.466	88.44
271.698	90.44
271.93	85.44
272.162	82.44
272.394	79.44
272.626	81.44
272.858	82.44
273.09	93.44
273.322	78.44
273.553	76.44
273.785	88.44
274.017	78.44
274.249	80.44
274.481	91.44
274.713	89.44
274.945	93.44
275.176	89.44
275.408	94.44
275.64	97.44
275.872	102.44
276.104	94.44
276.335	85.44
276.567	108.44
276.799	141.44
277.031	139.44
277.262	158.44
277.494	115.44
277.726	94.44
277.957	95.44
278.189	78.44
278.421	85.44
278.652	95.44
278.884	77.44
279.115	90.44
279.347	89.44
279.579	90.44
279.81	92.44
280.042	140.44
280.273	177.44
280.505	130.44
280.736	105.44
280.968	97.44
281.199	100.44
281.431	84.44
281.662	87.44
281.894	86.44
282.125	110.44
282.356	135.44
282.588	139.44
282.819	128.44
283.051	93.44
283.282	79.44
283.513	81.44
283.745	89.44
283.976	100.44
284.207	93.44
284.439	97.44
284.67	71.44
284.901	71.44
285.132	81.44
285.364	80.44
285.595	82.44
285.826	80.44
286.057	88.44
286.288	71.44
286.52	89.44
286.751	90.44
286.982	86.44
287.213	83.44
287.444	86.44
287.675	82.44
287.906	99.44
288.138	85.44
288.369	98.44
288.6	88.44
288.831	84.44
289.062	93.44
289.293	83.44
289.524	76.44
289.755	103.44
289.986	93.44
290.217	85.44
290.448	79.44
290.679	89.44
290.91	99.44
291.141	84.44
291.371	87.44
291.602	85.44
291.833	84.44
292.064	90.44
292.295	77.44
292.526	103.44
292.757	76.44
292.987	98.44
293.218	86.44
293.449	97.44
293.68	95.44
293.91	90.44
294.141	109.44
294.372	89.44
294.603	98.44
294.833	97.44
295.064	85.44
295.295	87.44
295.525	91.44
295.756	78.44
295.987	116.44
296.217	153.44
296.448	128.44
296.679	104.44
296.909	87.44
297.14	89.44
297.37	97.44
297.601	83.44
297.831	89.44
298.062	87.44
298.292	88.44
298.523	97.44
298.753	103.44
298.984	91.44
299.214	89.44
299.445	78.44
299.675	93.44
299.905	95.44
300.136	97.44
300.366	94.44
300.597	98.44
300.827	96.44
301.057	112.44
301.288	120.44
301.518	87.44
301.748	80.44
301.979	87.44
302.209	74.44
302.439	85.44
302.669	92.44
302.9	91.44
303.13	95.44
303.36	103.44
303.59	107.44
303.82	120.44
304.051	103.44
304.281	88.44
304.511	82.44
304.741	77.44
304.971	81.44
305.201	99.44
305.431	87.44
305.661	96.44
305.891	90.44
306.121	87.44
306.352	106.44
306.582	104.44
306.812	106.44
307.042	112.44
307.272	118.44
307.502	124.44
307.731	114.44
307.961	116.44
308.191	88.44
308.421	98.44
308.651	107.44
308.881	88.44
309.111	94.44
309.341	89.44
309.571	85.44
309.8	82.44
310.03	96.44
310.26	104.44
310.49	115.44
310.72	118.44
310.949	112.44
311.179	100.44
311.409	98.44
311.639	106.44
311.868	107.44
312.098	91.44
312.328	102.44
312.557	105.44
312.787	115.44
313.017	112.44
313.246	101.44
313.476	93.44
313.706	100.44
313.935	117.44
314.165	122.44
314.394	106.44
314.624	113.44
314.853	103.44
315.083	96.44
315.312	99.44
315.542	84.44
315.771	88.44
316.001	92.44
316.23	101.44
316.46	100.44
316.689	93.44
316.919	91.44
317.148	107.44
317.377	106.44
317.607	116.44
317.836	90.44
318.065	88.44
318.295	101.44
318.524	105.44
318.753	92.44
318.983	105.44
319.212	98.44
319.441	113.44
319.67	117.44
319.9	91.44
320.129	102.44
320.358	104.44
320.587	105.44
320.816	110.44
321.046	121.44
321.275	98.44
321.504	81.44
321.733	107.44
321.962	91.44
322.191	92.44
322.42	114.44
322.649	122.44
322.878	133.44
323.108	125.44
323.337	152.44
323.566	138.44
323.795	183.44
324.024	236.44
324.253	456.44
324.482	998.44
324.71	2082.44
324.939	2810.44
325.168	1042.44
325.397	275.44
325.626	161.44
325.855	123.44
326.084	131.44
326.313	143.44
326.542	181.44
326.77	255.44
326.999	516.44
327.228	1069.44
327.457	2065.44
327.686	1649.44
327.914	520.44
328.143	373.44
328.372	400.44
328.6	250.44
328.829	155.44
329.058	184.44
329.287	178.44
329.515	150.44
329.744	183.44
329.972	307.44
330.201	555.44
330.43	791.44
330.658	393.44
330.887	240.44
331.115	168.44
331.344	110.44
331.572	116.44
331.801	134.44
332.03	121.44
332.258	113.44
332.486	101.44
332.715	93.44
332.943	111.44
333.172	107.44
333.4	121.44
333.629	137.44
333.857	170.44
334.085	283.44
334.314	545.44
334.542	1007.44
334.771	961.44
334.999	274.44
335.227	132.44
335.455	111.44
335.684	96.44
335.912	98.44
336.14	99.44
336.369	115.44
336.597	103.44
336.825	94.44
337.053	99.44
337.281	90.44
337.51	100.44
337.738	95.44
337.966	101.44
338.194	103.44
338.422	106.44
338.65	96.44
338.878	103.44
339.106	91.44
339.334	85.44
339.562	87.44
339.79	94.44
340.018	97.44
340.246	90.44
340.474	91.44
340.702	96.44
340.93	95.44
341.158	92.44
341.386	97.44
341.614	108.44
341.842	106.44
342.07	93.44
342.298	93.44
342.526	88.44
342.754	94.44
342.981	108.44
343.209	103.44
343.437	105.44
343.665	95.44
343.893	87.44
344.12	96.44
344.348	83.44
344.576	95.44
344.804	92.44
345.031	93.44
345.259	94.44
345.487	99.44
345.714	106.44
345.942	88.44
346.17	97.44
346.397	111.44
346.625	96.44
346.853	105.44
347.08	94.44
347.308	92.44
347.535	90.44
347.763	100.44
347.99	106.44
348.218	96.44
348.445	123.44
348.673	110.44
348.9	86.44
349.128	100.44
349.355	91.44
349.583	87.44
349.81	96.44
350.037	91.44
350.265	90.44
350.492	98.44
350.72	93.44
350.947	109.44
351.174	116.44
351.402	124.44
351.629	111.44
351.856	95.44
352.083	114.44
352.311	117.44
352.538	115.44
352.765	109.44
352.992	96.44
353.22	119.44
353.447	111.44
353.674	107.44
353.901	109.44
354.128	95.44
354.355	114.44
354.583	92.44
354.81	108.44
355.037	78.44
355.264	106.44
355.491	105.44
355.718	101.44
355.945	100.44
356.172	91.44
356.399	97.44
356.626	101.44
356.853	101.44
357.08	101.44
357.307	110.44
357.534	98.44
357.761	92.44
357.988	87.44
358.215	96.44
358.441	95.44
358.668	100.44
358.895	92.44
359.122	82.44
359.349	95.44
359.576	102.44
359.802	111.44
360.029	136.44
360.256	122.44
360.483	111.44
360.709	99.44
360.936	103.44
361.163	98.44
361.39	97.44
361.616	116.44
361.843	100.44
362.07	93.44
362.296	122.44
362.523	115.44
362.749	98.44
362.976	92.44
363.203	90.44
363.429	95.44
363.656	104.44
363.882	95.44
364.109	93.44
364.335	99.44
364.562	105.44
364.788	98.44
365.015	92.44
365.241	83.44
365.468	115.44
365.694	113.44
365.92	105.44
366.147	82.44
366.373	92.44
366.599	96.44
366.826	80.44
367.052	89.44
367.278	101.44
367.505	96.44
367.731	95.44
367.957	108.44
368.184	99.44
368.41	87.44
368.636	118.44
368.862	122.44
369.089	114.44
369.315	93.44
369.541	100.44
369.767	91.44
369.993	113.44
370.219	104.44
370.445	107.44
370.672	84.44
370.898	82.44
371.124	88.44
371.35	89.44
371.576	91.44
371.802	77.44
372.028	91.44
372.254	87.44
372.48	84.44
372.706	87.44
372.932	84.44
373.158	92.44
373.384	91.44
373.61	96.44
373.835	99.44
374.061	94.44
374.287	91.44
374.513	97.44
374.739	81.44
374.965	77.44
375.191	86.44
375.416	97.44
375.642	76.44
375.868	84.44
376.094	89.44
376.319	90.44
376.545	95.44
376.771	97.44
376.997	89.44
377.222	101.44
377.448	105.44
377.674	85.44
377.899	105.44
378.125	76.44
378.35	101.44
378.576	89.44
378.802	96.44
379.027	84.44
379.253	89.44
379.478	89.44
379.704	86.44
379.929	97.44
380.155	105.44
380.38	107.44
380.606	94.44
380.831	108.44
381.057	94.44
381.282	89.44
381.507	95.44
381.733	95.44
381.958	94.44
382.184	122.44
382.409	100.44
382.634	101.44
382.86	105.44
383.085	110.44
383.31	101.44
383.535	103.44
383.761	104.44
383.986	90.44
384.211	116.44
384.436	116.44
384.662	105.44
384.887	123.44
385.112	114.44
385.337	102.44
385.562	104.44
385.787	100.44
386.013	117.44
386.238	133.44
386.463	124.44
386.688	113.44
386.913	115.44
387.138	103.44
387.363	108.44
387.588	112.44
387.813	91.44
388.038	113.44
388.263	99.44
388.488	115.44
388.713	88.44
388.938	90.44
389.163	93.44
389.387	88.44
389.612	104.44
389.837	83.44
390.062	94.44
390.287	100.44
390.512	83.44
390.736	100.44
390.961	97.44
391.186	87.44
391.411	92.44
391.636	89.44
391.86	80.44
392.085	79.44
392.31	82.44
392.534	78.44
392.759	93.44
392.984	87.44
393.208	101.44
393.433	105.44
393.658	113.44
393.882	88.44
394.107	94.44
394.331	90.44
394.556	78.44
394.78	80.44
395.005	83.44
395.229	76.44
395.454	82.44
395.678	92.44
395.903	98.44
396.127	84.44
396.352	104.44
396.576	87.44
396.801	87.44
397.025	97.44
397.249	103.44
397.474	90.44
397.698	84.44
397.922	82.44
398.147	88.44
398.371	84.44
398.595	84.44
398.82	80.44
399.044	85.44
399.268	79.44
399.492	73.44
399.717	81.44
399.941	75.44
400.165	82.44
400.389	97.44
400.613	103.44
400.837	104.44
401.062	91.44
401.286	84.44
401.51	98.44
401.734	96.44
401.958	100.44
402.182	124.44
402.406	170.44
402.63	134.44
402.854	100.44
403.078	97.44
403.302	84.44
403.526	100.44
403.75	85.44
403.974	88.44
404.198	92.44
404.422	92.44
404.645	107.44
404.869	104.44
405.093	118.44
405.317	141.44
405.541	133.44
405.765	113.44
405.988	143.44
406.212	210.44
406.436	289.44
406.66	196.44
406.883	97.44
407.107	93.44
407.331	110.44
407.555	107.44
407.778	91.44
408.002	88.44
408.226	96.44
408.449	84.44
408.673	98.44
408.896	93.44
409.12	92.44
409.344	88.44
409.567	77.44
409.791	83.44
410.014	85.44
410.238	97.44
410.461	98.44
410.685	107.44
410.908	103.44
411.132	101.44
411.355	99.44
411.578	87.44
411.802	75.44
412.025	96.44
412.249	100.44
412.472	114.44
412.695	128.44
412.919	115.44
413.142	97.44
413.365	79.44
413.589	85.44
413.812	84.44
414.035	89.44
414.258	88.44
414.482	82.44
414.705	84.44
414.928	92.44
415.151	81.44
415.374	104.44
415.597	85.44
415.821	81.44
416.044	101.44
416.267	85.44
416.49	90.44
416.713	95.44
416.936	77.44
417.159	86.44
417.382	107.44
417.605	102.44
417.828	85.44
418.051	95.44
418.274	98.44
418.497	93.44
418.72	80.44
418.943	92.44
419.166	77.44
419.389	83.44
419.611	107.44
419.834	84.44
420.057	100.44
420.28	85.44
420.503	76.44
420.726	94.44
420.948	96.44
421.171	110.44
421.394	88.44
421.617	93.44
421.839	83.44
422.062	78.44
422.285	101.44
422.507	90.44
422.73	120.44
422.953	108.44
423.175	82.44
423.398	92.44
423.621	82.44
423.843	92.44
424.066	94.44
424.288	82.44
424.511	90.44
424.733	101.44
424.956	122.44
425.178	123.44
425.401	96.44
425.623	119.44
425.846	108.44
426.068	113.44
426.291	97.44
426.513	100.44
426.735	93.44
426.958	92.44
427.18	100.44
427.402	175.44
427.625	230.44
427.847	215.44
428.069	205.44
428.292	108.44
428.514	90.44
428.736	85.44
428.958	91.44
429.181	76.44
429.403	82.44
429.625	85.44
429.847	104.44
430.069	114.44
430.292	103.44
430.514	94.44
430.736	87.44
430.958	97.44
431.18	103.44
431.402	85.44
431.624	91.44
431.846	95.44
432.068	83.44
432.29	88.44
432.512	91.44
432.734	92.44
432.956	101.44
433.178	107.44
433.4	97.44
433.622	100.44
433.844	93.44
434.066	73.44
434.287	93.44
434.509	92.44
434.731	88.44
434.953	92.44
435.175	103.44
435.397	95.44
435.618	96.44
435.84	110.44
436.062	152.44
436.284	120.44
436.505	105.44
436.727	108.44
436.949	99.44
437.17	89.44
437.392	95.44
437.614	89.44
437.835	127.44
438.057	143.44
438.278	117.44
438.5	119.44
438.721	137.44
438.943	117.44
439.165	93.44
439.386	95.44
439.608	91.44
439.829	106.44
440.05	155.44
440.272	172.44
440.493	109.44
440.715	101.44
440.936	92.44
441.158	92.44
441.379	84.44
441.6	101.44
441.822	99.44
442.043	105.44
442.264	114.44
442.486	119.44
442.707	106.44
442.928	124.44
443.149	152.44
443.371	162.44
443.592	136.44
443.813	124.44
444.034	132.44
444.255	82.44
444.476	101.44
444.698	88.44
444.919	102.44
445.14	135.44
445.361	144.44
445.582	146.44
445.803	174.44
446.024	175.44
446.245	177.44
446.466	140.44
446.687	98.44
446.908	109.44
447.129	88.44
447.35	93.44
447.571	96.44
447.792	82.44
448.013	113.44
448.234	93.44
448.455	104.44
448.675	134.44
448.896	144.44
449.117	110.44
449.338	118.44
449.559	145.44
449.779	135.44
450	89.44
450.221	105.44
450.442	91.44
450.662	105.44
450.883	109.44
451.104	129.44
451.324	107.44
451.545	90.44
451.766	86.44
451.986	72.44
452.207	94.44
452.428	96.44
452.648	116.44
452.869	120.44
453.089	129.44
453.31	130.44
453.53	108.44
453.751	92.44
453.971	115.44
454.192	127.44
454.412	82.44
454.633	83.44
454.853	97.44
455.073	84.44
455.294	92.44
455.514	107.44
455.734	94.44
455.955	82.44
456.175	83.44
456.395	65.44
456.616	96.44
456.836	96.44
457.056	89.44
457.276	85.44
457.497	87.44
457.717	88.44
457.937	83.44
458.157	88.44
458.377	83.44
458.598	132.44
458.818	187.44
459.038	208.44
459.258	149.44
459.478	100.44
459.698	94.44
459.918	75.44
460.138	81.44
460.358	92.44
460.578	84.44
460.798	90.44
461.018	85.44
461.238	90.44
461.458	89.44
461.678	91.44
461.898	70.44
462.118	88.44
462.338	83.44
462.558	77.44
462.777	88.44
462.997	95.44
463.217	86.44
463.437	100.44
463.657	77.44
463.876	91.44
464.096	89.44
464.316	96.44
464.536	99.44
464.755	95.44
464.975	99.44
465.195	223.44
465.414	197.44
465.634	109.44
465.854	90.44
466.073	87.44
466.293	89.44
466.512	81.44
466.732	83.44
466.951	89.44
467.171	91.44
467.391	103.44
467.61	135.44
467.829	154.44
468.049	317.44
468.268	406.44
468.488	153.44
468.707	90.44
468.927	90.44
469.146	92.44
469.365	86.44
469.585	87.44
469.804	93.44
470.023	114.44
470.243	98.44
470.462	104.44
470.681	127.44
470.901	110.44
471.12	90.44
471.339	88.44
471.558	94.44
471.777	120.44
471.997	171.44
472.216	535.44
472.435	1209.44
472.654	344.44
472.873	126.44
473.092	91.44
473.311	97.44
473.53	98.44
473.749	91.44
473.968	95.44
474.187	116.44
474.406	111.44
474.625	83.44
474.844	90.44
475.063	85.44
475.282	97.44
475.501	83.44
475.72	90.44
475.939	85.44
476.158	90.44
476.377	88.44
476.596	91.44
476.814	101.44
477.033	93.44
477.252	81.44
477.471	86.44
477.69	94.44
477.908	92.44
478.127	90.44
478.346	78.44
478.564	91.44
478.783	111.44
479.002	101.44
479.22	96.44
479.439	105.44
479.658	122.44
479.876	99.44
480.095	106.44
480.313	115.44
480.532	130.44
480.751	178.44
480.969	531.44
481.188	2105.44
481.406	1310.44
481.624	229.44
481.843	129.44
482.061	96.44
482.28	91.44
482.498	101.44
482.717	89.44
482.935	77.44
483.153	106.44
483.372	94.44
483.59	96.44
483.808	88.44
484.027	89.44
484.245	96.44
484.463	91.44
484.681	93.44
484.9	89.44
485.118	85.44
485.336	88.44
485.554	99.44
485.772	102.44
485.99	118.44
486.209	115.44
486.427	108.44
486.645	117.44
486.863	121.44
487.081	106.44
487.299	104.44
487.517	88.44
487.735	97.44
487.953	86.44
488.171	95.44
488.389	91.44
488.607	98.44
488.825	74.44
489.043	98.44
489.261	83.44
489.479	89.44
489.696	82.44
489.914	82.44
490.132	100.44
490.35	90.44
490.568	81.44
490.786	91.44
491.003	104.44
491.221	104.44
491.439	107.44
491.657	85.44
491.874	100.44
492.092	83.44
492.31	99.44
492.527	91.44
492.745	89.44
492.963	105.44
493.18	68.44
493.398	94.44
493.615	94.44
493.833	98.44
494.05	95.44
494.268	84.44
494.485	80.44
494.703	80.44
494.92	80.44
495.138	87.44
495.355	87.44
495.573	86.44
495.79	97.44
496.008	92.44
496.225	84.44
496.442	89.44
496.66	105.44
496.877	86.44
497.094	90.44
497.312	74.44
497.529	105.44
497.746	101.44
497.963	102.44
498.181	81.44
498.398	96.44
498.615	113.44
498.832	94.44
499.049	78.44
499.267	90.44
499.484	84.44
499.701	98.44
499.918	105.44
500.135	77.44
500.352	102.44
500.569	95.44
500.786	74.44
501.003	81.44
501.22	95.44
501.437	88.44
501.654	107.44
501.871	119.44
502.088	91.44
502.305	91.44
502.522	98.44
502.739	94.44
502.956	86.44
503.172	85.44
503.389	100.44
503.606	111.44
503.823	91.44
504.04	99.44
504.256	89.44
504.473	100.44
504.69	81.44
504.907	90.44
505.123	83.44
505.34	97.44
505.557	100.44
505.773	89.44
505.99	85.44
506.207	95.44
506.423	79.44
506.64	82.44
506.856	95.44
507.073	86.44
507.289	97.44
507.506	90.44
507.722	132.44
507.939	127.44
508.155	93.44
508.372	95.44
508.588	100.44
508.805	76.44
509.021	92.44
509.238	109.44
509.454	106.44
509.67	108.44
509.887	100.44
510.103	119.44
510.319	220.44
510.536	859.44
510.752	2851.44
510.968	796.44
511.184	173.44
511.401	138.44
511.617	111.44
511.833	113.44
512.049	107.44
512.265	101.44
512.481	104.44
512.698	100.44
512.914	98.44
513.13	105.44
513.346	117.44
513.562	82.44
