Data from Circ_2007_H10_HRD10591_00066.txt Node
Date: Wed Jan 03 10:22:10 EST 2024
User: Yrep
Spectrometer: HR+D1059
Trigger mode: 1
Integration Time (sec): 1.000000E-1
Scans to average: 1
Electric dark correction enabled: true
Nonlinearity correction enabled: false
Boxcar width: 0
XAxis mode: Wavelengths
Number of Pixels in Spectrum: 2048
>>>>>Begin Spectral Data<<<<<
223.165	-22.94
223.4	-22.94
223.635	-22.94
223.869	-15.94
224.104	-21.94
224.338	-5.94
224.573	-16.94
224.808	-10.94
225.042	-5.94
225.277	1.06
225.511	-3.94
225.746	2.06
225.98	8.06
226.215	11.06
226.449	19.06
226.683	21.06
226.918	12.06
227.152	30.06
227.387	30.06
227.621	35.06
227.856	24.06
228.09	36.06
228.324	50.06
228.559	59.06
228.793	60.06
229.027	59.06
229.262	55.06
229.496	68.06
229.73	110.06
229.964	90.06
230.199	81.06
230.433	68.06
230.667	84.06
230.901	81.06
231.136	69.06
231.37	82.06
231.604	91.06
231.838	73.06
232.072	82.06
232.306	88.06
232.541	88.06
232.775	86.06
233.009	88.06
233.243	73.06
233.477	84.06
233.711	91.06
233.945	94.06
234.179	81.06
234.413	76.06
234.647	82.06
234.881	85.06
235.115	88.06
235.349	101.06
235.583	82.06
235.817	79.06
236.051	83.06
236.285	91.06
236.519	72.06
236.753	81.06
236.987	76.06
237.221	97.06
237.455	100.06
237.689	75.06
237.922	91.06
238.156	79.06
238.39	87.06
238.624	80.06
238.858	50.06
239.091	82.06
239.325	81.06
239.559	84.06
239.793	77.06
240.027	91.06
240.26	92.06
240.494	62.06
240.728	77.06
240.961	73.06
241.195	83.06
241.429	93.06
241.662	81.06
241.896	66.06
242.13	76.06
242.363	91.06
242.597	87.06
242.83	81.06
243.064	71.06
243.298	66.06
243.531	87.06
243.765	71.06
243.998	71.06
244.232	88.06
244.465	92.06
244.699	86.06
244.932	81.06
245.166	80.06
245.399	72.06
245.633	86.06
245.866	79.06
246.099	81.06
246.333	95.06
246.566	76.06
246.8	87.06
247.033	84.06
247.266	78.06
247.5	91.06
247.733	82.06
247.966	87.06
248.2	95.06
248.433	84.06
248.666	85.06
248.899	84.06
249.133	81.06
249.366	107.06
249.599	108.06
249.832	86.06
250.066	91.06
250.299	94.06
250.532	95.06
250.765	102.06
250.998	80.06
251.231	87.06
251.465	96.06
251.698	83.06
251.931	86.06
252.164	87.06
252.397	92.06
252.63	94.06
252.863	86.06
253.096	90.06
253.329	67.06
253.562	76.06
253.795	83.06
254.028	79.06
254.261	92.06
254.494	68.06
254.727	84.06
254.96	82.06
255.193	87.06
255.426	88.06
255.659	74.06
255.892	79.06
256.124	91.06
256.357	87.06
256.59	91.06
256.823	83.06
257.056	75.06
257.289	92.06
257.521	90.06
257.754	94.06
257.987	93.06
258.22	90.06
258.452	107.06
258.685	94.06
258.918	70.06
259.151	99.06
259.383	86.06
259.616	80.06
259.849	87.06
260.081	107.06
260.314	78.06
260.547	75.06
260.779	100.06
261.012	104.06
261.244	107.06
261.477	102.06
261.71	119.06
261.942	125.06
262.175	147.06
262.407	111.06
262.64	84.06
262.872	85.06
263.105	94.06
263.337	84.06
263.57	96.06
263.802	99.06
264.035	74.06
264.267	85.06
264.499	81.06
264.732	88.06
264.964	84.06
265.197	86.06
265.429	91.06
265.661	89.06
265.894	79.06
266.126	72.06
266.358	83.06
266.591	77.06
266.823	86.06
267.055	90.06
267.287	78.06
267.52	100.06
267.752	98.06
267.984	92.06
268.216	89.06
268.448	89.06
268.681	79.06
268.913	75.06
269.145	95.06
269.377	85.06
269.609	86.06
269.841	97.06
270.073	82.06
270.306	75.06
270.538	86.06
270.77	82.06
271.002	87.06
271.234	87.06
271.466	100.06
271.698	84.06
271.93	85.06
272.162	92.06
272.394	102.06
272.626	84.06
272.858	74.06
273.09	85.06
273.322	92.06
273.553	82.06
273.785	75.06
274.017	68.06
274.249	83.06
274.481	77.06
274.713	85.06
274.945	85.06
275.176	95.06
275.408	99.06
275.64	99.06
275.872	119.06
276.104	100.06
276.335	94.06
276.567	107.06
276.799	144.06
277.031	146.06
277.262	162.06
277.494	123.06
277.726	110.06
277.957	100.06
278.189	77.06
278.421	85.06
278.652	95.06
278.884	80.06
279.115	90.06
279.347	93.06
279.579	92.06
279.81	116.06
280.042	162.06
280.273	193.06
280.505	148.06
280.736	103.06
280.968	96.06
281.199	95.06
281.431	100.06
281.662	96.06
281.894	94.06
282.125	123.06
282.356	144.06
282.588	179.06
282.819	128.06
283.051	95.06
283.282	94.06
283.513	90.06
283.745	96.06
283.976	102.06
284.207	86.06
284.439	99.06
284.67	102.06
284.901	98.06
285.132	101.06
285.364	101.06
285.595	88.06
285.826	92.06
286.057	90.06
286.288	86.06
286.52	94.06
286.751	95.06
286.982	96.06
287.213	91.06
287.444	81.06
287.675	110.06
287.906	107.06
288.138	107.06
288.369	104.06
288.6	92.06
288.831	94.06
289.062	84.06
289.293	87.06
289.524	92.06
289.755	83.06
289.986	93.06
290.217	90.06
290.448	85.06
290.679	83.06
290.91	92.06
291.141	87.06
291.371	95.06
291.602	97.06
291.833	84.06
292.064	101.06
292.295	88.06
292.526	87.06
292.757	94.06
292.987	87.06
293.218	92.06
293.449	90.06
293.68	88.06
293.91	76.06
294.141	93.06
294.372	99.06
294.603	84.06
294.833	100.06
295.064	91.06
295.295	81.06
295.525	89.06
295.756	106.06
295.987	115.06
296.217	168.06
296.448	151.06
296.679	106.06
296.909	84.06
297.14	98.06
297.37	92.06
297.601	81.06
297.831	101.06
298.062	100.06
298.292	99.06
298.523	88.06
298.753	78.06
298.984	88.06
299.214	84.06
299.445	99.06
299.675	104.06
299.905	93.06
300.136	84.06
300.366	94.06
300.597	96.06
300.827	87.06
301.057	107.06
301.288	115.06
301.518	98.06
301.748	98.06
301.979	97.06
302.209	120.06
302.439	94.06
302.669	116.06
302.9	94.06
303.13	92.06
303.36	100.06
303.59	118.06
303.82	130.06
304.051	101.06
304.281	97.06
304.511	88.06
304.741	81.06
304.971	89.06
305.201	103.06
305.431	95.06
305.661	103.06
305.891	99.06
306.121	110.06
306.352	121.06
306.582	114.06
306.812	106.06
307.042	116.06
307.272	143.06
307.502	154.06
307.731	145.06
307.961	122.06
308.191	101.06
308.421	102.06
308.651	104.06
308.881	100.06
309.111	101.06
309.341	91.06
309.571	88.06
309.8	113.06
310.03	115.06
310.26	115.06
310.49	102.06
310.72	114.06
310.949	126.06
311.179	111.06
311.409	101.06
311.639	96.06
311.868	109.06
312.098	103.06
312.328	109.06
312.557	115.06
312.787	127.06
313.017	106.06
313.246	102.06
313.476	85.06
313.706	95.06
313.935	112.06
314.165	117.06
314.394	131.06
314.624	122.06
314.853	100.06
315.083	115.06
315.312	105.06
315.542	94.06
315.771	91.06
316.001	93.06
316.23	91.06
316.46	98.06
316.689	98.06
316.919	94.06
317.148	103.06
317.377	95.06
317.607	108.06
317.836	95.06
318.065	93.06
318.295	91.06
318.524	79.06
318.753	100.06
318.983	95.06
319.212	112.06
319.441	118.06
319.67	127.06
319.9	95.06
320.129	111.06
320.358	98.06
320.587	98.06
320.816	113.06
321.046	106.06
321.275	96.06
321.504	106.06
321.733	104.06
321.962	111.06
322.191	99.06
322.42	99.06
322.649	124.06
322.878	125.06
323.108	142.06
323.337	139.06
323.566	159.06
323.795	195.06
324.024	266.06
324.253	526.06
324.482	1110.06
324.71	2324.06
324.939	3053.06
325.168	1142.06
325.397	318.06
325.626	171.06
325.855	150.06
326.084	150.06
326.313	166.06
326.542	173.06
326.77	281.06
326.999	566.06
327.228	1235.06
327.457	2243.06
327.686	1777.06
327.914	564.06
328.143	451.06
328.372	516.06
328.6	289.06
328.829	177.06
329.058	180.06
329.287	206.06
329.515	180.06
329.744	215.06
329.972	373.06
330.201	709.06
330.43	1047.06
330.658	514.06
330.887	264.06
331.115	176.06
331.344	146.06
331.572	115.06
331.801	128.06
332.03	123.06
332.258	113.06
332.486	99.06
332.715	111.06
332.943	114.06
333.172	124.06
333.4	134.06
333.629	158.06
333.857	203.06
334.085	355.06
334.314	691.06
334.542	1294.06
334.771	1247.06
334.999	354.06
335.227	164.06
335.455	117.06
335.684	117.06
335.912	95.06
336.14	114.06
336.369	119.06
336.597	109.06
336.825	114.06
337.053	99.06
337.281	97.06
337.51	98.06
337.738	106.06
337.966	93.06
338.194	100.06
338.422	134.06
338.65	93.06
338.878	84.06
339.106	92.06
339.334	85.06
339.562	98.06
339.79	89.06
340.018	90.06
340.246	103.06
340.474	98.06
340.702	115.06
340.93	97.06
341.158	100.06
341.386	112.06
341.614	105.06
341.842	113.06
342.07	127.06
342.298	92.06
342.526	96.06
342.754	98.06
342.981	84.06
343.209	108.06
343.437	124.06
343.665	87.06
343.893	99.06
344.12	89.06
344.348	106.06
344.576	102.06
344.804	104.06
345.031	109.06
345.259	113.06
345.487	107.06
345.714	98.06
345.942	100.06
346.17	99.06
346.397	86.06
346.625	103.06
346.853	92.06
347.08	98.06
347.308	116.06
347.535	110.06
347.763	102.06
347.99	106.06
348.218	106.06
348.445	112.06
348.673	125.06
348.9	107.06
349.128	112.06
349.355	85.06
349.583	98.06
349.81	105.06
350.037	109.06
350.265	103.06
350.492	83.06
350.72	101.06
350.947	107.06
351.174	131.06
351.402	125.06
351.629	124.06
351.856	116.06
352.083	106.06
352.311	117.06
352.538	139.06
352.765	127.06
352.992	129.06
353.22	127.06
353.447	109.06
353.674	109.06
353.901	106.06
354.128	99.06
354.355	105.06
354.583	96.06
354.81	114.06
355.037	90.06
355.264	97.06
355.491	108.06
355.718	91.06
355.945	104.06
356.172	103.06
356.399	102.06
356.626	88.06
356.853	101.06
357.08	87.06
357.307	91.06
357.534	88.06
357.761	83.06
357.988	94.06
358.215	95.06
358.441	86.06
358.668	91.06
358.895	95.06
359.122	103.06
359.349	87.06
359.576	103.06
359.802	111.06
360.029	151.06
360.256	127.06
360.483	119.06
360.709	93.06
360.936	86.06
361.163	82.06
361.39	116.06
361.616	107.06
361.843	98.06
362.07	112.06
362.296	96.06
362.523	94.06
362.749	124.06
362.976	103.06
363.203	101.06
363.429	96.06
363.656	98.06
363.882	99.06
364.109	99.06
364.335	100.06
364.562	113.06
364.788	93.06
365.015	100.06
365.241	111.06
365.468	120.06
365.694	123.06
365.92	89.06
366.147	98.06
366.373	86.06
366.599	97.06
366.826	105.06
367.052	102.06
367.278	101.06
367.505	94.06
367.731	106.06
367.957	106.06
368.184	107.06
368.41	114.06
368.636	115.06
368.862	132.06
369.089	126.06
369.315	110.06
369.541	107.06
369.767	100.06
369.993	106.06
370.219	98.06
370.445	91.06
370.672	82.06
370.898	85.06
371.124	92.06
371.35	88.06
371.576	87.06
371.802	75.06
372.028	86.06
372.254	76.06
372.48	87.06
372.706	103.06
372.932	95.06
373.158	104.06
373.384	108.06
373.61	96.06
373.835	87.06
374.061	92.06
374.287	105.06
374.513	97.06
374.739	96.06
374.965	99.06
375.191	98.06
375.416	93.06
375.642	96.06
375.868	90.06
376.094	92.06
376.319	86.06
376.545	105.06
376.771	92.06
376.997	96.06
377.222	91.06
377.448	100.06
377.674	91.06
377.899	80.06
378.125	81.06
378.35	90.06
378.576	93.06
378.802	92.06
379.027	80.06
379.253	93.06
379.478	92.06
379.704	96.06
379.929	80.06
380.155	93.06
380.38	88.06
380.606	99.06
380.831	105.06
381.057	94.06
381.282	86.06
381.507	87.06
381.733	103.06
381.958	99.06
382.184	97.06
382.409	111.06
382.634	104.06
382.86	106.06
383.085	104.06
383.31	91.06
383.535	106.06
383.761	104.06
383.986	90.06
384.211	97.06
384.436	104.06
384.662	103.06
384.887	114.06
385.112	114.06
385.337	98.06
385.562	104.06
385.787	103.06
386.013	123.06
386.238	123.06
386.463	102.06
386.688	96.06
386.913	104.06
387.138	105.06
387.363	97.06
387.588	102.06
387.813	99.06
388.038	88.06
388.263	116.06
388.488	112.06
388.713	100.06
388.938	94.06
389.163	102.06
389.387	98.06
389.612	94.06
389.837	90.06
390.062	86.06
390.287	93.06
390.512	82.06
390.736	94.06
390.961	99.06
391.186	89.06
391.411	102.06
391.636	89.06
391.86	86.06
392.085	91.06
392.31	97.06
392.534	107.06
392.759	95.06
392.984	84.06
393.208	93.06
393.433	92.06
393.658	90.06
393.882	97.06
394.107	102.06
394.331	95.06
394.556	89.06
394.78	98.06
395.005	89.06
395.229	92.06
395.454	83.06
395.678	95.06
395.903	107.06
396.127	96.06
396.352	86.06
396.576	86.06
396.801	88.06
397.025	83.06
397.249	95.06
397.474	97.06
397.698	79.06
397.922	97.06
398.147	96.06
398.371	98.06
398.595	85.06
398.82	88.06
399.044	92.06
399.268	90.06
399.492	96.06
399.717	90.06
399.941	93.06
400.165	87.06
400.389	91.06
400.613	85.06
400.837	87.06
401.062	100.06
401.286	109.06
401.51	108.06
401.734	122.06
401.958	121.06
402.182	140.06
402.406	209.06
402.63	160.06
402.854	106.06
403.078	99.06
403.302	98.06
403.526	81.06
403.75	90.06
403.974	86.06
404.198	92.06
404.422	96.06
404.645	90.06
404.869	97.06
405.093	113.06
405.317	139.06
405.541	132.06
405.765	124.06
405.988	142.06
406.212	216.06
406.436	335.06
406.66	214.06
406.883	131.06
407.107	112.06
407.331	91.06
407.555	119.06
407.778	123.06
408.002	103.06
408.226	102.06
408.449	104.06
408.673	88.06
408.896	91.06
409.12	102.06
409.344	96.06
409.567	95.06
409.791	93.06
410.014	96.06
410.238	116.06
410.461	91.06
410.685	106.06
410.908	109.06
411.132	95.06
411.355	114.06
411.578	116.06
411.802	92.06
412.025	88.06
412.249	100.06
412.472	116.06
412.695	130.06
412.919	116.06
413.142	88.06
413.365	102.06
413.589	98.06
413.812	88.06
414.035	83.06
414.258	84.06
414.482	89.06
414.705	94.06
414.928	93.06
415.151	103.06
415.374	110.06
415.597	84.06
415.821	89.06
416.044	95.06
416.267	88.06
416.49	82.06
416.713	98.06
416.936	79.06
417.159	100.06
417.382	97.06
417.605	109.06
417.828	101.06
418.051	112.06
418.274	82.06
418.497	98.06
418.72	88.06
418.943	100.06
419.166	107.06
419.389	88.06
419.611	79.06
419.834	95.06
420.057	88.06
420.28	105.06
420.503	100.06
420.726	97.06
420.948	98.06
421.171	119.06
421.394	102.06
421.617	94.06
421.839	101.06
422.062	92.06
422.285	82.06
422.507	106.06
422.73	109.06
422.953	116.06
423.175	88.06
423.398	88.06
423.621	96.06
423.843	78.06
424.066	92.06
424.288	95.06
424.511	106.06
424.733	98.06
424.956	135.06
425.178	109.06
425.401	103.06
425.623	115.06
425.846	99.06
426.068	108.06
426.291	94.06
426.513	110.06
426.735	95.06
426.958	97.06
427.18	116.06
427.402	189.06
427.625	269.06
427.847	235.06
428.069	203.06
428.292	139.06
428.514	104.06
428.736	81.06
428.958	84.06
429.181	93.06
429.403	95.06
429.625	94.06
429.847	108.06
430.069	127.06
430.292	111.06
430.514	83.06
430.736	87.06
430.958	90.06
431.18	98.06
431.402	100.06
431.624	77.06
431.846	77.06
432.068	92.06
432.29	81.06
432.512	94.06
432.734	90.06
432.956	94.06
433.178	94.06
433.4	110.06
433.622	93.06
433.844	96.06
434.066	85.06
434.287	96.06
434.509	82.06
434.731	79.06
434.953	88.06
435.175	100.06
435.397	116.06
435.618	104.06
435.84	119.06
436.062	139.06
436.284	145.06
436.505	115.06
436.727	106.06
436.949	93.06
437.17	97.06
437.392	83.06
437.614	101.06
437.835	143.06
438.057	167.06
438.278	147.06
438.5	123.06
438.721	149.06
438.943	110.06
439.165	99.06
439.386	94.06
439.608	84.06
439.829	124.06
440.05	165.06
440.272	211.06
440.493	113.06
440.715	97.06
440.936	92.06
441.158	94.06
441.379	93.06
441.6	118.06
441.822	102.06
442.043	102.06
442.264	130.06
442.486	128.06
442.707	106.06
442.928	130.06
443.149	176.06
443.371	172.06
443.592	147.06
443.813	146.06
444.034	121.06
444.255	90.06
444.476	94.06
444.698	84.06
444.919	91.06
445.14	154.06
445.361	142.06
445.582	151.06
445.803	190.06
446.024	195.06
446.245	180.06
446.466	142.06
446.687	81.06
446.908	100.06
447.129	105.06
447.35	98.06
447.571	90.06
447.792	112.06
448.013	107.06
448.234	112.06
448.455	111.06
448.675	139.06
448.896	158.06
449.117	111.06
449.338	122.06
449.559	156.06
449.779	166.06
450	118.06
450.221	109.06
450.442	105.06
450.662	107.06
450.883	122.06
451.104	143.06
451.324	111.06
451.545	95.06
451.766	82.06
451.986	86.06
452.207	90.06
452.428	105.06
452.648	105.06
452.869	123.06
453.089	136.06
453.31	150.06
453.53	98.06
453.751	105.06
453.971	122.06
454.192	128.06
454.412	122.06
454.633	103.06
454.853	92.06
455.073	94.06
455.294	110.06
455.514	118.06
455.734	86.06
455.955	94.06
456.175	92.06
456.395	83.06
456.616	88.06
456.836	92.06
457.056	81.06
457.276	85.06
457.497	85.06
457.717	97.06
457.937	86.06
458.157	92.06
458.377	102.06
458.598	135.06
458.818	216.06
459.038	235.06
459.258	142.06
459.478	101.06
459.698	94.06
459.918	85.06
460.138	100.06
460.358	88.06
460.578	90.06
460.798	99.06
461.018	96.06
461.238	80.06
461.458	91.06
461.678	91.06
461.898	82.06
462.118	85.06
462.338	97.06
462.558	94.06
462.777	99.06
462.997	90.06
463.217	99.06
463.437	103.06
463.657	92.06
463.876	88.06
464.096	98.06
464.316	99.06
464.536	105.06
464.755	110.06
464.975	120.06
465.195	236.06
465.414	232.06
465.634	121.06
465.854	90.06
466.073	90.06
466.293	92.06
466.512	93.06
466.732	96.06
466.951	96.06
467.171	101.06
467.391	111.06
467.61	144.06
467.829	173.06
468.049	391.06
468.268	589.06
468.488	178.06
468.707	102.06
468.927	81.06
469.146	95.06
469.365	96.06
469.585	95.06
469.804	103.06
470.023	109.06
470.243	107.06
470.462	129.06
470.681	140.06
470.901	115.06
471.12	93.06
471.339	117.06
471.558	104.06
471.777	128.06
471.997	227.06
472.216	768.06
472.435	1678.06
472.654	435.06
472.873	152.06
473.092	100.06
473.311	97.06
473.53	101.06
473.749	88.06
473.968	102.06
474.187	129.06
474.406	113.06
474.625	110.06
474.844	98.06
475.063	89.06
475.282	97.06
475.501	98.06
475.72	96.06
475.939	107.06
476.158	96.06
476.377	83.06
476.596	93.06
476.814	99.06
477.033	104.06
477.252	104.06
477.471	81.06
477.69	106.06
477.908	96.06
478.127	99.06
478.346	108.06
478.564	111.06
478.783	118.06
479.002	115.06
479.22	108.06
479.439	141.06
479.658	146.06
479.876	110.06
480.095	104.06
480.313	124.06
480.532	135.06
480.751	227.06
480.969	707.06
481.188	2950.06
481.406	1812.06
481.624	286.06
481.843	130.06
482.061	112.06
482.28	112.06
482.498	104.06
482.717	95.06
482.935	90.06
483.153	83.06
483.372	91.06
483.59	93.06
483.808	92.06
484.027	87.06
484.245	97.06
484.463	106.06
484.681	105.06
484.9	92.06
485.118	86.06
485.336	103.06
485.554	90.06
485.772	97.06
485.99	96.06
486.209	99.06
486.427	104.06
486.645	127.06
486.863	131.06
487.081	114.06
487.299	110.06
487.517	104.06
487.735	93.06
487.953	102.06
488.171	109.06
488.389	108.06
488.607	101.06
488.825	88.06
489.043	97.06
489.261	92.06
489.479	88.06
489.696	104.06
489.914	99.06
490.132	87.06
490.35	87.06
490.568	91.06
490.786	87.06
491.003	99.06
491.221	94.06
491.439	109.06
491.657	98.06
491.874	102.06
492.092	96.06
492.31	107.06
492.527	95.06
492.745	106.06
492.963	100.06
493.18	96.06
493.398	111.06
493.615	107.06
493.833	88.06
494.05	83.06
494.268	94.06
494.485	92.06
494.703	88.06
494.92	88.06
495.138	83.06
495.355	98.06
495.573	100.06
495.79	97.06
496.008	95.06
496.225	95.06
496.442	85.06
496.66	93.06
496.877	95.06
497.094	112.06
497.312	101.06
497.529	90.06
497.746	97.06
497.963	95.06
498.181	108.06
498.398	101.06
498.615	134.06
498.832	123.06
499.049	98.06
499.267	100.06
499.484	104.06
499.701	94.06
499.918	90.06
500.135	83.06
500.352	101.06
500.569	100.06
500.786	110.06
501.003	96.06
501.22	106.06
501.437	116.06
501.654	112.06
501.871	130.06
502.088	102.06
502.305	78.06
502.522	96.06
502.739	99.06
502.956	83.06
503.172	96.06
503.389	105.06
503.606	126.06
503.823	117.06
504.04	113.06
504.256	85.06
504.473	108.06
504.69	91.06
504.907	88.06
505.123	98.06
505.34	100.06
505.557	93.06
505.773	94.06
505.99	95.06
506.207	86.06
506.423	91.06
506.64	92.06
506.856	91.06
507.073	98.06
507.289	107.06
507.506	115.06
507.722	134.06
507.939	127.06
508.155	108.06
508.372	108.06
508.588	104.06
508.805	97.06
509.021	105.06
509.238	94.06
509.454	102.06
509.67	109.06
509.887	128.06
510.103	149.06
510.319	254.06
510.536	977.06
510.752	3370.06
510.968	926.06
511.184	188.06
511.401	134.06
511.617	104.06
511.833	100.06
