Data from Circ_2007_H10_HRD10591_00007.txt Node
Date: Wed Jan 03 10:21:58 EST 2024
User: Yrep
Spectrometer: HR+D1059
Trigger mode: 1
Integration Time (sec): 1.000000E-1
Scans to average: 1
Electric dark correction enabled: true
Nonlinearity correction enabled: false
Boxcar width: 0
XAxis mode: Wavelengths
Number of Pixels in Spectrum: 2048
>>>>>Begin Spectral Data<<<<<
223.165	-31.69
223.4	-31.69
223.635	-31.69
223.869	-17.69
224.104	-18.69
224.338	-18.69
224.573	-17.69
224.808	-6.69
225.042	-14.69
225.277	-4.69
225.511	-4.69
225.746	-0.69
225.98	4.31
226.215	1.31
226.449	18.31
226.683	35.31
226.918	41.31
227.152	35.31
227.387	31.31
227.621	43.31
227.856	45.31
228.09	46.31
228.324	60.31
228.559	59.31
228.793	59.31
229.027	59.31
229.262	70.31
229.496	93.31
229.73	100.31
229.964	109.31
230.199	82.31
230.433	93.31
230.667	81.31
230.901	84.31
231.136	85.31
231.37	78.31
231.604	78.31
231.838	85.31
232.072	84.31
232.306	86.31
232.541	81.31
232.775	84.31
233.009	77.31
233.243	81.31
233.477	82.31
233.711	86.31
233.945	83.31
234.179	83.31
234.413	71.31
234.647	80.31
234.881	81.31
235.115	78.31
235.349	76.31
235.583	84.31
235.817	89.31
236.051	97.31
236.285	90.31
236.519	79.31
236.753	90.31
236.987	108.31
237.221	101.31
237.455	106.31
237.689	93.31
237.922	86.31
238.156	92.31
238.39	75.31
238.624	76.31
238.858	74.31
239.091	75.31
239.325	85.31
239.559	100.31
239.793	81.31
240.027	86.31
240.26	78.31
240.494	80.31
240.728	87.31
240.961	74.31
241.195	78.31
241.429	75.31
241.662	88.31
241.896	83.31
242.13	75.31
242.363	81.31
242.597	80.31
242.83	68.31
243.064	87.31
243.298	84.31
243.531	88.31
243.765	91.31
243.998	79.31
244.232	77.31
244.465	102.31
244.699	81.31
244.932	83.31
245.166	75.31
245.399	83.31
245.633	89.31
245.866	91.31
246.099	79.31
246.333	100.31
246.566	69.31
246.8	75.31
247.033	92.31
247.266	78.31
247.5	83.31
247.733	73.31
247.966	73.31
248.2	82.31
248.433	84.31
248.666	80.31
248.899	87.31
249.133	77.31
249.366	108.31
249.599	105.31
249.832	64.31
250.066	84.31
250.299	81.31
250.532	87.31
250.765	77.31
250.998	87.31
251.231	88.31
251.465	87.31
251.698	80.31
251.931	87.31
252.164	82.31
252.397	73.31
252.63	86.31
252.863	78.31
253.096	84.31
253.329	83.31
253.562	75.31
253.795	86.31
254.028	95.31
254.261	85.31
254.494	72.31
254.727	91.31
254.96	74.31
255.193	89.31
255.426	87.31
255.659	79.31
255.892	103.31
256.124	94.31
256.357	102.31
256.59	97.31
256.823	88.31
257.056	86.31
257.289	83.31
257.521	92.31
257.754	92.31
257.987	71.31
258.22	111.31
258.452	104.31
258.685	81.31
258.918	84.31
259.151	86.31
259.383	90.31
259.616	92.31
259.849	77.31
260.081	73.31
260.314	72.31
260.547	86.31
260.779	87.31
261.012	106.31
261.244	98.31
261.477	106.31
261.71	112.31
261.942	138.31
262.175	132.31
262.407	90.31
262.64	69.31
262.872	76.31
263.105	94.31
263.337	96.31
263.57	88.31
263.802	93.31
264.035	83.31
264.267	81.31
264.499	94.31
264.732	81.31
264.964	87.31
265.197	87.31
265.429	90.31
265.661	78.31
265.894	88.31
266.126	93.31
266.358	95.31
266.591	87.31
266.823	78.31
267.055	83.31
267.287	90.31
267.52	82.31
267.752	96.31
267.984	90.31
268.216	98.31
268.448	90.31
268.681	75.31
268.913	103.31
269.145	74.31
269.377	79.31
269.609	91.31
269.841	81.31
270.073	87.31
270.306	88.31
270.538	92.31
270.77	92.31
271.002	82.31
271.234	90.31
271.466	89.31
271.698	85.31
271.93	91.31
272.162	98.31
272.394	92.31
272.626	95.31
272.858	96.31
273.09	90.31
273.322	90.31
273.553	97.31
273.785	91.31
274.017	99.31
274.249	77.31
274.481	90.31
274.713	94.31
274.945	92.31
275.176	108.31
275.408	96.31
275.64	93.31
275.872	98.31
276.104	95.31
276.335	91.31
276.567	106.31
276.799	144.31
277.031	151.31
277.262	152.31
277.494	123.31
277.726	106.31
277.957	91.31
278.189	94.31
278.421	86.31
278.652	91.31
278.884	100.31
279.115	86.31
279.347	100.31
279.579	105.31
279.81	109.31
280.042	151.31
280.273	199.31
280.505	157.31
280.736	105.31
280.968	90.31
281.199	88.31
281.431	93.31
281.662	90.31
281.894	88.31
282.125	126.31
282.356	147.31
282.588	178.31
282.819	139.31
283.051	84.31
283.282	83.31
283.513	80.31
283.745	97.31
283.976	87.31
284.207	87.31
284.439	85.31
284.67	89.31
284.901	72.31
285.132	85.31
285.364	89.31
285.595	91.31
285.826	91.31
286.057	103.31
286.288	91.31
286.52	81.31
286.751	84.31
286.982	71.31
287.213	87.31
287.444	90.31
287.675	94.31
287.906	90.31
288.138	104.31
288.369	99.31
288.6	94.31
288.831	100.31
289.062	97.31
289.293	86.31
289.524	81.31
289.755	78.31
289.986	69.31
290.217	90.31
290.448	90.31
290.679	84.31
290.91	87.31
291.141	82.31
291.371	79.31
291.602	81.31
291.833	87.31
292.064	85.31
292.295	80.31
292.526	89.31
292.757	121.31
292.987	96.31
293.218	92.31
293.449	80.31
293.68	77.31
293.91	93.31
294.141	102.31
294.372	86.31
294.603	92.31
294.833	100.31
295.064	93.31
295.295	96.31
295.525	86.31
295.756	110.31
295.987	126.31
296.217	169.31
296.448	145.31
296.679	102.31
296.909	91.31
297.14	98.31
297.37	99.31
297.601	100.31
297.831	87.31
298.062	103.31
298.292	100.31
298.523	97.31
298.753	84.31
298.984	92.31
299.214	96.31
299.445	95.31
299.675	98.31
299.905	108.31
300.136	98.31
300.366	98.31
300.597	103.31
300.827	94.31
301.057	113.31
301.288	117.31
301.518	112.31
301.748	111.31
301.979	115.31
302.209	111.31
302.439	102.31
302.669	106.31
302.9	101.31
303.13	87.31
303.36	96.31
303.59	129.31
303.82	143.31
304.051	109.31
304.281	100.31
304.511	100.31
304.741	88.31
304.971	83.31
305.201	87.31
305.431	98.31
305.661	92.31
305.891	87.31
306.121	99.31
306.352	110.31
306.582	114.31
306.812	115.31
307.042	100.31
307.272	135.31
307.502	141.31
307.731	129.31
307.961	115.31
308.191	100.31
308.421	99.31
308.651	106.31
308.881	101.31
309.111	106.31
309.341	102.31
309.571	103.31
309.8	113.31
310.03	129.31
310.26	121.31
310.49	103.31
310.72	103.31
310.949	125.31
311.179	126.31
311.409	106.31
311.639	108.31
311.868	99.31
312.098	111.31
312.328	92.31
312.557	131.31
312.787	123.31
313.017	126.31
313.246	117.31
313.476	102.31
313.706	105.31
313.935	104.31
314.165	116.31
314.394	125.31
314.624	123.31
314.853	111.31
315.083	97.31
315.312	97.31
315.542	90.31
315.771	107.31
316.001	96.31
316.23	83.31
316.46	101.31
316.689	99.31
316.919	99.31
317.148	116.31
317.377	107.31
317.607	115.31
317.836	108.31
318.065	99.31
318.295	93.31
318.524	87.31
318.753	93.31
318.983	94.31
319.212	119.31
319.441	122.31
319.67	126.31
319.9	127.31
320.129	99.31
320.358	94.31
320.587	100.31
320.816	97.31
321.046	121.31
321.275	118.31
321.504	104.31
321.733	109.31
321.962	99.31
322.191	119.31
322.42	119.31
322.649	127.31
322.878	139.31
323.108	136.31
323.337	155.31
323.566	168.31
323.795	202.31
324.024	260.31
324.253	556.31
324.482	1285.31
324.71	2638.31
324.939	3582.31
325.168	1263.31
325.397	353.31
325.626	200.31
325.855	138.31
326.084	132.31
326.313	147.31
326.542	180.31
326.77	329.31
326.999	667.31
327.228	1386.31
327.457	2649.31
327.686	2094.31
327.914	609.31
328.143	453.31
328.372	521.31
328.6	302.31
328.829	186.31
329.058	213.31
329.287	212.31
329.515	180.31
329.744	216.31
329.972	336.31
330.201	651.31
330.43	972.31
330.658	498.31
330.887	322.31
331.115	186.31
331.344	140.31
331.572	135.31
331.801	137.31
332.03	124.31
332.258	107.31
332.486	108.31
332.715	95.31
332.943	105.31
333.172	116.31
333.4	129.31
333.629	139.31
333.857	191.31
334.085	318.31
334.314	639.31
334.542	1235.31
334.771	1164.31
334.999	325.31
335.227	157.31
335.455	104.31
335.684	128.31
335.912	103.31
336.14	110.31
336.369	103.31
336.597	122.31
336.825	113.31
337.053	113.31
337.281	83.31
337.51	100.31
337.738	102.31
337.966	104.31
338.194	112.31
338.422	113.31
338.65	102.31
338.878	97.31
339.106	108.31
339.334	100.31
339.562	100.31
339.79	97.31
340.018	100.31
340.246	97.31
340.474	93.31
340.702	91.31
340.93	90.31
341.158	98.31
341.386	115.31
341.614	112.31
341.842	98.31
342.07	99.31
342.298	98.31
342.526	90.31
342.754	91.31
342.981	86.31
343.209	84.31
343.437	98.31
343.665	100.31
343.893	86.31
344.12	111.31
344.348	110.31
344.576	92.31
344.804	98.31
345.031	130.31
345.259	130.31
345.487	105.31
345.714	112.31
345.942	103.31
346.17	92.31
346.397	91.31
346.625	97.31
346.853	102.31
347.08	101.31
347.308	101.31
347.535	122.31
347.763	124.31
347.99	108.31
348.218	118.31
348.445	121.31
348.673	110.31
348.9	102.31
349.128	97.31
349.355	97.31
349.583	90.31
349.81	99.31
350.037	93.31
350.265	99.31
350.492	93.31
350.72	97.31
350.947	114.31
351.174	115.31
351.402	123.31
351.629	115.31
351.856	121.31
352.083	118.31
352.311	138.31
352.538	138.31
352.765	122.31
352.992	117.31
353.22	127.31
353.447	142.31
353.674	107.31
353.901	93.31
354.128	94.31
354.355	92.31
354.583	107.31
354.81	106.31
355.037	101.31
355.264	96.31
355.491	102.31
355.718	105.31
355.945	99.31
356.172	93.31
356.399	91.31
356.626	101.31
356.853	95.31
357.08	91.31
357.307	91.31
357.534	94.31
357.761	85.31
357.988	106.31
358.215	101.31
358.441	100.31
358.668	103.31
358.895	105.31
359.122	107.31
359.349	103.31
359.576	101.31
359.802	125.31
360.029	155.31
360.256	168.31
360.483	128.31
360.709	90.31
360.936	102.31
361.163	101.31
361.39	102.31
361.616	108.31
361.843	111.31
362.07	106.31
362.296	124.31
362.523	94.31
362.749	102.31
362.976	84.31
363.203	96.31
363.429	100.31
363.656	105.31
363.882	77.31
364.109	100.31
364.335	99.31
364.562	99.31
364.788	105.31
365.015	107.31
365.241	111.31
365.468	117.31
365.694	128.31
365.92	108.31
366.147	92.31
366.373	94.31
366.599	103.31
366.826	98.31
367.052	89.31
367.278	93.31
367.505	92.31
367.731	102.31
367.957	100.31
368.184	116.31
368.41	124.31
368.636	125.31
368.862	144.31
369.089	103.31
369.315	100.31
369.541	106.31
369.767	94.31
369.993	87.31
370.219	110.31
370.445	98.31
370.672	94.31
370.898	100.31
371.124	94.31
371.35	94.31
371.576	91.31
371.802	87.31
372.028	75.31
372.254	90.31
372.48	92.31
372.706	97.31
372.932	106.31
373.158	82.31
373.384	95.31
373.61	108.31
373.835	87.31
374.061	91.31
374.287	99.31
374.513	82.31
374.739	100.31
374.965	87.31
375.191	87.31
375.416	100.31
375.642	104.31
375.868	104.31
376.094	94.31
376.319	88.31
376.545	95.31
376.771	98.31
376.997	97.31
377.222	101.31
377.448	92.31
377.674	89.31
377.899	95.31
378.125	94.31
378.35	92.31
378.576	101.31
378.802	95.31
379.027	90.31
379.253	91.31
379.478	102.31
379.704	99.31
379.929	105.31
380.155	108.31
380.38	97.31
380.606	87.31
380.831	97.31
381.057	115.31
381.282	94.31
381.507	117.31
381.733	106.31
381.958	99.31
382.184	103.31
382.409	104.31
382.634	118.31
382.86	106.31
383.085	103.31
383.31	96.31
383.535	116.31
383.761	106.31
383.986	105.31
384.211	116.31
384.436	116.31
384.662	102.31
384.887	122.31
385.112	118.31
385.337	135.31
385.562	112.31
385.787	129.31
386.013	128.31
386.238	135.31
386.463	130.31
386.688	124.31
386.913	117.31
387.138	131.31
387.363	106.31
387.588	115.31
387.813	117.31
388.038	124.31
388.263	143.31
388.488	147.31
388.713	121.31
388.938	101.31
389.163	99.31
389.387	91.31
389.612	97.31
389.837	106.31
390.062	110.31
390.287	93.31
390.512	86.31
390.736	83.31
390.961	86.31
391.186	85.31
391.411	93.31
391.636	77.31
391.86	101.31
392.085	90.31
392.31	85.31
392.534	95.31
392.759	87.31
392.984	83.31
393.208	91.31
393.433	103.31
393.658	111.31
393.882	96.31
394.107	96.31
394.331	95.31
394.556	81.31
394.78	101.31
395.005	85.31
395.229	66.31
395.454	95.31
395.678	95.31
395.903	90.31
396.127	94.31
396.352	92.31
396.576	102.31
396.801	108.31
397.025	90.31
397.249	90.31
397.474	91.31
397.698	95.31
397.922	83.31
398.147	98.31
398.371	99.31
398.595	81.31
398.82	74.31
399.044	84.31
399.268	85.31
399.492	86.31
399.717	89.31
399.941	91.31
400.165	100.31
400.389	109.31
400.613	98.31
400.837	97.31
401.062	97.31
401.286	100.31
401.51	95.31
401.734	112.31
401.958	108.31
402.182	166.31
402.406	221.31
402.63	156.31
402.854	109.31
403.078	105.31
403.302	99.31
403.526	109.31
403.75	79.31
403.974	99.31
404.198	94.31
404.422	102.31
404.645	97.31
404.869	105.31
405.093	117.31
405.317	148.31
405.541	163.31
405.765	118.31
405.988	145.31
406.212	216.31
406.436	319.31
406.66	222.31
406.883	119.31
407.107	126.31
407.331	115.31
407.555	127.31
407.778	119.31
408.002	87.31
408.226	111.31
408.449	89.31
408.673	102.31
408.896	108.31
409.12	99.31
409.344	96.31
409.567	94.31
409.791	92.31
410.014	90.31
410.238	103.31
410.461	96.31
410.685	101.31
410.908	104.31
411.132	108.31
411.355	115.31
411.578	110.31
411.802	97.31
412.025	90.31
412.249	100.31
412.472	115.31
412.695	147.31
412.919	98.31
413.142	103.31
413.365	98.31
413.589	92.31
413.812	85.31
414.035	107.31
414.258	101.31
414.482	97.31
414.705	101.31
414.928	86.31
415.151	91.31
415.374	93.31
415.597	109.31
415.821	106.31
416.044	107.31
416.267	97.31
416.49	78.31
416.713	82.31
416.936	92.31
417.159	94.31
417.382	97.31
417.605	96.31
417.828	115.31
418.051	114.31
418.274	88.31
418.497	85.31
418.72	92.31
418.943	87.31
419.166	87.31
419.389	91.31
419.611	100.31
419.834	94.31
420.057	98.31
420.28	112.31
420.503	101.31
420.726	95.31
420.948	102.31
421.171	112.31
421.394	112.31
421.617	104.31
421.839	91.31
422.062	100.31
422.285	87.31
422.507	106.31
422.73	123.31
422.953	113.31
423.175	101.31
423.398	109.31
423.621	84.31
423.843	91.31
424.066	96.31
424.288	97.31
424.511	97.31
424.733	127.31
424.956	127.31
425.178	121.31
425.401	112.31
425.623	122.31
425.846	109.31
426.068	99.31
426.291	107.31
426.513	103.31
426.735	101.31
426.958	112.31
427.18	141.31
427.402	198.31
427.625	290.31
427.847	258.31
428.069	218.31
428.292	104.31
428.514	96.31
428.736	94.31
428.958	92.31
429.181	95.31
429.403	92.31
429.625	96.31
429.847	103.31
430.069	117.31
430.292	94.31
430.514	84.31
430.736	73.31
430.958	93.31
431.18	82.31
431.402	81.31
431.624	90.31
431.846	79.31
432.068	82.31
432.29	91.31
432.512	93.31
432.734	90.31
432.956	98.31
433.178	99.31
433.4	124.31
433.622	97.31
433.844	89.31
434.066	105.31
434.287	97.31
434.509	93.31
434.731	91.31
434.953	112.31
435.175	91.31
435.397	101.31
435.618	91.31
435.84	117.31
436.062	162.31
436.284	149.31
436.505	107.31
436.727	116.31
436.949	94.31
437.17	93.31
437.392	94.31
437.614	106.31
437.835	142.31
438.057	172.31
438.278	141.31
438.5	121.31
438.721	161.31
438.943	118.31
439.165	101.31
439.386	109.31
439.608	111.31
439.829	125.31
440.05	193.31
440.272	230.31
440.493	127.31
440.715	105.31
440.936	93.31
441.158	96.31
441.379	98.31
441.6	105.31
441.822	114.31
442.043	128.31
442.264	124.31
442.486	127.31
442.707	105.31
442.928	114.31
443.149	187.31
443.371	186.31
443.592	149.31
443.813	161.31
444.034	125.31
444.255	114.31
444.476	101.31
444.698	86.31
444.919	95.31
445.14	159.31
445.361	135.31
445.582	155.31
445.803	237.31
446.024	220.31
446.245	203.31
446.466	148.31
446.687	111.31
446.908	81.31
447.129	100.31
447.35	91.31
447.571	100.31
447.792	95.31
448.013	114.31
448.234	111.31
448.455	119.31
448.675	166.31
448.896	158.31
449.117	105.31
449.338	116.31
449.559	194.31
449.779	197.31
450	128.31
450.221	113.31
450.442	94.31
450.662	101.31
450.883	141.31
451.104	141.31
451.324	116.31
451.545	100.31
451.766	92.31
451.986	99.31
452.207	98.31
452.428	110.31
452.648	116.31
452.869	149.31
453.089	143.31
453.31	145.31
453.53	97.31
453.751	94.31
453.971	124.31
454.192	145.31
454.412	101.31
454.633	104.31
454.853	86.31
455.073	95.31
455.294	105.31
455.514	105.31
455.734	96.31
455.955	84.31
456.175	92.31
456.395	99.31
456.616	105.31
456.836	94.31
457.056	84.31
457.276	79.31
457.497	93.31
457.717	86.31
457.937	102.31
458.157	100.31
458.377	93.31
458.598	151.31
458.818	230.31
459.038	266.31
459.258	174.31
459.478	98.31
459.698	98.31
459.918	73.31
460.138	96.31
460.358	93.31
460.578	81.31
460.798	98.31
461.018	92.31
461.238	83.31
461.458	82.31
461.678	97.31
461.898	94.31
462.118	81.31
462.338	89.31
462.558	89.31
462.777	69.31
462.997	93.31
463.217	94.31
463.437	100.31
463.657	94.31
463.876	102.31
464.096	90.31
464.316	109.31
464.536	107.31
464.755	103.31
464.975	119.31
465.195	265.31
465.414	262.31
465.634	117.31
465.854	86.31
466.073	102.31
466.293	86.31
466.512	88.31
466.732	91.31
466.951	98.31
467.171	100.31
467.391	105.31
467.61	141.31
467.829	186.31
468.049	336.31
468.268	481.31
468.488	155.31
468.707	110.31
468.927	82.31
469.146	93.31
469.365	87.31
469.585	102.31
469.804	106.31
470.023	118.31
470.243	119.31
470.462	119.31
470.681	149.31
470.901	123.31
471.12	90.31
471.339	101.31
471.558	111.31
471.777	112.31
471.997	207.31
472.216	628.31
472.435	1452.31
472.654	391.31
472.873	139.31
473.092	91.31
473.311	91.31
473.53	92.31
473.749	92.31
473.968	112.31
474.187	148.31
474.406	133.31
474.625	94.31
474.844	82.31
475.063	97.31
475.282	96.31
475.501	91.31
475.72	82.31
475.939	86.31
476.158	98.31
476.377	104.31
476.596	107.31
476.814	115.31
477.033	114.31
477.252	90.31
477.471	84.31
477.69	103.31
477.908	96.31
478.127	94.31
478.346	94.31
478.564	102.31
478.783	109.31
479.002	119.31
479.22	94.31
479.439	133.31
479.658	145.31
479.876	124.31
480.095	117.31
480.313	113.31
480.532	141.31
480.751	197.31
480.969	599.31
481.188	2440.31
481.406	1558.31
481.624	253.31
481.843	120.31
482.061	104.31
482.28	103.31
482.498	87.31
482.717	82.31
482.935	107.31
483.153	87.31
483.372	103.31
483.59	93.31
483.808	82.31
484.027	95.31
484.245	86.31
484.463	95.31
484.681	104.31
484.9	91.31
485.118	94.31
485.336	108.31
485.554	111.31
485.772	96.31
485.99	109.31
486.209	126.31
486.427	116.31
486.645	97.31
486.863	151.31
487.081	123.31
487.299	96.31
487.517	92.31
487.735	106.31
487.953	105.31
488.171	87.31
488.389	92.31
488.607	97.31
488.825	92.31
489.043	95.31
489.261	83.31
489.479	99.31
489.696	82.31
489.914	85.31
490.132	90.31
490.35	78.31
490.568	84.31
490.786	87.31
491.003	102.31
491.221	95.31
491.439	100.31
491.657	111.31
491.874	98.31
492.092	83.31
492.31	94.31
492.527	98.31
492.745	94.31
492.963	94.31
493.18	82.31
493.398	107.31
493.615	112.31
493.833	90.31
494.05	104.31
494.268	85.31
494.485	84.31
494.703	91.31
494.92	83.31
495.138	83.31
495.355	76.31
495.573	91.31
495.79	93.31
496.008	104.31
496.225	97.31
496.442	87.31
496.66	111.31
496.877	86.31
497.094	91.31
497.312	85.31
497.529	98.31
497.746	87.31
497.963	91.31
498.181	95.31
498.398	107.31
498.615	114.31
498.832	124.31
499.049	105.31
499.267	105.31
499.484	100.31
499.701	91.31
499.918	99.31
500.135	93.31
500.352	87.31
500.569	94.31
500.786	101.31
501.003	100.31
501.22	94.31
501.437	87.31
501.654	114.31
501.871	145.31
502.088	105.31
502.305	100.31
502.522	93.31
502.739	91.31
502.956	93.31
503.172	96.31
503.389	106.31
503.606	131.31
503.823	105.31
504.04	106.31
504.256	99.31
504.473	94.31
504.69	91.31
504.907	87.31
505.123	78.31
505.34	93.31
505.557	97.31
505.773	86.31
505.99	97.31
506.207	97.31
506.423	86.31
506.64	98.31
506.856	87.31
507.073	91.31
507.289	87.31
507.506	110.31
507.722	141.31
507.939	159.31
508.155	111.31
508.372	111.31
508.588	91.31
508.805	103.31
509.021	113.31
509.238	100.31
509.454	98.31
509.67	106.31
509.887	134.31
510.103	131.31
510.319	259.31
510.536	915.31
510.752	3194.31
510.968	877.31
511.184	175.31
511.401	140.31
