Data from Circ_2007_H10_HRD10591_00027.txt Node
Date: Wed Jan 03 10:22:02 EST 2024
User: Yrep
Spectrometer: HR+D1059
Trigger mode: 1
Integration Time (sec): 1.000000E-1
Scans to average: 1
Electric dark correction enabled: true
Nonlinearity correction enabled: false
Boxcar width: 0
XAxis mode: Wavelengths
Number of Pixels in Spectrum: 2048
>>>>>Begin Spectral Data<<<<<
223.165	-22.31
223.4	-22.31
223.635	-22.31
223.869	-7.31
224.104	-7.31
224.338	-20.31
224.573	-34.31
224.808	-13.31
225.042	-14.31
225.277	-14.31
225.511	-2.31
225.746	18.69
225.98	1.69
226.215	23.69
226.449	24.69
226.683	16.69
226.918	27.69
227.152	22.69
227.387	54.69
227.621	26.69
227.856	55.69
228.09	52.69
228.324	53.69
228.559	56.69
228.793	64.69
229.027	72.69
229.262	64.69
229.496	84.69
229.73	91.69
229.964	95.69
230.199	76.69
230.433	78.69
230.667	76.69
230.901	83.69
231.136	82.69
231.37	79.69
231.604	79.69
231.838	75.69
232.072	87.69
232.306	89.69
232.541	87.69
232.775	92.69
233.009	89.69
233.243	76.69
233.477	79.69
233.711	85.69
233.945	76.69
234.179	74.69
234.413	76.69
234.647	89.69
234.881	72.69
235.115	73.69
235.349	80.69
235.583	84.69
235.817	83.69
236.051	80.69
236.285	77.69
236.519	87.69
236.753	88.69
236.987	73.69
237.221	86.69
237.455	113.69
237.689	88.69
237.922	69.69
238.156	48.69
238.39	67.69
238.624	74.69
238.858	79.69
239.091	68.69
239.325	89.69
239.559	80.69
239.793	81.69
240.027	76.69
240.26	77.69
240.494	78.69
240.728	63.69
240.961	76.69
241.195	84.69
241.429	70.69
241.662	76.69
241.896	73.69
242.13	71.69
242.363	73.69
242.597	82.69
242.83	92.69
243.064	92.69
243.298	72.69
243.531	77.69
243.765	76.69
243.998	76.69
244.232	71.69
244.465	96.69
244.699	80.69
244.932	75.69
245.166	90.69
245.399	72.69
245.633	87.69
245.866	73.69
246.099	95.69
246.333	75.69
246.566	83.69
246.8	80.69
247.033	73.69
247.266	88.69
247.5	68.69
247.733	91.69
247.966	88.69
248.2	84.69
248.433	71.69
248.666	80.69
248.899	80.69
249.133	89.69
249.366	105.69
249.599	108.69
249.832	71.69
250.066	78.69
250.299	84.69
250.532	79.69
250.765	83.69
250.998	87.69
251.231	69.69
251.465	81.69
251.698	96.69
251.931	76.69
252.164	84.69
252.397	79.69
252.63	76.69
252.863	71.69
253.096	83.69
253.329	79.69
253.562	82.69
253.795	82.69
254.028	67.69
254.261	85.69
254.494	93.69
254.727	86.69
254.96	74.69
255.193	67.69
255.426	90.69
255.659	81.69
255.892	81.69
256.124	79.69
256.357	86.69
256.59	91.69
256.823	97.69
257.056	76.69
257.289	84.69
257.521	85.69
257.754	86.69
257.987	83.69
258.22	98.69
258.452	93.69
258.685	82.69
258.918	91.69
259.151	86.69
259.383	74.69
259.616	73.69
259.849	90.69
260.081	76.69
260.314	79.69
260.547	77.69
260.779	75.69
261.012	93.69
261.244	84.69
261.477	97.69
261.71	96.69
261.942	127.69
262.175	130.69
262.407	96.69
262.64	83.69
262.872	87.69
263.105	87.69
263.337	93.69
263.57	80.69
263.802	71.69
264.035	87.69
264.267	84.69
264.499	90.69
264.732	78.69
264.964	83.69
265.197	77.69
265.429	76.69
265.661	84.69
265.894	80.69
266.126	96.69
266.358	83.69
266.591	83.69
266.823	78.69
267.055	65.69
267.287	90.69
267.52	89.69
267.752	83.69
267.984	100.69
268.216	90.69
268.448	85.69
268.681	77.69
268.913	92.69
269.145	67.69
269.377	80.69
269.609	84.69
269.841	76.69
270.073	70.69
270.306	83.69
270.538	75.69
270.77	93.69
271.002	79.69
271.234	89.69
271.466	93.69
271.698	79.69
271.93	82.69
272.162	83.69
272.394	99.69
272.626	81.69
272.858	95.69
273.09	99.69
273.322	92.69
273.553	84.69
273.785	83.69
274.017	93.69
274.249	80.69
274.481	88.69
274.713	92.69
274.945	78.69
275.176	77.69
275.408	79.69
275.64	93.69
275.872	88.69
276.104	93.69
276.335	112.69
276.567	123.69
276.799	130.69
277.031	136.69
277.262	147.69
277.494	115.69
277.726	88.69
277.957	100.69
278.189	96.69
278.421	85.69
278.652	92.69
278.884	80.69
279.115	91.69
279.347	84.69
279.579	103.69
279.81	106.69
280.042	135.69
280.273	179.69
280.505	131.69
280.736	111.69
280.968	97.69
281.199	88.69
281.431	96.69
281.662	76.69
281.894	83.69
282.125	80.69
282.356	140.69
282.588	176.69
282.819	135.69
283.051	106.69
283.282	91.69
283.513	97.69
283.745	74.69
283.976	89.69
284.207	82.69
284.439	79.69
284.67	92.69
284.901	80.69
285.132	95.69
285.364	85.69
285.595	83.69
285.826	93.69
286.057	109.69
286.288	103.69
286.52	102.69
286.751	79.69
286.982	100.69
287.213	88.69
287.444	87.69
287.675	99.69
287.906	82.69
288.138	87.69
288.369	91.69
288.6	100.69
288.831	98.69
289.062	92.69
289.293	84.69
289.524	98.69
289.755	78.69
289.986	91.69
290.217	90.69
290.448	99.69
290.679	86.69
290.91	86.69
291.141	80.69
291.371	91.69
291.602	86.69
291.833	88.69
292.064	94.69
292.295	75.69
292.526	93.69
292.757	102.69
292.987	87.69
293.218	95.69
293.449	90.69
293.68	84.69
293.91	100.69
294.141	97.69
294.372	93.69
294.603	75.69
294.833	94.69
295.064	86.69
295.295	84.69
295.525	93.69
295.756	106.69
295.987	137.69
296.217	176.69
296.448	143.69
296.679	93.69
296.909	104.69
297.14	89.69
297.37	95.69
297.601	98.69
297.831	92.69
298.062	78.69
298.292	101.69
298.523	96.69
298.753	93.69
298.984	95.69
299.214	97.69
299.445	95.69
299.675	97.69
299.905	102.69
300.136	91.69
300.366	102.69
300.597	89.69
300.827	88.69
301.057	89.69
301.288	104.69
301.518	104.69
301.748	90.69
301.979	97.69
302.209	93.69
302.439	92.69
302.669	89.69
302.9	98.69
303.13	106.69
303.36	107.69
303.59	124.69
303.82	113.69
304.051	93.69
304.281	89.69
304.511	83.69
304.741	105.69
304.971	91.69
305.201	89.69
305.431	82.69
305.661	103.69
305.891	91.69
306.121	101.69
306.352	120.69
306.582	124.69
306.812	96.69
307.042	109.69
307.272	136.69
307.502	145.69
307.731	125.69
307.961	99.69
308.191	90.69
308.421	96.69
308.651	95.69
308.881	92.69
309.111	87.69
309.341	96.69
309.571	102.69
309.8	107.69
310.03	106.69
310.26	112.69
310.49	115.69
310.72	100.69
310.949	102.69
311.179	119.69
311.409	98.69
311.639	109.69
311.868	110.69
312.098	102.69
312.328	107.69
312.557	123.69
312.787	118.69
313.017	121.69
313.246	119.69
313.476	89.69
313.706	80.69
313.935	104.69
314.165	121.69
314.394	99.69
314.624	103.69
314.853	108.69
315.083	97.69
315.312	106.69
315.542	108.69
315.771	80.69
316.001	104.69
316.23	81.69
316.46	100.69
316.689	95.69
316.919	101.69
317.148	111.69
317.377	104.69
317.607	95.69
317.836	87.69
318.065	91.69
318.295	100.69
318.524	101.69
318.753	96.69
318.983	90.69
319.212	103.69
319.441	107.69
319.67	116.69
319.9	123.69
320.129	96.69
320.358	99.69
320.587	98.69
320.816	98.69
321.046	122.69
321.275	101.69
321.504	100.69
321.733	105.69
321.962	92.69
322.191	104.69
322.42	96.69
322.649	114.69
322.878	111.69
323.108	127.69
323.337	142.69
323.566	154.69
323.795	189.69
324.024	253.69
324.253	477.69
324.482	1079.69
324.71	2299.69
324.939	3127.69
325.168	1116.69
325.397	308.69
325.626	187.69
325.855	141.69
326.084	125.69
326.313	152.69
326.542	187.69
326.77	285.69
326.999	566.69
327.228	1199.69
327.457	2217.69
327.686	1801.69
327.914	529.69
328.143	360.69
328.372	425.69
328.6	274.69
328.829	179.69
329.058	176.69
329.287	196.69
329.515	155.69
329.744	175.69
329.972	265.69
330.201	517.69
330.43	763.69
330.658	394.69
330.887	241.69
331.115	189.69
331.344	116.69
331.572	120.69
331.801	117.69
332.03	132.69
332.258	98.69
332.486	113.69
332.715	108.69
332.943	110.69
333.172	111.69
333.4	135.69
333.629	125.69
333.857	183.69
334.085	265.69
334.314	472.69
334.542	943.69
334.771	910.69
334.999	286.69
335.227	140.69
335.455	105.69
335.684	121.69
335.912	111.69
336.14	90.69
336.369	120.69
336.597	109.69
336.825	107.69
337.053	96.69
337.281	97.69
337.51	87.69
337.738	115.69
337.966	97.69
338.194	109.69
338.422	107.69
338.65	79.69
338.878	96.69
339.106	91.69
339.334	83.69
339.562	109.69
339.79	88.69
340.018	85.69
340.246	98.69
340.474	101.69
340.702	101.69
340.93	94.69
341.158	89.69
341.386	107.69
341.614	89.69
341.842	103.69
342.07	94.69
342.298	96.69
342.526	92.69
342.754	100.69
342.981	96.69
343.209	95.69
343.437	102.69
343.665	92.69
343.893	84.69
344.12	92.69
344.348	91.69
344.576	96.69
344.804	99.69
345.031	108.69
345.259	113.69
345.487	95.69
345.714	104.69
345.942	98.69
346.17	87.69
346.397	103.69
346.625	102.69
346.853	114.69
347.08	104.69
347.308	98.69
347.535	102.69
347.763	100.69
347.99	97.69
348.218	120.69
348.445	118.69
348.673	115.69
348.9	98.69
349.128	102.69
349.355	95.69
349.583	97.69
349.81	100.69
350.037	106.69
350.265	100.69
350.492	92.69
350.72	101.69
350.947	90.69
351.174	98.69
351.402	114.69
351.629	114.69
351.856	113.69
352.083	106.69
352.311	113.69
352.538	119.69
352.765	111.69
352.992	119.69
353.22	111.69
353.447	108.69
353.674	112.69
353.901	96.69
354.128	98.69
354.355	112.69
354.583	99.69
354.81	97.69
355.037	91.69
355.264	96.69
355.491	102.69
355.718	98.69
355.945	93.69
356.172	97.69
356.399	95.69
356.626	91.69
356.853	95.69
357.08	83.69
357.307	91.69
357.534	99.69
357.761	99.69
357.988	89.69
358.215	100.69
358.441	85.69
358.668	96.69
358.895	89.69
359.122	90.69
359.349	99.69
359.576	111.69
359.802	107.69
360.029	157.69
360.256	137.69
360.483	128.69
360.709	99.69
360.936	94.69
361.163	97.69
361.39	94.69
361.616	104.69
361.843	87.69
362.07	105.69
362.296	95.69
362.523	94.69
362.749	98.69
362.976	107.69
363.203	84.69
363.429	98.69
363.656	92.69
363.882	94.69
364.109	91.69
364.335	102.69
364.562	99.69
364.788	100.69
365.015	119.69
365.241	103.69
365.468	126.69
365.694	128.69
365.92	109.69
366.147	95.69
366.373	109.69
366.599	83.69
366.826	84.69
367.052	81.69
367.278	89.69
367.505	94.69
367.731	90.69
367.957	100.69
368.184	105.69
368.41	111.69
368.636	144.69
368.862	141.69
369.089	111.69
369.315	99.69
369.541	95.69
369.767	107.69
369.993	98.69
370.219	98.69
370.445	96.69
370.672	88.69
370.898	75.69
371.124	99.69
371.35	85.69
371.576	98.69
371.802	90.69
372.028	88.69
372.254	89.69
372.48	95.69
372.706	86.69
372.932	89.69
373.158	93.69
373.384	92.69
373.61	78.69
373.835	90.69
374.061	89.69
374.287	93.69
374.513	95.69
374.739	95.69
374.965	84.69
375.191	91.69
375.416	98.69
375.642	92.69
375.868	94.69
376.094	89.69
376.319	90.69
376.545	91.69
376.771	100.69
376.997	106.69
377.222	98.69
377.448	104.69
377.674	99.69
377.899	84.69
378.125	89.69
378.35	90.69
378.576	89.69
378.802	97.69
379.027	95.69
379.253	86.69
379.478	85.69
379.704	101.69
379.929	94.69
380.155	113.69
380.38	96.69
380.606	88.69
380.831	90.69
381.057	100.69
381.282	99.69
381.507	105.69
381.733	112.69
381.958	111.69
382.184	101.69
382.409	112.69
382.634	109.69
382.86	104.69
383.085	100.69
383.31	89.69
383.535	104.69
383.761	101.69
383.986	106.69
384.211	100.69
384.436	106.69
384.662	101.69
384.887	121.69
385.112	119.69
385.337	106.69
385.562	111.69
385.787	129.69
386.013	120.69
386.238	136.69
386.463	122.69
386.688	116.69
386.913	108.69
387.138	114.69
387.363	101.69
387.588	104.69
387.813	121.69
388.038	109.69
388.263	124.69
388.488	124.69
388.713	111.69
388.938	99.69
389.163	99.69
389.387	96.69
389.612	92.69
389.837	89.69
390.062	101.69
390.287	91.69
390.512	100.69
390.736	90.69
390.961	100.69
391.186	107.69
391.411	89.69
391.636	88.69
391.86	99.69
392.085	96.69
392.31	88.69
392.534	94.69
392.759	90.69
392.984	83.69
393.208	88.69
393.433	102.69
393.658	81.69
393.882	103.69
394.107	83.69
394.331	96.69
394.556	93.69
394.78	92.69
395.005	75.69
395.229	97.69
395.454	93.69
395.678	90.69
395.903	92.69
396.127	92.69
396.352	96.69
396.576	93.69
396.801	82.69
397.025	92.69
397.249	84.69
397.474	90.69
397.698	83.69
397.922	82.69
398.147	93.69
398.371	105.69
398.595	73.69
398.82	72.69
399.044	82.69
399.268	94.69
399.492	85.69
399.717	95.69
399.941	95.69
400.165	113.69
400.389	100.69
400.613	100.69
400.837	91.69
401.062	90.69
401.286	82.69
401.51	118.69
401.734	79.69
401.958	106.69
402.182	163.69
402.406	199.69
402.63	145.69
402.854	102.69
403.078	91.69
403.302	83.69
403.526	85.69
403.75	90.69
403.974	76.69
404.198	92.69
404.422	90.69
404.645	88.69
404.869	90.69
405.093	107.69
405.317	125.69
405.541	131.69
405.765	123.69
405.988	134.69
406.212	213.69
406.436	335.69
406.66	211.69
406.883	125.69
407.107	122.69
407.331	106.69
407.555	109.69
407.778	122.69
408.002	95.69
408.226	90.69
408.449	94.69
408.673	95.69
408.896	93.69
409.12	107.69
409.344	95.69
409.567	89.69
409.791	102.69
410.014	98.69
410.238	96.69
410.461	103.69
410.685	107.69
410.908	101.69
411.132	110.69
411.355	111.69
411.578	104.69
411.802	91.69
412.025	86.69
412.249	99.69
412.472	111.69
412.695	123.69
412.919	100.69
413.142	97.69
413.365	89.69
413.589	84.69
413.812	85.69
414.035	84.69
414.258	84.69
414.482	83.69
414.705	98.69
414.928	101.69
415.151	96.69
415.374	92.69
415.597	91.69
415.821	84.69
416.044	89.69
416.267	89.69
416.49	78.69
416.713	80.69
416.936	82.69
417.159	97.69
417.382	80.69
417.605	95.69
417.828	106.69
418.051	91.69
418.274	82.69
418.497	105.69
418.72	99.69
418.943	82.69
419.166	77.69
419.389	89.69
419.611	103.69
419.834	85.69
420.057	102.69
420.28	86.69
420.503	100.69
420.726	99.69
420.948	90.69
421.171	106.69
421.394	95.69
421.617	88.69
421.839	80.69
422.062	99.69
422.285	106.69
422.507	104.69
422.73	99.69
422.953	93.69
423.175	88.69
423.398	102.69
423.621	87.69
423.843	99.69
424.066	89.69
424.288	80.69
424.511	110.69
424.733	109.69
424.956	131.69
425.178	123.69
425.401	109.69
425.623	119.69
425.846	101.69
426.068	119.69
426.291	118.69
426.513	95.69
426.735	94.69
426.958	97.69
427.18	136.69
427.402	178.69
427.625	255.69
427.847	243.69
428.069	197.69
428.292	122.69
428.514	101.69
428.736	101.69
428.958	76.69
429.181	89.69
429.403	103.69
429.625	95.69
429.847	102.69
430.069	112.69
430.292	99.69
430.514	85.69
430.736	89.69
430.958	82.69
431.18	76.69
431.402	91.69
431.624	76.69
431.846	86.69
432.068	104.69
432.29	96.69
432.512	92.69
432.734	78.69
432.956	102.69
433.178	98.69
433.4	118.69
433.622	97.69
433.844	89.69
434.066	99.69
434.287	105.69
434.509	90.69
434.731	96.69
434.953	87.69
435.175	74.69
435.397	91.69
435.618	94.69
435.84	108.69
436.062	153.69
436.284	131.69
436.505	102.69
436.727	115.69
436.949	99.69
437.17	83.69
437.392	83.69
437.614	92.69
437.835	109.69
438.057	137.69
438.278	128.69
438.5	119.69
438.721	135.69
438.943	103.69
439.165	87.69
439.386	85.69
439.608	89.69
439.829	117.69
440.05	152.69
440.272	205.69
440.493	119.69
440.715	79.69
440.936	85.69
441.158	99.69
441.379	103.69
441.6	91.69
441.822	102.69
442.043	112.69
442.264	99.69
442.486	114.69
442.707	105.69
442.928	117.69
443.149	179.69
443.371	184.69
443.592	136.69
443.813	143.69
444.034	119.69
444.255	103.69
444.476	96.69
444.698	102.69
444.919	93.69
445.14	133.69
445.361	116.69
445.582	152.69
445.803	181.69
446.024	177.69
446.245	165.69
446.466	128.69
446.687	90.69
446.908	90.69
447.129	98.69
447.35	100.69
447.571	94.69
447.792	107.69
448.013	123.69
448.234	109.69
448.455	107.69
448.675	139.69
448.896	127.69
449.117	112.69
449.338	105.69
449.559	146.69
449.779	145.69
450	106.69
450.221	97.69
450.442	102.69
450.662	95.69
450.883	129.69
451.104	127.69
451.324	109.69
451.545	82.69
451.766	101.69
451.986	93.69
452.207	93.69
452.428	97.69
452.648	107.69
452.869	126.69
453.089	127.69
453.31	132.69
453.53	93.69
453.751	88.69
453.971	125.69
454.192	143.69
454.412	87.69
454.633	89.69
454.853	92.69
455.073	97.69
455.294	100.69
455.514	107.69
455.734	79.69
455.955	77.69
456.175	84.69
456.395	87.69
456.616	87.69
456.836	95.69
457.056	90.69
457.276	89.69
457.497	81.69
457.717	94.69
457.937	92.69
458.157	86.69
458.377	91.69
458.598	137.69
458.818	199.69
459.038	220.69
459.258	160.69
459.478	112.69
459.698	88.69
459.918	79.69
460.138	79.69
460.358	74.69
460.578	94.69
460.798	95.69
461.018	91.69
461.238	86.69
461.458	96.69
461.678	85.69
461.898	78.69
462.118	88.69
462.338	90.69
462.558	77.69
462.777	107.69
462.997	101.69
463.217	93.69
463.437	112.69
463.657	94.69
463.876	89.69
464.096	108.69
464.316	101.69
464.536	106.69
464.755	105.69
464.975	141.69
465.195	224.69
465.414	243.69
465.634	119.69
465.854	97.69
466.073	98.69
466.293	88.69
466.512	90.69
466.732	89.69
466.951	97.69
467.171	96.69
467.391	106.69
467.61	118.69
467.829	145.69
468.049	296.69
468.268	451.69
468.488	159.69
468.707	95.69
468.927	79.69
469.146	92.69
469.365	99.69
469.585	104.69
469.804	110.69
470.023	101.69
470.243	92.69
470.462	123.69
470.681	140.69
470.901	97.69
471.12	85.69
471.339	90.69
471.558	94.69
471.777	110.69
471.997	167.69
472.216	544.69
472.435	1249.69
472.654	326.69
472.873	118.69
473.092	109.69
473.311	79.69
473.53	100.69
473.749	83.69
473.968	98.69
474.187	122.69
474.406	96.69
474.625	90.69
474.844	106.69
475.063	91.69
475.282	85.69
475.501	93.69
475.72	108.69
475.939	102.69
476.158	91.69
476.377	87.69
476.596	100.69
476.814	104.69
477.033	101.69
477.252	90.69
477.471	96.69
477.69	95.69
477.908	88.69
478.127	90.69
478.346	82.69
478.564	102.69
478.783	113.69
479.002	111.69
479.22	108.69
479.439	127.69
479.658	133.69
479.876	115.69
480.095	105.69
480.313	122.69
480.532	118.69
480.751	169.69
480.969	493.69
481.188	2019.69
481.406	1333.69
481.624	229.69
481.843	109.69
482.061	98.69
482.28	89.69
482.498	83.69
482.717	86.69
482.935	80.69
483.153	100.69
483.372	101.69
483.59	82.69
483.808	78.69
484.027	84.69
484.245	103.69
484.463	99.69
484.681	93.69
484.9	89.69
485.118	91.69
485.336	93.69
485.554	105.69
485.772	98.69
485.99	107.69
486.209	109.69
486.427	112.69
486.645	113.69
486.863	132.69
487.081	116.69
487.299	106.69
487.517	92.69
487.735	101.69
487.953	83.69
488.171	91.69
488.389	88.69
488.607	105.69
488.825	97.69
489.043	102.69
489.261	88.69
489.479	88.69
489.696	99.69
489.914	88.69
490.132	88.69
490.35	96.69
490.568	93.69
490.786	92.69
491.003	96.69
491.221	89.69
491.439	92.69
491.657	98.69
491.874	94.69
492.092	100.69
492.31	85.69
492.527	93.69
492.745	81.69
492.963	97.69
493.18	87.69
493.398	98.69
493.615	95.69
493.833	85.69
494.05	82.69
494.268	89.69
494.485	85.69
494.703	72.69
494.92	99.69
495.138	97.69
495.355	82.69
495.573	88.69
495.79	96.69
496.008	101.69
496.225	91.69
496.442	103.69
496.66	90.69
496.877	97.69
497.094	100.69
497.312	69.69
497.529	95.69
497.746	84.69
497.963	75.69
498.181	92.69
498.398	107.69
498.615	109.69
498.832	94.69
499.049	98.69
499.267	93.69
499.484	90.69
499.701	84.69
499.918	92.69
500.135	74.69
500.352	75.69
500.569	88.69
500.786	103.69
501.003	93.69
501.22	75.69
501.437	100.69
501.654	100.69
501.871	122.69
502.088	96.69
502.305	98.69
502.522	86.69
502.739	77.69
502.956	90.69
503.172	83.69
503.389	103.69
503.606	127.69
503.823	111.69
504.04	84.69
504.256	106.69
504.473	91.69
504.69	88.69
504.907	89.69
505.123	89.69
505.34	88.69
505.557	84.69
505.773	99.69
505.99	87.69
506.207	94.69
506.423	95.69
506.64	90.69
506.856	79.69
507.073	97.69
507.289	104.69
507.506	110.69
507.722	147.69
507.939	131.69
508.155	96.69
508.372	94.69
508.588	89.69
508.805	104.69
509.021	110.69
509.238	93.69
509.454	114.69
509.67	118.69
509.887	123.69
510.103	160.69
510.319	273.69
510.536	973.69
510.752	3411.69
510.968	920.69
511.184	185.69
511.401	113.69
511.617	108.69
511.833	106.69
512.049	90.69
512.265	86.69
512.481	89.69
512.698	87.69
512.914	94.69
