Data from Circ_2007_H10_HRD10591_00081.txt Node
Date: Wed Jan 03 10:22:13 EST 2024
User: Yrep
Spectrometer: HR+D1059
Trigger mode: 1
Integration Time (sec): 1.000000E-1
Scans to average: 1
Electric dark correction enabled: true
Nonlinearity correction enabled: false
Boxcar width: 0
XAxis mode: Wavelengths
Number of Pixels in Spectrum: 2048
>>>>>Begin Spectral Data<<<<<
223.165	-24.5
223.4	-24.5
223.635	-24.5
223.869	-20.5
224.104	-15.5
224.338	-15.5
224.573	-28.5
224.808	-8.5
225.042	-26.5
225.277	-13.5
225.511	4.5
225.746	12.5
225.98	11.5
226.215	19.5
226.449	13.5
226.683	26.5
226.918	34.5
227.152	30.5
227.387	46.5
227.621	39.5
227.856	41.5
228.09	29.5
228.324	50.5
228.559	37.5
228.793	65.5
229.027	74.5
229.262	65.5
229.496	77.5
229.73	102.5
229.964	104.5
230.199	69.5
230.433	67.5
230.667	75.5
230.901	70.5
231.136	80.5
231.37	78.5
231.604	75.5
231.838	87.5
232.072	87.5
232.306	76.5
232.541	76.5
232.775	75.5
233.009	89.5
233.243	91.5
233.477	76.5
233.711	74.5
233.945	74.5
234.179	67.5
234.413	72.5
234.647	79.5
234.881	83.5
235.115	74.5
235.349	88.5
235.583	76.5
235.817	98.5
236.051	88.5
236.285	82.5
236.519	78.5
236.753	74.5
236.987	91.5
237.221	75.5
237.455	98.5
237.689	73.5
237.922	78.5
238.156	67.5
238.39	76.5
238.624	72.5
238.858	76.5
239.091	68.5
239.325	80.5
239.559	82.5
239.793	68.5
240.027	73.5
240.26	77.5
240.494	84.5
240.728	94.5
240.961	74.5
241.195	89.5
241.429	79.5
241.662	73.5
241.896	70.5
242.13	69.5
242.363	70.5
242.597	78.5
242.83	80.5
243.064	73.5
243.298	82.5
243.531	67.5
243.765	73.5
243.998	60.5
244.232	81.5
244.465	83.5
244.699	81.5
244.932	87.5
245.166	84.5
245.399	78.5
245.633	82.5
245.866	80.5
246.099	74.5
246.333	89.5
246.566	78.5
246.8	67.5
247.033	76.5
247.266	77.5
247.5	74.5
247.733	74.5
247.966	92.5
248.2	83.5
248.433	84.5
248.666	77.5
248.899	80.5
249.133	106.5
249.366	99.5
249.599	105.5
249.832	103.5
250.066	88.5
250.299	76.5
250.532	94.5
250.765	73.5
250.998	84.5
251.231	77.5
251.465	84.5
251.698	82.5
251.931	88.5
252.164	78.5
252.397	86.5
252.63	84.5
252.863	86.5
253.096	78.5
253.329	91.5
253.562	73.5
253.795	89.5
254.028	75.5
254.261	77.5
254.494	64.5
254.727	70.5
254.96	72.5
255.193	61.5
255.426	86.5
255.659	95.5
255.892	97.5
256.124	96.5
256.357	88.5
256.59	83.5
256.823	81.5
257.056	85.5
257.289	97.5
257.521	73.5
257.754	84.5
257.987	90.5
258.22	80.5
258.452	100.5
258.685	82.5
258.918	84.5
259.151	86.5
259.383	98.5
259.616	82.5
259.849	89.5
260.081	84.5
260.314	87.5
260.547	87.5
260.779	104.5
261.012	96.5
261.244	91.5
261.477	94.5
261.71	96.5
261.942	122.5
262.175	147.5
262.407	110.5
262.64	97.5
262.872	90.5
263.105	86.5
263.337	87.5
263.57	88.5
263.802	74.5
264.035	77.5
264.267	83.5
264.499	80.5
264.732	78.5
264.964	84.5
265.197	89.5
265.429	90.5
265.661	87.5
265.894	81.5
266.126	89.5
266.358	84.5
266.591	82.5
266.823	84.5
267.055	82.5
267.287	72.5
267.52	65.5
267.752	84.5
267.984	82.5
268.216	81.5
268.448	87.5
268.681	93.5
268.913	90.5
269.145	82.5
269.377	86.5
269.609	77.5
269.841	91.5
270.073	86.5
270.306	78.5
270.538	106.5
270.77	85.5
271.002	67.5
271.234	95.5
271.466	77.5
271.698	82.5
271.93	76.5
272.162	82.5
272.394	85.5
272.626	83.5
272.858	94.5
273.09	88.5
273.322	91.5
273.553	74.5
273.785	87.5
274.017	78.5
274.249	83.5
274.481	89.5
274.713	86.5
274.945	95.5
275.176	98.5
275.408	93.5
275.64	92.5
275.872	118.5
276.104	99.5
276.335	95.5
276.567	124.5
276.799	132.5
277.031	140.5
277.262	164.5
277.494	122.5
277.726	104.5
277.957	85.5
278.189	86.5
278.421	101.5
278.652	94.5
278.884	84.5
279.115	91.5
279.347	84.5
279.579	89.5
279.81	120.5
280.042	155.5
280.273	197.5
280.505	158.5
280.736	99.5
280.968	92.5
281.199	82.5
281.431	91.5
281.662	88.5
281.894	100.5
282.125	110.5
282.356	136.5
282.588	178.5
282.819	131.5
283.051	105.5
283.282	88.5
283.513	91.5
283.745	92.5
283.976	91.5
284.207	93.5
284.439	94.5
284.67	85.5
284.901	87.5
285.132	72.5
285.364	84.5
285.595	82.5
285.826	84.5
286.057	86.5
286.288	86.5
286.52	89.5
286.751	95.5
286.982	89.5
287.213	79.5
287.444	82.5
287.675	95.5
287.906	91.5
288.138	94.5
288.369	90.5
288.6	102.5
288.831	81.5
289.062	87.5
289.293	72.5
289.524	79.5
289.755	76.5
289.986	84.5
290.217	89.5
290.448	93.5
290.679	99.5
290.91	82.5
291.141	78.5
291.371	87.5
291.602	84.5
291.833	93.5
292.064	74.5
292.295	97.5
292.526	92.5
292.757	86.5
292.987	92.5
293.218	92.5
293.449	87.5
293.68	89.5
293.91	87.5
294.141	89.5
294.372	91.5
294.603	96.5
294.833	98.5
295.064	82.5
295.295	83.5
295.525	101.5
295.756	97.5
295.987	128.5
296.217	152.5
296.448	136.5
296.679	87.5
296.909	100.5
297.14	89.5
297.37	92.5
297.601	76.5
297.831	74.5
298.062	96.5
298.292	78.5
298.523	82.5
298.753	91.5
298.984	89.5
299.214	82.5
299.445	93.5
299.675	91.5
299.905	104.5
300.136	95.5
300.366	90.5
300.597	97.5
300.827	105.5
301.057	99.5
301.288	107.5
301.518	92.5
301.748	82.5
301.979	99.5
302.209	99.5
302.439	102.5
302.669	98.5
302.9	89.5
303.13	92.5
303.36	110.5
303.59	131.5
303.82	126.5
304.051	105.5
304.281	107.5
304.511	95.5
304.741	85.5
304.971	96.5
305.201	78.5
305.431	87.5
305.661	96.5
305.891	105.5
306.121	96.5
306.352	101.5
306.582	114.5
306.812	108.5
307.042	94.5
307.272	132.5
307.502	131.5
307.731	160.5
307.961	103.5
308.191	95.5
308.421	100.5
308.651	91.5
308.881	103.5
309.111	91.5
309.341	106.5
309.571	100.5
309.8	99.5
310.03	110.5
310.26	112.5
310.49	95.5
310.72	97.5
310.949	115.5
311.179	120.5
311.409	88.5
311.639	94.5
311.868	92.5
312.098	92.5
312.328	101.5
312.557	123.5
312.787	127.5
313.017	109.5
313.246	96.5
313.476	95.5
313.706	95.5
313.935	89.5
314.165	121.5
314.394	127.5
314.624	122.5
314.853	98.5
315.083	90.5
315.312	119.5
315.542	92.5
315.771	89.5
316.001	84.5
316.23	84.5
316.46	93.5
316.689	102.5
316.919	78.5
317.148	107.5
317.377	99.5
317.607	99.5
317.836	94.5
318.065	90.5
318.295	89.5
318.524	73.5
318.753	90.5
318.983	92.5
319.212	94.5
319.441	115.5
319.67	126.5
319.9	96.5
320.129	99.5
320.358	95.5
320.587	100.5
320.816	111.5
321.046	119.5
321.275	98.5
321.504	105.5
321.733	108.5
321.962	95.5
322.191	105.5
322.42	113.5
322.649	118.5
322.878	115.5
323.108	117.5
323.337	152.5
323.566	156.5
323.795	203.5
324.024	277.5
324.253	530.5
324.482	1194.5
324.71	2567.5
324.939	3402.5
325.168	1186.5
325.397	322.5
325.626	177.5
325.855	153.5
326.084	143.5
326.313	148.5
326.542	183.5
326.77	317.5
326.999	647.5
327.228	1344.5
327.457	2475.5
327.686	1983.5
327.914	590.5
328.143	468.5
328.372	540.5
328.6	325.5
328.829	186.5
329.058	183.5
329.287	180.5
329.515	168.5
329.744	226.5
329.972	408.5
330.201	749.5
330.43	1080.5
330.658	529.5
330.887	272.5
331.115	197.5
331.344	121.5
331.572	115.5
331.801	124.5
332.03	103.5
332.258	102.5
332.486	89.5
332.715	99.5
332.943	112.5
333.172	119.5
333.4	110.5
333.629	152.5
333.857	214.5
334.085	348.5
334.314	689.5
334.542	1362.5
334.771	1322.5
334.999	375.5
335.227	163.5
335.455	114.5
335.684	106.5
335.912	115.5
336.14	101.5
336.369	121.5
336.597	98.5
336.825	106.5
337.053	108.5
337.281	97.5
337.51	88.5
337.738	101.5
337.966	104.5
338.194	99.5
338.422	121.5
338.65	91.5
338.878	86.5
339.106	110.5
339.334	102.5
339.562	105.5
339.79	97.5
340.018	88.5
340.246	95.5
340.474	118.5
340.702	87.5
340.93	96.5
341.158	103.5
341.386	99.5
341.614	107.5
341.842	95.5
342.07	103.5
342.298	89.5
342.526	98.5
342.754	83.5
342.981	93.5
343.209	91.5
343.437	109.5
343.665	106.5
343.893	99.5
344.12	96.5
344.348	96.5
344.576	90.5
344.804	115.5
345.031	94.5
345.259	105.5
345.487	93.5
345.714	92.5
345.942	104.5
346.17	96.5
346.397	104.5
346.625	110.5
346.853	88.5
347.08	84.5
347.308	103.5
347.535	100.5
347.763	123.5
347.99	96.5
348.218	110.5
348.445	99.5
348.673	108.5
348.9	97.5
349.128	88.5
349.355	78.5
349.583	102.5
349.81	82.5
350.037	103.5
350.265	92.5
350.492	104.5
350.72	103.5
350.947	115.5
351.174	130.5
351.402	124.5
351.629	121.5
351.856	103.5
352.083	105.5
352.311	107.5
352.538	124.5
352.765	120.5
352.992	110.5
353.22	120.5
353.447	115.5
353.674	92.5
353.901	84.5
354.128	82.5
354.355	92.5
354.583	90.5
354.81	110.5
355.037	97.5
355.264	97.5
355.491	92.5
355.718	89.5
355.945	74.5
356.172	98.5
356.399	95.5
356.626	94.5
356.853	99.5
357.08	88.5
357.307	91.5
357.534	91.5
357.761	100.5
357.988	94.5
358.215	85.5
358.441	99.5
358.668	86.5
358.895	81.5
359.122	105.5
359.349	85.5
359.576	89.5
359.802	97.5
360.029	145.5
360.256	144.5
360.483	132.5
360.709	109.5
360.936	105.5
361.163	110.5
361.39	91.5
361.616	93.5
361.843	95.5
362.07	96.5
362.296	96.5
362.523	100.5
362.749	94.5
362.976	84.5
363.203	96.5
363.429	83.5
363.656	85.5
363.882	84.5
364.109	85.5
364.335	95.5
364.562	89.5
364.788	100.5
365.015	93.5
365.241	103.5
365.468	119.5
365.694	125.5
365.92	101.5
366.147	105.5
366.373	102.5
366.599	101.5
366.826	90.5
367.052	99.5
367.278	97.5
367.505	97.5
367.731	95.5
367.957	98.5
368.184	108.5
368.41	114.5
368.636	132.5
368.862	111.5
369.089	103.5
369.315	97.5
369.541	83.5
369.767	96.5
369.993	92.5
370.219	82.5
370.445	86.5
370.672	85.5
370.898	77.5
371.124	89.5
371.35	80.5
371.576	92.5
371.802	84.5
372.028	77.5
372.254	90.5
372.48	84.5
372.706	96.5
372.932	98.5
373.158	87.5
373.384	88.5
373.61	72.5
373.835	79.5
374.061	81.5
374.287	93.5
374.513	98.5
374.739	80.5
374.965	96.5
375.191	88.5
375.416	81.5
375.642	86.5
375.868	89.5
376.094	87.5
376.319	99.5
376.545	90.5
376.771	91.5
376.997	83.5
377.222	102.5
377.448	85.5
377.674	95.5
377.899	105.5
378.125	92.5
378.35	91.5
378.576	87.5
378.802	80.5
379.027	80.5
379.253	82.5
379.478	75.5
379.704	96.5
379.929	90.5
380.155	80.5
380.38	78.5
380.606	91.5
380.831	98.5
381.057	94.5
381.282	79.5
381.507	97.5
381.733	91.5
381.958	90.5
382.184	92.5
382.409	106.5
382.634	96.5
382.86	99.5
383.085	100.5
383.31	93.5
383.535	95.5
383.761	103.5
383.986	94.5
384.211	94.5
384.436	92.5
384.662	93.5
384.887	100.5
385.112	96.5
385.337	90.5
385.562	98.5
385.787	100.5
386.013	105.5
386.238	108.5
386.463	108.5
386.688	96.5
386.913	92.5
387.138	103.5
387.363	96.5
387.588	87.5
387.813	87.5
388.038	102.5
388.263	97.5
388.488	92.5
388.713	84.5
388.938	82.5
389.163	90.5
389.387	105.5
389.612	89.5
389.837	103.5
390.062	95.5
390.287	81.5
390.512	77.5
390.736	82.5
390.961	82.5
391.186	99.5
391.411	90.5
391.636	81.5
391.86	99.5
392.085	84.5
392.31	94.5
392.534	87.5
392.759	98.5
392.984	88.5
393.208	89.5
393.433	95.5
393.658	82.5
393.882	91.5
394.107	78.5
394.331	99.5
394.556	92.5
394.78	82.5
395.005	98.5
395.229	79.5
395.454	87.5
395.678	94.5
395.903	82.5
396.127	94.5
396.352	98.5
396.576	102.5
396.801	84.5
397.025	90.5
397.249	79.5
397.474	90.5
397.698	76.5
397.922	92.5
398.147	91.5
398.371	84.5
398.595	86.5
398.82	86.5
399.044	88.5
399.268	77.5
399.492	86.5
399.717	93.5
399.941	92.5
400.165	90.5
400.389	98.5
400.613	98.5
400.837	88.5
401.062	76.5
401.286	94.5
401.51	90.5
401.734	89.5
401.958	102.5
402.182	140.5
402.406	179.5
402.63	149.5
402.854	107.5
403.078	90.5
403.302	93.5
403.526	99.5
403.75	90.5
403.974	96.5
404.198	93.5
404.422	104.5
404.645	87.5
404.869	96.5
405.093	107.5
405.317	138.5
405.541	130.5
405.765	112.5
405.988	127.5
406.212	197.5
406.436	279.5
406.66	189.5
406.883	120.5
407.107	114.5
407.331	125.5
407.555	109.5
407.778	111.5
408.002	96.5
408.226	107.5
408.449	87.5
408.673	82.5
408.896	100.5
409.12	118.5
409.344	88.5
409.567	90.5
409.791	90.5
410.014	100.5
410.238	90.5
410.461	86.5
410.685	71.5
410.908	88.5
411.132	104.5
411.355	93.5
411.578	83.5
411.802	79.5
412.025	93.5
412.249	93.5
412.472	114.5
412.695	132.5
412.919	107.5
413.142	87.5
413.365	78.5
413.589	88.5
413.812	93.5
414.035	99.5
414.258	90.5
414.482	70.5
414.705	90.5
414.928	92.5
415.151	91.5
415.374	75.5
415.597	96.5
415.821	91.5
416.044	90.5
416.267	83.5
416.49	86.5
416.713	89.5
416.936	89.5
417.159	89.5
417.382	89.5
417.605	96.5
417.828	118.5
418.051	97.5
418.274	98.5
418.497	83.5
418.72	78.5
418.943	92.5
419.166	92.5
419.389	85.5
419.611	82.5
419.834	84.5
420.057	81.5
420.28	74.5
420.503	92.5
420.726	88.5
420.948	97.5
421.171	96.5
421.394	101.5
421.617	76.5
421.839	88.5
422.062	91.5
422.285	92.5
422.507	98.5
422.73	128.5
422.953	91.5
423.175	83.5
423.398	100.5
423.621	83.5
423.843	85.5
424.066	115.5
424.288	105.5
424.511	81.5
424.733	95.5
424.956	131.5
425.178	114.5
425.401	126.5
425.623	110.5
425.846	94.5
426.068	93.5
426.291	98.5
426.513	84.5
426.735	79.5
426.958	103.5
427.18	140.5
427.402	184.5
427.625	266.5
427.847	235.5
428.069	206.5
428.292	125.5
428.514	94.5
428.736	100.5
428.958	82.5
429.181	88.5
429.403	85.5
429.625	84.5
429.847	96.5
430.069	111.5
430.292	92.5
430.514	91.5
430.736	82.5
430.958	71.5
431.18	78.5
431.402	73.5
431.624	96.5
431.846	73.5
432.068	83.5
432.29	88.5
432.512	88.5
432.734	83.5
432.956	98.5
433.178	105.5
433.4	101.5
433.622	90.5
433.844	78.5
434.066	90.5
434.287	88.5
434.509	99.5
434.731	86.5
434.953	74.5
435.175	83.5
435.397	84.5
435.618	95.5
435.84	118.5
436.062	151.5
436.284	140.5
436.505	134.5
436.727	99.5
436.949	104.5
437.17	90.5
437.392	92.5
437.614	98.5
437.835	126.5
438.057	146.5
438.278	142.5
438.5	132.5
438.721	150.5
438.943	100.5
439.165	80.5
439.386	88.5
439.608	95.5
439.829	130.5
440.05	163.5
440.272	198.5
440.493	111.5
440.715	87.5
440.936	82.5
441.158	84.5
441.379	95.5
441.6	94.5
441.822	99.5
442.043	98.5
442.264	124.5
442.486	114.5
442.707	88.5
442.928	112.5
443.149	167.5
443.371	170.5
443.592	139.5
443.813	145.5
444.034	132.5
444.255	98.5
444.476	110.5
444.698	107.5
444.919	88.5
445.14	146.5
445.361	129.5
445.582	153.5
445.803	206.5
446.024	195.5
446.245	210.5
446.466	151.5
446.687	97.5
446.908	94.5
447.129	88.5
447.35	76.5
447.571	95.5
447.792	104.5
448.013	101.5
448.234	132.5
448.455	132.5
448.675	144.5
448.896	152.5
449.117	105.5
449.338	124.5
449.559	172.5
449.779	177.5
450	106.5
450.221	92.5
450.442	93.5
450.662	98.5
450.883	129.5
451.104	142.5
451.324	98.5
451.545	82.5
451.766	89.5
451.986	79.5
452.207	91.5
452.428	90.5
452.648	103.5
452.869	113.5
453.089	124.5
453.31	152.5
453.53	99.5
453.751	114.5
453.971	108.5
454.192	125.5
454.412	98.5
454.633	85.5
454.853	91.5
455.073	66.5
455.294	97.5
455.514	119.5
455.734	88.5
455.955	87.5
456.175	92.5
456.395	72.5
456.616	74.5
456.836	95.5
457.056	86.5
457.276	83.5
457.497	80.5
457.717	82.5
457.937	97.5
458.157	90.5
458.377	93.5
458.598	104.5
458.818	203.5
459.038	229.5
459.258	148.5
459.478	105.5
459.698	84.5
459.918	89.5
460.138	78.5
460.358	81.5
460.578	91.5
460.798	95.5
461.018	87.5
461.238	92.5
461.458	87.5
461.678	79.5
461.898	87.5
462.118	88.5
462.338	74.5
462.558	82.5
462.777	75.5
462.997	94.5
463.217	93.5
463.437	92.5
463.657	94.5
463.876	87.5
464.096	91.5
464.316	82.5
464.536	98.5
464.755	100.5
464.975	131.5
465.195	224.5
465.414	222.5
465.634	112.5
465.854	83.5
466.073	87.5
466.293	87.5
466.512	81.5
466.732	85.5
466.951	98.5
467.171	104.5
467.391	103.5
467.61	134.5
467.829	166.5
468.049	398.5
468.268	586.5
468.488	169.5
468.707	90.5
468.927	93.5
469.146	89.5
469.365	95.5
469.585	100.5
469.804	85.5
470.023	115.5
470.243	111.5
470.462	111.5
470.681	140.5
470.901	98.5
471.12	91.5
471.339	100.5
471.558	118.5
471.777	115.5
471.997	204.5
472.216	751.5
472.435	1746.5
472.654	439.5
472.873	136.5
473.092	105.5
473.311	86.5
473.53	85.5
473.749	88.5
473.968	112.5
474.187	126.5
474.406	111.5
474.625	98.5
474.844	88.5
475.063	85.5
475.282	95.5
475.501	95.5
475.72	95.5
475.939	85.5
476.158	87.5
476.377	89.5
476.596	92.5
476.814	112.5
477.033	97.5
477.252	89.5
477.471	93.5
477.69	78.5
477.908	80.5
478.127	87.5
478.346	91.5
478.564	92.5
478.783	107.5
479.002	105.5
479.22	97.5
479.439	121.5
479.658	141.5
479.876	116.5
480.095	124.5
480.313	104.5
480.532	125.5
480.751	217.5
480.969	700.5
481.188	3016.5
481.406	1838.5
481.624	298.5
481.843	129.5
482.061	98.5
482.28	92.5
482.498	78.5
482.717	89.5
482.935	95.5
483.153	81.5
483.372	83.5
483.59	94.5
483.808	87.5
484.027	88.5
484.245	92.5
484.463	100.5
484.681	84.5
484.9	83.5
485.118	102.5
485.336	94.5
485.554	89.5
485.772	98.5
485.99	113.5
486.209	99.5
486.427	107.5
486.645	110.5
486.863	126.5
487.081	123.5
487.299	89.5
487.517	88.5
487.735	97.5
487.953	100.5
488.171	108.5
488.389	101.5
488.607	97.5
488.825	83.5
489.043	80.5
489.261	91.5
489.479	83.5
489.696	82.5
489.914	92.5
490.132	91.5
490.35	88.5
490.568	81.5
490.786	103.5
491.003	90.5
491.221	96.5
491.439	93.5
491.657	103.5
491.874	83.5
492.092	79.5
492.31	81.5
492.527	96.5
492.745	83.5
492.963	98.5
493.18	105.5
493.398	91.5
493.615	84.5
493.833	88.5
494.05	85.5
494.268	83.5
494.485	88.5
494.703	88.5
494.92	89.5
495.138	87.5
495.355	84.5
495.573	102.5
495.79	83.5
496.008	96.5
496.225	82.5
496.442	93.5
496.66	79.5
496.877	82.5
497.094	98.5
497.312	84.5
497.529	95.5
497.746	94.5
497.963	87.5
498.181	91.5
498.398	105.5
498.615	112.5
498.832	114.5
499.049	103.5
499.267	78.5
499.484	88.5
499.701	95.5
499.918	95.5
500.135	85.5
500.352	91.5
500.569	88.5
500.786	79.5
501.003	92.5
501.22	87.5
501.437	97.5
501.654	102.5
501.871	135.5
502.088	101.5
502.305	91.5
502.522	99.5
502.739	104.5
502.956	97.5
503.172	99.5
503.389	115.5
503.606	114.5
503.823	97.5
504.04	95.5
504.256	94.5
504.473	85.5
504.69	91.5
504.907	92.5
505.123	87.5
505.34	92.5
505.557	95.5
505.773	100.5
505.99	96.5
506.207	85.5
506.423	89.5
506.64	88.5
506.856	98.5
507.073	103.5
507.289	102.5
507.506	96.5
507.722	132.5
507.939	138.5
508.155	90.5
508.372	99.5
508.588	82.5
508.805	108.5
509.021	90.5
509.238	96.5
509.454	97.5
509.67	92.5
509.887	101.5
510.103	136.5
510.319	231.5
510.536	827.5
510.752	2939.5
510.968	819.5
511.184	170.5
511.401	138.5
511.617	102.5
511.833	99.5
512.049	95.5
512.265	83.5
512.481	100.5
512.698	92.5
512.914	92.5
513.13	73.5
513.346	92.5
513.562	109.5
513.778	113.5
513.994	97.5
514.21	113.5
514.426	146.5
514.642	166.5
514.858	163.5
515.074	220.5
515.29	651.5
515.506	2310.5
515.721	864.5
515.937	203.5
516.153	139.5
516.369	113.5
516.585	98.5
516.801	105.5
517.016	102.5
517.232	88.5
517.448	93.5
517.664	104.5
517.879	93.5
518.095	82.5
518.311	103.5
518.527	107.5
518.742	100.5
518.958	92.5
519.173	86.5
519.389	80.5
519.605	105.5
519.82	95.5
520.036	108.5
520.251	148.5
520.467	139.5
520.682	127.5
520.898	113.5
521.113	132.5
521.329	187.5
521.544	296.5
521.76	888.5
521.975	3950.5
522.19	2364.5
522.406	465.5
522.621	191.5
522.836	115.5
523.052	111.5
523.267	85.5
523.482	107.5
523.698	100.5
523.913	150.5
524.128	108.5
524.343	102.5
524.559	99.5
524.774	107.5
524.989	92.5
525.204	112.5
525.419	106.5
525.634	98.5
525.849	78.5
526.064	78.5
526.28	94.5
526.495	93.5
526.71	81.5
526.925	90.5
527.14	98.5
527.355	91.5
527.57	87.5
527.785	98.5
527.999	94.5
528.214	78.5
528.429	97.5
528.644	91.5
528.859	98.5
529.074	113.5
529.289	161.5
529.503	266.5
529.718	106.5
529.933	94.5
530.148	92.5
530.363	92.5
530.577	92.5
530.792	84.5
531.007	99.5
531.221	94.5
531.436	101.5
531.651	86.5
531.865	94.5
532.08	86.5
532.295	91.5
532.509	77.5
532.724	89.5
532.938	92.5
533.153	95.5
533.367	93.5
