Data from Circ_2007_H10_HRD10591_00042.txt Node
Date: Wed Jan 03 10:22:05 EST 2024
User: Yrep
Spectrometer: HR+D1059
Trigger mode: 1
Integration Time (sec): 1.000000E-1
Scans to average: 1
Electric dark correction enabled: true
Nonlinearity correction enabled: false
Boxcar width: 0
XAxis mode: Wavelengths
Number of Pixels in Spectrum: 2048
>>>>>Begin Spectral Data<<<<<
223.165	-13.81
223.4	-13.81
223.635	-13.81
223.869	-27.81
224.104	-24.81
224.338	-30.81
224.573	-21.81
224.808	-17.81
225.042	-17.81
225.277	1.19
225.511	5.19
225.746	2.19
225.98	14.19
226.215	19.19
226.449	19.19
226.683	29.19
226.918	31.19
227.152	33.19
227.387	45.19
227.621	39.19
227.856	47.19
228.09	41.19
228.324	47.19
228.559	54.19
228.793	65.19
229.027	67.19
229.262	73.19
229.496	83.19
229.73	108.19
229.964	102.19
230.199	62.19
230.433	67.19
230.667	94.19
230.901	67.19
231.136	88.19
231.37	83.19
231.604	83.19
231.838	84.19
232.072	83.19
232.306	86.19
232.541	80.19
232.775	86.19
233.009	76.19
233.243	88.19
233.477	78.19
233.711	80.19
233.945	68.19
234.179	82.19
234.413	76.19
234.647	82.19
234.881	79.19
235.115	78.19
235.349	87.19
235.583	81.19
235.817	75.19
236.051	85.19
236.285	95.19
236.519	80.19
236.753	77.19
236.987	75.19
237.221	93.19
237.455	89.19
237.689	97.19
237.922	84.19
238.156	87.19
238.39	76.19
238.624	86.19
238.858	82.19
239.091	80.19
239.325	85.19
239.559	91.19
239.793	83.19
240.027	72.19
240.26	79.19
240.494	82.19
240.728	64.19
240.961	82.19
241.195	82.19
241.429	82.19
241.662	63.19
241.896	87.19
242.13	81.19
242.363	77.19
242.597	70.19
242.83	80.19
243.064	77.19
243.298	82.19
243.531	65.19
243.765	74.19
243.998	74.19
244.232	92.19
244.465	90.19
244.699	79.19
244.932	61.19
245.166	78.19
245.399	96.19
245.633	93.19
245.866	94.19
246.099	84.19
246.333	81.19
246.566	82.19
246.8	92.19
247.033	82.19
247.266	68.19
247.5	74.19
247.733	86.19
247.966	80.19
248.2	83.19
248.433	72.19
248.666	72.19
248.899	81.19
249.133	89.19
249.366	112.19
249.599	113.19
249.832	76.19
250.066	77.19
250.299	96.19
250.532	92.19
250.765	82.19
250.998	91.19
251.231	76.19
251.465	80.19
251.698	77.19
251.931	107.19
252.164	99.19
252.397	81.19
252.63	87.19
252.863	82.19
253.096	70.19
253.329	85.19
253.562	87.19
253.795	68.19
254.028	100.19
254.261	68.19
254.494	88.19
254.727	91.19
254.96	87.19
255.193	83.19
255.426	80.19
255.659	81.19
255.892	79.19
256.124	88.19
256.357	79.19
256.59	88.19
256.823	82.19
257.056	86.19
257.289	91.19
257.521	80.19
257.754	87.19
257.987	94.19
258.22	94.19
258.452	106.19
258.685	91.19
258.918	94.19
259.151	73.19
259.383	89.19
259.616	86.19
259.849	79.19
260.081	80.19
260.314	80.19
260.547	92.19
260.779	88.19
261.012	102.19
261.244	114.19
261.477	102.19
261.71	107.19
261.942	143.19
262.175	179.19
262.407	91.19
262.64	83.19
262.872	89.19
263.105	102.19
263.337	85.19
263.57	92.19
263.802	81.19
264.035	99.19
264.267	82.19
264.499	87.19
264.732	79.19
264.964	83.19
265.197	76.19
265.429	86.19
265.661	86.19
265.894	73.19
266.126	94.19
266.358	74.19
266.591	65.19
266.823	80.19
267.055	89.19
267.287	88.19
267.52	71.19
267.752	70.19
267.984	82.19
268.216	82.19
268.448	77.19
268.681	74.19
268.913	84.19
269.145	79.19
269.377	80.19
269.609	84.19
269.841	83.19
270.073	94.19
270.306	85.19
270.538	92.19
270.77	76.19
271.002	85.19
271.234	93.19
271.466	93.19
271.698	79.19
271.93	84.19
272.162	81.19
272.394	88.19
272.626	86.19
272.858	93.19
273.09	96.19
273.322	75.19
273.553	84.19
273.785	86.19
274.017	85.19
274.249	89.19
274.481	89.19
274.713	98.19
274.945	93.19
275.176	86.19
275.408	102.19
275.64	114.19
275.872	114.19
276.104	118.19
276.335	118.19
276.567	122.19
276.799	169.19
277.031	174.19
277.262	168.19
277.494	140.19
277.726	107.19
277.957	89.19
278.189	88.19
278.421	102.19
278.652	86.19
278.884	86.19
279.115	91.19
279.347	91.19
279.579	94.19
279.81	120.19
280.042	160.19
280.273	190.19
280.505	161.19
280.736	101.19
280.968	85.19
281.199	84.19
281.431	90.19
281.662	97.19
281.894	91.19
282.125	109.19
282.356	162.19
282.588	204.19
282.819	144.19
283.051	100.19
283.282	90.19
283.513	81.19
283.745	79.19
283.976	95.19
284.207	93.19
284.439	83.19
284.67	91.19
284.901	86.19
285.132	92.19
285.364	86.19
285.595	85.19
285.826	87.19
286.057	92.19
286.288	91.19
286.52	91.19
286.751	77.19
286.982	90.19
287.213	83.19
287.444	97.19
287.675	84.19
287.906	87.19
288.138	88.19
288.369	107.19
288.6	78.19
288.831	99.19
289.062	100.19
289.293	88.19
289.524	84.19
289.755	89.19
289.986	78.19
290.217	93.19
290.448	95.19
290.679	99.19
290.91	72.19
291.141	78.19
291.371	97.19
291.602	87.19
291.833	100.19
292.064	78.19
292.295	98.19
292.526	93.19
292.757	97.19
292.987	91.19
293.218	85.19
293.449	87.19
293.68	98.19
293.91	94.19
294.141	95.19
294.372	100.19
294.603	92.19
294.833	69.19
295.064	87.19
295.295	101.19
295.525	97.19
295.756	99.19
295.987	156.19
296.217	190.19
296.448	170.19
296.679	108.19
296.909	103.19
297.14	100.19
297.37	116.19
297.601	97.19
297.831	100.19
298.062	109.19
298.292	85.19
298.523	79.19
298.753	94.19
298.984	93.19
299.214	96.19
299.445	93.19
299.675	107.19
299.905	113.19
300.136	122.19
300.366	107.19
300.597	87.19
300.827	111.19
301.057	118.19
301.288	123.19
301.518	114.19
301.748	101.19
301.979	112.19
302.209	93.19
302.439	103.19
302.669	100.19
302.9	92.19
303.13	103.19
303.36	109.19
303.59	122.19
303.82	159.19
304.051	108.19
304.281	82.19
304.511	88.19
304.741	75.19
304.971	102.19
305.201	96.19
305.431	81.19
305.661	99.19
305.891	94.19
306.121	108.19
306.352	100.19
306.582	114.19
306.812	114.19
307.042	110.19
307.272	139.19
307.502	155.19
307.731	158.19
307.961	119.19
308.191	106.19
308.421	103.19
308.651	90.19
308.881	91.19
309.111	107.19
309.341	98.19
309.571	100.19
309.8	114.19
310.03	121.19
310.26	118.19
310.49	112.19
310.72	117.19
310.949	138.19
311.179	131.19
311.409	107.19
311.639	115.19
311.868	112.19
312.098	102.19
312.328	117.19
312.557	115.19
312.787	146.19
313.017	135.19
313.246	101.19
313.476	92.19
313.706	106.19
313.935	94.19
314.165	121.19
314.394	125.19
314.624	99.19
314.853	112.19
315.083	121.19
315.312	99.19
315.542	95.19
315.771	95.19
316.001	95.19
316.23	101.19
316.46	104.19
316.689	97.19
316.919	99.19
317.148	116.19
317.377	117.19
317.607	112.19
317.836	115.19
318.065	90.19
318.295	87.19
318.524	81.19
318.753	93.19
318.983	106.19
319.212	103.19
319.441	131.19
319.67	131.19
319.9	108.19
320.129	108.19
320.358	93.19
320.587	104.19
320.816	118.19
321.046	123.19
321.275	113.19
321.504	95.19
321.733	102.19
321.962	103.19
322.191	115.19
322.42	115.19
322.649	134.19
322.878	139.19
323.108	136.19
323.337	151.19
323.566	157.19
323.795	199.19
324.024	276.19
324.253	523.19
324.482	1108.19
324.71	2303.19
324.939	3061.19
325.168	1158.19
325.397	342.19
325.626	177.19
325.855	145.19
326.084	152.19
326.313	144.19
326.542	180.19
326.77	273.19
326.999	585.19
327.228	1117.19
327.457	2085.19
327.686	1716.19
327.914	587.19
328.143	502.19
328.372	569.19
328.6	341.19
328.829	209.19
329.058	217.19
329.287	234.19
329.515	171.19
329.744	218.19
329.972	375.19
330.201	759.19
330.43	1134.19
330.658	549.19
330.887	311.19
331.115	221.19
331.344	131.19
331.572	144.19
331.801	147.19
332.03	129.19
332.258	105.19
332.486	118.19
332.715	112.19
332.943	108.19
333.172	115.19
333.4	131.19
333.629	159.19
333.857	234.19
334.085	362.19
334.314	683.19
334.542	1343.19
334.771	1301.19
334.999	381.19
335.227	157.19
335.455	130.19
335.684	123.19
335.912	115.19
336.14	113.19
336.369	123.19
336.597	129.19
336.825	112.19
337.053	93.19
337.281	112.19
337.51	101.19
337.738	98.19
337.966	98.19
338.194	117.19
338.422	106.19
338.65	92.19
338.878	100.19
339.106	100.19
339.334	86.19
339.562	91.19
339.79	91.19
340.018	102.19
340.246	102.19
340.474	106.19
340.702	122.19
340.93	106.19
341.158	109.19
341.386	110.19
341.614	106.19
341.842	105.19
342.07	78.19
342.298	96.19
342.526	107.19
342.754	90.19
342.981	100.19
343.209	95.19
343.437	104.19
343.665	90.19
343.893	95.19
344.12	103.19
344.348	102.19
344.576	102.19
344.804	103.19
345.031	110.19
345.259	124.19
345.487	96.19
345.714	105.19
345.942	113.19
346.17	94.19
346.397	101.19
346.625	102.19
346.853	98.19
347.08	77.19
347.308	91.19
347.535	112.19
347.763	116.19
347.99	111.19
348.218	115.19
348.445	140.19
348.673	137.19
348.9	111.19
349.128	124.19
349.355	94.19
349.583	91.19
349.81	93.19
350.037	116.19
350.265	92.19
350.492	99.19
350.72	106.19
350.947	111.19
351.174	136.19
351.402	145.19
351.629	131.19
351.856	119.19
352.083	126.19
352.311	122.19
352.538	147.19
352.765	139.19
352.992	140.19
353.22	133.19
353.447	118.19
353.674	122.19
353.901	86.19
354.128	111.19
354.355	94.19
354.583	101.19
354.81	104.19
355.037	94.19
355.264	101.19
355.491	98.19
355.718	108.19
355.945	93.19
356.172	83.19
356.399	110.19
356.626	87.19
356.853	101.19
357.08	90.19
357.307	89.19
357.534	87.19
357.761	92.19
357.988	91.19
358.215	103.19
358.441	97.19
358.668	106.19
358.895	95.19
359.122	101.19
359.349	81.19
359.576	107.19
359.802	127.19
360.029	147.19
360.256	189.19
360.483	140.19
360.709	101.19
360.936	107.19
361.163	114.19
361.39	100.19
361.616	108.19
361.843	95.19
362.07	113.19
362.296	116.19
362.523	110.19
362.749	125.19
362.976	106.19
363.203	93.19
363.429	102.19
363.656	95.19
363.882	89.19
364.109	84.19
364.335	109.19
364.562	101.19
364.788	103.19
365.015	107.19
365.241	103.19
365.468	126.19
365.694	126.19
365.92	102.19
366.147	110.19
366.373	95.19
366.599	90.19
366.826	93.19
367.052	93.19
367.278	115.19
367.505	98.19
367.731	98.19
367.957	91.19
368.184	99.19
368.41	108.19
368.636	133.19
368.862	145.19
369.089	133.19
369.315	93.19
369.541	88.19
369.767	93.19
369.993	104.19
370.219	109.19
370.445	99.19
370.672	89.19
370.898	78.19
371.124	99.19
371.35	87.19
371.576	97.19
371.802	91.19
372.028	91.19
372.254	88.19
372.48	91.19
372.706	84.19
372.932	94.19
373.158	91.19
373.384	101.19
373.61	95.19
373.835	96.19
374.061	100.19
374.287	95.19
374.513	92.19
374.739	85.19
374.965	93.19
375.191	91.19
375.416	94.19
375.642	98.19
375.868	104.19
376.094	108.19
376.319	106.19
376.545	100.19
376.771	83.19
376.997	83.19
377.222	93.19
377.448	90.19
377.674	96.19
377.899	105.19
378.125	89.19
378.35	99.19
378.576	93.19
378.802	79.19
379.027	95.19
379.253	98.19
379.478	86.19
379.704	109.19
379.929	95.19
380.155	109.19
380.38	110.19
380.606	95.19
380.831	106.19
381.057	97.19
381.282	99.19
381.507	90.19
381.733	107.19
381.958	95.19
382.184	107.19
382.409	106.19
382.634	108.19
382.86	92.19
383.085	97.19
383.31	75.19
383.535	106.19
383.761	93.19
383.986	99.19
384.211	94.19
384.436	101.19
384.662	95.19
384.887	93.19
385.112	90.19
385.337	98.19
385.562	113.19
385.787	107.19
386.013	116.19
386.238	124.19
386.463	104.19
386.688	116.19
386.913	116.19
387.138	98.19
387.363	92.19
387.588	98.19
387.813	91.19
388.038	108.19
388.263	126.19
388.488	112.19
388.713	101.19
388.938	87.19
389.163	109.19
389.387	104.19
389.612	105.19
389.837	98.19
390.062	101.19
390.287	76.19
390.512	85.19
390.736	81.19
390.961	90.19
391.186	83.19
391.411	83.19
391.636	97.19
391.86	95.19
392.085	74.19
392.31	90.19
392.534	85.19
392.759	80.19
392.984	83.19
393.208	107.19
393.433	96.19
393.658	102.19
393.882	87.19
394.107	93.19
394.331	93.19
394.556	82.19
394.78	88.19
395.005	97.19
395.229	86.19
395.454	88.19
395.678	83.19
395.903	101.19
396.127	86.19
396.352	92.19
396.576	87.19
396.801	85.19
397.025	77.19
397.249	85.19
397.474	81.19
397.698	97.19
397.922	94.19
398.147	86.19
398.371	86.19
398.595	79.19
398.82	87.19
399.044	90.19
399.268	99.19
399.492	98.19
399.717	93.19
399.941	90.19
400.165	99.19
400.389	82.19
400.613	95.19
400.837	86.19
401.062	86.19
401.286	103.19
401.51	103.19
401.734	114.19
401.958	125.19
402.182	177.19
402.406	262.19
402.63	191.19
402.854	107.19
403.078	98.19
403.302	93.19
403.526	98.19
403.75	95.19
403.974	96.19
404.198	89.19
404.422	99.19
404.645	97.19
404.869	100.19
405.093	102.19
405.317	140.19
405.541	148.19
405.765	120.19
405.988	157.19
406.212	273.19
406.436	433.19
406.66	276.19
406.883	131.19
407.107	114.19
407.331	114.19
407.555	95.19
407.778	119.19
408.002	110.19
408.226	108.19
408.449	89.19
408.673	89.19
408.896	85.19
409.12	100.19
409.344	92.19
409.567	74.19
409.791	87.19
410.014	81.19
410.238	94.19
410.461	99.19
410.685	85.19
410.908	114.19
411.132	117.19
411.355	104.19
411.578	92.19
411.802	82.19
412.025	88.19
412.249	93.19
412.472	107.19
412.695	134.19
412.919	105.19
413.142	88.19
413.365	93.19
413.589	98.19
413.812	107.19
414.035	77.19
414.258	90.19
414.482	100.19
414.705	89.19
414.928	83.19
415.151	103.19
415.374	100.19
415.597	86.19
415.821	91.19
416.044	100.19
416.267	82.19
416.49	85.19
416.713	90.19
416.936	87.19
417.159	93.19
417.382	98.19
417.605	114.19
417.828	123.19
418.051	101.19
418.274	96.19
418.497	98.19
418.72	85.19
418.943	89.19
419.166	93.19
419.389	85.19
419.611	86.19
419.834	99.19
420.057	81.19
420.28	108.19
420.503	85.19
420.726	90.19
420.948	104.19
421.171	116.19
421.394	110.19
421.617	86.19
421.839	83.19
422.062	100.19
422.285	102.19
422.507	96.19
422.73	126.19
422.953	107.19
423.175	84.19
423.398	81.19
423.621	82.19
423.843	87.19
424.066	86.19
424.288	92.19
424.511	100.19
424.733	107.19
424.956	114.19
425.178	125.19
425.401	108.19
425.623	108.19
425.846	111.19
426.068	111.19
426.291	98.19
426.513	96.19
426.735	94.19
426.958	100.19
427.18	117.19
427.402	179.19
427.625	299.19
427.847	249.19
428.069	210.19
428.292	127.19
428.514	97.19
428.736	104.19
428.958	79.19
429.181	98.19
429.403	89.19
429.625	77.19
429.847	96.19
430.069	103.19
430.292	112.19
430.514	82.19
430.736	91.19
430.958	90.19
431.18	80.19
431.402	90.19
431.624	99.19
431.846	89.19
432.068	74.19
432.29	83.19
432.512	92.19
432.734	93.19
432.956	90.19
433.178	93.19
433.4	85.19
433.622	89.19
433.844	106.19
434.066	91.19
434.287	93.19
434.509	68.19
434.731	86.19
434.953	77.19
435.175	85.19
435.397	97.19
435.618	98.19
435.84	99.19
436.062	154.19
436.284	139.19
436.505	119.19
436.727	107.19
436.949	95.19
437.17	94.19
437.392	93.19
437.614	112.19
437.835	131.19
438.057	178.19
438.278	137.19
438.5	110.19
438.721	135.19
438.943	110.19
439.165	84.19
439.386	109.19
439.608	96.19
439.829	114.19
440.05	147.19
440.272	187.19
440.493	110.19
440.715	97.19
440.936	93.19
441.158	78.19
441.379	93.19
441.6	103.19
441.822	121.19
442.043	109.19
442.264	126.19
442.486	133.19
442.707	112.19
442.928	126.19
443.149	186.19
443.371	202.19
443.592	146.19
443.813	161.19
444.034	127.19
444.255	98.19
444.476	80.19
444.698	92.19
444.919	90.19
445.14	137.19
445.361	125.19
445.582	149.19
445.803	191.19
446.024	180.19
446.245	173.19
446.466	134.19
446.687	98.19
446.908	94.19
447.129	80.19
447.35	88.19
447.571	94.19
447.792	97.19
448.013	117.19
448.234	147.19
448.455	103.19
448.675	139.19
448.896	157.19
449.117	112.19
449.338	101.19
449.559	151.19
449.779	147.19
450	95.19
450.221	85.19
450.442	103.19
450.662	109.19
450.883	130.19
451.104	171.19
451.324	119.19
451.545	83.19
451.766	96.19
451.986	88.19
452.207	87.19
452.428	109.19
452.648	118.19
452.869	137.19
453.089	157.19
453.31	174.19
453.53	106.19
453.751	95.19
453.971	132.19
454.192	162.19
454.412	106.19
454.633	82.19
454.853	81.19
455.073	109.19
455.294	101.19
455.514	107.19
455.734	110.19
455.955	69.19
456.175	71.19
456.395	97.19
456.616	94.19
456.836	81.19
457.056	99.19
457.276	96.19
457.497	82.19
457.717	85.19
457.937	100.19
458.157	90.19
458.377	101.19
458.598	146.19
458.818	265.19
459.038	293.19
459.258	179.19
459.478	91.19
459.698	80.19
459.918	94.19
460.138	95.19
460.358	87.19
460.578	97.19
460.798	96.19
461.018	92.19
461.238	103.19
461.458	85.19
461.678	86.19
461.898	81.19
462.118	75.19
462.338	85.19
462.558	95.19
462.777	89.19
462.997	96.19
463.217	99.19
463.437	96.19
463.657	81.19
463.876	88.19
464.096	94.19
464.316	105.19
464.536	108.19
464.755	118.19
464.975	148.19
465.195	294.19
465.414	315.19
465.634	128.19
465.854	91.19
466.073	86.19
466.293	94.19
466.512	87.19
466.732	101.19
466.951	90.19
467.171	100.19
467.391	131.19
467.61	163.19
467.829	197.19
468.049	422.19
468.268	627.19
468.488	183.19
468.707	115.19
468.927	105.19
469.146	89.19
469.365	91.19
469.585	92.19
469.804	114.19
470.023	118.19
470.243	111.19
470.462	128.19
470.681	185.19
470.901	110.19
471.12	103.19
471.339	107.19
471.558	124.19
471.777	139.19
471.997	210.19
472.216	810.19
472.435	1901.19
472.654	467.19
472.873	155.19
473.092	115.19
473.311	110.19
473.53	93.19
473.749	81.19
473.968	119.19
474.187	146.19
474.406	122.19
474.625	79.19
474.844	83.19
475.063	80.19
475.282	92.19
475.501	110.19
475.72	101.19
475.939	86.19
476.158	99.19
476.377	90.19
476.596	102.19
476.814	113.19
477.033	116.19
477.252	116.19
477.471	103.19
477.69	93.19
477.908	91.19
478.127	102.19
478.346	91.19
478.564	95.19
478.783	130.19
479.002	105.19
479.22	108.19
479.439	148.19
479.658	157.19
479.876	125.19
480.095	126.19
480.313	137.19
480.532	147.19
480.751	220.19
480.969	740.19
481.188	3092.19
481.406	1922.19
481.624	304.19
481.843	126.19
482.061	104.19
482.28	97.19
482.498	97.19
482.717	82.19
482.935	86.19
483.153	99.19
483.372	97.19
483.59	97.19
483.808	102.19
484.027	93.19
484.245	95.19
484.463	100.19
484.681	112.19
484.9	91.19
485.118	106.19
485.336	95.19
485.554	88.19
485.772	97.19
485.99	121.19
486.209	120.19
486.427	112.19
486.645	141.19
486.863	133.19
487.081	111.19
487.299	110.19
487.517	98.19
487.735	92.19
487.953	97.19
488.171	92.19
488.389	103.19
488.607	103.19
488.825	109.19
489.043	95.19
489.261	109.19
489.479	100.19
489.696	89.19
489.914	101.19
490.132	101.19
490.35	77.19
490.568	94.19
490.786	102.19
491.003	94.19
491.221	106.19
491.439	97.19
491.657	99.19
491.874	111.19
492.092	95.19
492.31	102.19
492.527	87.19
492.745	83.19
492.963	97.19
493.18	85.19
493.398	87.19
493.615	81.19
493.833	81.19
494.05	83.19
494.268	99.19
494.485	99.19
494.703	98.19
494.92	86.19
495.138	93.19
495.355	94.19
495.573	107.19
495.79	100.19
496.008	105.19
496.225	99.19
496.442	99.19
496.66	107.19
496.877	93.19
497.094	94.19
497.312	82.19
497.529	92.19
497.746	84.19
497.963	86.19
498.181	94.19
498.398	106.19
498.615	125.19
498.832	106.19
499.049	87.19
499.267	96.19
499.484	97.19
499.701	105.19
499.918	105.19
500.135	91.19
500.352	87.19
500.569	98.19
500.786	108.19
501.003	88.19
501.22	83.19
501.437	97.19
501.654	93.19
501.871	134.19
502.088	115.19
502.305	80.19
502.522	97.19
502.739	91.19
502.956	86.19
503.172	93.19
503.389	112.19
503.606	142.19
503.823	125.19
504.04	113.19
504.256	108.19
504.473	101.19
504.69	105.19
504.907	102.19
505.123	102.19
505.34	101.19
505.557	100.19
505.773	93.19
505.99	95.19
506.207	87.19
506.423	103.19
506.64	103.19
506.856	97.19
507.073	106.19
507.289	98.19
507.506	102.19
507.722	148.19
507.939	164.19
508.155	112.19
508.372	106.19
508.588	99.19
508.805	99.19
509.021	108.19
509.238	109.19
509.454	104.19
509.67	130.19
509.887	116.19
510.103	166.19
510.319	293.19
510.536	1238.19
510.752	4601.19
510.968	1181.19
511.184	225.19
511.401	151.19
511.617	130.19
