Data from Circ_2007_H10_HRD10591_00099.txt Node
Date: Wed Jan 03 10:22:17 EST 2024
User: Yrep
Spectrometer: HR+D1059
Trigger mode: 1
Integration Time (sec): 1.000000E-1
Scans to average: 1
Electric dark correction enabled: true
Nonlinearity correction enabled: false
Boxcar width: 0
XAxis mode: Wavelengths
Number of Pixels in Spectrum: 2048
>>>>>Begin Spectral Data<<<<<
223.165	-20.75
223.4	-20.75
223.635	-20.75
223.869	-12.75
224.104	-27.75
224.338	-11.75
224.573	-4.75
224.808	-4.75
225.042	-12.75
225.277	4.25
225.511	-2.75
225.746	1.25
225.98	11.25
226.215	5.25
226.449	15.25
226.683	7.25
226.918	18.25
227.152	35.25
227.387	48.25
227.621	36.25
227.856	42.25
228.09	52.25
228.324	49.25
228.559	39.25
228.793	49.25
229.027	68.25
229.262	55.25
229.496	85.25
229.73	97.25
229.964	106.25
230.199	83.25
230.433	87.25
230.667	76.25
230.901	83.25
231.136	86.25
231.37	88.25
231.604	74.25
231.838	83.25
232.072	76.25
232.306	79.25
232.541	76.25
232.775	84.25
233.009	85.25
233.243	93.25
233.477	74.25
233.711	71.25
233.945	75.25
234.179	83.25
234.413	76.25
234.647	103.25
234.881	79.25
235.115	88.25
235.349	92.25
235.583	82.25
235.817	90.25
236.051	84.25
236.285	63.25
236.519	73.25
236.753	89.25
236.987	80.25
237.221	103.25
237.455	97.25
237.689	86.25
237.922	81.25
238.156	79.25
238.39	61.25
238.624	92.25
238.858	81.25
239.091	69.25
239.325	85.25
239.559	86.25
239.793	76.25
240.027	78.25
240.26	77.25
240.494	78.25
240.728	89.25
240.961	82.25
241.195	86.25
241.429	84.25
241.662	72.25
241.896	76.25
242.13	74.25
242.363	90.25
242.597	93.25
242.83	84.25
243.064	72.25
243.298	88.25
243.531	79.25
243.765	71.25
243.998	78.25
244.232	84.25
244.465	90.25
244.699	82.25
244.932	87.25
245.166	82.25
245.399	75.25
245.633	99.25
245.866	78.25
246.099	71.25
246.333	82.25
246.566	82.25
246.8	90.25
247.033	75.25
247.266	78.25
247.5	86.25
247.733	83.25
247.966	78.25
248.2	77.25
248.433	80.25
248.666	83.25
248.899	80.25
249.133	86.25
249.366	109.25
249.599	103.25
249.832	83.25
250.066	84.25
250.299	84.25
250.532	70.25
250.765	79.25
250.998	89.25
251.231	77.25
251.465	86.25
251.698	71.25
251.931	87.25
252.164	91.25
252.397	76.25
252.63	66.25
252.863	92.25
253.096	89.25
253.329	84.25
253.562	75.25
253.795	88.25
254.028	85.25
254.261	87.25
254.494	78.25
254.727	90.25
254.96	99.25
255.193	86.25
255.426	93.25
255.659	81.25
255.892	93.25
256.124	110.25
256.357	76.25
256.59	82.25
256.823	82.25
257.056	94.25
257.289	84.25
257.521	86.25
257.754	74.25
257.987	78.25
258.22	72.25
258.452	82.25
258.685	89.25
258.918	89.25
259.151	77.25
259.383	73.25
259.616	88.25
259.849	94.25
260.081	94.25
260.314	85.25
260.547	87.25
260.779	85.25
261.012	109.25
261.244	109.25
261.477	104.25
261.71	95.25
261.942	126.25
262.175	133.25
262.407	102.25
262.64	93.25
262.872	91.25
263.105	96.25
263.337	93.25
263.57	78.25
263.802	81.25
264.035	95.25
264.267	78.25
264.499	87.25
264.732	90.25
264.964	83.25
265.197	81.25
265.429	107.25
265.661	84.25
265.894	78.25
266.126	81.25
266.358	87.25
266.591	89.25
266.823	93.25
267.055	87.25
267.287	95.25
267.52	92.25
267.752	100.25
267.984	77.25
268.216	87.25
268.448	99.25
268.681	92.25
268.913	76.25
269.145	103.25
269.377	96.25
269.609	82.25
269.841	84.25
270.073	76.25
270.306	102.25
270.538	82.25
270.77	90.25
271.002	83.25
271.234	91.25
271.466	94.25
271.698	84.25
271.93	84.25
272.162	81.25
272.394	84.25
272.626	80.25
272.858	86.25
273.09	101.25
273.322	89.25
273.553	84.25
273.785	92.25
274.017	85.25
274.249	81.25
274.481	87.25
274.713	94.25
274.945	85.25
275.176	89.25
275.408	113.25
275.64	101.25
275.872	111.25
276.104	110.25
276.335	118.25
276.567	108.25
276.799	141.25
277.031	141.25
277.262	149.25
277.494	131.25
277.726	98.25
277.957	91.25
278.189	97.25
278.421	102.25
278.652	91.25
278.884	106.25
279.115	91.25
279.347	83.25
279.579	103.25
279.81	124.25
280.042	150.25
280.273	216.25
280.505	141.25
280.736	90.25
280.968	83.25
281.199	76.25
281.431	86.25
281.662	84.25
281.894	78.25
282.125	99.25
282.356	140.25
282.588	171.25
282.819	121.25
283.051	98.25
283.282	84.25
283.513	87.25
283.745	89.25
283.976	103.25
284.207	87.25
284.439	85.25
284.67	91.25
284.901	86.25
285.132	80.25
285.364	86.25
285.595	90.25
285.826	76.25
286.057	73.25
286.288	90.25
286.52	88.25
286.751	87.25
286.982	96.25
287.213	81.25
287.444	98.25
287.675	88.25
287.906	93.25
288.138	99.25
288.369	106.25
288.6	86.25
288.831	81.25
289.062	85.25
289.293	93.25
289.524	92.25
289.755	95.25
289.986	68.25
290.217	89.25
290.448	91.25
290.679	87.25
290.91	95.25
291.141	95.25
291.371	101.25
291.602	88.25
291.833	93.25
292.064	75.25
292.295	106.25
292.526	81.25
292.757	84.25
292.987	85.25
293.218	94.25
293.449	85.25
293.68	93.25
293.91	88.25
294.141	94.25
294.372	93.25
294.603	88.25
294.833	88.25
295.064	89.25
295.295	80.25
295.525	99.25
295.756	100.25
295.987	127.25
296.217	151.25
296.448	142.25
296.679	107.25
296.909	80.25
297.14	88.25
297.37	96.25
297.601	90.25
297.831	84.25
298.062	107.25
298.292	103.25
298.523	90.25
298.753	91.25
298.984	88.25
299.214	75.25
299.445	88.25
299.675	98.25
299.905	84.25
300.136	88.25
300.366	89.25
300.597	93.25
300.827	105.25
301.057	110.25
301.288	130.25
301.518	105.25
301.748	87.25
301.979	100.25
302.209	105.25
302.439	88.25
302.669	99.25
302.9	92.25
303.13	99.25
303.36	106.25
303.59	123.25
303.82	126.25
304.051	107.25
304.281	89.25
304.511	100.25
304.741	84.25
304.971	95.25
305.201	102.25
305.431	83.25
305.661	98.25
305.891	81.25
306.121	87.25
306.352	119.25
306.582	105.25
306.812	99.25
307.042	126.25
307.272	147.25
307.502	167.25
307.731	150.25
307.961	105.25
308.191	84.25
308.421	107.25
308.651	99.25
308.881	105.25
309.111	83.25
309.341	101.25
309.571	111.25
309.8	107.25
310.03	89.25
310.26	98.25
310.49	107.25
310.72	115.25
310.949	112.25
311.179	102.25
311.409	110.25
311.639	106.25
311.868	77.25
312.098	99.25
312.328	111.25
312.557	99.25
312.787	116.25
313.017	114.25
313.246	93.25
313.476	99.25
313.706	94.25
313.935	98.25
314.165	113.25
314.394	117.25
314.624	101.25
314.853	101.25
315.083	97.25
315.312	103.25
315.542	89.25
315.771	87.25
316.001	87.25
316.23	98.25
316.46	95.25
316.689	86.25
316.919	97.25
317.148	111.25
317.377	77.25
317.607	95.25
317.836	101.25
318.065	96.25
318.295	87.25
318.524	88.25
318.753	98.25
318.983	90.25
319.212	100.25
319.441	103.25
319.67	110.25
319.9	99.25
320.129	109.25
320.358	112.25
320.587	98.25
320.816	101.25
321.046	126.25
321.275	114.25
321.504	98.25
321.733	96.25
321.962	103.25
322.191	110.25
322.42	134.25
322.649	140.25
322.878	137.25
323.108	142.25
323.337	153.25
323.566	159.25
323.795	188.25
324.024	255.25
324.253	515.25
324.482	1121.25
324.71	2331.25
324.939	3082.25
325.168	1103.25
325.397	318.25
325.626	175.25
325.855	137.25
326.084	147.25
326.313	152.25
326.542	196.25
326.77	269.25
326.999	595.25
327.228	1258.25
327.457	2303.25
327.686	1823.25
327.914	541.25
328.143	425.25
328.372	535.25
328.6	309.25
328.829	175.25
329.058	190.25
329.287	189.25
329.515	182.25
329.744	219.25
329.972	363.25
330.201	745.25
330.43	1071.25
330.658	512.25
330.887	253.25
331.115	182.25
331.344	125.25
331.572	100.25
331.801	111.25
332.03	113.25
332.258	102.25
332.486	102.25
332.715	118.25
332.943	106.25
333.172	107.25
333.4	142.25
333.629	144.25
333.857	211.25
334.085	359.25
334.314	717.25
334.542	1339.25
334.771	1291.25
334.999	357.25
335.227	156.25
335.455	130.25
335.684	109.25
335.912	104.25
336.14	123.25
336.369	109.25
336.597	114.25
336.825	110.25
337.053	84.25
337.281	94.25
337.51	87.25
337.738	96.25
337.966	112.25
338.194	118.25
338.422	115.25
338.65	77.25
338.878	100.25
339.106	85.25
339.334	79.25
339.562	89.25
339.79	95.25
340.018	93.25
340.246	103.25
340.474	102.25
340.702	98.25
340.93	102.25
341.158	94.25
341.386	103.25
341.614	96.25
341.842	102.25
342.07	97.25
342.298	94.25
342.526	92.25
342.754	92.25
342.981	87.25
343.209	91.25
343.437	94.25
343.665	89.25
343.893	99.25
344.12	108.25
344.348	108.25
344.576	100.25
344.804	99.25
345.031	105.25
345.259	114.25
345.487	97.25
345.714	111.25
345.942	94.25
346.17	98.25
346.397	97.25
346.625	109.25
346.853	100.25
347.08	110.25
347.308	95.25
347.535	106.25
347.763	92.25
347.99	105.25
348.218	122.25
348.445	103.25
348.673	115.25
348.9	100.25
349.128	108.25
349.355	86.25
349.583	90.25
349.81	98.25
350.037	92.25
350.265	100.25
350.492	99.25
350.72	103.25
350.947	98.25
351.174	112.25
351.402	113.25
351.629	106.25
351.856	98.25
352.083	107.25
352.311	106.25
352.538	128.25
352.765	110.25
352.992	119.25
353.22	110.25
353.447	105.25
353.674	97.25
353.901	94.25
354.128	87.25
354.355	100.25
354.583	93.25
354.81	102.25
355.037	113.25
355.264	101.25
355.491	101.25
355.718	98.25
355.945	105.25
356.172	99.25
356.399	100.25
356.626	103.25
356.853	77.25
357.08	89.25
357.307	102.25
357.534	87.25
357.761	94.25
357.988	100.25
358.215	94.25
358.441	91.25
358.668	79.25
358.895	78.25
359.122	98.25
359.349	84.25
359.576	103.25
359.802	112.25
360.029	139.25
360.256	137.25
360.483	124.25
360.709	103.25
360.936	92.25
361.163	97.25
361.39	94.25
361.616	98.25
361.843	89.25
362.07	108.25
362.296	102.25
362.523	111.25
362.749	105.25
362.976	91.25
363.203	107.25
363.429	98.25
363.656	103.25
363.882	87.25
364.109	94.25
364.335	93.25
364.562	88.25
364.788	96.25
365.015	84.25
365.241	108.25
365.468	102.25
365.694	112.25
365.92	104.25
366.147	78.25
366.373	91.25
366.599	89.25
366.826	104.25
367.052	87.25
367.278	90.25
367.505	105.25
367.731	87.25
367.957	86.25
368.184	96.25
368.41	112.25
368.636	135.25
368.862	130.25
369.089	109.25
369.315	96.25
369.541	83.25
369.767	105.25
369.993	88.25
370.219	102.25
370.445	90.25
370.672	80.25
370.898	95.25
371.124	96.25
371.35	91.25
371.576	87.25
371.802	83.25
372.028	80.25
372.254	78.25
372.48	69.25
372.706	88.25
372.932	82.25
373.158	72.25
373.384	92.25
373.61	85.25
373.835	93.25
374.061	96.25
374.287	92.25
374.513	92.25
374.739	94.25
374.965	86.25
375.191	105.25
375.416	92.25
375.642	94.25
375.868	94.25
376.094	75.25
376.319	94.25
376.545	98.25
376.771	87.25
376.997	99.25
377.222	91.25
377.448	96.25
377.674	93.25
377.899	83.25
378.125	84.25
378.35	100.25
378.576	92.25
378.802	94.25
379.027	84.25
379.253	78.25
379.478	84.25
379.704	88.25
379.929	96.25
380.155	91.25
380.38	85.25
380.606	92.25
380.831	93.25
381.057	102.25
381.282	101.25
381.507	106.25
381.733	106.25
381.958	90.25
382.184	91.25
382.409	96.25
382.634	103.25
382.86	109.25
383.085	99.25
383.31	106.25
383.535	91.25
383.761	104.25
383.986	106.25
384.211	96.25
384.436	87.25
384.662	105.25
384.887	93.25
385.112	92.25
385.337	106.25
385.562	96.25
385.787	105.25
386.013	110.25
386.238	124.25
386.463	91.25
386.688	111.25
386.913	82.25
387.138	103.25
387.363	94.25
387.588	113.25
387.813	120.25
388.038	97.25
388.263	103.25
388.488	97.25
388.713	98.25
388.938	82.25
389.163	93.25
389.387	98.25
389.612	95.25
389.837	93.25
390.062	87.25
390.287	99.25
390.512	94.25
390.736	98.25
390.961	93.25
391.186	77.25
391.411	88.25
391.636	111.25
391.86	93.25
392.085	99.25
392.31	80.25
392.534	88.25
392.759	74.25
392.984	79.25
393.208	97.25
393.433	91.25
393.658	97.25
393.882	84.25
394.107	93.25
394.331	92.25
394.556	77.25
394.78	98.25
395.005	90.25
395.229	89.25
395.454	90.25
395.678	88.25
395.903	73.25
396.127	93.25
396.352	94.25
396.576	84.25
396.801	80.25
397.025	89.25
397.249	92.25
397.474	90.25
397.698	99.25
397.922	84.25
398.147	78.25
398.371	82.25
398.595	95.25
398.82	86.25
399.044	93.25
399.268	85.25
399.492	80.25
399.717	85.25
399.941	97.25
400.165	107.25
400.389	102.25
400.613	91.25
400.837	88.25
401.062	83.25
401.286	103.25
401.51	104.25
401.734	86.25
401.958	110.25
402.182	137.25
402.406	199.25
402.63	129.25
402.854	102.25
403.078	98.25
403.302	90.25
403.526	86.25
403.75	98.25
403.974	93.25
404.198	95.25
404.422	86.25
404.645	86.25
404.869	98.25
405.093	107.25
405.317	143.25
405.541	123.25
405.765	118.25
405.988	120.25
406.212	211.25
406.436	267.25
406.66	192.25
406.883	115.25
407.107	94.25
407.331	111.25
407.555	114.25
407.778	116.25
408.002	89.25
408.226	86.25
408.449	89.25
408.673	85.25
408.896	107.25
409.12	102.25
409.344	103.25
409.567	93.25
409.791	87.25
410.014	83.25
410.238	91.25
410.461	109.25
410.685	97.25
410.908	94.25
411.132	109.25
411.355	103.25
411.578	105.25
411.802	93.25
412.025	103.25
412.249	96.25
412.472	102.25
412.695	134.25
412.919	108.25
413.142	90.25
413.365	99.25
413.589	85.25
413.812	94.25
414.035	97.25
414.258	91.25
414.482	98.25
414.705	89.25
414.928	85.25
415.151	88.25
415.374	93.25
415.597	88.25
415.821	92.25
416.044	103.25
416.267	102.25
416.49	85.25
416.713	98.25
416.936	98.25
417.159	86.25
417.382	99.25
417.605	112.25
417.828	113.25
418.051	112.25
418.274	99.25
418.497	96.25
418.72	92.25
418.943	87.25
419.166	94.25
419.389	108.25
419.611	87.25
419.834	86.25
420.057	101.25
420.28	89.25
420.503	91.25
420.726	93.25
420.948	89.25
421.171	95.25
421.394	92.25
421.617	85.25
421.839	91.25
422.062	87.25
422.285	102.25
422.507	100.25
422.73	97.25
422.953	94.25
423.175	112.25
423.398	98.25
423.621	83.25
423.843	78.25
424.066	87.25
424.288	100.25
424.511	88.25
424.733	100.25
424.956	99.25
425.178	110.25
425.401	108.25
425.623	121.25
425.846	97.25
426.068	96.25
426.291	99.25
426.513	94.25
426.735	96.25
426.958	102.25
427.18	142.25
427.402	195.25
427.625	250.25
427.847	227.25
428.069	219.25
428.292	124.25
428.514	105.25
428.736	99.25
428.958	88.25
429.181	85.25
429.403	95.25
429.625	94.25
429.847	95.25
430.069	121.25
430.292	101.25
430.514	84.25
430.736	87.25
430.958	92.25
431.18	92.25
431.402	81.25
431.624	94.25
431.846	89.25
432.068	94.25
432.29	85.25
432.512	103.25
432.734	77.25
432.956	108.25
433.178	110.25
433.4	105.25
433.622	98.25
433.844	87.25
434.066	73.25
434.287	111.25
434.509	83.25
434.731	88.25
434.953	102.25
435.175	91.25
435.397	97.25
435.618	94.25
435.84	118.25
436.062	124.25
436.284	129.25
436.505	99.25
436.727	104.25
436.949	102.25
437.17	91.25
437.392	98.25
437.614	94.25
437.835	138.25
438.057	152.25
438.278	125.25
438.5	122.25
438.721	145.25
438.943	127.25
439.165	82.25
439.386	106.25
439.608	90.25
439.829	112.25
440.05	163.25
440.272	196.25
440.493	124.25
440.715	82.25
440.936	75.25
441.158	93.25
441.379	94.25
441.6	99.25
441.822	106.25
442.043	102.25
442.264	117.25
442.486	117.25
442.707	97.25
442.928	109.25
443.149	154.25
443.371	160.25
443.592	116.25
443.813	138.25
444.034	111.25
444.255	108.25
444.476	87.25
444.698	87.25
444.919	84.25
445.14	132.25
445.361	131.25
445.582	149.25
445.803	185.25
446.024	175.25
446.245	181.25
446.466	146.25
446.687	105.25
446.908	108.25
447.129	90.25
447.35	98.25
447.571	105.25
447.792	98.25
448.013	118.25
448.234	114.25
448.455	104.25
448.675	122.25
448.896	145.25
449.117	109.25
449.338	123.25
449.559	156.25
449.779	173.25
450	93.25
450.221	91.25
450.442	97.25
450.662	104.25
450.883	122.25
451.104	150.25
451.324	96.25
451.545	85.25
451.766	78.25
451.986	83.25
452.207	92.25
452.428	81.25
452.648	110.25
452.869	118.25
453.089	137.25
453.31	125.25
453.53	103.25
453.751	94.25
453.971	107.25
454.192	129.25
454.412	107.25
454.633	101.25
454.853	84.25
455.073	95.25
455.294	89.25
455.514	117.25
455.734	100.25
455.955	91.25
456.175	86.25
456.395	83.25
456.616	76.25
456.836	84.25
457.056	95.25
457.276	82.25
457.497	86.25
457.717	95.25
457.937	90.25
458.157	78.25
458.377	98.25
458.598	128.25
458.818	194.25
459.038	212.25
459.258	156.25
459.478	107.25
459.698	94.25
459.918	99.25
460.138	86.25
460.358	96.25
460.578	104.25
460.798	89.25
461.018	103.25
461.238	83.25
461.458	89.25
461.678	84.25
461.898	76.25
462.118	91.25
462.338	95.25
462.558	91.25
462.777	87.25
462.997	105.25
463.217	109.25
463.437	101.25
463.657	78.25
463.876	91.25
464.096	82.25
464.316	90.25
464.536	100.25
464.755	91.25
464.975	118.25
465.195	222.25
465.414	223.25
465.634	111.25
465.854	86.25
466.073	100.25
466.293	94.25
466.512	103.25
466.732	79.25
466.951	91.25
467.171	95.25
467.391	115.25
467.61	125.25
467.829	182.25
468.049	397.25
468.268	587.25
468.488	183.25
468.707	106.25
468.927	97.25
469.146	100.25
469.365	90.25
469.585	106.25
469.804	121.25
470.023	106.25
470.243	107.25
470.462	127.25
470.681	143.25
470.901	108.25
471.12	83.25
471.339	111.25
471.558	109.25
471.777	138.25
471.997	242.25
472.216	808.25
472.435	1759.25
472.654	443.25
472.873	144.25
473.092	97.25
473.311	79.25
473.53	94.25
473.749	86.25
473.968	111.25
474.187	131.25
474.406	117.25
474.625	84.25
474.844	94.25
475.063	83.25
475.282	91.25
475.501	75.25
475.72	100.25
475.939	91.25
476.158	108.25
476.377	86.25
476.596	89.25
476.814	107.25
477.033	109.25
477.252	86.25
477.471	96.25
477.69	102.25
477.908	102.25
478.127	95.25
478.346	102.25
478.564	94.25
478.783	109.25
479.002	110.25
479.22	113.25
479.439	101.25
479.658	123.25
479.876	118.25
480.095	110.25
480.313	115.25
480.532	152.25
480.751	225.25
480.969	705.25
481.188	3029.25
481.406	1866.25
481.624	283.25
481.843	147.25
482.061	114.25
482.28	95.25
482.498	85.25
482.717	87.25
482.935	99.25
483.153	99.25
483.372	96.25
483.59	91.25
483.808	96.25
484.027	82.25
484.245	100.25
484.463	111.25
484.681	102.25
484.9	97.25
485.118	90.25
485.336	94.25
485.554	100.25
485.772	106.25
485.99	101.25
486.209	95.25
486.427	119.25
486.645	121.25
486.863	126.25
487.081	111.25
487.299	94.25
487.517	101.25
487.735	93.25
487.953	102.25
488.171	93.25
488.389	86.25
488.607	117.25
488.825	98.25
489.043	87.25
489.261	90.25
489.479	91.25
489.696	84.25
489.914	87.25
490.132	92.25
490.35	102.25
490.568	99.25
490.786	87.25
491.003	85.25
491.221	90.25
491.439	95.25
491.657	98.25
491.874	92.25
492.092	100.25
492.31	96.25
492.527	99.25
492.745	102.25
492.963	90.25
493.18	89.25
493.398	87.25
493.615	102.25
493.833	98.25
494.05	87.25
494.268	97.25
494.485	88.25
494.703	100.25
494.92	102.25
495.138	81.25
495.355	96.25
495.573	94.25
495.79	97.25
496.008	90.25
496.225	89.25
496.442	105.25
496.66	102.25
496.877	82.25
497.094	77.25
497.312	100.25
497.529	96.25
497.746	83.25
497.963	99.25
498.181	93.25
498.398	101.25
498.615	116.25
498.832	109.25
499.049	102.25
499.267	98.25
499.484	86.25
499.701	95.25
499.918	104.25
500.135	83.25
500.352	105.25
500.569	108.25
500.786	98.25
501.003	80.25
501.22	87.25
501.437	121.25
501.654	111.25
501.871	115.25
502.088	108.25
502.305	91.25
502.522	77.25
502.739	90.25
502.956	85.25
503.172	92.25
503.389	124.25
503.606	123.25
503.823	104.25
504.04	86.25
504.256	106.25
504.473	90.25
504.69	94.25
504.907	91.25
505.123	98.25
505.34	97.25
505.557	90.25
505.773	108.25
505.99	91.25
506.207	83.25
506.423	97.25
506.64	99.25
506.856	93.25
507.073	96.25
507.289	101.25
507.506	106.25
507.722	129.25
507.939	121.25
508.155	110.25
508.372	99.25
508.588	100.25
508.805	90.25
509.021	101.25
509.238	96.25
509.454	99.25
509.67	106.25
509.887	107.25
510.103	128.25
510.319	215.25
510.536	777.25
510.752	2656.25
510.968	758.25
511.184	167.25
511.401	118.25
511.617	99.25
511.833	117.25
512.049	95.25
512.265	86.25
512.481	96.25
512.698	89.25
512.914	93.25
