Data from Circ_2007_H10_HRD10591_00092.txt Node
Date: Wed Jan 03 10:22:15 EST 2024
User: Yrep
Spectrometer: HR+D1059
Trigger mode: 1
Integration Time (sec): 1.000000E-1
Scans to average: 1
Electric dark correction enabled: true
Nonlinearity correction enabled: false
Boxcar width: 0
XAxis mode: Wavelengths
Number of Pixels in Spectrum: 2048
>>>>>Begin Spectral Data<<<<<
223.165	-19.5
223.4	-19.5
223.635	-19.5
223.869	-18.5
224.104	-21.5
224.338	-17.5
224.573	-10.5
224.808	-11.5
225.042	-18.5
225.277	-9.5
225.511	-1.5
225.746	0.5
225.98	1.5
226.215	10.5
226.449	35.5
226.683	26.5
226.918	27.5
227.152	26.5
227.387	28.5
227.621	49.5
227.856	50.5
228.09	38.5
228.324	61.5
228.559	64.5
228.793	55.5
229.027	73.5
229.262	74.5
229.496	87.5
229.73	99.5
229.964	102.5
230.199	98.5
230.433	68.5
230.667	87.5
230.901	79.5
231.136	74.5
231.37	77.5
231.604	73.5
231.838	101.5
232.072	93.5
232.306	97.5
232.541	93.5
232.775	81.5
233.009	83.5
233.243	79.5
233.477	72.5
233.711	87.5
233.945	79.5
234.179	81.5
234.413	99.5
234.647	102.5
234.881	70.5
235.115	89.5
235.349	77.5
235.583	84.5
235.817	78.5
236.051	71.5
236.285	90.5
236.519	66.5
236.753	87.5
236.987	92.5
237.221	93.5
237.455	95.5
237.689	89.5
237.922	77.5
238.156	75.5
238.39	74.5
238.624	94.5
238.858	75.5
239.091	80.5
239.325	89.5
239.559	96.5
239.793	75.5
240.027	87.5
240.26	86.5
240.494	92.5
240.728	79.5
240.961	77.5
241.195	83.5
241.429	78.5
241.662	85.5
241.896	86.5
242.13	78.5
242.363	88.5
242.597	78.5
242.83	86.5
243.064	71.5
243.298	70.5
243.531	75.5
243.765	77.5
243.998	77.5
244.232	88.5
244.465	85.5
244.699	78.5
244.932	71.5
245.166	99.5
245.399	87.5
245.633	92.5
245.866	86.5
246.099	72.5
246.333	74.5
246.566	86.5
246.8	94.5
247.033	66.5
247.266	84.5
247.5	80.5
247.733	74.5
247.966	93.5
248.2	84.5
248.433	76.5
248.666	90.5
248.899	91.5
249.133	101.5
249.366	117.5
249.599	103.5
249.832	97.5
250.066	83.5
250.299	80.5
250.532	104.5
250.765	97.5
250.998	87.5
251.231	72.5
251.465	81.5
251.698	82.5
251.931	96.5
252.164	77.5
252.397	86.5
252.63	90.5
252.863	89.5
253.096	77.5
253.329	86.5
253.562	92.5
253.795	83.5
254.028	79.5
254.261	86.5
254.494	86.5
254.727	100.5
254.96	90.5
255.193	93.5
255.426	82.5
255.659	87.5
255.892	102.5
256.124	103.5
256.357	92.5
256.59	84.5
256.823	88.5
257.056	92.5
257.289	93.5
257.521	79.5
257.754	95.5
257.987	90.5
258.22	82.5
258.452	103.5
258.685	107.5
258.918	85.5
259.151	81.5
259.383	84.5
259.616	96.5
259.849	80.5
260.081	93.5
260.314	87.5
260.547	96.5
260.779	104.5
261.012	108.5
261.244	123.5
261.477	113.5
261.71	107.5
261.942	166.5
262.175	182.5
262.407	111.5
262.64	77.5
262.872	82.5
263.105	95.5
263.337	83.5
263.57	97.5
263.802	80.5
264.035	92.5
264.267	86.5
264.499	92.5
264.732	92.5
264.964	90.5
265.197	74.5
265.429	71.5
265.661	79.5
265.894	89.5
266.126	88.5
266.358	87.5
266.591	95.5
266.823	90.5
267.055	88.5
267.287	86.5
267.52	84.5
267.752	86.5
267.984	69.5
268.216	82.5
268.448	92.5
268.681	88.5
268.913	100.5
269.145	93.5
269.377	82.5
269.609	92.5
269.841	98.5
270.073	88.5
270.306	96.5
270.538	85.5
270.77	105.5
271.002	98.5
271.234	91.5
271.466	99.5
271.698	95.5
271.93	87.5
272.162	96.5
272.394	98.5
272.626	86.5
272.858	90.5
273.09	100.5
273.322	93.5
273.553	70.5
273.785	80.5
274.017	87.5
274.249	96.5
274.481	106.5
274.713	88.5
274.945	95.5
275.176	97.5
275.408	95.5
275.64	116.5
275.872	138.5
276.104	115.5
276.335	118.5
276.567	136.5
276.799	185.5
277.031	198.5
277.262	216.5
277.494	165.5
277.726	109.5
277.957	93.5
278.189	88.5
278.421	90.5
278.652	92.5
278.884	101.5
279.115	84.5
279.347	101.5
279.579	109.5
279.81	131.5
280.042	219.5
280.273	297.5
280.505	196.5
280.736	136.5
280.968	91.5
281.199	85.5
281.431	95.5
281.662	86.5
281.894	92.5
282.125	121.5
282.356	136.5
282.588	218.5
282.819	158.5
283.051	102.5
283.282	88.5
283.513	90.5
283.745	92.5
283.976	94.5
284.207	96.5
284.439	85.5
284.67	87.5
284.901	94.5
285.132	91.5
285.364	91.5
285.595	85.5
285.826	86.5
286.057	95.5
286.288	80.5
286.52	87.5
286.751	82.5
286.982	90.5
287.213	98.5
287.444	84.5
287.675	94.5
287.906	93.5
288.138	95.5
288.369	104.5
288.6	101.5
288.831	92.5
289.062	94.5
289.293	110.5
289.524	98.5
289.755	94.5
289.986	93.5
290.217	100.5
290.448	87.5
290.679	96.5
290.91	104.5
291.141	90.5
291.371	94.5
291.602	82.5
291.833	87.5
292.064	101.5
292.295	83.5
292.526	103.5
292.757	108.5
292.987	95.5
293.218	102.5
293.449	81.5
293.68	92.5
293.91	94.5
294.141	97.5
294.372	100.5
294.603	87.5
294.833	94.5
295.064	87.5
295.295	90.5
295.525	104.5
295.756	101.5
295.987	150.5
296.217	205.5
296.448	185.5
296.679	106.5
296.909	92.5
297.14	94.5
297.37	93.5
297.601	83.5
297.831	97.5
298.062	95.5
298.292	95.5
298.523	107.5
298.753	101.5
298.984	91.5
299.214	97.5
299.445	86.5
299.675	115.5
299.905	114.5
300.136	100.5
300.366	112.5
300.597	109.5
300.827	110.5
301.057	110.5
301.288	135.5
301.518	109.5
301.748	106.5
301.979	121.5
302.209	105.5
302.439	98.5
302.669	100.5
302.9	98.5
303.13	91.5
303.36	118.5
303.59	144.5
303.82	160.5
304.051	103.5
304.281	96.5
304.511	107.5
304.741	115.5
304.971	94.5
305.201	99.5
305.431	80.5
305.661	107.5
305.891	101.5
306.121	103.5
306.352	124.5
306.582	121.5
306.812	122.5
307.042	127.5
307.272	163.5
307.502	197.5
307.731	181.5
307.961	133.5
308.191	102.5
308.421	99.5
308.651	94.5
308.881	87.5
309.111	103.5
309.341	96.5
309.571	114.5
309.8	109.5
310.03	125.5
310.26	120.5
310.49	107.5
310.72	112.5
310.949	134.5
311.179	138.5
311.409	120.5
311.639	117.5
311.868	114.5
312.098	100.5
312.328	114.5
312.557	115.5
312.787	146.5
313.017	131.5
313.246	102.5
313.476	101.5
313.706	101.5
313.935	109.5
314.165	114.5
314.394	127.5
314.624	122.5
314.853	115.5
315.083	99.5
315.312	102.5
315.542	99.5
315.771	107.5
316.001	99.5
316.23	106.5
316.46	94.5
316.689	105.5
316.919	108.5
317.148	114.5
317.377	117.5
317.607	108.5
317.836	98.5
318.065	93.5
318.295	96.5
318.524	108.5
318.753	107.5
318.983	97.5
319.212	119.5
319.441	149.5
319.67	146.5
319.9	109.5
320.129	116.5
320.358	112.5
320.587	114.5
320.816	119.5
321.046	123.5
321.275	122.5
321.504	115.5
321.733	103.5
321.962	119.5
322.191	114.5
322.42	147.5
322.649	133.5
322.878	134.5
323.108	149.5
323.337	169.5
323.566	191.5
323.795	224.5
324.024	309.5
324.253	670.5
324.482	1442.5
324.71	2972.5
324.939	3998.5
325.168	1408.5
325.397	398.5
325.626	220.5
325.855	182.5
326.084	163.5
326.313	180.5
326.542	215.5
326.77	344.5
326.999	719.5
327.228	1515.5
327.457	2913.5
327.686	2282.5
327.914	749.5
328.143	640.5
328.372	808.5
328.6	443.5
328.829	233.5
329.058	245.5
329.287	248.5
329.515	210.5
329.744	319.5
329.972	556.5
330.201	1128.5
330.43	1686.5
330.658	775.5
330.887	399.5
331.115	258.5
331.344	145.5
331.572	131.5
331.801	159.5
332.03	160.5
332.258	138.5
332.486	119.5
332.715	124.5
332.943	148.5
333.172	132.5
333.4	159.5
333.629	188.5
333.857	285.5
334.085	509.5
334.314	1031.5
334.542	2079.5
334.771	1965.5
334.999	519.5
335.227	199.5
335.455	130.5
335.684	129.5
335.912	111.5
336.14	100.5
336.369	135.5
336.597	131.5
336.825	122.5
337.053	112.5
337.281	107.5
337.51	105.5
337.738	106.5
337.966	108.5
338.194	144.5
338.422	127.5
338.65	104.5
338.878	107.5
339.106	107.5
339.334	100.5
339.562	103.5
339.79	116.5
340.018	95.5
340.246	110.5
340.474	104.5
340.702	107.5
340.93	100.5
341.158	101.5
341.386	98.5
341.614	106.5
341.842	114.5
342.07	111.5
342.298	112.5
342.526	107.5
342.754	92.5
342.981	90.5
343.209	102.5
343.437	92.5
343.665	109.5
343.893	106.5
344.12	97.5
344.348	99.5
344.576	102.5
344.804	102.5
345.031	131.5
345.259	130.5
345.487	138.5
345.714	110.5
345.942	104.5
346.17	111.5
346.397	100.5
346.625	112.5
346.853	101.5
347.08	94.5
347.308	116.5
347.535	104.5
347.763	118.5
347.99	111.5
348.218	125.5
348.445	140.5
348.673	130.5
348.9	102.5
349.128	119.5
349.355	106.5
349.583	113.5
349.81	111.5
350.037	117.5
350.265	100.5
350.492	102.5
350.72	115.5
350.947	124.5
351.174	138.5
351.402	146.5
351.629	118.5
351.856	131.5
352.083	134.5
352.311	137.5
352.538	146.5
352.765	149.5
352.992	145.5
353.22	136.5
353.447	127.5
353.674	106.5
353.901	107.5
354.128	94.5
354.355	100.5
354.583	100.5
354.81	104.5
355.037	105.5
355.264	105.5
355.491	90.5
355.718	96.5
355.945	89.5
356.172	91.5
356.399	86.5
356.626	85.5
356.853	102.5
357.08	99.5
357.307	107.5
357.534	100.5
357.761	106.5
357.988	111.5
358.215	107.5
358.441	104.5
358.668	105.5
358.895	96.5
359.122	111.5
359.349	107.5
359.576	107.5
359.802	140.5
360.029	192.5
360.256	177.5
360.483	139.5
360.709	110.5
360.936	97.5
361.163	112.5
361.39	114.5
361.616	124.5
361.843	106.5
362.07	116.5
362.296	116.5
362.523	135.5
362.749	130.5
362.976	115.5
363.203	101.5
363.429	91.5
363.656	92.5
363.882	114.5
364.109	105.5
364.335	122.5
364.562	110.5
364.788	112.5
365.015	112.5
365.241	125.5
365.468	147.5
365.694	158.5
365.92	124.5
366.147	111.5
366.373	111.5
366.599	109.5
366.826	104.5
367.052	95.5
367.278	107.5
367.505	104.5
367.731	104.5
367.957	103.5
368.184	115.5
368.41	136.5
368.636	149.5
368.862	162.5
369.089	132.5
369.315	120.5
369.541	98.5
369.767	111.5
369.993	106.5
370.219	103.5
370.445	100.5
370.672	98.5
370.898	95.5
371.124	102.5
371.35	106.5
371.576	105.5
371.802	96.5
372.028	83.5
372.254	95.5
372.48	79.5
372.706	91.5
372.932	90.5
373.158	87.5
373.384	86.5
373.61	96.5
373.835	86.5
374.061	96.5
374.287	86.5
374.513	86.5
374.739	95.5
374.965	96.5
375.191	93.5
375.416	91.5
375.642	99.5
375.868	107.5
376.094	86.5
376.319	87.5
376.545	89.5
376.771	103.5
376.997	95.5
377.222	132.5
377.448	90.5
377.674	102.5
377.899	105.5
378.125	104.5
378.35	107.5
378.576	106.5
378.802	102.5
379.027	91.5
379.253	98.5
379.478	109.5
379.704	103.5
379.929	95.5
380.155	109.5
380.38	104.5
380.606	101.5
380.831	101.5
381.057	97.5
381.282	112.5
381.507	97.5
381.733	88.5
381.958	96.5
382.184	103.5
382.409	108.5
382.634	111.5
382.86	105.5
383.085	94.5
383.31	97.5
383.535	101.5
383.761	104.5
383.986	101.5
384.211	110.5
384.436	113.5
384.662	108.5
384.887	112.5
385.112	103.5
385.337	100.5
385.562	110.5
385.787	110.5
386.013	125.5
386.238	127.5
386.463	124.5
386.688	112.5
386.913	116.5
387.138	107.5
387.363	99.5
387.588	104.5
387.813	99.5
388.038	87.5
388.263	117.5
388.488	127.5
388.713	96.5
388.938	102.5
389.163	95.5
389.387	100.5
389.612	92.5
389.837	101.5
390.062	96.5
390.287	95.5
390.512	99.5
390.736	95.5
390.961	95.5
391.186	109.5
391.411	83.5
391.636	90.5
391.86	92.5
392.085	79.5
392.31	102.5
392.534	94.5
392.759	98.5
392.984	89.5
393.208	101.5
393.433	96.5
393.658	102.5
393.882	99.5
394.107	78.5
394.331	86.5
394.556	94.5
394.78	109.5
395.005	110.5
395.229	93.5
395.454	98.5
395.678	87.5
395.903	84.5
396.127	98.5
396.352	94.5
396.576	85.5
396.801	110.5
397.025	104.5
397.249	95.5
397.474	112.5
397.698	83.5
397.922	84.5
398.147	98.5
398.371	87.5
398.595	82.5
398.82	107.5
399.044	84.5
399.268	82.5
399.492	77.5
399.717	108.5
399.941	95.5
400.165	102.5
400.389	116.5
400.613	89.5
400.837	96.5
401.062	82.5
401.286	92.5
401.51	95.5
401.734	114.5
401.958	130.5
402.182	192.5
402.406	265.5
402.63	190.5
402.854	135.5
403.078	113.5
403.302	102.5
403.526	104.5
403.75	101.5
403.974	100.5
404.198	115.5
404.422	99.5
404.645	103.5
404.869	118.5
405.093	127.5
405.317	158.5
405.541	155.5
405.765	126.5
405.988	171.5
406.212	280.5
406.436	429.5
406.66	290.5
406.883	154.5
407.107	125.5
407.331	131.5
407.555	139.5
407.778	119.5
408.002	101.5
408.226	98.5
408.449	93.5
408.673	100.5
408.896	96.5
409.12	107.5
409.344	94.5
409.567	88.5
409.791	101.5
410.014	107.5
410.238	106.5
410.461	105.5
410.685	99.5
410.908	112.5
411.132	117.5
411.355	122.5
411.578	96.5
411.802	93.5
412.025	96.5
412.249	110.5
412.472	127.5
412.695	163.5
412.919	125.5
413.142	102.5
413.365	89.5
413.589	92.5
413.812	112.5
414.035	93.5
414.258	110.5
414.482	95.5
414.705	97.5
414.928	95.5
415.151	94.5
415.374	88.5
415.597	101.5
415.821	78.5
416.044	100.5
416.267	103.5
416.49	108.5
416.713	87.5
416.936	107.5
417.159	101.5
417.382	92.5
417.605	109.5
417.828	122.5
418.051	122.5
418.274	96.5
418.497	100.5
418.72	97.5
418.943	91.5
419.166	99.5
419.389	104.5
419.611	97.5
419.834	107.5
420.057	108.5
420.28	105.5
420.503	93.5
420.726	93.5
420.948	102.5
421.171	113.5
421.394	115.5
421.617	95.5
421.839	92.5
422.062	104.5
422.285	103.5
422.507	112.5
422.73	120.5
422.953	110.5
423.175	94.5
423.398	98.5
423.621	94.5
423.843	99.5
424.066	99.5
424.288	100.5
424.511	90.5
424.733	111.5
424.956	148.5
425.178	135.5
425.401	119.5
425.623	122.5
425.846	107.5
426.068	110.5
426.291	112.5
426.513	95.5
426.735	103.5
426.958	101.5
427.18	164.5
427.402	206.5
427.625	361.5
427.847	310.5
428.069	266.5
428.292	142.5
428.514	106.5
428.736	110.5
428.958	93.5
429.181	88.5
429.403	99.5
429.625	92.5
429.847	102.5
430.069	124.5
430.292	96.5
430.514	107.5
430.736	102.5
430.958	107.5
431.18	82.5
431.402	84.5
431.624	95.5
431.846	89.5
432.068	93.5
432.29	95.5
432.512	87.5
432.734	94.5
432.956	90.5
433.178	111.5
433.4	114.5
433.622	113.5
433.844	85.5
434.066	100.5
434.287	103.5
434.509	82.5
434.731	98.5
434.953	91.5
435.175	83.5
435.397	93.5
435.618	100.5
435.84	139.5
436.062	169.5
436.284	136.5
436.505	115.5
436.727	104.5
436.949	112.5
437.17	110.5
437.392	94.5
437.614	111.5
437.835	154.5
438.057	197.5
438.278	150.5
438.5	143.5
438.721	163.5
438.943	125.5
439.165	95.5
439.386	107.5
439.608	98.5
439.829	122.5
440.05	184.5
440.272	247.5
440.493	132.5
440.715	98.5
440.936	83.5
441.158	96.5
441.379	101.5
441.6	121.5
441.822	114.5
442.043	120.5
442.264	140.5
442.486	131.5
442.707	118.5
442.928	157.5
443.149	211.5
443.371	224.5
443.592	165.5
443.813	167.5
444.034	146.5
444.255	119.5
444.476	110.5
444.698	94.5
444.919	96.5
445.14	156.5
445.361	143.5
445.582	161.5
445.803	228.5
446.024	240.5
446.245	197.5
446.466	161.5
446.687	115.5
446.908	83.5
447.129	95.5
447.35	110.5
447.571	96.5
447.792	110.5
448.013	119.5
448.234	148.5
448.455	138.5
448.675	156.5
448.896	164.5
449.117	131.5
449.338	127.5
449.559	149.5
449.779	181.5
450	115.5
450.221	99.5
450.442	108.5
450.662	117.5
450.883	146.5
451.104	171.5
451.324	124.5
451.545	95.5
451.766	105.5
451.986	91.5
452.207	84.5
452.428	108.5
452.648	120.5
452.869	152.5
453.089	164.5
453.31	181.5
453.53	103.5
453.751	109.5
453.971	149.5
454.192	179.5
454.412	106.5
454.633	102.5
454.853	102.5
455.073	102.5
455.294	101.5
455.514	118.5
455.734	106.5
455.955	74.5
456.175	100.5
456.395	82.5
456.616	97.5
456.836	86.5
457.056	86.5
457.276	88.5
457.497	92.5
457.717	92.5
457.937	94.5
458.157	87.5
458.377	102.5
458.598	154.5
458.818	296.5
459.038	326.5
459.258	193.5
459.478	114.5
459.698	102.5
459.918	99.5
460.138	92.5
460.358	92.5
460.578	83.5
460.798	97.5
461.018	102.5
461.238	101.5
461.458	73.5
461.678	81.5
461.898	107.5
462.118	103.5
462.338	91.5
462.558	91.5
462.777	94.5
462.997	94.5
463.217	125.5
463.437	105.5
463.657	92.5
463.876	95.5
464.096	126.5
464.316	125.5
464.536	108.5
464.755	110.5
464.975	157.5
465.195	342.5
465.414	343.5
465.634	140.5
465.854	108.5
466.073	96.5
466.293	108.5
466.512	89.5
466.732	100.5
466.951	108.5
467.171	117.5
467.391	122.5
467.61	178.5
467.829	240.5
468.049	590.5
468.268	932.5
468.488	246.5
468.707	125.5
468.927	106.5
469.146	105.5
469.365	95.5
469.585	114.5
469.804	129.5
470.023	136.5
470.243	130.5
470.462	116.5
470.681	176.5
470.901	116.5
471.12	131.5
471.339	114.5
471.558	144.5
471.777	145.5
471.997	303.5
472.216	1168.5
472.435	2717.5
472.654	662.5
472.873	174.5
473.092	127.5
473.311	96.5
473.53	102.5
473.749	93.5
473.968	125.5
474.187	154.5
474.406	132.5
474.625	99.5
474.844	98.5
475.063	86.5
475.282	107.5
475.501	83.5
475.72	92.5
475.939	92.5
476.158	87.5
476.377	88.5
476.596	88.5
476.814	111.5
477.033	114.5
477.252	97.5
477.471	101.5
477.69	101.5
477.908	105.5
478.127	100.5
478.346	100.5
478.564	107.5
478.783	134.5
479.002	120.5
479.22	116.5
479.439	144.5
479.658	146.5
479.876	131.5
480.095	140.5
480.313	139.5
480.532	184.5
480.751	312.5
480.969	1030.5
481.188	4549.5
481.406	2803.5
481.624	407.5
481.843	166.5
482.061	120.5
482.28	104.5
482.498	122.5
482.717	101.5
482.935	93.5
483.153	103.5
483.372	87.5
483.59	98.5
483.808	117.5
484.027	98.5
484.245	103.5
484.463	106.5
484.681	99.5
484.9	95.5
485.118	93.5
485.336	110.5
485.554	104.5
485.772	94.5
485.99	104.5
486.209	112.5
486.427	113.5
486.645	125.5
486.863	165.5
487.081	111.5
487.299	108.5
487.517	105.5
487.735	95.5
487.953	95.5
488.171	112.5
488.389	106.5
488.607	117.5
488.825	111.5
489.043	95.5
489.261	100.5
489.479	97.5
489.696	87.5
489.914	92.5
490.132	109.5
490.35	94.5
490.568	103.5
490.786	100.5
491.003	84.5
491.221	95.5
491.439	88.5
491.657	108.5
491.874	105.5
492.092	94.5
492.31	119.5
492.527	110.5
492.745	115.5
492.963	107.5
493.18	86.5
493.398	82.5
493.615	92.5
493.833	110.5
494.05	106.5
494.268	95.5
494.485	91.5
494.703	99.5
494.92	105.5
495.138	102.5
495.355	87.5
495.573	103.5
495.79	90.5
496.008	91.5
496.225	103.5
496.442	93.5
496.66	94.5
496.877	97.5
497.094	106.5
497.312	106.5
497.529	96.5
497.746	97.5
497.963	102.5
498.181	102.5
498.398	106.5
498.615	143.5
498.832	126.5
499.049	98.5
499.267	95.5
499.484	100.5
499.701	109.5
499.918	91.5
500.135	111.5
500.352	95.5
500.569	104.5
500.786	94.5
501.003	89.5
501.22	94.5
501.437	82.5
501.654	116.5
501.871	174.5
502.088	118.5
502.305	113.5
502.522	93.5
502.739	82.5
502.956	105.5
503.172	105.5
503.389	102.5
503.606	142.5
503.823	127.5
504.04	100.5
504.256	100.5
504.473	103.5
504.69	95.5
504.907	106.5
505.123	100.5
505.34	91.5
505.557	98.5
505.773	101.5
505.99	108.5
506.207	97.5
506.423	96.5
506.64	105.5
506.856	94.5
507.073	111.5
507.289	102.5
507.506	122.5
507.722	169.5
507.939	165.5
508.155	113.5
508.372	88.5
508.588	94.5
508.805	112.5
509.021	117.5
509.238	109.5
509.454	117.5
509.67	106.5
509.887	108.5
510.103	170.5
510.319	308.5
510.536	1182.5
510.752	4424.5
510.968	1167.5
511.184	236.5
511.401	160.5
511.617	121.5
511.833	112.5
512.049	120.5
512.265	97.5
512.481	106.5
512.698	95.5
512.914	115.5
513.13	113.5
513.346	108.5
513.562	116.5
513.778	112.5
513.994	116.5
514.21	139.5
514.426	199.5
514.642	234.5
514.858	211.5
515.074	308.5
515.29	1058.5
515.506	4019.5
515.721	1390.5
515.937	296.5
516.153	173.5
516.369	143.5
516.585	114.5
516.801	123.5
517.016	103.5
517.232	113.5
517.448	97.5
517.664	104.5
517.879	113.5
518.095	104.5
518.311	113.5
518.527	127.5
518.742	101.5
518.958	98.5
519.173	119.5
519.389	117.5
519.605	109.5
519.82	113.5
520.036	138.5
520.251	179.5
520.467	164.5
520.682	154.5
520.898	156.5
521.113	166.5
521.329	224.5
521.544	426.5
521.76	1372.5
521.975	6509.5
522.19	3917.5
522.406	738.5
522.621	207.5
522.836	151.5
523.052	107.5
523.267	114.5
523.482	125.5
523.698	148.5
523.913	197.5
524.128	144.5
524.343	113.5
524.559	102.5
524.774	117.5
524.989	107.5
525.204	145.5
525.419	117.5
525.634	98.5
525.849	90.5
526.064	104.5
526.28	106.5
526.495	84.5
526.71	96.5
526.925	91.5
527.14	108.5
527.355	92.5
527.57	104.5
527.785	93.5
527.999	91.5
