Data from Circ_2007_H10_HRD10591_00004.txt Node
Date: Wed Jan 03 10:21:58 EST 2024
User: Yrep
Spectrometer: HR+D1059
Trigger mode: 1
Integration Time (sec): 1.000000E-1
Scans to average: 1
Electric dark correction enabled: true
Nonlinearity correction enabled: false
Boxcar width: 0
XAxis mode: Wavelengths
Number of Pixels in Spectrum: 2048
>>>>>Begin Spectral Data<<<<<
223.165	-11
223.4	-11
223.635	-11
223.869	-20
224.104	-21
224.338	-16
224.573	-14
224.808	-17
225.042	-5
225.277	3
225.511	-11
225.746	6
225.98	10
226.215	11
226.449	20
226.683	12
226.918	10
227.152	43
227.387	46
227.621	34
227.856	46
228.09	48
228.324	66
228.559	63
228.793	50
229.027	64
229.262	74
229.496	77
229.73	95
229.964	93
230.199	89
230.433	85
230.667	81
230.901	84
231.136	82
231.37	73
231.604	76
231.838	84
232.072	85
232.306	79
232.541	79
232.775	91
233.009	83
233.243	68
233.477	90
233.711	93
233.945	78
234.179	78
234.413	79
234.647	70
234.881	94
235.115	70
235.349	80
235.583	95
235.817	80
236.051	88
236.285	85
236.519	82
236.753	100
236.987	87
237.221	102
237.455	106
237.689	85
237.922	82
238.156	93
238.39	85
238.624	81
238.858	61
239.091	73
239.325	79
239.559	96
239.793	82
240.027	85
240.26	90
240.494	88
240.728	76
240.961	82
241.195	79
241.429	68
241.662	90
241.896	70
242.13	75
242.363	75
242.597	68
242.83	91
243.064	78
243.298	75
243.531	84
243.765	87
243.998	90
244.232	86
244.465	94
244.699	83
244.932	68
245.166	102
245.399	63
245.633	82
245.866	87
246.099	67
246.333	74
246.566	102
246.8	84
247.033	85
247.266	101
247.5	82
247.733	84
247.966	87
248.2	101
248.433	88
248.666	92
248.899	77
249.133	94
249.366	112
249.599	117
249.832	97
250.066	76
250.299	70
250.532	89
250.765	64
250.998	85
251.231	80
251.465	85
251.698	80
251.931	78
252.164	82
252.397	88
252.63	87
252.863	92
253.096	80
253.329	76
253.562	81
253.795	83
254.028	79
254.261	92
254.494	79
254.727	83
254.96	86
255.193	74
255.426	73
255.659	74
255.892	91
256.124	97
256.357	96
256.59	72
256.823	86
257.056	87
257.289	87
257.521	90
257.754	87
257.987	76
258.22	99
258.452	90
258.685	81
258.918	86
259.151	77
259.383	85
259.616	83
259.849	74
260.081	106
260.314	86
260.547	81
260.779	73
261.012	88
261.244	101
261.477	78
261.71	113
261.942	115
262.175	145
262.407	103
262.64	81
262.872	94
263.105	87
263.337	79
263.57	81
263.802	95
264.035	83
264.267	74
264.499	83
264.732	89
264.964	87
265.197	87
265.429	81
265.661	88
265.894	82
266.126	84
266.358	100
266.591	87
266.823	96
267.055	84
267.287	93
267.52	84
267.752	87
267.984	92
268.216	84
268.448	94
268.681	77
268.913	77
269.145	85
269.377	83
269.609	88
269.841	75
270.073	71
270.306	76
270.538	92
270.77	102
271.002	96
271.234	85
271.466	94
271.698	84
271.93	81
272.162	99
272.394	104
272.626	94
272.858	92
273.09	90
273.322	84
273.553	91
273.785	91
274.017	84
274.249	83
274.481	88
274.713	87
274.945	84
275.176	90
275.408	100
275.64	100
275.872	96
276.104	116
276.335	108
276.567	114
276.799	129
277.031	131
277.262	128
277.494	122
277.726	94
277.957	93
278.189	88
278.421	102
278.652	81
278.884	89
279.115	91
279.347	99
279.579	88
279.81	98
280.042	140
280.273	167
280.505	136
280.736	103
280.968	84
281.199	87
281.431	92
281.662	88
281.894	107
282.125	110
282.356	127
282.588	173
282.819	138
283.051	96
283.282	95
283.513	92
283.745	92
283.976	97
284.207	91
284.439	88
284.67	94
284.901	90
285.132	81
285.364	85
285.595	81
285.826	91
286.057	88
286.288	100
286.52	89
286.751	83
286.982	98
287.213	84
287.444	85
287.675	79
287.906	81
288.138	103
288.369	107
288.6	88
288.831	84
289.062	106
289.293	78
289.524	91
289.755	93
289.986	96
290.217	83
290.448	96
290.679	95
290.91	64
291.141	86
291.371	98
291.602	96
291.833	98
292.064	96
292.295	86
292.526	94
292.757	88
292.987	89
293.218	96
293.449	89
293.68	94
293.91	81
294.141	101
294.372	67
294.603	87
294.833	94
295.064	100
295.295	89
295.525	92
295.756	102
295.987	112
296.217	176
296.448	146
296.679	110
296.909	115
297.14	81
297.37	84
297.601	83
297.831	96
298.062	96
298.292	91
298.523	91
298.753	90
298.984	103
299.214	97
299.445	85
299.675	90
299.905	106
300.136	84
300.366	101
300.597	98
300.827	109
301.057	119
301.288	118
301.518	103
301.748	104
301.979	116
302.209	99
302.439	96
302.669	94
302.9	91
303.13	98
303.36	97
303.59	111
303.82	131
304.051	101
304.281	89
304.511	100
304.741	85
304.971	87
305.201	105
305.431	95
305.661	93
305.891	100
306.121	114
306.352	120
306.582	124
306.812	114
307.042	109
307.272	127
307.502	133
307.731	114
307.961	88
308.191	94
308.421	95
308.651	78
308.881	93
309.111	95
309.341	99
309.571	116
309.8	98
310.03	100
310.26	101
310.49	113
310.72	119
310.949	120
311.179	123
311.409	92
311.639	100
311.868	103
312.098	102
312.328	104
312.557	105
312.787	131
313.017	111
313.246	107
313.476	92
313.706	104
313.935	92
314.165	112
314.394	111
314.624	100
314.853	115
315.083	93
315.312	94
315.542	95
315.771	88
316.001	106
316.23	89
316.46	106
316.689	96
316.919	84
317.148	100
317.377	91
317.607	97
317.836	100
318.065	88
318.295	101
318.524	92
318.753	100
318.983	94
319.212	113
319.441	119
319.67	115
319.9	109
320.129	114
320.358	103
320.587	97
320.816	103
321.046	116
321.275	111
321.504	101
321.733	108
321.962	106
322.191	108
322.42	125
322.649	117
322.878	116
323.108	127
323.337	138
323.566	172
323.795	187
324.024	228
324.253	475
324.482	1027
324.71	2197
324.939	2936
325.168	1100
325.397	292
325.626	193
325.855	162
326.084	134
326.313	158
326.542	173
326.77	261
326.999	542
327.228	1154
327.457	2122
327.686	1686
327.914	516
328.143	371
328.372	390
328.6	251
328.829	171
329.058	163
329.287	186
329.515	167
329.744	178
329.972	278
330.201	531
330.43	751
330.658	391
330.887	236
331.115	176
331.344	119
331.572	125
331.801	106
332.03	133
332.258	107
332.486	101
332.715	106
332.943	97
333.172	126
333.4	114
333.629	142
333.857	173
334.085	255
334.314	483
334.542	867
334.771	898
334.999	282
335.227	144
335.455	114
335.684	109
335.912	119
336.14	107
336.369	109
336.597	92
336.825	110
337.053	95
337.281	85
337.51	91
337.738	101
337.966	97
338.194	110
338.422	108
338.65	94
338.878	92
339.106	95
339.334	96
339.562	86
339.79	90
340.018	98
340.246	98
340.474	120
340.702	95
340.93	104
341.158	94
341.386	102
341.614	93
341.842	107
342.07	96
342.298	106
342.526	109
342.754	96
342.981	93
343.209	103
343.437	99
343.665	86
343.893	84
344.12	84
344.348	95
344.576	114
344.804	103
345.031	107
345.259	114
345.487	115
345.714	107
345.942	89
346.17	84
346.397	92
346.625	99
346.853	92
347.08	96
347.308	122
347.535	103
347.763	92
347.99	103
348.218	103
348.445	114
348.673	112
348.9	98
349.128	98
349.355	104
349.583	92
349.81	104
350.037	102
350.265	100
350.492	97
350.72	105
350.947	97
351.174	123
351.402	123
351.629	125
351.856	104
352.083	106
352.311	111
352.538	117
352.765	130
352.992	124
353.22	123
353.447	110
353.674	107
353.901	90
354.128	92
354.355	88
354.583	109
354.81	104
355.037	98
355.264	96
355.491	100
355.718	115
355.945	78
356.172	103
356.399	101
356.626	91
356.853	87
357.08	92
357.307	103
357.534	84
357.761	94
357.988	92
358.215	90
358.441	110
358.668	92
358.895	95
359.122	98
359.349	110
359.576	87
359.802	116
360.029	145
360.256	137
360.483	111
360.709	92
360.936	107
361.163	101
361.39	107
361.616	83
361.843	98
362.07	102
362.296	99
362.523	104
362.749	95
362.976	107
363.203	100
363.429	98
363.656	97
363.882	102
364.109	101
364.335	100
364.562	107
364.788	109
365.015	91
365.241	107
365.468	110
365.694	123
365.92	101
366.147	88
366.373	88
366.599	97
366.826	100
367.052	105
367.278	93
367.505	87
367.731	107
367.957	91
368.184	94
368.41	96
368.636	130
368.862	126
369.089	124
369.315	103
369.541	104
369.767	87
369.993	93
370.219	105
370.445	92
370.672	90
370.898	89
371.124	100
371.35	93
371.576	85
371.802	89
372.028	88
372.254	107
372.48	98
372.706	78
372.932	92
373.158	89
373.384	104
373.61	104
373.835	84
374.061	102
374.287	106
374.513	100
374.739	97
374.965	87
375.191	83
375.416	81
375.642	74
375.868	96
376.094	96
376.319	95
376.545	102
376.771	92
376.997	102
377.222	95
377.448	90
377.674	95
377.899	97
378.125	96
378.35	95
378.576	95
378.802	96
379.027	120
379.253	106
379.478	101
379.704	101
379.929	93
380.155	100
380.38	105
380.606	108
380.831	104
381.057	99
381.282	100
381.507	106
381.733	108
381.958	99
382.184	118
382.409	111
382.634	108
382.86	103
383.085	101
383.31	109
383.535	128
383.761	112
383.986	127
384.211	123
384.436	119
384.662	118
384.887	126
385.112	111
385.337	127
385.562	109
385.787	116
386.013	113
386.238	146
386.463	136
386.688	120
386.913	116
387.138	120
387.363	108
387.588	87
387.813	103
388.038	123
388.263	136
388.488	127
388.713	93
388.938	104
389.163	98
389.387	94
389.612	92
389.837	96
390.062	100
390.287	89
390.512	102
390.736	81
390.961	90
391.186	85
391.411	84
391.636	93
391.86	106
392.085	94
392.31	95
392.534	92
392.759	97
392.984	96
393.208	102
393.433	109
393.658	104
393.882	92
394.107	84
394.331	82
394.556	92
394.78	97
395.005	101
395.229	85
395.454	87
395.678	88
395.903	103
396.127	76
396.352	95
396.576	84
396.801	105
397.025	102
397.249	85
397.474	96
397.698	94
397.922	97
398.147	101
398.371	105
398.595	105
398.82	87
399.044	79
399.268	82
399.492	85
399.717	84
399.941	94
400.165	97
400.389	92
400.613	83
400.837	97
401.062	87
401.286	88
401.51	104
401.734	97
401.958	101
402.182	144
402.406	189
402.63	150
402.854	94
403.078	103
403.302	77
403.526	101
403.75	86
403.974	94
404.198	98
404.422	83
404.645	90
404.869	109
405.093	113
405.317	124
405.541	130
405.765	124
405.988	136
406.212	219
406.436	324
406.66	203
406.883	126
407.107	119
407.331	113
407.555	107
407.778	98
408.002	92
408.226	87
408.449	85
408.673	83
408.896	105
409.12	95
409.344	86
409.567	98
409.791	83
410.014	98
410.238	92
410.461	88
410.685	97
410.908	96
411.132	101
411.355	112
411.578	98
411.802	94
412.025	91
412.249	107
412.472	119
412.695	115
412.919	87
413.142	101
413.365	85
413.589	91
413.812	97
414.035	107
414.258	87
414.482	89
414.705	83
414.928	89
415.151	99
415.374	95
415.597	85
415.821	85
416.044	88
416.267	88
416.49	102
416.713	109
416.936	100
417.159	102
417.382	106
417.605	106
417.828	113
418.051	114
418.274	78
418.497	100
418.72	92
418.943	103
419.166	77
419.389	99
419.611	94
419.834	101
420.057	88
420.28	98
420.503	89
420.726	83
420.948	92
421.171	108
421.394	100
421.617	102
421.839	86
422.062	91
422.285	93
422.507	103
422.73	119
422.953	107
423.175	94
423.398	87
423.621	86
423.843	79
424.066	83
424.288	87
424.511	86
424.733	102
424.956	117
425.178	109
425.401	118
425.623	106
425.846	92
426.068	95
426.291	107
426.513	89
426.735	102
426.958	104
427.18	111
427.402	182
427.625	258
427.847	213
428.069	186
428.292	133
428.514	92
428.736	102
428.958	85
429.181	90
429.403	106
429.625	86
429.847	85
430.069	125
430.292	111
430.514	89
430.736	99
430.958	85
431.18	82
431.402	64
431.624	79
431.846	79
432.068	69
432.29	99
432.512	97
432.734	92
432.956	98
433.178	114
433.4	101
433.622	99
433.844	96
434.066	102
434.287	97
434.509	95
434.731	107
434.953	81
435.175	83
435.397	102
435.618	101
435.84	103
436.062	145
436.284	128
436.505	107
436.727	119
436.949	104
437.17	100
437.392	88
437.614	89
437.835	127
438.057	145
438.278	136
438.5	117
438.721	139
438.943	124
439.165	81
439.386	85
439.608	98
439.829	113
440.05	154
440.272	198
440.493	119
440.715	92
440.936	102
441.158	97
441.379	96
441.6	107
441.822	103
442.043	114
442.264	142
442.486	115
442.707	92
442.928	124
443.149	174
443.371	165
443.592	126
443.813	132
444.034	115
444.255	95
444.476	84
444.698	104
444.919	107
445.14	139
445.361	142
445.582	137
445.803	182
446.024	186
446.245	175
446.466	147
446.687	96
446.908	99
447.129	92
447.35	82
447.571	112
447.792	110
448.013	112
448.234	118
448.455	102
448.675	115
448.896	142
449.117	116
449.338	112
449.559	149
449.779	144
450	101
450.221	82
450.442	91
450.662	111
450.883	118
451.104	128
451.324	108
451.545	86
451.766	93
451.986	81
452.207	99
452.428	96
452.648	114
452.869	138
453.089	135
453.31	143
453.53	95
453.751	87
453.971	108
454.192	139
454.412	98
454.633	101
454.853	95
455.073	80
455.294	91
455.514	117
455.734	106
455.955	91
456.175	98
456.395	80
456.616	90
456.836	108
457.056	85
457.276	94
457.497	96
457.717	75
457.937	71
458.157	105
458.377	94
458.598	116
458.818	203
459.038	245
459.258	156
459.478	93
459.698	79
459.918	79
460.138	66
460.358	78
460.578	99
460.798	87
461.018	86
461.238	76
461.458	91
461.678	88
461.898	100
462.118	94
462.338	79
462.558	93
462.777	84
462.997	103
463.217	96
463.437	98
463.657	82
463.876	87
464.096	102
464.316	95
464.536	101
464.755	114
464.975	124
465.195	227
465.414	226
465.634	109
465.854	91
466.073	98
466.293	78
466.512	76
466.732	85
466.951	86
467.171	96
467.391	99
467.61	130
467.829	164
468.049	292
468.268	409
468.488	162
468.707	98
468.927	81
469.146	82
469.365	99
469.585	101
469.804	80
470.023	107
470.243	101
470.462	114
470.681	144
470.901	107
471.12	90
471.339	82
471.558	92
471.777	116
471.997	170
472.216	523
472.435	1173
472.654	318
472.873	122
473.092	101
473.311	103
473.53	92
473.749	95
473.968	108
474.187	118
474.406	111
474.625	97
474.844	104
475.063	94
475.282	100
475.501	110
475.72	91
475.939	88
476.158	88
476.377	95
476.596	85
476.814	86
477.033	102
477.252	103
477.471	90
477.69	86
477.908	102
478.127	97
478.346	101
478.564	87
478.783	109
479.002	86
479.22	95
479.439	113
479.658	114
479.876	121
480.095	107
480.313	109
480.532	127
480.751	182
480.969	484
481.188	1907
481.406	1261
481.624	225
481.843	102
482.061	90
482.28	89
482.498	102
482.717	106
482.935	88
483.153	96
483.372	96
483.59	103
483.808	91
484.027	116
484.245	99
484.463	99
484.681	102
484.9	87
485.118	104
485.336	103
485.554	107
485.772	111
485.99	119
486.209	108
486.427	111
486.645	113
486.863	134
487.081	108
487.299	92
487.517	101
487.735	105
487.953	82
488.171	98
488.389	106
488.607	96
488.825	83
489.043	96
489.261	95
489.479	90
489.696	90
489.914	90
490.132	100
490.35	92
490.568	93
490.786	69
491.003	99
491.221	93
491.439	95
491.657	99
491.874	82
492.092	103
492.31	97
492.527	95
492.745	93
492.963	91
493.18	91
493.398	100
493.615	88
493.833	96
494.05	90
494.268	94
494.485	90
494.703	86
494.92	103
495.138	87
495.355	87
495.573	85
495.79	90
496.008	93
496.225	90
496.442	87
496.66	96
496.877	96
497.094	84
497.312	100
497.529	96
497.746	107
497.963	86
498.181	93
498.398	94
498.615	123
498.832	111
499.049	86
499.267	86
499.484	83
499.701	90
499.918	84
500.135	104
500.352	99
500.569	90
500.786	93
501.003	91
501.22	86
501.437	103
501.654	99
501.871	122
502.088	104
502.305	90
502.522	94
502.739	97
502.956	102
503.172	92
503.389	90
503.606	119
503.823	100
504.04	95
504.256	95
504.473	79
504.69	95
504.907	94
505.123	84
505.34	102
505.557	100
505.773	79
505.99	97
506.207	103
506.423	100
506.64	92
506.856	98
507.073	97
507.289	98
507.506	106
507.722	124
507.939	136
508.155	115
508.372	99
508.588	103
508.805	103
509.021	89
509.238	112
509.454	109
509.67	102
509.887	112
510.103	144
510.319	254
510.536	904
510.752	3187
510.968	870
511.184	173
511.401	118
511.617	93
511.833	112
512.049	107
512.265	102
512.481	101
512.698	86
512.914	96
513.13	92
513.346	102
513.562	92
513.778	123
513.994	99
514.21	121
514.426	148
514.642	173
514.858	162
515.074	215
515.29	672
515.506	2540
515.721	931
515.937	218
516.153	146
516.369	104
516.585	90
516.801	98
517.016	85
517.232	92
517.448	104
517.664	102
517.879	92
518.095	87
518.311	112
518.527	107
518.742	81
518.958	105
519.173	95
519.389	95
519.605	99
519.82	95
520.036	120
520.251	163
520.467	131
520.682	125
520.898	139
521.113	148
521.329	178
521.544	290
521.76	867
521.975	4178
522.19	2498
522.406	510
522.621	163
522.836	112
523.052	111
523.267	107
523.482	122
523.698	123
523.913	150
524.128	128
524.343	104
524.559	99
524.774	96
524.989	95
525.204	136
525.419	117
525.634	102
525.849	90
526.064	98
526.28	89
526.495	101
526.71	93
526.925	111
527.14	97
527.355	116
527.57	102
527.785	109
527.999	90
528.214	106
528.429	94
528.644	101
528.859	103
529.074	97
529.289	158
529.503	281
529.718	118
529.933	86
530.148	86
530.363	87
530.577	84
530.792	89
531.007	82
531.221	84
531.436	99
531.651	92
531.865	91
532.08	75
532.295	99
532.509	94
532.724	88
532.938	89
533.153	97
533.367	103
533.582	84
533.796	87
534.011	96
534.225	101
534.44	95
534.654	98
534.868	90
535.083	86
535.297	95
535.511	116
535.726	109
535.94	112
536.154	97
536.369	93
536.583	87
536.797	90
537.011	103
537.225	93
537.44	78
537.654	87
537.868	86
538.082	86
538.296	87
538.51	97
538.724	94
538.938	98
539.153	101
539.367	122
539.581	112
539.795	103
540.009	93
540.222	99
540.436	107
540.65	98
540.864	95
541.078	108
541.292	94
541.506	89
541.72	78
541.934	94
542.147	96
542.361	87
542.575	88
542.789	89
543.002	103
543.216	91
543.43	115
543.644	91
543.857	87
544.071	91
544.285	95
544.498	98
544.712	88
544.925	101
545.139	93
545.352	82
545.566	85
545.779	102
545.993	98
546.206	97
546.42	97
546.633	82
546.847	97
547.06	98
547.274	84
547.487	91
547.7	103
547.914	84
548.127	87
548.34	96
548.554	91
548.767	94
548.98	103
549.193	99
549.407	86
549.62	90
549.833	105
550.046	84
550.259	92
550.473	109
550.686	95
550.899	93
551.112	90
551.325	83
551.538	93
551.751	88
551.964	78
552.177	93
552.39	90
552.603	99
552.816	85
553.029	94
553.242	71
553.455	111
553.667	116
553.88	117
554.093	124
554.306	106
554.519	99
554.732	95
554.944	95
555.157	83
555.37	99
555.583	96
555.795	95
556.008	103
556.221	95
556.433	102
556.646	106
556.859	95
557.071	88
557.284	97
557.496	76
557.709	89
557.921	94
558.134	96
558.346	91
558.559	78
558.771	88
558.984	90
559.196	100
559.409	92
559.621	81
559.833	73
560.046	92
560.258	103
560.47	108
560.683	96
560.895	99
561.107	84
561.32	90
561.532	107
561.744	94
561.956	99
562.168	102
562.381	91
562.593	85
562.805	98
563.017	89
563.229	100
563.441	92
563.653	88
563.865	83
564.077	76
564.289	84
564.501	87
564.713	94
564.925	106
565.137	129
565.349	91
565.561	83
565.773	93
565.985	86
566.197	90
566.408	77
566.62	90
566.832	104
567.044	101
567.255	86
567.467	76
567.679	93
567.891	95
568.102	76
568.314	80
568.526	94
568.737	107
568.949	109
569.161	95
569.372	95
569.584	84
569.795	97
570.007	122
570.218	308
570.43	160
570.641	94
570.853	90
571.064	85
571.276	101
571.487	78
571.698	93
571.91	86
572.121	90
572.333	102
572.544	94
572.755	88
572.966	94
573.178	85
573.389	84
573.6	92
573.811	85
574.023	93
574.234	94
574.445	100
574.656	98
574.867	85
575.078	96
575.289	84
575.501	104
575.712	86
575.923	85
576.134	85
576.345	91
576.556	88
576.767	98
576.978	104
577.188	106
577.399	94
577.61	94
577.821	109
578.032	127
578.243	330
578.454	1034
578.665	269
578.875	123
