Data from Circ_2007_H10_HRD10591_00012.txt Node
Date: Wed Jan 03 10:21:59 EST 2024
User: Yrep
Spectrometer: HR+D1059
Trigger mode: 1
Integration Time (sec): 1.000000E-1
Scans to average: 1
Electric dark correction enabled: true
Nonlinearity correction enabled: false
Boxcar width: 0
XAxis mode: Wavelengths
Number of Pixels in Spectrum: 2048
>>>>>Begin Spectral Data<<<<<
223.165	-21.81
223.4	-21.81
223.635	-21.81
223.869	-28.81
224.104	-24.81
224.338	-6.81
224.573	-14.81
224.808	-10.81
225.042	4.19
225.277	-7.81
225.511	-8.81
225.746	17.19
225.98	9.19
226.215	6.19
226.449	10.19
226.683	16.19
226.918	26.19
227.152	35.19
227.387	25.19
227.621	33.19
227.856	42.19
228.09	51.19
228.324	54.19
228.559	67.19
228.793	66.19
229.027	57.19
229.262	63.19
229.496	76.19
229.73	83.19
229.964	91.19
230.199	61.19
230.433	74.19
230.667	77.19
230.901	74.19
231.136	83.19
231.37	70.19
231.604	68.19
231.838	80.19
232.072	74.19
232.306	63.19
232.541	90.19
232.775	83.19
233.009	100.19
233.243	88.19
233.477	87.19
233.711	85.19
233.945	77.19
234.179	63.19
234.413	90.19
234.647	77.19
234.881	67.19
235.115	78.19
235.349	66.19
235.583	85.19
235.817	64.19
236.051	93.19
236.285	82.19
236.519	95.19
236.753	78.19
236.987	96.19
237.221	91.19
237.455	90.19
237.689	78.19
237.922	76.19
238.156	74.19
238.39	79.19
238.624	82.19
238.858	69.19
239.091	82.19
239.325	91.19
239.559	93.19
239.793	77.19
240.027	71.19
240.26	89.19
240.494	71.19
240.728	85.19
240.961	68.19
241.195	80.19
241.429	78.19
241.662	80.19
241.896	91.19
242.13	73.19
242.363	77.19
242.597	67.19
242.83	75.19
243.064	93.19
243.298	80.19
243.531	58.19
243.765	105.19
243.998	89.19
244.232	66.19
244.465	84.19
244.699	79.19
244.932	64.19
245.166	82.19
245.399	78.19
245.633	85.19
245.866	77.19
246.099	75.19
246.333	61.19
246.566	59.19
246.8	73.19
247.033	70.19
247.266	71.19
247.5	85.19
247.733	79.19
247.966	78.19
248.2	74.19
248.433	77.19
248.666	83.19
248.899	77.19
249.133	82.19
249.366	103.19
249.599	104.19
249.832	85.19
250.066	81.19
250.299	92.19
250.532	87.19
250.765	77.19
250.998	75.19
251.231	67.19
251.465	77.19
251.698	84.19
251.931	90.19
252.164	84.19
252.397	76.19
252.63	81.19
252.863	81.19
253.096	81.19
253.329	85.19
253.562	79.19
253.795	81.19
254.028	66.19
254.261	77.19
254.494	93.19
254.727	80.19
254.96	86.19
255.193	75.19
255.426	81.19
255.659	78.19
255.892	90.19
256.124	90.19
256.357	91.19
256.59	85.19
256.823	73.19
257.056	78.19
257.289	90.19
257.521	88.19
257.754	82.19
257.987	79.19
258.22	92.19
258.452	78.19
258.685	102.19
258.918	91.19
259.151	77.19
259.383	79.19
259.616	80.19
259.849	89.19
260.081	96.19
260.314	85.19
260.547	85.19
260.779	85.19
261.012	87.19
261.244	95.19
261.477	85.19
261.71	99.19
261.942	119.19
262.175	142.19
262.407	100.19
262.64	107.19
262.872	87.19
263.105	86.19
263.337	90.19
263.57	82.19
263.802	83.19
264.035	86.19
264.267	82.19
264.499	81.19
264.732	92.19
264.964	74.19
265.197	86.19
265.429	78.19
265.661	82.19
265.894	80.19
266.126	96.19
266.358	97.19
266.591	83.19
266.823	89.19
267.055	84.19
267.287	79.19
267.52	94.19
267.752	79.19
267.984	93.19
268.216	82.19
268.448	93.19
268.681	97.19
268.913	82.19
269.145	81.19
269.377	71.19
269.609	89.19
269.841	77.19
270.073	77.19
270.306	77.19
270.538	98.19
270.77	81.19
271.002	79.19
271.234	86.19
271.466	85.19
271.698	91.19
271.93	96.19
272.162	84.19
272.394	101.19
272.626	87.19
272.858	105.19
273.09	83.19
273.322	84.19
273.553	79.19
273.785	87.19
274.017	84.19
274.249	98.19
274.481	77.19
274.713	87.19
274.945	95.19
275.176	95.19
275.408	97.19
275.64	100.19
275.872	105.19
276.104	98.19
276.335	91.19
276.567	114.19
276.799	127.19
277.031	127.19
277.262	117.19
277.494	108.19
277.726	85.19
277.957	89.19
278.189	87.19
278.421	84.19
278.652	81.19
278.884	99.19
279.115	99.19
279.347	87.19
279.579	93.19
279.81	91.19
280.042	130.19
280.273	152.19
280.505	112.19
280.736	94.19
280.968	97.19
281.199	99.19
281.431	98.19
281.662	91.19
281.894	99.19
282.125	101.19
282.356	119.19
282.588	173.19
282.819	130.19
283.051	93.19
283.282	83.19
283.513	89.19
283.745	91.19
283.976	77.19
284.207	92.19
284.439	97.19
284.67	93.19
284.901	92.19
285.132	83.19
285.364	93.19
285.595	94.19
285.826	96.19
286.057	92.19
286.288	90.19
286.52	97.19
286.751	82.19
286.982	94.19
287.213	81.19
287.444	103.19
287.675	90.19
287.906	98.19
288.138	95.19
288.369	103.19
288.6	107.19
288.831	96.19
289.062	87.19
289.293	93.19
289.524	86.19
289.755	72.19
289.986	93.19
290.217	92.19
290.448	92.19
290.679	76.19
290.91	97.19
291.141	82.19
291.371	99.19
291.602	94.19
291.833	73.19
292.064	99.19
292.295	89.19
292.526	108.19
292.757	85.19
292.987	79.19
293.218	93.19
293.449	74.19
293.68	82.19
293.91	78.19
294.141	95.19
294.372	91.19
294.603	85.19
294.833	83.19
295.064	90.19
295.295	102.19
295.525	91.19
295.756	99.19
295.987	108.19
296.217	165.19
296.448	137.19
296.679	97.19
296.909	105.19
297.14	97.19
297.37	95.19
297.601	103.19
297.831	83.19
298.062	75.19
298.292	83.19
298.523	106.19
298.753	93.19
298.984	93.19
299.214	95.19
299.445	105.19
299.675	103.19
299.905	104.19
300.136	86.19
300.366	83.19
300.597	104.19
300.827	98.19
301.057	97.19
301.288	96.19
301.518	98.19
301.748	106.19
301.979	114.19
302.209	99.19
302.439	99.19
302.669	83.19
302.9	92.19
303.13	92.19
303.36	86.19
303.59	98.19
303.82	123.19
304.051	92.19
304.281	105.19
304.511	82.19
304.741	83.19
304.971	90.19
305.201	88.19
305.431	97.19
305.661	93.19
305.891	113.19
306.121	102.19
306.352	95.19
306.582	119.19
306.812	92.19
307.042	102.19
307.272	104.19
307.502	111.19
307.731	113.19
307.961	109.19
308.191	103.19
308.421	99.19
308.651	96.19
308.881	81.19
309.111	99.19
309.341	98.19
309.571	85.19
309.8	108.19
310.03	99.19
310.26	99.19
310.49	98.19
310.72	115.19
310.949	116.19
311.179	104.19
311.409	99.19
311.639	92.19
311.868	98.19
312.098	108.19
312.328	106.19
312.557	110.19
312.787	127.19
313.017	101.19
313.246	90.19
313.476	101.19
313.706	90.19
313.935	95.19
314.165	99.19
314.394	108.19
314.624	110.19
314.853	99.19
315.083	99.19
315.312	95.19
315.542	91.19
315.771	100.19
316.001	84.19
316.23	98.19
316.46	85.19
316.689	88.19
316.919	96.19
317.148	105.19
317.377	77.19
317.607	96.19
317.836	107.19
318.065	94.19
318.295	94.19
318.524	103.19
318.753	94.19
318.983	90.19
319.212	107.19
319.441	117.19
319.67	107.19
319.9	94.19
320.129	98.19
320.358	90.19
320.587	96.19
320.816	97.19
321.046	112.19
321.275	105.19
321.504	105.19
321.733	105.19
321.962	100.19
322.191	116.19
322.42	103.19
322.649	130.19
322.878	112.19
323.108	133.19
323.337	133.19
323.566	149.19
323.795	158.19
324.024	254.19
324.253	465.19
324.482	989.19
324.71	2097.19
324.939	2813.19
325.168	1047.19
325.397	287.19
325.626	160.19
325.855	145.19
326.084	145.19
326.313	137.19
326.542	167.19
326.77	278.19
326.999	542.19
327.228	1102.19
327.457	2093.19
327.686	1666.19
327.914	486.19
328.143	335.19
328.372	365.19
328.6	231.19
328.829	160.19
329.058	170.19
329.287	170.19
329.515	149.19
329.744	165.19
329.972	234.19
330.201	440.19
330.43	666.19
330.658	361.19
330.887	211.19
331.115	165.19
331.344	122.19
331.572	110.19
331.801	127.19
332.03	107.19
332.258	121.19
332.486	103.19
332.715	101.19
332.943	86.19
333.172	95.19
333.4	120.19
333.629	126.19
333.857	147.19
334.085	242.19
334.314	406.19
334.542	806.19
334.771	811.19
334.999	250.19
335.227	140.19
335.455	111.19
335.684	97.19
335.912	107.19
336.14	87.19
336.369	118.19
336.597	118.19
336.825	111.19
337.053	90.19
337.281	102.19
337.51	89.19
337.738	103.19
337.966	95.19
338.194	114.19
338.422	98.19
338.65	87.19
338.878	92.19
339.106	94.19
339.334	86.19
339.562	93.19
339.79	98.19
340.018	102.19
340.246	87.19
340.474	103.19
340.702	101.19
340.93	102.19
341.158	101.19
341.386	108.19
341.614	102.19
341.842	91.19
342.07	94.19
342.298	95.19
342.526	96.19
342.754	91.19
342.981	92.19
343.209	102.19
343.437	90.19
343.665	88.19
343.893	106.19
344.12	81.19
344.348	91.19
344.576	101.19
344.804	94.19
345.031	97.19
345.259	94.19
345.487	91.19
345.714	100.19
345.942	79.19
346.17	94.19
346.397	99.19
346.625	86.19
346.853	91.19
347.08	77.19
347.308	94.19
347.535	98.19
347.763	110.19
347.99	100.19
348.218	110.19
348.445	119.19
348.673	123.19
348.9	103.19
349.128	105.19
349.355	95.19
349.583	96.19
349.81	90.19
350.037	94.19
350.265	103.19
350.492	103.19
350.72	79.19
350.947	93.19
351.174	109.19
351.402	108.19
351.629	112.19
351.856	105.19
352.083	94.19
352.311	115.19
352.538	122.19
352.765	110.19
352.992	106.19
353.22	122.19
353.447	109.19
353.674	104.19
353.901	108.19
354.128	102.19
354.355	91.19
354.583	90.19
354.81	106.19
355.037	100.19
355.264	93.19
355.491	102.19
355.718	86.19
355.945	101.19
356.172	85.19
356.399	101.19
356.626	85.19
356.853	95.19
357.08	90.19
357.307	92.19
357.534	76.19
357.761	97.19
357.988	94.19
358.215	95.19
358.441	101.19
358.668	107.19
358.895	93.19
359.122	87.19
359.349	91.19
359.576	92.19
359.802	103.19
360.029	133.19
360.256	126.19
360.483	111.19
360.709	98.19
360.936	93.19
361.163	102.19
361.39	94.19
361.616	95.19
361.843	86.19
362.07	107.19
362.296	98.19
362.523	106.19
362.749	92.19
362.976	92.19
363.203	98.19
363.429	89.19
363.656	82.19
363.882	98.19
364.109	109.19
364.335	96.19
364.562	91.19
364.788	94.19
365.015	93.19
365.241	117.19
365.468	127.19
365.694	131.19
365.92	98.19
366.147	95.19
366.373	94.19
366.599	82.19
366.826	98.19
367.052	97.19
367.278	96.19
367.505	93.19
367.731	86.19
367.957	88.19
368.184	81.19
368.41	106.19
368.636	113.19
368.862	139.19
369.089	112.19
369.315	113.19
369.541	97.19
369.767	92.19
369.993	80.19
370.219	99.19
370.445	67.19
370.672	86.19
370.898	82.19
371.124	83.19
371.35	84.19
371.576	95.19
371.802	79.19
372.028	105.19
372.254	85.19
372.48	82.19
372.706	94.19
372.932	103.19
373.158	93.19
373.384	95.19
373.61	94.19
373.835	85.19
374.061	82.19
374.287	89.19
374.513	88.19
374.739	107.19
374.965	96.19
375.191	94.19
375.416	92.19
375.642	109.19
375.868	93.19
376.094	86.19
376.319	84.19
376.545	95.19
376.771	83.19
376.997	86.19
377.222	83.19
377.448	97.19
377.674	97.19
377.899	95.19
378.125	83.19
378.35	97.19
378.576	100.19
378.802	107.19
379.027	93.19
379.253	87.19
379.478	81.19
379.704	92.19
379.929	104.19
380.155	98.19
380.38	100.19
380.606	97.19
380.831	95.19
381.057	107.19
381.282	106.19
381.507	101.19
381.733	111.19
381.958	87.19
382.184	96.19
382.409	82.19
382.634	102.19
382.86	105.19
383.085	102.19
383.31	109.19
383.535	115.19
383.761	96.19
383.986	111.19
384.211	101.19
384.436	89.19
384.662	103.19
384.887	106.19
385.112	119.19
385.337	134.19
385.562	110.19
385.787	123.19
386.013	139.19
386.238	135.19
386.463	127.19
386.688	114.19
386.913	127.19
387.138	123.19
387.363	118.19
387.588	103.19
387.813	105.19
388.038	122.19
388.263	131.19
388.488	126.19
388.713	117.19
388.938	105.19
389.163	111.19
389.387	85.19
389.612	93.19
389.837	83.19
390.062	98.19
390.287	81.19
390.512	88.19
390.736	92.19
390.961	84.19
391.186	83.19
391.411	83.19
391.636	98.19
391.86	101.19
392.085	83.19
392.31	85.19
392.534	80.19
392.759	75.19
392.984	93.19
393.208	104.19
393.433	104.19
393.658	107.19
393.882	95.19
394.107	83.19
394.331	90.19
394.556	76.19
394.78	97.19
395.005	92.19
395.229	86.19
395.454	91.19
395.678	97.19
395.903	90.19
396.127	75.19
396.352	89.19
396.576	85.19
396.801	101.19
397.025	103.19
397.249	97.19
397.474	90.19
397.698	92.19
397.922	72.19
398.147	86.19
398.371	83.19
398.595	86.19
398.82	81.19
399.044	100.19
399.268	92.19
399.492	69.19
399.717	102.19
399.941	85.19
400.165	98.19
400.389	91.19
400.613	94.19
400.837	81.19
401.062	86.19
401.286	95.19
401.51	96.19
401.734	97.19
401.958	92.19
402.182	144.19
402.406	185.19
402.63	131.19
402.854	100.19
403.078	102.19
403.302	99.19
403.526	93.19
403.75	99.19
403.974	97.19
404.198	89.19
404.422	90.19
404.645	106.19
404.869	101.19
405.093	116.19
405.317	132.19
405.541	121.19
405.765	114.19
405.988	123.19
406.212	203.19
406.436	286.19
406.66	207.19
406.883	122.19
407.107	96.19
407.331	101.19
407.555	102.19
407.778	104.19
408.002	102.19
408.226	89.19
408.449	95.19
408.673	85.19
408.896	93.19
409.12	91.19
409.344	100.19
409.567	88.19
409.791	87.19
410.014	118.19
410.238	88.19
410.461	97.19
410.685	100.19
410.908	93.19
411.132	100.19
411.355	102.19
411.578	113.19
411.802	88.19
412.025	84.19
412.249	104.19
412.472	98.19
412.695	121.19
412.919	104.19
413.142	96.19
413.365	91.19
413.589	89.19
413.812	93.19
414.035	87.19
414.258	109.19
414.482	84.19
414.705	88.19
414.928	97.19
415.151	103.19
415.374	90.19
415.597	100.19
415.821	99.19
416.044	74.19
416.267	110.19
416.49	91.19
416.713	92.19
416.936	89.19
417.159	87.19
417.382	106.19
417.605	106.19
417.828	107.19
418.051	106.19
418.274	103.19
418.497	92.19
418.72	89.19
418.943	84.19
419.166	95.19
419.389	106.19
419.611	95.19
419.834	100.19
420.057	97.19
420.28	94.19
420.503	88.19
420.726	81.19
420.948	80.19
421.171	104.19
421.394	96.19
421.617	95.19
421.839	76.19
422.062	96.19
422.285	90.19
422.507	109.19
422.73	98.19
422.953	106.19
423.175	96.19
423.398	89.19
423.621	81.19
423.843	86.19
424.066	101.19
424.288	77.19
424.511	106.19
424.733	95.19
424.956	127.19
425.178	114.19
425.401	116.19
425.623	125.19
425.846	108.19
426.068	86.19
426.291	90.19
426.513	109.19
426.735	103.19
426.958	106.19
427.18	122.19
427.402	179.19
427.625	244.19
427.847	198.19
428.069	195.19
428.292	103.19
428.514	99.19
428.736	82.19
428.958	75.19
429.181	103.19
429.403	94.19
429.625	94.19
429.847	96.19
430.069	104.19
430.292	110.19
430.514	97.19
430.736	81.19
430.958	88.19
431.18	99.19
431.402	93.19
431.624	101.19
431.846	104.19
432.068	71.19
432.29	79.19
432.512	93.19
432.734	100.19
432.956	107.19
433.178	121.19
433.4	98.19
433.622	77.19
433.844	88.19
434.066	93.19
434.287	95.19
434.509	91.19
434.731	114.19
434.953	82.19
435.175	87.19
435.397	99.19
435.618	99.19
435.84	108.19
436.062	143.19
436.284	143.19
436.505	105.19
436.727	94.19
436.949	91.19
437.17	93.19
437.392	87.19
437.614	99.19
437.835	110.19
438.057	142.19
438.278	130.19
438.5	109.19
438.721	130.19
438.943	113.19
439.165	94.19
439.386	86.19
439.608	87.19
439.829	99.19
440.05	143.19
440.272	193.19
440.493	118.19
440.715	102.19
440.936	113.19
441.158	93.19
441.379	90.19
441.6	98.19
441.822	101.19
442.043	88.19
442.264	109.19
442.486	116.19
442.707	95.19
442.928	125.19
443.149	157.19
443.371	167.19
443.592	129.19
443.813	117.19
444.034	126.19
444.255	96.19
444.476	103.19
444.698	78.19
444.919	84.19
445.14	137.19
445.361	138.19
445.582	130.19
445.803	186.19
446.024	176.19
446.245	167.19
446.466	123.19
446.687	96.19
446.908	91.19
447.129	96.19
447.35	90.19
447.571	100.19
447.792	93.19
448.013	112.19
448.234	126.19
448.455	108.19
448.675	114.19
448.896	142.19
449.117	101.19
449.338	109.19
449.559	137.19
449.779	150.19
450	112.19
450.221	102.19
450.442	85.19
450.662	107.19
450.883	111.19
451.104	139.19
451.324	98.19
451.545	106.19
451.766	84.19
451.986	94.19
452.207	84.19
452.428	91.19
452.648	113.19
452.869	132.19
453.089	136.19
453.31	131.19
453.53	102.19
453.751	92.19
453.971	121.19
454.192	114.19
454.412	108.19
454.633	84.19
454.853	78.19
455.073	84.19
455.294	85.19
455.514	101.19
455.734	106.19
455.955	97.19
456.175	79.19
456.395	100.19
456.616	78.19
456.836	91.19
457.056	89.19
457.276	104.19
457.497	82.19
457.717	97.19
457.937	101.19
458.157	85.19
458.377	91.19
458.598	132.19
458.818	205.19
459.038	213.19
459.258	149.19
459.478	104.19
459.698	90.19
459.918	92.19
460.138	89.19
460.358	98.19
460.578	83.19
460.798	87.19
461.018	99.19
461.238	87.19
461.458	89.19
461.678	81.19
461.898	90.19
462.118	84.19
462.338	89.19
462.558	97.19
462.777	87.19
462.997	90.19
463.217	108.19
463.437	101.19
463.657	97.19
463.876	95.19
464.096	99.19
464.316	99.19
464.536	99.19
464.755	96.19
464.975	125.19
465.195	214.19
465.414	224.19
465.634	100.19
465.854	90.19
466.073	94.19
466.293	85.19
466.512	84.19
466.732	89.19
466.951	101.19
467.171	102.19
467.391	112.19
467.61	131.19
467.829	143.19
468.049	262.19
468.268	354.19
468.488	145.19
468.707	105.19
468.927	88.19
469.146	91.19
469.365	94.19
469.585	90.19
469.804	101.19
470.023	111.19
470.243	96.19
470.462	107.19
470.681	125.19
470.901	102.19
471.12	94.19
471.339	83.19
471.558	98.19
471.777	119.19
471.997	181.19
472.216	462.19
472.435	1037.19
472.654	320.19
472.873	122.19
473.092	86.19
473.311	79.19
473.53	88.19
473.749	98.19
473.968	108.19
474.187	102.19
474.406	106.19
474.625	81.19
474.844	82.19
475.063	75.19
475.282	98.19
475.501	86.19
475.72	94.19
475.939	93.19
476.158	83.19
476.377	84.19
476.596	79.19
476.814	106.19
477.033	98.19
477.252	102.19
477.471	90.19
477.69	93.19
477.908	77.19
478.127	98.19
478.346	92.19
478.564	95.19
478.783	94.19
479.002	111.19
479.22	108.19
479.439	111.19
479.658	114.19
479.876	107.19
480.095	85.19
480.313	110.19
480.532	134.19
480.751	151.19
480.969	422.19
481.188	1697.19
481.406	1109.19
481.624	217.19
481.843	115.19
482.061	92.19
482.28	97.19
482.498	75.19
482.717	95.19
482.935	86.19
483.153	99.19
483.372	88.19
483.59	68.19
483.808	87.19
484.027	93.19
484.245	97.19
484.463	82.19
484.681	99.19
484.9	97.19
485.118	109.19
485.336	86.19
485.554	101.19
485.772	102.19
485.99	108.19
486.209	109.19
486.427	103.19
486.645	119.19
486.863	138.19
487.081	109.19
487.299	94.19
487.517	107.19
487.735	104.19
487.953	105.19
488.171	103.19
488.389	101.19
488.607	99.19
488.825	101.19
489.043	97.19
489.261	90.19
489.479	100.19
489.696	95.19
489.914	80.19
490.132	90.19
490.35	99.19
490.568	94.19
490.786	90.19
491.003	87.19
491.221	93.19
491.439	100.19
491.657	106.19
491.874	97.19
492.092	107.19
492.31	104.19
492.527	99.19
492.745	99.19
492.963	95.19
493.18	101.19
493.398	98.19
493.615	100.19
493.833	96.19
494.05	95.19
494.268	83.19
494.485	87.19
494.703	85.19
494.92	90.19
495.138	85.19
495.355	96.19
495.573	94.19
495.79	100.19
496.008	89.19
496.225	89.19
496.442	86.19
496.66	101.19
496.877	82.19
497.094	85.19
497.312	98.19
497.529	115.19
497.746	98.19
497.963	79.19
498.181	105.19
498.398	99.19
498.615	126.19
498.832	112.19
499.049	85.19
499.267	79.19
499.484	105.19
499.701	82.19
499.918	92.19
500.135	99.19
500.352	107.19
500.569	99.19
500.786	104.19
501.003	99.19
501.22	80.19
501.437	97.19
501.654	94.19
501.871	122.19
502.088	101.19
502.305	83.19
502.522	91.19
502.739	93.19
502.956	101.19
503.172	86.19
503.389	100.19
503.606	123.19
503.823	110.19
504.04	97.19
504.256	102.19
504.473	99.19
504.69	94.19
504.907	95.19
505.123	92.19
505.34	101.19
505.557	95.19
505.773	98.19
505.99	90.19
506.207	98.19
506.423	84.19
506.64	84.19
506.856	89.19
507.073	93.19
507.289	101.19
507.506	96.19
507.722	117.19
507.939	121.19
508.155	83.19
508.372	111.19
508.588	104.19
508.805	108.19
509.021	85.19
509.238	102.19
509.454	94.19
509.67	119.19
509.887	109.19
510.103	130.19
510.319	230.19
510.536	866.19
510.752	2871.19
510.968	789.19
511.184	183.19
511.401	122.19
511.617	106.19
511.833	95.19
512.049	98.19
512.265	85.19
512.481	95.19
512.698	95.19
512.914	84.19
513.13	97.19
