Data from Circ_2007_H10_HRD10591_00016.txt Node
Date: Wed Jan 03 10:22:00 EST 2024
User: Yrep
Spectrometer: HR+D1059
Trigger mode: 1
Integration Time (sec): 1.000000E-1
Scans to average: 1
Electric dark correction enabled: true
Nonlinearity correction enabled: false
Boxcar width: 0
XAxis mode: Wavelengths
Number of Pixels in Spectrum: 2048
>>>>>Begin Spectral Data<<<<<
223.165	-6.94
223.4	-6.94
223.635	-6.94
223.869	-25.94
224.104	-30.94
224.338	-19.94
224.573	-4.94
224.808	1.06
225.042	-8.94
225.277	-29.94
225.511	-3.94
225.746	10.06
225.98	6.06
226.215	3.06
226.449	21.06
226.683	31.06
226.918	36.06
227.152	23.06
227.387	40.06
227.621	44.06
227.856	60.06
228.09	63.06
228.324	49.06
228.559	70.06
228.793	61.06
229.027	70.06
229.262	59.06
229.496	68.06
229.73	95.06
229.964	104.06
230.199	84.06
230.433	82.06
230.667	75.06
230.901	62.06
231.136	75.06
231.37	82.06
231.604	79.06
231.838	76.06
232.072	85.06
232.306	78.06
232.541	85.06
232.775	79.06
233.009	82.06
233.243	76.06
233.477	87.06
233.711	76.06
233.945	81.06
234.179	79.06
234.413	75.06
234.647	82.06
234.881	77.06
235.115	84.06
235.349	74.06
235.583	92.06
235.817	86.06
236.051	74.06
236.285	67.06
236.519	72.06
236.753	79.06
236.987	72.06
237.221	103.06
237.455	96.06
237.689	71.06
237.922	78.06
238.156	80.06
238.39	91.06
238.624	66.06
238.858	76.06
239.091	83.06
239.325	81.06
239.559	75.06
239.793	91.06
240.027	69.06
240.26	79.06
240.494	74.06
240.728	83.06
240.961	106.06
241.195	94.06
241.429	83.06
241.662	80.06
241.896	68.06
242.13	80.06
242.363	76.06
242.597	77.06
242.83	78.06
243.064	78.06
243.298	79.06
243.531	82.06
243.765	80.06
243.998	74.06
244.232	80.06
244.465	93.06
244.699	102.06
244.932	72.06
245.166	80.06
245.399	76.06
245.633	77.06
245.866	78.06
246.099	68.06
246.333	89.06
246.566	79.06
246.8	80.06
247.033	74.06
247.266	87.06
247.5	86.06
247.733	83.06
247.966	85.06
248.2	102.06
248.433	88.06
248.666	66.06
248.899	87.06
249.133	77.06
249.366	120.06
249.599	112.06
249.832	80.06
250.066	90.06
250.299	78.06
250.532	88.06
250.765	87.06
250.998	83.06
251.231	84.06
251.465	72.06
251.698	74.06
251.931	78.06
252.164	81.06
252.397	74.06
252.63	84.06
252.863	74.06
253.096	71.06
253.329	85.06
253.562	91.06
253.795	81.06
254.028	102.06
254.261	81.06
254.494	84.06
254.727	86.06
254.96	91.06
255.193	82.06
255.426	84.06
255.659	73.06
255.892	99.06
256.124	99.06
256.357	96.06
256.59	89.06
256.823	86.06
257.056	75.06
257.289	79.06
257.521	78.06
257.754	84.06
257.987	89.06
258.22	92.06
258.452	95.06
258.685	87.06
258.918	93.06
259.151	83.06
259.383	94.06
259.616	85.06
259.849	84.06
260.081	83.06
260.314	86.06
260.547	85.06
260.779	95.06
261.012	74.06
261.244	88.06
261.477	88.06
261.71	104.06
261.942	126.06
262.175	132.06
262.407	84.06
262.64	87.06
262.872	94.06
263.105	85.06
263.337	91.06
263.57	95.06
263.802	89.06
264.035	88.06
264.267	73.06
264.499	92.06
264.732	89.06
264.964	86.06
265.197	84.06
265.429	93.06
265.661	87.06
265.894	75.06
266.126	81.06
266.358	90.06
266.591	81.06
266.823	81.06
267.055	84.06
267.287	94.06
267.52	85.06
267.752	94.06
267.984	91.06
268.216	97.06
268.448	80.06
268.681	84.06
268.913	89.06
269.145	74.06
269.377	84.06
269.609	90.06
269.841	82.06
270.073	78.06
270.306	97.06
270.538	84.06
270.77	95.06
271.002	79.06
271.234	101.06
271.466	98.06
271.698	87.06
271.93	92.06
272.162	109.06
272.394	87.06
272.626	87.06
272.858	98.06
273.09	102.06
273.322	85.06
273.553	85.06
273.785	70.06
274.017	61.06
274.249	84.06
274.481	89.06
274.713	87.06
274.945	101.06
275.176	93.06
275.408	98.06
275.64	94.06
275.872	109.06
276.104	92.06
276.335	113.06
276.567	120.06
276.799	141.06
277.031	137.06
277.262	149.06
277.494	140.06
277.726	104.06
277.957	92.06
278.189	99.06
278.421	85.06
278.652	81.06
278.884	92.06
279.115	86.06
279.347	86.06
279.579	95.06
279.81	94.06
280.042	144.06
280.273	172.06
280.505	127.06
280.736	99.06
280.968	101.06
281.199	94.06
281.431	91.06
281.662	86.06
281.894	91.06
282.125	107.06
282.356	120.06
282.588	167.06
282.819	124.06
283.051	94.06
283.282	88.06
283.513	76.06
283.745	84.06
283.976	84.06
284.207	106.06
284.439	91.06
284.67	95.06
284.901	92.06
285.132	92.06
285.364	92.06
285.595	90.06
285.826	98.06
286.057	92.06
286.288	95.06
286.52	80.06
286.751	98.06
286.982	76.06
287.213	94.06
287.444	84.06
287.675	103.06
287.906	93.06
288.138	101.06
288.369	99.06
288.6	93.06
288.831	96.06
289.062	85.06
289.293	94.06
289.524	88.06
289.755	95.06
289.986	83.06
290.217	83.06
290.448	84.06
290.679	93.06
290.91	93.06
291.141	87.06
291.371	88.06
291.602	98.06
291.833	94.06
292.064	92.06
292.295	108.06
292.526	99.06
292.757	85.06
292.987	90.06
293.218	83.06
293.449	88.06
293.68	76.06
293.91	98.06
294.141	94.06
294.372	81.06
294.603	97.06
294.833	99.06
295.064	87.06
295.295	98.06
295.525	94.06
295.756	114.06
295.987	136.06
296.217	157.06
296.448	145.06
296.679	100.06
296.909	90.06
297.14	81.06
297.37	88.06
297.601	91.06
297.831	82.06
298.062	91.06
298.292	85.06
298.523	94.06
298.753	98.06
298.984	94.06
299.214	96.06
299.445	102.06
299.675	82.06
299.905	89.06
300.136	98.06
300.366	93.06
300.597	102.06
300.827	93.06
301.057	101.06
301.288	111.06
301.518	85.06
301.748	79.06
301.979	110.06
302.209	104.06
302.439	98.06
302.669	108.06
302.9	92.06
303.13	103.06
303.36	107.06
303.59	101.06
303.82	136.06
304.051	99.06
304.281	95.06
304.511	91.06
304.741	85.06
304.971	84.06
305.201	90.06
305.431	94.06
305.661	86.06
305.891	104.06
306.121	108.06
306.352	115.06
306.582	108.06
306.812	126.06
307.042	112.06
307.272	127.06
307.502	143.06
307.731	132.06
307.961	103.06
308.191	99.06
308.421	90.06
308.651	93.06
308.881	103.06
309.111	94.06
309.341	84.06
309.571	103.06
309.8	95.06
310.03	91.06
310.26	108.06
310.49	91.06
310.72	100.06
310.949	113.06
311.179	126.06
311.409	98.06
311.639	81.06
311.868	108.06
312.098	97.06
312.328	120.06
312.557	108.06
312.787	127.06
313.017	110.06
313.246	83.06
313.476	97.06
313.706	87.06
313.935	93.06
314.165	110.06
314.394	112.06
314.624	99.06
314.853	93.06
315.083	100.06
315.312	93.06
315.542	80.06
315.771	105.06
316.001	101.06
316.23	103.06
316.46	93.06
316.689	94.06
316.919	85.06
317.148	106.06
317.377	111.06
317.607	86.06
317.836	100.06
318.065	89.06
318.295	94.06
318.524	88.06
318.753	102.06
318.983	94.06
319.212	111.06
319.441	114.06
319.67	113.06
319.9	99.06
320.129	93.06
320.358	95.06
320.587	97.06
320.816	100.06
321.046	114.06
321.275	110.06
321.504	84.06
321.733	105.06
321.962	92.06
322.191	90.06
322.42	99.06
322.649	112.06
322.878	138.06
323.108	128.06
323.337	139.06
323.566	162.06
323.795	173.06
324.024	239.06
324.253	494.06
324.482	1034.06
324.71	2111.06
324.939	2917.06
325.168	1061.06
325.397	293.06
325.626	178.06
325.855	144.06
326.084	126.06
326.313	143.06
326.542	179.06
326.77	288.06
326.999	536.06
327.228	1134.06
327.457	2079.06
327.686	1696.06
327.914	524.06
328.143	370.06
328.372	409.06
328.6	264.06
328.829	171.06
329.058	179.06
329.287	173.06
329.515	143.06
329.744	187.06
329.972	301.06
330.201	570.06
330.43	849.06
330.658	393.06
330.887	237.06
331.115	167.06
331.344	115.06
331.572	124.06
331.801	122.06
332.03	119.06
332.258	109.06
332.486	120.06
332.715	110.06
332.943	111.06
333.172	121.06
333.4	116.06
333.629	151.06
333.857	188.06
334.085	275.06
334.314	532.06
334.542	1037.06
334.771	996.06
334.999	300.06
335.227	158.06
335.455	118.06
335.684	120.06
335.912	102.06
336.14	112.06
336.369	114.06
336.597	106.06
336.825	114.06
337.053	103.06
337.281	69.06
337.51	98.06
337.738	103.06
337.966	100.06
338.194	108.06
338.422	102.06
338.65	97.06
338.878	94.06
339.106	97.06
339.334	85.06
339.562	101.06
339.79	95.06
340.018	91.06
340.246	95.06
340.474	103.06
340.702	92.06
340.93	91.06
341.158	94.06
341.386	101.06
341.614	116.06
341.842	91.06
342.07	96.06
342.298	106.06
342.526	100.06
342.754	98.06
342.981	79.06
343.209	89.06
343.437	101.06
343.665	88.06
343.893	96.06
344.12	99.06
344.348	86.06
344.576	87.06
344.804	94.06
345.031	95.06
345.259	107.06
345.487	104.06
345.714	103.06
345.942	109.06
346.17	82.06
346.397	103.06
346.625	106.06
346.853	93.06
347.08	84.06
347.308	91.06
347.535	113.06
347.763	109.06
347.99	102.06
348.218	100.06
348.445	118.06
348.673	117.06
348.9	93.06
349.128	102.06
349.355	93.06
349.583	99.06
349.81	94.06
350.037	96.06
350.265	83.06
350.492	101.06
350.72	94.06
350.947	100.06
351.174	96.06
351.402	115.06
351.629	107.06
351.856	102.06
352.083	111.06
352.311	125.06
352.538	99.06
352.765	128.06
352.992	140.06
353.22	111.06
353.447	107.06
353.674	113.06
353.901	107.06
354.128	100.06
354.355	102.06
354.583	106.06
354.81	90.06
355.037	99.06
355.264	80.06
355.491	91.06
355.718	100.06
355.945	99.06
356.172	100.06
356.399	95.06
356.626	78.06
356.853	85.06
357.08	95.06
357.307	84.06
357.534	92.06
357.761	98.06
357.988	81.06
358.215	101.06
358.441	105.06
358.668	111.06
358.895	94.06
359.122	93.06
359.349	114.06
359.576	99.06
359.802	115.06
360.029	140.06
360.256	133.06
360.483	124.06
360.709	100.06
360.936	100.06
361.163	89.06
361.39	101.06
361.616	98.06
361.843	91.06
362.07	102.06
362.296	122.06
362.523	90.06
362.749	93.06
362.976	99.06
363.203	103.06
363.429	100.06
363.656	101.06
363.882	82.06
364.109	98.06
364.335	102.06
364.562	83.06
364.788	95.06
365.015	101.06
365.241	102.06
365.468	117.06
365.694	123.06
365.92	103.06
366.147	105.06
366.373	95.06
366.599	89.06
366.826	102.06
367.052	90.06
367.278	99.06
367.505	84.06
367.731	85.06
367.957	92.06
368.184	104.06
368.41	109.06
368.636	120.06
368.862	144.06
369.089	134.06
369.315	111.06
369.541	94.06
369.767	108.06
369.993	76.06
370.219	95.06
370.445	87.06
370.672	94.06
370.898	83.06
371.124	81.06
371.35	85.06
371.576	94.06
371.802	93.06
372.028	93.06
372.254	98.06
372.48	98.06
372.706	95.06
372.932	91.06
373.158	94.06
373.384	80.06
373.61	82.06
373.835	103.06
374.061	94.06
374.287	102.06
374.513	78.06
374.739	87.06
374.965	86.06
375.191	86.06
375.416	87.06
375.642	90.06
375.868	82.06
376.094	95.06
376.319	95.06
376.545	90.06
376.771	87.06
376.997	99.06
377.222	99.06
377.448	88.06
377.674	83.06
377.899	96.06
378.125	96.06
378.35	115.06
378.576	94.06
378.802	91.06
379.027	89.06
379.253	96.06
379.478	94.06
379.704	104.06
379.929	99.06
380.155	101.06
380.38	88.06
380.606	96.06
380.831	88.06
381.057	107.06
381.282	103.06
381.507	110.06
381.733	105.06
381.958	104.06
382.184	99.06
382.409	98.06
382.634	97.06
382.86	100.06
383.085	108.06
383.31	101.06
383.535	100.06
383.761	103.06
383.986	95.06
384.211	123.06
384.436	103.06
384.662	107.06
384.887	118.06
385.112	116.06
385.337	101.06
385.562	106.06
385.787	110.06
386.013	123.06
386.238	121.06
386.463	107.06
386.688	109.06
386.913	116.06
387.138	111.06
387.363	111.06
387.588	103.06
387.813	117.06
388.038	111.06
388.263	128.06
388.488	122.06
388.713	122.06
388.938	92.06
389.163	94.06
389.387	101.06
389.612	102.06
389.837	95.06
390.062	90.06
390.287	85.06
390.512	79.06
390.736	109.06
390.961	99.06
391.186	108.06
391.411	87.06
391.636	95.06
391.86	87.06
392.085	82.06
392.31	98.06
392.534	96.06
392.759	98.06
392.984	82.06
393.208	103.06
393.433	91.06
393.658	84.06
393.882	84.06
394.107	84.06
394.331	97.06
394.556	87.06
394.78	92.06
395.005	98.06
395.229	85.06
395.454	95.06
395.678	84.06
395.903	78.06
396.127	92.06
396.352	79.06
396.576	87.06
396.801	109.06
397.025	88.06
397.249	102.06
397.474	97.06
397.698	103.06
397.922	93.06
398.147	94.06
398.371	99.06
398.595	96.06
398.82	82.06
399.044	79.06
399.268	96.06
399.492	87.06
399.717	83.06
399.941	81.06
400.165	89.06
400.389	82.06
400.613	93.06
400.837	99.06
401.062	104.06
401.286	83.06
401.51	102.06
401.734	100.06
401.958	102.06
402.182	139.06
402.406	177.06
402.63	141.06
402.854	98.06
403.078	83.06
403.302	86.06
403.526	95.06
403.75	79.06
403.974	91.06
404.198	96.06
404.422	84.06
404.645	81.06
404.869	105.06
405.093	115.06
405.317	110.06
405.541	123.06
405.765	101.06
405.988	139.06
406.212	211.06
406.436	278.06
406.66	205.06
406.883	110.06
407.107	98.06
407.331	104.06
407.555	115.06
407.778	99.06
408.002	95.06
408.226	92.06
408.449	90.06
408.673	91.06
408.896	104.06
409.12	101.06
409.344	88.06
409.567	86.06
409.791	86.06
410.014	104.06
410.238	96.06
410.461	92.06
410.685	96.06
410.908	102.06
411.132	104.06
411.355	105.06
411.578	103.06
411.802	91.06
412.025	83.06
412.249	104.06
412.472	128.06
412.695	141.06
412.919	102.06
413.142	90.06
413.365	96.06
413.589	92.06
413.812	86.06
414.035	82.06
414.258	104.06
414.482	96.06
414.705	101.06
414.928	94.06
415.151	94.06
415.374	95.06
415.597	97.06
415.821	107.06
416.044	110.06
416.267	97.06
416.49	97.06
416.713	104.06
416.936	86.06
417.159	82.06
417.382	86.06
417.605	107.06
417.828	113.06
418.051	96.06
418.274	88.06
418.497	101.06
418.72	92.06
418.943	99.06
419.166	88.06
419.389	86.06
419.611	90.06
419.834	108.06
420.057	99.06
420.28	82.06
420.503	94.06
420.726	88.06
420.948	98.06
421.171	109.06
421.394	104.06
421.617	100.06
421.839	86.06
422.062	88.06
422.285	95.06
422.507	106.06
422.73	117.06
422.953	98.06
423.175	80.06
423.398	92.06
423.621	96.06
423.843	99.06
424.066	99.06
424.288	103.06
424.511	90.06
424.733	94.06
424.956	118.06
425.178	112.06
425.401	111.06
425.623	109.06
425.846	91.06
426.068	98.06
426.291	101.06
426.513	91.06
426.735	103.06
426.958	89.06
427.18	123.06
427.402	173.06
427.625	247.06
427.847	219.06
428.069	188.06
428.292	111.06
428.514	85.06
428.736	87.06
428.958	88.06
429.181	73.06
429.403	84.06
429.625	87.06
429.847	94.06
430.069	113.06
430.292	110.06
430.514	83.06
430.736	79.06
430.958	103.06
431.18	85.06
431.402	100.06
431.624	93.06
431.846	84.06
432.068	90.06
432.29	80.06
432.512	76.06
432.734	83.06
432.956	86.06
433.178	110.06
433.4	109.06
433.622	101.06
433.844	92.06
434.066	95.06
434.287	115.06
434.509	95.06
434.731	99.06
434.953	79.06
435.175	87.06
435.397	94.06
435.618	114.06
435.84	117.06
436.062	148.06
436.284	128.06
436.505	103.06
436.727	109.06
436.949	105.06
437.17	89.06
437.392	102.06
437.614	112.06
437.835	115.06
438.057	136.06
438.278	123.06
438.5	116.06
438.721	158.06
438.943	120.06
439.165	78.06
439.386	88.06
439.608	108.06
439.829	122.06
440.05	150.06
440.272	189.06
440.493	115.06
440.715	88.06
440.936	96.06
441.158	96.06
441.379	102.06
441.6	96.06
441.822	103.06
442.043	98.06
442.264	129.06
442.486	104.06
442.707	107.06
442.928	140.06
443.149	150.06
443.371	171.06
443.592	140.06
443.813	138.06
444.034	123.06
444.255	94.06
444.476	85.06
444.698	99.06
444.919	107.06
445.14	150.06
445.361	158.06
445.582	144.06
445.803	198.06
446.024	166.06
446.245	177.06
446.466	124.06
446.687	108.06
446.908	96.06
447.129	104.06
447.35	85.06
447.571	108.06
447.792	92.06
448.013	110.06
448.234	131.06
448.455	114.06
448.675	129.06
448.896	147.06
449.117	119.06
449.338	118.06
449.559	162.06
449.779	142.06
450	112.06
450.221	96.06
450.442	101.06
450.662	92.06
450.883	108.06
451.104	127.06
451.324	102.06
451.545	77.06
451.766	83.06
451.986	78.06
452.207	97.06
452.428	98.06
452.648	101.06
452.869	116.06
453.089	138.06
453.31	130.06
453.53	114.06
453.751	88.06
453.971	130.06
454.192	140.06
454.412	108.06
454.633	101.06
454.853	91.06
455.073	94.06
455.294	97.06
455.514	108.06
455.734	108.06
455.955	95.06
456.175	93.06
456.395	80.06
456.616	94.06
456.836	82.06
457.056	91.06
457.276	99.06
457.497	86.06
457.717	86.06
457.937	88.06
458.157	82.06
458.377	88.06
458.598	119.06
458.818	203.06
459.038	215.06
459.258	157.06
459.478	101.06
459.698	96.06
459.918	102.06
460.138	87.06
460.358	92.06
460.578	86.06
460.798	104.06
461.018	77.06
461.238	86.06
461.458	87.06
461.678	98.06
461.898	88.06
462.118	87.06
462.338	93.06
462.558	90.06
462.777	88.06
462.997	109.06
463.217	90.06
463.437	82.06
463.657	95.06
463.876	91.06
464.096	102.06
464.316	107.06
464.536	110.06
464.755	95.06
464.975	107.06
465.195	213.06
465.414	223.06
465.634	101.06
465.854	79.06
466.073	96.06
466.293	86.06
466.512	87.06
466.732	101.06
466.951	97.06
467.171	106.06
467.391	106.06
467.61	142.06
467.829	165.06
468.049	294.06
468.268	436.06
468.488	151.06
468.707	99.06
468.927	95.06
469.146	94.06
469.365	86.06
469.585	94.06
469.804	109.06
470.023	108.06
470.243	85.06
470.462	108.06
470.681	116.06
470.901	108.06
471.12	107.06
471.339	103.06
471.558	105.06
471.777	128.06
471.997	181.06
472.216	567.06
472.435	1246.06
472.654	357.06
472.873	133.06
473.092	95.06
473.311	110.06
473.53	104.06
473.749	98.06
473.968	93.06
474.187	125.06
474.406	106.06
474.625	96.06
474.844	90.06
475.063	88.06
475.282	98.06
475.501	94.06
475.72	96.06
475.939	99.06
476.158	83.06
476.377	92.06
476.596	86.06
476.814	93.06
477.033	102.06
477.252	88.06
477.471	108.06
477.69	103.06
477.908	98.06
478.127	94.06
478.346	94.06
478.564	95.06
478.783	127.06
479.002	97.06
479.22	104.06
479.439	128.06
479.658	129.06
479.876	95.06
480.095	105.06
480.313	109.06
480.532	142.06
480.751	199.06
480.969	509.06
481.188	2167.06
481.406	1368.06
481.624	238.06
481.843	118.06
482.061	121.06
482.28	102.06
482.498	95.06
482.717	106.06
482.935	115.06
483.153	97.06
483.372	100.06
483.59	100.06
483.808	99.06
484.027	84.06
484.245	98.06
484.463	80.06
484.681	95.06
484.9	101.06
485.118	96.06
485.336	114.06
485.554	103.06
485.772	106.06
485.99	111.06
486.209	78.06
486.427	112.06
486.645	108.06
486.863	131.06
487.081	116.06
487.299	108.06
487.517	96.06
487.735	93.06
487.953	102.06
488.171	90.06
488.389	105.06
488.607	108.06
488.825	99.06
489.043	93.06
489.261	106.06
489.479	103.06
489.696	103.06
489.914	84.06
490.132	88.06
490.35	103.06
490.568	79.06
490.786	93.06
491.003	88.06
491.221	104.06
491.439	101.06
491.657	102.06
491.874	114.06
492.092	101.06
492.31	99.06
492.527	103.06
492.745	88.06
492.963	86.06
493.18	92.06
493.398	87.06
493.615	91.06
493.833	96.06
494.05	97.06
494.268	95.06
494.485	94.06
494.703	85.06
494.92	85.06
495.138	93.06
495.355	106.06
495.573	92.06
495.79	95.06
496.008	85.06
496.225	84.06
496.442	96.06
496.66	99.06
496.877	89.06
497.094	90.06
497.312	92.06
497.529	83.06
497.746	88.06
497.963	93.06
498.181	88.06
498.398	102.06
498.615	115.06
498.832	123.06
499.049	90.06
499.267	100.06
499.484	95.06
499.701	89.06
499.918	85.06
500.135	94.06
500.352	95.06
500.569	97.06
500.786	100.06
501.003	95.06
501.22	94.06
501.437	110.06
501.654	106.06
501.871	121.06
502.088	94.06
502.305	86.06
502.522	91.06
502.739	86.06
502.956	102.06
503.172	102.06
503.389	99.06
503.606	119.06
503.823	92.06
504.04	103.06
504.256	105.06
504.473	88.06
504.69	92.06
504.907	82.06
505.123	90.06
505.34	92.06
505.557	83.06
505.773	81.06
505.99	95.06
506.207	91.06
506.423	79.06
506.64	99.06
506.856	100.06
507.073	93.06
507.289	76.06
507.506	99.06
507.722	137.06
507.939	130.06
508.155	97.06
508.372	87.06
508.588	91.06
508.805	91.06
509.021	112.06
509.238	96.06
509.454	109.06
509.67	100.06
509.887	123.06
510.103	134.06
510.319	240.06
510.536	888.06
510.752	3067.06
510.968	850.06
511.184	186.06
511.401	138.06
511.617	128.06
511.833	124.06
512.049	96.06
512.265	95.06
512.481	106.06
