Data from Circ_2007_H10_HRD10591_00052.txt Node
Date: Wed Jan 03 10:22:07 EST 2024
User: Yrep
Spectrometer: HR+D1059
Trigger mode: 1
Integration Time (sec): 1.000000E-1
Scans to average: 1
Electric dark correction enabled: true
Nonlinearity correction enabled: false
Boxcar width: 0
XAxis mode: Wavelengths
Number of Pixels in Spectrum: 2048
>>>>>Begin Spectral Data<<<<<
223.165	-13.06
223.4	-13.06
223.635	-13.06
223.869	-27.06
224.104	-16.06
224.338	-14.06
224.573	-10.06
224.808	-14.06
225.042	2.94
225.277	-18.06
225.511	15.94
225.746	21.94
225.98	4.94
226.215	3.94
226.449	7.94
226.683	8.94
226.918	31.94
227.152	13.94
227.387	27.94
227.621	36.94
227.856	58.94
228.09	48.94
228.324	61.94
228.559	63.94
228.793	50.94
229.027	69.94
229.262	68.94
229.496	64.94
229.73	74.94
229.964	89.94
230.199	71.94
230.433	73.94
230.667	78.94
230.901	75.94
231.136	75.94
231.37	81.94
231.604	88.94
231.838	90.94
232.072	78.94
232.306	82.94
232.541	81.94
232.775	85.94
233.009	68.94
233.243	83.94
233.477	80.94
233.711	85.94
233.945	89.94
234.179	77.94
234.413	83.94
234.647	80.94
234.881	87.94
235.115	89.94
235.349	78.94
235.583	71.94
235.817	89.94
236.051	84.94
236.285	77.94
236.519	82.94
236.753	73.94
236.987	74.94
237.221	83.94
237.455	80.94
237.689	70.94
237.922	74.94
238.156	91.94
238.39	77.94
238.624	73.94
238.858	73.94
239.091	96.94
239.325	81.94
239.559	79.94
239.793	89.94
240.027	77.94
240.26	75.94
240.494	77.94
240.728	69.94
240.961	74.94
241.195	78.94
241.429	82.94
241.662	71.94
241.896	75.94
242.13	84.94
242.363	78.94
242.597	74.94
242.83	71.94
243.064	75.94
243.298	72.94
243.531	78.94
243.765	83.94
243.998	78.94
244.232	77.94
244.465	85.94
244.699	89.94
244.932	90.94
245.166	74.94
245.399	83.94
245.633	64.94
245.866	72.94
246.099	73.94
246.333	82.94
246.566	81.94
246.8	71.94
247.033	77.94
247.266	76.94
247.5	72.94
247.733	75.94
247.966	87.94
248.2	84.94
248.433	85.94
248.666	79.94
248.899	83.94
249.133	77.94
249.366	105.94
249.599	104.94
249.832	76.94
250.066	88.94
250.299	74.94
250.532	80.94
250.765	67.94
250.998	80.94
251.231	79.94
251.465	76.94
251.698	84.94
251.931	81.94
252.164	82.94
252.397	69.94
252.63	72.94
252.863	77.94
253.096	74.94
253.329	78.94
253.562	79.94
253.795	85.94
254.028	83.94
254.261	83.94
254.494	85.94
254.727	85.94
254.96	74.94
255.193	78.94
255.426	80.94
255.659	85.94
255.892	81.94
256.124	98.94
256.357	91.94
256.59	72.94
256.823	68.94
257.056	85.94
257.289	73.94
257.521	79.94
257.754	76.94
257.987	71.94
258.22	83.94
258.452	99.94
258.685	81.94
258.918	83.94
259.151	76.94
259.383	84.94
259.616	81.94
259.849	83.94
260.081	88.94
260.314	98.94
260.547	92.94
260.779	79.94
261.012	73.94
261.244	83.94
261.477	83.94
261.71	87.94
261.942	103.94
262.175	102.94
262.407	91.94
262.64	84.94
262.872	89.94
263.105	73.94
263.337	85.94
263.57	82.94
263.802	95.94
264.035	80.94
264.267	80.94
264.499	89.94
264.732	90.94
264.964	89.94
265.197	88.94
265.429	93.94
265.661	96.94
265.894	96.94
266.126	99.94
266.358	99.94
266.591	84.94
266.823	65.94
267.055	92.94
267.287	88.94
267.52	89.94
267.752	96.94
267.984	84.94
268.216	80.94
268.448	74.94
268.681	80.94
268.913	83.94
269.145	83.94
269.377	68.94
269.609	72.94
269.841	92.94
270.073	83.94
270.306	72.94
270.538	89.94
270.77	68.94
271.002	75.94
271.234	74.94
271.466	93.94
271.698	85.94
271.93	99.94
272.162	85.94
272.394	84.94
272.626	76.94
272.858	80.94
273.09	84.94
273.322	77.94
273.553	93.94
273.785	85.94
274.017	78.94
274.249	73.94
274.481	87.94
274.713	97.94
274.945	87.94
275.176	97.94
275.408	87.94
275.64	100.94
275.872	81.94
276.104	91.94
276.335	89.94
276.567	100.94
276.799	128.94
277.031	113.94
277.262	104.94
277.494	110.94
277.726	103.94
277.957	85.94
278.189	90.94
278.421	84.94
278.652	79.94
278.884	86.94
279.115	85.94
279.347	80.94
279.579	90.94
279.81	97.94
280.042	114.94
280.273	132.94
280.505	116.94
280.736	92.94
280.968	88.94
281.199	96.94
281.431	94.94
281.662	91.94
281.894	92.94
282.125	89.94
282.356	131.94
282.588	135.94
282.819	121.94
283.051	89.94
283.282	91.94
283.513	91.94
283.745	97.94
283.976	88.94
284.207	79.94
284.439	89.94
284.67	91.94
284.901	82.94
285.132	89.94
285.364	79.94
285.595	85.94
285.826	84.94
286.057	84.94
286.288	77.94
286.52	85.94
286.751	73.94
286.982	73.94
287.213	71.94
287.444	84.94
287.675	85.94
287.906	81.94
288.138	78.94
288.369	93.94
288.6	94.94
288.831	78.94
289.062	83.94
289.293	93.94
289.524	94.94
289.755	94.94
289.986	84.94
290.217	93.94
290.448	79.94
290.679	93.94
290.91	89.94
291.141	79.94
291.371	87.94
291.602	96.94
291.833	100.94
292.064	93.94
292.295	87.94
292.526	91.94
292.757	84.94
292.987	84.94
293.218	85.94
293.449	93.94
293.68	88.94
293.91	76.94
294.141	88.94
294.372	80.94
294.603	89.94
294.833	80.94
295.064	82.94
295.295	98.94
295.525	106.94
295.756	91.94
295.987	109.94
296.217	139.94
296.448	124.94
296.679	90.94
296.909	85.94
297.14	84.94
297.37	100.94
297.601	88.94
297.831	94.94
298.062	81.94
298.292	91.94
298.523	93.94
298.753	97.94
298.984	88.94
299.214	92.94
299.445	75.94
299.675	105.94
299.905	100.94
300.136	80.94
300.366	74.94
300.597	86.94
300.827	100.94
301.057	92.94
301.288	105.94
301.518	99.94
301.748	97.94
301.979	96.94
302.209	110.94
302.439	88.94
302.669	88.94
302.9	88.94
303.13	74.94
303.36	106.94
303.59	122.94
303.82	107.94
304.051	108.94
304.281	84.94
304.511	101.94
304.741	100.94
304.971	89.94
305.201	76.94
305.431	90.94
305.661	92.94
305.891	79.94
306.121	102.94
306.352	94.94
306.582	93.94
306.812	100.94
307.042	102.94
307.272	106.94
307.502	112.94
307.731	104.94
307.961	108.94
308.191	82.94
308.421	90.94
308.651	110.94
308.881	92.94
309.111	87.94
309.341	100.94
309.571	111.94
309.8	89.94
310.03	91.94
310.26	110.94
310.49	75.94
310.72	97.94
310.949	100.94
311.179	103.94
311.409	80.94
311.639	94.94
311.868	103.94
312.098	93.94
312.328	106.94
312.557	100.94
312.787	109.94
313.017	120.94
313.246	85.94
313.476	77.94
313.706	89.94
313.935	89.94
314.165	99.94
314.394	85.94
314.624	98.94
314.853	106.94
315.083	102.94
315.312	104.94
315.542	96.94
315.771	100.94
316.001	90.94
316.23	100.94
316.46	85.94
316.689	90.94
316.919	89.94
317.148	80.94
317.377	95.94
317.607	94.94
317.836	101.94
318.065	83.94
318.295	99.94
318.524	94.94
318.753	95.94
318.983	86.94
319.212	91.94
319.441	98.94
319.67	99.94
319.9	91.94
320.129	84.94
320.358	101.94
320.587	89.94
320.816	92.94
321.046	113.94
321.275	116.94
321.504	105.94
321.733	104.94
321.962	102.94
322.191	114.94
322.42	114.94
322.649	103.94
322.878	123.94
323.108	123.94
323.337	107.94
323.566	113.94
323.795	156.94
324.024	229.94
324.253	436.94
324.482	983.94
324.71	2023.94
324.939	2673.94
325.168	935.94
325.397	269.94
325.626	157.94
325.855	137.94
326.084	133.94
326.313	152.94
326.542	153.94
326.77	261.94
326.999	528.94
327.228	1114.94
327.457	2036.94
327.686	1612.94
327.914	467.94
328.143	297.94
328.372	304.94
328.6	204.94
328.829	129.94
329.058	126.94
329.287	147.94
329.515	136.94
329.744	139.94
329.972	232.94
330.201	379.94
330.43	515.94
330.658	283.94
330.887	176.94
331.115	135.94
331.344	107.94
331.572	98.94
331.801	91.94
332.03	115.94
332.258	95.94
332.486	99.94
332.715	111.94
332.943	94.94
333.172	108.94
333.4	114.94
333.629	130.94
333.857	155.94
334.085	227.94
334.314	359.94
334.542	653.94
334.771	624.94
334.999	203.94
335.227	115.94
335.455	115.94
335.684	101.94
335.912	103.94
336.14	109.94
336.369	93.94
336.597	96.94
336.825	103.94
337.053	93.94
337.281	87.94
337.51	96.94
337.738	107.94
337.966	95.94
338.194	105.94
338.422	87.94
338.65	98.94
338.878	113.94
339.106	91.94
339.334	93.94
339.562	84.94
339.79	87.94
340.018	93.94
340.246	108.94
340.474	86.94
340.702	87.94
340.93	78.94
341.158	103.94
341.386	90.94
341.614	86.94
341.842	98.94
342.07	90.94
342.298	101.94
342.526	113.94
342.754	95.94
342.981	80.94
343.209	93.94
343.437	100.94
343.665	81.94
343.893	93.94
344.12	82.94
344.348	99.94
344.576	88.94
344.804	88.94
345.031	85.94
345.259	91.94
345.487	93.94
345.714	92.94
345.942	92.94
346.17	89.94
346.397	97.94
346.625	95.94
346.853	86.94
347.08	91.94
347.308	88.94
347.535	99.94
347.763	95.94
347.99	96.94
348.218	98.94
348.445	103.94
348.673	106.94
348.9	88.94
349.128	83.94
349.355	90.94
349.583	96.94
349.81	92.94
350.037	79.94
350.265	82.94
350.492	103.94
350.72	88.94
350.947	89.94
351.174	104.94
351.402	122.94
351.629	105.94
351.856	103.94
352.083	106.94
352.311	99.94
352.538	104.94
352.765	113.94
352.992	113.94
353.22	99.94
353.447	92.94
353.674	89.94
353.901	89.94
354.128	101.94
354.355	102.94
354.583	107.94
354.81	98.94
355.037	92.94
355.264	92.94
355.491	93.94
355.718	114.94
355.945	93.94
356.172	91.94
356.399	97.94
356.626	97.94
356.853	99.94
357.08	93.94
357.307	90.94
357.534	93.94
357.761	100.94
357.988	88.94
358.215	78.94
358.441	82.94
358.668	84.94
358.895	82.94
359.122	96.94
359.349	89.94
359.576	99.94
359.802	101.94
360.029	119.94
360.256	115.94
360.483	108.94
360.709	92.94
360.936	92.94
361.163	92.94
361.39	89.94
361.616	95.94
361.843	94.94
362.07	103.94
362.296	84.94
362.523	86.94
362.749	92.94
362.976	85.94
363.203	78.94
363.429	90.94
363.656	91.94
363.882	89.94
364.109	88.94
364.335	84.94
364.562	93.94
364.788	95.94
365.015	97.94
365.241	94.94
365.468	108.94
365.694	98.94
365.92	100.94
366.147	99.94
366.373	89.94
366.599	80.94
366.826	86.94
367.052	67.94
367.278	93.94
367.505	103.94
367.731	93.94
367.957	89.94
368.184	93.94
368.41	99.94
368.636	109.94
368.862	112.94
369.089	122.94
369.315	93.94
369.541	89.94
369.767	77.94
369.993	87.94
370.219	89.94
370.445	101.94
370.672	91.94
370.898	97.94
371.124	93.94
371.35	99.94
371.576	85.94
371.802	81.94
372.028	97.94
372.254	94.94
372.48	85.94
372.706	96.94
372.932	79.94
373.158	100.94
373.384	88.94
373.61	93.94
373.835	95.94
374.061	95.94
374.287	94.94
374.513	104.94
374.739	80.94
374.965	82.94
375.191	101.94
375.416	95.94
375.642	92.94
375.868	99.94
376.094	93.94
376.319	81.94
376.545	88.94
376.771	83.94
376.997	85.94
377.222	72.94
377.448	69.94
377.674	68.94
377.899	80.94
378.125	91.94
378.35	89.94
378.576	79.94
378.802	91.94
379.027	83.94
379.253	84.94
379.478	100.94
379.704	90.94
379.929	91.94
380.155	97.94
380.38	79.94
380.606	93.94
380.831	96.94
381.057	100.94
381.282	98.94
381.507	109.94
381.733	103.94
381.958	105.94
382.184	85.94
382.409	105.94
382.634	88.94
382.86	102.94
383.085	99.94
383.31	88.94
383.535	102.94
383.761	99.94
383.986	102.94
384.211	113.94
384.436	95.94
384.662	106.94
384.887	105.94
385.112	97.94
385.337	101.94
385.562	90.94
385.787	102.94
386.013	115.94
386.238	121.94
386.463	100.94
386.688	109.94
386.913	111.94
387.138	109.94
387.363	98.94
387.588	108.94
387.813	102.94
388.038	99.94
388.263	114.94
388.488	102.94
388.713	94.94
388.938	91.94
389.163	93.94
389.387	79.94
389.612	84.94
389.837	103.94
390.062	86.94
390.287	85.94
390.512	91.94
390.736	84.94
390.961	85.94
391.186	103.94
391.411	96.94
391.636	95.94
391.86	93.94
392.085	112.94
392.31	90.94
392.534	94.94
392.759	91.94
392.984	96.94
393.208	79.94
393.433	103.94
393.658	88.94
393.882	82.94
394.107	77.94
394.331	71.94
394.556	76.94
394.78	75.94
395.005	103.94
395.229	91.94
395.454	83.94
395.678	99.94
395.903	91.94
396.127	90.94
396.352	83.94
396.576	89.94
396.801	87.94
397.025	88.94
397.249	88.94
397.474	81.94
397.698	82.94
397.922	88.94
398.147	76.94
398.371	80.94
398.595	88.94
398.82	84.94
399.044	84.94
399.268	91.94
399.492	91.94
399.717	85.94
399.941	99.94
400.165	100.94
400.389	99.94
400.613	88.94
400.837	85.94
401.062	86.94
401.286	89.94
401.51	101.94
401.734	87.94
401.958	97.94
402.182	127.94
402.406	155.94
402.63	113.94
402.854	79.94
403.078	80.94
403.302	89.94
403.526	73.94
403.75	84.94
403.974	82.94
404.198	92.94
404.422	89.94
404.645	85.94
404.869	91.94
405.093	94.94
405.317	105.94
405.541	124.94
405.765	91.94
405.988	115.94
406.212	166.94
406.436	236.94
406.66	149.94
406.883	95.94
407.107	102.94
407.331	97.94
407.555	98.94
407.778	109.94
408.002	89.94
408.226	90.94
408.449	83.94
408.673	77.94
408.896	92.94
409.12	100.94
409.344	99.94
409.567	89.94
409.791	106.94
410.014	97.94
410.238	93.94
410.461	89.94
410.685	97.94
410.908	99.94
411.132	99.94
411.355	104.94
411.578	100.94
411.802	87.94
412.025	103.94
412.249	99.94
412.472	115.94
412.695	120.94
412.919	100.94
413.142	88.94
413.365	88.94
413.589	68.94
413.812	83.94
414.035	89.94
414.258	103.94
414.482	74.94
414.705	95.94
414.928	90.94
415.151	84.94
415.374	78.94
415.597	87.94
415.821	90.94
416.044	86.94
416.267	97.94
416.49	87.94
416.713	87.94
416.936	98.94
417.159	87.94
417.382	89.94
417.605	81.94
417.828	98.94
418.051	95.94
418.274	95.94
418.497	94.94
418.72	79.94
418.943	75.94
419.166	87.94
419.389	82.94
419.611	94.94
419.834	90.94
420.057	92.94
420.28	92.94
420.503	82.94
420.726	87.94
420.948	88.94
421.171	93.94
421.394	88.94
421.617	77.94
421.839	93.94
422.062	92.94
422.285	89.94
422.507	101.94
422.73	85.94
422.953	84.94
423.175	102.94
423.398	93.94
423.621	84.94
423.843	97.94
424.066	79.94
424.288	83.94
424.511	92.94
424.733	102.94
424.956	109.94
425.178	93.94
425.401	110.94
425.623	103.94
425.846	90.94
426.068	96.94
426.291	83.94
426.513	75.94
426.735	92.94
426.958	88.94
427.18	97.94
427.402	135.94
427.625	201.94
427.847	177.94
428.069	178.94
428.292	113.94
428.514	97.94
428.736	82.94
428.958	87.94
429.181	96.94
429.403	66.94
429.625	93.94
429.847	83.94
430.069	91.94
430.292	88.94
430.514	66.94
430.736	79.94
430.958	80.94
431.18	89.94
431.402	82.94
431.624	90.94
431.846	93.94
432.068	94.94
432.29	85.94
432.512	97.94
432.734	100.94
432.956	90.94
433.178	89.94
433.4	93.94
433.622	86.94
433.844	85.94
434.066	90.94
434.287	85.94
434.509	86.94
434.731	80.94
434.953	91.94
435.175	87.94
435.397	87.94
435.618	89.94
435.84	100.94
436.062	141.94
436.284	124.94
436.505	92.94
436.727	89.94
436.949	92.94
437.17	102.94
437.392	77.94
437.614	97.94
437.835	113.94
438.057	129.94
438.278	105.94
438.5	101.94
438.721	140.94
438.943	96.94
439.165	101.94
439.386	79.94
439.608	75.94
439.829	105.94
440.05	127.94
440.272	149.94
440.493	112.94
440.715	88.94
440.936	84.94
441.158	83.94
441.379	67.94
441.6	102.94
441.822	85.94
442.043	101.94
442.264	110.94
442.486	99.94
442.707	99.94
442.928	112.94
443.149	148.94
443.371	121.94
443.592	120.94
443.813	123.94
444.034	102.94
444.255	98.94
444.476	94.94
444.698	97.94
444.919	83.94
445.14	115.94
445.361	123.94
445.582	107.94
445.803	149.94
446.024	146.94
446.245	156.94
446.466	120.94
446.687	99.94
446.908	89.94
447.129	96.94
447.35	93.94
447.571	91.94
447.792	107.94
448.013	98.94
448.234	110.94
448.455	101.94
448.675	109.94
448.896	131.94
449.117	101.94
449.338	103.94
449.559	125.94
449.779	150.94
450	97.94
450.221	94.94
450.442	107.94
450.662	103.94
450.883	109.94
451.104	108.94
451.324	99.94
451.545	84.94
451.766	97.94
451.986	99.94
452.207	79.94
452.428	87.94
452.648	90.94
452.869	104.94
453.089	117.94
453.31	124.94
453.53	95.94
453.751	114.94
453.971	99.94
454.192	115.94
454.412	81.94
454.633	89.94
454.853	84.94
455.073	84.94
455.294	85.94
455.514	110.94
455.734	87.94
455.955	91.94
456.175	103.94
456.395	77.94
456.616	77.94
456.836	75.94
457.056	78.94
457.276	77.94
457.497	92.94
457.717	82.94
457.937	82.94
458.157	82.94
458.377	80.94
458.598	113.94
458.818	167.94
459.038	177.94
459.258	119.94
459.478	91.94
459.698	80.94
459.918	103.94
460.138	95.94
460.358	69.94
460.578	89.94
460.798	93.94
461.018	95.94
461.238	83.94
461.458	105.94
461.678	89.94
461.898	77.94
462.118	80.94
462.338	83.94
462.558	86.94
462.777	78.94
462.997	80.94
463.217	120.94
463.437	108.94
463.657	98.94
463.876	79.94
464.096	97.94
464.316	89.94
464.536	101.94
464.755	95.94
464.975	115.94
465.195	154.94
465.414	177.94
465.634	120.94
465.854	98.94
466.073	81.94
466.293	76.94
466.512	90.94
466.732	89.94
466.951	89.94
467.171	103.94
467.391	106.94
467.61	112.94
467.829	137.94
468.049	230.94
468.268	316.94
468.488	125.94
468.707	80.94
468.927	88.94
469.146	82.94
469.365	87.94
469.585	84.94
469.804	100.94
470.023	95.94
470.243	98.94
470.462	103.94
470.681	116.94
470.901	89.94
471.12	95.94
471.339	94.94
471.558	94.94
471.777	108.94
471.997	149.94
472.216	436.94
472.435	862.94
472.654	260.94
472.873	103.94
473.092	100.94
473.311	89.94
473.53	89.94
473.749	82.94
473.968	96.94
474.187	98.94
474.406	100.94
474.625	73.94
474.844	83.94
475.063	91.94
475.282	89.94
475.501	90.94
475.72	105.94
475.939	88.94
476.158	86.94
476.377	91.94
476.596	99.94
476.814	104.94
477.033	86.94
477.252	81.94
477.471	83.94
477.69	93.94
477.908	82.94
478.127	97.94
478.346	94.94
478.564	87.94
478.783	95.94
479.002	104.94
479.22	90.94
479.439	113.94
479.658	106.94
479.876	112.94
480.095	114.94
480.313	109.94
480.532	125.94
480.751	153.94
480.969	395.94
481.188	1521.94
481.406	938.94
481.624	186.94
481.843	107.94
482.061	95.94
482.28	111.94
482.498	90.94
482.717	89.94
482.935	83.94
483.153	79.94
483.372	96.94
483.59	99.94
483.808	103.94
484.027	100.94
484.245	93.94
484.463	78.94
484.681	82.94
484.9	85.94
485.118	107.94
485.336	105.94
485.554	94.94
485.772	106.94
485.99	114.94
486.209	114.94
486.427	94.94
486.645	114.94
486.863	117.94
487.081	104.94
487.299	91.94
487.517	91.94
487.735	85.94
487.953	92.94
488.171	93.94
488.389	92.94
488.607	101.94
488.825	91.94
489.043	96.94
489.261	92.94
489.479	101.94
489.696	92.94
489.914	93.94
490.132	92.94
490.35	85.94
490.568	71.94
490.786	94.94
491.003	80.94
491.221	96.94
491.439	106.94
491.657	89.94
491.874	72.94
492.092	104.94
492.31	88.94
492.527	92.94
492.745	99.94
492.963	105.94
493.18	85.94
493.398	98.94
493.615	93.94
493.833	101.94
494.05	100.94
494.268	80.94
494.485	90.94
494.703	83.94
494.92	73.94
495.138	94.94
495.355	95.94
495.573	93.94
495.79	99.94
496.008	96.94
496.225	71.94
496.442	91.94
496.66	89.94
496.877	97.94
497.094	108.94
497.312	90.94
497.529	80.94
497.746	91.94
497.963	86.94
498.181	89.94
498.398	92.94
498.615	101.94
498.832	111.94
499.049	87.94
499.267	88.94
499.484	93.94
499.701	91.94
499.918	85.94
500.135	90.94
500.352	79.94
500.569	101.94
500.786	98.94
501.003	91.94
501.22	73.94
501.437	80.94
501.654	92.94
501.871	110.94
502.088	87.94
502.305	92.94
502.522	91.94
502.739	102.94
502.956	91.94
503.172	105.94
503.389	92.94
503.606	104.94
503.823	88.94
504.04	92.94
504.256	97.94
504.473	87.94
504.69	82.94
504.907	97.94
505.123	80.94
505.34	93.94
505.557	95.94
505.773	89.94
505.99	77.94
506.207	92.94
506.423	90.94
506.64	89.94
506.856	104.94
507.073	93.94
507.289	106.94
507.506	103.94
507.722	118.94
507.939	113.94
508.155	103.94
508.372	93.94
508.588	104.94
508.805	92.94
509.021	90.94
509.238	80.94
509.454	101.94
509.67	101.94
509.887	116.94
510.103	117.94
510.319	209.94
510.536	756.94
510.752	2420.94
510.968	709.94
511.184	162.94
511.401	106.94
511.617	93.94
511.833	90.94
512.049	101.94
512.265	87.94
512.481	91.94
512.698	95.94
512.914	98.94
513.13	84.94
513.346	84.94
513.562	101.94
513.778	87.94
513.994	99.94
514.21	103.94
514.426	100.94
514.642	131.94
514.858	133.94
