Data from Circ_2007_H10_HRD10591_00046.txt Node
Date: Wed Jan 03 10:22:06 EST 2024
User: Yrep
Spectrometer: HR+D1059
Trigger mode: 1
Integration Time (sec): 1.000000E-1
Scans to average: 1
Electric dark correction enabled: true
Nonlinearity correction enabled: false
Boxcar width: 0
XAxis mode: Wavelengths
Number of Pixels in Spectrum: 2048
>>>>>Begin Spectral Data<<<<<
223.165	-10.19
223.4	-10.19
223.635	-10.19
223.869	-11.19
224.104	-15.19
224.338	-10.19
224.573	-16.19
224.808	-30.19
225.042	-17.19
225.277	-14.19
225.511	-3.19
225.746	-5.19
225.98	4.81
226.215	4.81
226.449	15.81
226.683	24.81
226.918	37.81
227.152	44.81
227.387	28.81
227.621	40.81
227.856	36.81
228.09	36.81
228.324	41.81
228.559	60.81
228.793	66.81
229.027	66.81
229.262	60.81
229.496	74.81
229.73	97.81
229.964	93.81
230.199	78.81
230.433	75.81
230.667	79.81
230.901	89.81
231.136	70.81
231.37	78.81
231.604	77.81
231.838	84.81
232.072	76.81
232.306	90.81
232.541	74.81
232.775	74.81
233.009	84.81
233.243	78.81
233.477	74.81
233.711	77.81
233.945	73.81
234.179	90.81
234.413	84.81
234.647	68.81
234.881	82.81
235.115	84.81
235.349	90.81
235.583	92.81
235.817	71.81
236.051	83.81
236.285	78.81
236.519	81.81
236.753	83.81
236.987	93.81
237.221	83.81
237.455	97.81
237.689	100.81
237.922	66.81
238.156	69.81
238.39	61.81
238.624	68.81
238.858	77.81
239.091	82.81
239.325	70.81
239.559	81.81
239.793	82.81
240.027	88.81
240.26	80.81
240.494	81.81
240.728	85.81
240.961	83.81
241.195	78.81
241.429	66.81
241.662	74.81
241.896	88.81
242.13	80.81
242.363	72.81
242.597	72.81
242.83	73.81
243.064	73.81
243.298	80.81
243.531	74.81
243.765	94.81
243.998	79.81
244.232	75.81
244.465	90.81
244.699	84.81
244.932	77.81
245.166	84.81
245.399	75.81
245.633	79.81
245.866	76.81
246.099	81.81
246.333	65.81
246.566	83.81
246.8	89.81
247.033	92.81
247.266	78.81
247.5	81.81
247.733	83.81
247.966	92.81
248.2	82.81
248.433	82.81
248.666	80.81
248.899	83.81
249.133	76.81
249.366	115.81
249.599	108.81
249.832	79.81
250.066	83.81
250.299	88.81
250.532	69.81
250.765	92.81
250.998	80.81
251.231	84.81
251.465	88.81
251.698	94.81
251.931	99.81
252.164	69.81
252.397	83.81
252.63	83.81
252.863	80.81
253.096	79.81
253.329	85.81
253.562	76.81
253.795	94.81
254.028	82.81
254.261	92.81
254.494	78.81
254.727	96.81
254.96	88.81
255.193	83.81
255.426	84.81
255.659	81.81
255.892	97.81
256.124	91.81
256.357	94.81
256.59	83.81
256.823	96.81
257.056	82.81
257.289	86.81
257.521	83.81
257.754	80.81
257.987	96.81
258.22	84.81
258.452	78.81
258.685	95.81
258.918	71.81
259.151	81.81
259.383	85.81
259.616	89.81
259.849	73.81
260.081	88.81
260.314	79.81
260.547	73.81
260.779	84.81
261.012	93.81
261.244	102.81
261.477	100.81
261.71	104.81
261.942	125.81
262.175	132.81
262.407	100.81
262.64	82.81
262.872	77.81
263.105	97.81
263.337	88.81
263.57	86.81
263.802	90.81
264.035	93.81
264.267	81.81
264.499	73.81
264.732	97.81
264.964	91.81
265.197	75.81
265.429	98.81
265.661	75.81
265.894	85.81
266.126	104.81
266.358	78.81
266.591	83.81
266.823	79.81
267.055	99.81
267.287	73.81
267.52	79.81
267.752	82.81
267.984	87.81
268.216	75.81
268.448	99.81
268.681	88.81
268.913	102.81
269.145	94.81
269.377	101.81
269.609	90.81
269.841	65.81
270.073	99.81
270.306	88.81
270.538	90.81
270.77	75.81
271.002	89.81
271.234	94.81
271.466	96.81
271.698	88.81
271.93	96.81
272.162	92.81
272.394	84.81
272.626	96.81
272.858	88.81
273.09	90.81
273.322	94.81
273.553	87.81
273.785	86.81
274.017	81.81
274.249	88.81
274.481	88.81
274.713	93.81
274.945	83.81
275.176	88.81
275.408	99.81
275.64	107.81
275.872	120.81
276.104	96.81
276.335	103.81
276.567	123.81
276.799	152.81
277.031	168.81
277.262	165.81
277.494	149.81
277.726	101.81
277.957	88.81
278.189	91.81
278.421	89.81
278.652	93.81
278.884	87.81
279.115	96.81
279.347	101.81
279.579	100.81
279.81	118.81
280.042	166.81
280.273	198.81
280.505	157.81
280.736	94.81
280.968	101.81
281.199	86.81
281.431	85.81
281.662	99.81
281.894	92.81
282.125	108.81
282.356	143.81
282.588	165.81
282.819	130.81
283.051	94.81
283.282	85.81
283.513	93.81
283.745	106.81
283.976	95.81
284.207	78.81
284.439	90.81
284.67	84.81
284.901	69.81
285.132	94.81
285.364	100.81
285.595	97.81
285.826	109.81
286.057	102.81
286.288	79.81
286.52	90.81
286.751	97.81
286.982	90.81
287.213	94.81
287.444	101.81
287.675	95.81
287.906	99.81
288.138	100.81
288.369	86.81
288.6	117.81
288.831	90.81
289.062	93.81
289.293	77.81
289.524	100.81
289.755	75.81
289.986	85.81
290.217	94.81
290.448	76.81
290.679	91.81
290.91	85.81
291.141	99.81
291.371	94.81
291.602	84.81
291.833	95.81
292.064	87.81
292.295	94.81
292.526	98.81
292.757	108.81
292.987	78.81
293.218	94.81
293.449	84.81
293.68	80.81
293.91	90.81
294.141	104.81
294.372	98.81
294.603	90.81
294.833	86.81
295.064	96.81
295.295	96.81
295.525	92.81
295.756	113.81
295.987	136.81
296.217	164.81
296.448	149.81
296.679	104.81
296.909	102.81
297.14	96.81
297.37	91.81
297.601	99.81
297.831	94.81
298.062	113.81
298.292	86.81
298.523	91.81
298.753	103.81
298.984	86.81
299.214	104.81
299.445	100.81
299.675	86.81
299.905	112.81
300.136	103.81
300.366	83.81
300.597	98.81
300.827	102.81
301.057	110.81
301.288	107.81
301.518	94.81
301.748	96.81
301.979	116.81
302.209	97.81
302.439	97.81
302.669	73.81
302.9	89.81
303.13	92.81
303.36	113.81
303.59	121.81
303.82	123.81
304.051	114.81
304.281	97.81
304.511	98.81
304.741	100.81
304.971	93.81
305.201	96.81
305.431	87.81
305.661	79.81
305.891	95.81
306.121	103.81
306.352	114.81
306.582	127.81
306.812	116.81
307.042	125.81
307.272	132.81
307.502	139.81
307.731	145.81
307.961	108.81
308.191	98.81
308.421	97.81
308.651	86.81
308.881	96.81
309.111	108.81
309.341	117.81
309.571	109.81
309.8	114.81
310.03	110.81
310.26	122.81
310.49	103.81
310.72	105.81
310.949	124.81
311.179	108.81
311.409	104.81
311.639	107.81
311.868	105.81
312.098	88.81
312.328	114.81
312.557	105.81
312.787	138.81
313.017	118.81
313.246	113.81
313.476	101.81
313.706	95.81
313.935	96.81
314.165	131.81
314.394	107.81
314.624	102.81
314.853	123.81
315.083	92.81
315.312	92.81
315.542	86.81
315.771	97.81
316.001	101.81
316.23	90.81
316.46	104.81
316.689	85.81
316.919	109.81
317.148	117.81
317.377	108.81
317.607	113.81
317.836	103.81
318.065	87.81
318.295	97.81
318.524	95.81
318.753	101.81
318.983	110.81
319.212	100.81
319.441	132.81
319.67	107.81
319.9	96.81
320.129	102.81
320.358	106.81
320.587	98.81
320.816	100.81
321.046	116.81
321.275	107.81
321.504	109.81
321.733	103.81
321.962	103.81
322.191	113.81
322.42	113.81
322.649	128.81
322.878	127.81
323.108	126.81
323.337	136.81
323.566	161.81
323.795	191.81
324.024	241.81
324.253	507.81
324.482	1060.81
324.71	2189.81
324.939	2930.81
325.168	1073.81
325.397	313.81
325.626	178.81
325.855	156.81
326.084	147.81
326.313	156.81
326.542	174.81
326.77	290.81
326.999	564.81
327.228	1147.81
327.457	2086.81
327.686	1705.81
327.914	548.81
328.143	438.81
328.372	514.81
328.6	299.81
328.829	198.81
329.058	195.81
329.287	205.81
329.515	169.81
329.744	220.81
329.972	366.81
330.201	702.81
330.43	1012.81
330.658	496.81
330.887	289.81
331.115	193.81
331.344	132.81
331.572	99.81
331.801	130.81
332.03	124.81
332.258	119.81
332.486	99.81
332.715	103.81
332.943	115.81
333.172	123.81
333.4	138.81
333.629	146.81
333.857	216.81
334.085	321.81
334.314	660.81
334.542	1287.81
334.771	1210.81
334.999	338.81
335.227	165.81
335.455	129.81
335.684	118.81
335.912	120.81
336.14	101.81
336.369	122.81
336.597	106.81
336.825	113.81
337.053	95.81
337.281	105.81
337.51	90.81
337.738	86.81
337.966	99.81
338.194	103.81
338.422	107.81
338.65	85.81
338.878	103.81
339.106	98.81
339.334	98.81
339.562	84.81
339.79	84.81
340.018	98.81
340.246	90.81
340.474	117.81
340.702	110.81
340.93	95.81
341.158	94.81
341.386	106.81
341.614	117.81
341.842	96.81
342.07	105.81
342.298	105.81
342.526	86.81
342.754	99.81
342.981	80.81
343.209	83.81
343.437	100.81
343.665	92.81
343.893	97.81
344.12	101.81
344.348	93.81
344.576	91.81
344.804	107.81
345.031	106.81
345.259	112.81
345.487	102.81
345.714	104.81
345.942	98.81
346.17	93.81
346.397	94.81
346.625	102.81
346.853	108.81
347.08	104.81
347.308	95.81
347.535	96.81
347.763	112.81
347.99	104.81
348.218	112.81
348.445	120.81
348.673	113.81
348.9	96.81
349.128	100.81
349.355	92.81
349.583	92.81
349.81	96.81
350.037	95.81
350.265	106.81
350.492	89.81
350.72	99.81
350.947	112.81
351.174	112.81
351.402	115.81
351.629	91.81
351.856	100.81
352.083	110.81
352.311	110.81
352.538	132.81
352.765	129.81
352.992	126.81
353.22	115.81
353.447	113.81
353.674	112.81
353.901	102.81
354.128	110.81
354.355	83.81
354.583	99.81
354.81	91.81
355.037	101.81
355.264	84.81
355.491	82.81
355.718	95.81
355.945	101.81
356.172	84.81
356.399	106.81
356.626	100.81
356.853	91.81
357.08	95.81
357.307	97.81
357.534	94.81
357.761	98.81
357.988	93.81
358.215	91.81
358.441	77.81
358.668	97.81
358.895	93.81
359.122	89.81
359.349	92.81
359.576	105.81
359.802	123.81
360.029	144.81
360.256	141.81
360.483	109.81
360.709	88.81
360.936	89.81
361.163	111.81
361.39	85.81
361.616	98.81
361.843	106.81
362.07	106.81
362.296	98.81
362.523	105.81
362.749	91.81
362.976	91.81
363.203	101.81
363.429	88.81
363.656	96.81
363.882	84.81
364.109	98.81
364.335	97.81
364.562	87.81
364.788	91.81
365.015	109.81
365.241	102.81
365.468	123.81
365.694	124.81
365.92	112.81
366.147	90.81
366.373	99.81
366.599	92.81
366.826	88.81
367.052	93.81
367.278	83.81
367.505	85.81
367.731	92.81
367.957	106.81
368.184	98.81
368.41	109.81
368.636	124.81
368.862	126.81
369.089	98.81
369.315	109.81
369.541	111.81
369.767	86.81
369.993	94.81
370.219	106.81
370.445	110.81
370.672	84.81
370.898	97.81
371.124	84.81
371.35	87.81
371.576	85.81
371.802	92.81
372.028	95.81
372.254	94.81
372.48	78.81
372.706	78.81
372.932	77.81
373.158	110.81
373.384	96.81
373.61	89.81
373.835	78.81
374.061	100.81
374.287	98.81
374.513	90.81
374.739	86.81
374.965	96.81
375.191	89.81
375.416	76.81
375.642	93.81
375.868	108.81
376.094	112.81
376.319	92.81
376.545	79.81
376.771	98.81
376.997	93.81
377.222	92.81
377.448	91.81
377.674	81.81
377.899	96.81
378.125	88.81
378.35	92.81
378.576	81.81
378.802	96.81
379.027	85.81
379.253	92.81
379.478	96.81
379.704	108.81
379.929	90.81
380.155	86.81
380.38	103.81
380.606	84.81
380.831	86.81
381.057	100.81
381.282	92.81
381.507	98.81
381.733	93.81
381.958	101.81
382.184	106.81
382.409	106.81
382.634	90.81
382.86	96.81
383.085	108.81
383.31	98.81
383.535	96.81
383.761	119.81
383.986	104.81
384.211	90.81
384.436	98.81
384.662	100.81
384.887	95.81
385.112	106.81
385.337	107.81
385.562	94.81
385.787	112.81
386.013	124.81
386.238	115.81
386.463	108.81
386.688	113.81
386.913	115.81
387.138	105.81
387.363	103.81
387.588	106.81
387.813	93.81
388.038	96.81
388.263	116.81
388.488	115.81
388.713	90.81
388.938	100.81
389.163	95.81
389.387	104.81
389.612	92.81
389.837	98.81
390.062	84.81
390.287	97.81
390.512	83.81
390.736	86.81
390.961	85.81
391.186	68.81
391.411	100.81
391.636	96.81
391.86	87.81
392.085	81.81
392.31	98.81
392.534	98.81
392.759	86.81
392.984	86.81
393.208	95.81
393.433	92.81
393.658	100.81
393.882	90.81
394.107	91.81
394.331	86.81
394.556	74.81
394.78	101.81
395.005	92.81
395.229	84.81
395.454	89.81
395.678	82.81
395.903	82.81
396.127	93.81
396.352	91.81
396.576	96.81
396.801	91.81
397.025	94.81
397.249	84.81
397.474	96.81
397.698	101.81
397.922	98.81
398.147	84.81
398.371	88.81
398.595	92.81
398.82	88.81
399.044	85.81
399.268	85.81
399.492	98.81
399.717	89.81
399.941	92.81
400.165	91.81
400.389	86.81
400.613	81.81
400.837	83.81
401.062	85.81
401.286	90.81
401.51	89.81
401.734	86.81
401.958	112.81
402.182	138.81
402.406	184.81
402.63	158.81
402.854	94.81
403.078	82.81
403.302	89.81
403.526	104.81
403.75	91.81
403.974	93.81
404.198	73.81
404.422	90.81
404.645	89.81
404.869	104.81
405.093	125.81
405.317	146.81
405.541	134.81
405.765	125.81
405.988	139.81
406.212	225.81
406.436	317.81
406.66	214.81
406.883	124.81
407.107	102.81
407.331	114.81
407.555	116.81
407.778	101.81
408.002	99.81
408.226	98.81
408.449	90.81
408.673	92.81
408.896	103.81
409.12	104.81
409.344	94.81
409.567	79.81
409.791	93.81
410.014	97.81
410.238	96.81
410.461	103.81
410.685	98.81
410.908	100.81
411.132	114.81
411.355	103.81
411.578	88.81
411.802	96.81
412.025	105.81
412.249	93.81
412.472	109.81
412.695	134.81
412.919	93.81
413.142	97.81
413.365	90.81
413.589	89.81
413.812	75.81
414.035	90.81
414.258	91.81
414.482	103.81
414.705	101.81
414.928	102.81
415.151	94.81
415.374	114.81
415.597	98.81
415.821	85.81
416.044	81.81
416.267	98.81
416.49	90.81
416.713	93.81
416.936	94.81
417.159	93.81
417.382	88.81
417.605	109.81
417.828	109.81
418.051	96.81
418.274	97.81
418.497	68.81
418.72	84.81
418.943	101.81
419.166	93.81
419.389	97.81
419.611	95.81
419.834	76.81
420.057	106.81
420.28	97.81
420.503	83.81
420.726	98.81
420.948	95.81
421.171	101.81
421.394	100.81
421.617	91.81
421.839	100.81
422.062	82.81
422.285	97.81
422.507	124.81
422.73	113.81
422.953	98.81
423.175	91.81
423.398	72.81
423.621	86.81
423.843	89.81
424.066	78.81
424.288	87.81
424.511	92.81
424.733	112.81
424.956	125.81
425.178	102.81
425.401	118.81
425.623	114.81
425.846	93.81
426.068	102.81
426.291	98.81
426.513	114.81
426.735	97.81
426.958	105.81
427.18	117.81
427.402	171.81
427.625	264.81
427.847	238.81
428.069	205.81
428.292	129.81
428.514	100.81
428.736	99.81
428.958	89.81
429.181	94.81
429.403	79.81
429.625	99.81
429.847	93.81
430.069	124.81
430.292	107.81
430.514	77.81
430.736	79.81
430.958	104.81
431.18	83.81
431.402	92.81
431.624	74.81
431.846	92.81
432.068	82.81
432.29	105.81
432.512	99.81
432.734	92.81
432.956	81.81
433.178	102.81
433.4	99.81
433.622	87.81
433.844	92.81
434.066	98.81
434.287	86.81
434.509	105.81
434.731	106.81
434.953	78.81
435.175	86.81
435.397	89.81
435.618	113.81
435.84	123.81
436.062	141.81
436.284	127.81
436.505	110.81
436.727	102.81
436.949	88.81
437.17	89.81
437.392	84.81
437.614	94.81
437.835	138.81
438.057	170.81
438.278	137.81
438.5	110.81
438.721	164.81
438.943	111.81
439.165	98.81
439.386	85.81
439.608	86.81
439.829	99.81
440.05	176.81
440.272	192.81
440.493	112.81
440.715	95.81
440.936	94.81
441.158	97.81
441.379	99.81
441.6	91.81
441.822	96.81
442.043	107.81
442.264	130.81
442.486	116.81
442.707	106.81
442.928	123.81
443.149	175.81
443.371	192.81
443.592	135.81
443.813	132.81
444.034	130.81
444.255	94.81
444.476	96.81
444.698	85.81
444.919	81.81
445.14	134.81
445.361	139.81
445.582	157.81
445.803	196.81
446.024	189.81
446.245	177.81
446.466	126.81
446.687	114.81
446.908	97.81
447.129	92.81
447.35	103.81
447.571	91.81
447.792	90.81
448.013	112.81
448.234	125.81
448.455	115.81
448.675	136.81
448.896	137.81
449.117	109.81
449.338	128.81
449.559	155.81
449.779	160.81
450	103.81
450.221	81.81
450.442	103.81
450.662	113.81
450.883	138.81
451.104	133.81
451.324	111.81
451.545	97.81
451.766	70.81
451.986	62.81
452.207	102.81
452.428	82.81
452.648	103.81
452.869	131.81
453.089	138.81
453.31	139.81
453.53	99.81
453.751	97.81
453.971	109.81
454.192	140.81
454.412	105.81
454.633	86.81
454.853	98.81
455.073	97.81
455.294	99.81
455.514	136.81
455.734	84.81
455.955	97.81
456.175	84.81
456.395	81.81
456.616	88.81
456.836	75.81
457.056	100.81
457.276	95.81
457.497	80.81
457.717	83.81
457.937	94.81
458.157	86.81
458.377	101.81
458.598	132.81
458.818	213.81
459.038	259.81
459.258	159.81
459.478	110.81
459.698	88.81
459.918	93.81
460.138	86.81
460.358	89.81
460.578	86.81
460.798	92.81
461.018	100.81
461.238	80.81
461.458	88.81
461.678	79.81
461.898	91.81
462.118	93.81
462.338	83.81
462.558	93.81
462.777	92.81
462.997	96.81
463.217	113.81
463.437	99.81
463.657	95.81
463.876	89.81
464.096	100.81
464.316	114.81
464.536	92.81
464.755	104.81
464.975	138.81
465.195	227.81
465.414	224.81
465.634	113.81
465.854	91.81
466.073	83.81
466.293	92.81
466.512	85.81
466.732	88.81
466.951	104.81
467.171	92.81
467.391	103.81
467.61	139.81
467.829	172.81
468.049	356.81
468.268	554.81
468.488	163.81
468.707	107.81
468.927	85.81
469.146	93.81
469.365	84.81
469.585	82.81
469.804	114.81
470.023	122.81
470.243	108.81
470.462	118.81
470.681	144.81
470.901	113.81
471.12	88.81
471.339	83.81
471.558	114.81
471.777	130.81
471.997	208.81
472.216	716.81
472.435	1596.81
472.654	425.81
472.873	132.81
473.092	99.81
473.311	101.81
473.53	93.81
473.749	107.81
473.968	89.81
474.187	124.81
474.406	117.81
474.625	90.81
474.844	106.81
475.063	78.81
475.282	96.81
475.501	62.81
475.72	95.81
475.939	90.81
476.158	82.81
476.377	81.81
476.596	101.81
476.814	110.81
477.033	115.81
477.252	87.81
477.471	81.81
477.69	98.81
477.908	92.81
478.127	94.81
478.346	105.81
478.564	96.81
478.783	90.81
479.002	110.81
479.22	96.81
479.439	132.81
479.658	159.81
479.876	125.81
480.095	103.81
480.313	129.81
480.532	134.81
480.751	223.81
480.969	677.81
481.188	2744.81
481.406	1696.81
481.624	276.81
481.843	140.81
482.061	108.81
482.28	87.81
482.498	102.81
482.717	99.81
482.935	108.81
483.153	87.81
483.372	98.81
483.59	85.81
483.808	84.81
484.027	94.81
484.245	101.81
484.463	101.81
484.681	96.81
484.9	105.81
485.118	87.81
485.336	98.81
485.554	97.81
485.772	101.81
485.99	109.81
486.209	112.81
486.427	113.81
486.645	125.81
486.863	142.81
487.081	123.81
487.299	92.81
487.517	102.81
487.735	86.81
487.953	91.81
488.171	85.81
488.389	81.81
488.607	111.81
488.825	95.81
489.043	87.81
489.261	111.81
489.479	96.81
489.696	99.81
489.914	91.81
490.132	90.81
490.35	91.81
490.568	106.81
490.786	86.81
491.003	93.81
491.221	96.81
491.439	112.81
491.657	100.81
491.874	89.81
492.092	91.81
492.31	103.81
492.527	89.81
492.745	86.81
492.963	95.81
493.18	92.81
493.398	91.81
493.615	100.81
493.833	83.81
494.05	90.81
494.268	99.81
494.485	91.81
494.703	87.81
494.92	86.81
495.138	92.81
495.355	96.81
495.573	72.81
495.79	70.81
496.008	94.81
496.225	103.81
496.442	92.81
496.66	91.81
496.877	86.81
497.094	100.81
497.312	90.81
497.529	81.81
497.746	96.81
497.963	85.81
498.181	83.81
498.398	101.81
498.615	120.81
498.832	106.81
499.049	97.81
499.267	90.81
499.484	85.81
499.701	94.81
499.918	92.81
500.135	84.81
500.352	88.81
500.569	92.81
500.786	84.81
501.003	92.81
501.22	85.81
501.437	77.81
501.654	108.81
501.871	122.81
502.088	91.81
502.305	92.81
502.522	98.81
502.739	95.81
502.956	104.81
503.172	89.81
503.389	114.81
503.606	118.81
503.823	99.81
504.04	95.81
504.256	83.81
504.473	98.81
504.69	96.81
504.907	84.81
505.123	92.81
505.34	82.81
505.557	91.81
505.773	89.81
505.99	86.81
506.207	96.81
506.423	85.81
506.64	81.81
506.856	102.81
507.073	96.81
507.289	100.81
507.506	105.81
507.722	128.81
507.939	137.81
508.155	104.81
508.372	95.81
508.588	102.81
508.805	109.81
509.021	99.81
509.238	90.81
509.454	99.81
509.67	98.81
509.887	117.81
510.103	137.81
510.319	241.81
510.536	948.81
510.752	3204.81
510.968	906.81
511.184	179.81
511.401	136.81
511.617	107.81
511.833	113.81
512.049	99.81
512.265	97.81
512.481	117.81
512.698	100.81
