Data from Circ_2007_H10_HRD10591_00088.txt Node
Date: Wed Jan 03 10:22:14 EST 2024
User: Yrep
Spectrometer: HR+D1059
Trigger mode: 1
Integration Time (sec): 1.000000E-1
Scans to average: 1
Electric dark correction enabled: true
Nonlinearity correction enabled: false
Boxcar width: 0
XAxis mode: Wavelengths
Number of Pixels in Spectrum: 2048
>>>>>Begin Spectral Data<<<<<
223.165	-23.88
223.4	-23.88
223.635	-23.88
223.869	-15.88
224.104	-1.88
224.338	-21.88
224.573	-19.88
224.808	-11.88
225.042	-10.88
225.277	-3.88
225.511	-6.88
225.746	6.12
225.98	8.12
226.215	21.12
226.449	9.12
226.683	29.12
226.918	14.12
227.152	29.12
227.387	30.12
227.621	48.12
227.856	55.12
228.09	43.12
228.324	55.12
228.559	49.12
228.793	150.12
229.027	431.12
229.262	492.12
229.496	602.12
229.73	758.12
229.964	793.12
230.199	534.12
230.433	459.12
230.667	458.12
230.901	456.12
231.136	436.12
231.37	427.12
231.604	433.12
231.838	460.12
232.072	467.12
232.306	459.12
232.541	471.12
232.775	487.12
233.009	461.12
233.243	451.12
233.477	474.12
233.711	496.12
233.945	505.12
234.179	515.12
234.413	481.12
234.647	505.12
234.881	513.12
235.115	520.12
235.349	544.12
235.583	560.12
235.817	633.12
236.051	618.12
236.285	586.12
236.519	603.12
236.753	674.12
236.987	915.12
237.221	1346.12
237.455	1497.12
237.689	858.12
237.922	755.12
238.156	714.12
238.39	627.12
238.624	649.12
238.858	624.12
239.091	643.12
239.325	673.12
239.559	686.12
239.793	703.12
240.027	772.12
240.26	919.12
240.494	935.12
240.728	927.12
240.961	874.12
241.195	804.12
241.429	770.12
241.662	783.12
241.896	794.12
242.13	797.12
242.363	794.12
242.597	785.12
242.83	842.12
243.064	864.12
243.298	858.12
243.531	850.12
243.765	831.12
243.998	867.12
244.232	839.12
244.465	886.12
244.699	885.12
244.932	878.12
245.166	912.12
245.399	916.12
245.633	922.12
245.866	921.12
246.099	918.12
246.333	952.12
246.566	975.12
246.8	992.12
247.033	1028.12
247.266	1020.12
247.5	1105.12
247.733	1182.12
247.966	1203.12
248.2	1179.12
248.433	1145.12
248.666	1250.12
248.899	1365.12
249.133	1500.12
249.366	1508.12
249.599	1443.12
249.832	1413.12
250.066	1546.12
250.299	2005.12
250.532	2590.12
250.765	2557.12
250.998	2171.12
251.231	1863.12
251.465	1639.12
251.698	1493.12
251.931	1471.12
252.164	1471.12
252.397	1463.12
252.63	1490.12
252.863	1561.12
253.096	1666.12
253.329	1727.12
253.562	1628.12
253.795	1563.12
254.028	1579.12
254.261	1685.12
254.494	1876.12
254.727	2198.12
254.96	2292.12
255.193	2068.12
255.426	2115.12
255.659	2481.12
255.892	3571.12
256.124	4621.12
256.357	3733.12
256.59	2710.12
256.823	2175.12
257.056	2008.12
257.289	1873.12
257.521	1817.12
257.754	1766.12
257.987	1739.12
258.22	1692.12
258.452	1677.12
258.685	1668.12
258.918	1678.12
259.151	1687.12
259.383	1767.12
259.616	1760.12
259.849	1793.12
260.081	1972.12
260.314	2115.12
260.547	2003.12
260.779	1823.12
261.012	1803.12
261.244	1735.12
261.477	1731.12
261.71	1777.12
261.942	1821.12
262.175	1818.12
262.407	1764.12
262.64	1725.12
262.872	1681.12
263.105	1646.12
263.337	1681.12
263.57	1683.12
263.802	1686.12
264.035	1697.12
264.267	1730.12
264.499	1683.12
264.732	1712.12
264.964	1707.12
265.197	1697.12
265.429	1735.12
265.661	1733.12
265.894	1772.12
266.126	1773.12
266.358	1790.12
266.591	1839.12
266.823	1865.12
267.055	1885.12
267.287	1874.12
267.52	1853.12
267.752	1884.12
267.984	1880.12
268.216	1917.12
268.448	1991.12
268.681	2000.12
268.913	2146.12
269.145	2311.12
269.377	2335.12
269.609	2278.12
269.841	2226.12
270.073	2371.12
270.306	2617.12
270.538	2745.12
270.77	2557.12
271.002	2450.12
271.234	2398.12
271.466	2575.12
271.698	2662.12
271.93	2694.12
272.162	2664.12
272.394	2592.12
272.626	2474.12
272.858	2337.12
273.09	2292.12
273.322	2267.12
273.553	2264.12
273.785	2275.12
274.017	2262.12
274.249	2353.12
274.481	2321.12
274.713	2367.12
274.945	2363.12
275.176	2439.12
275.408	2419.12
275.64	2407.12
275.872	2490.12
276.104	2485.12
276.335	2491.12
276.567	2619.12
276.799	2852.12
277.031	3103.12
277.262	3255.12
277.494	3060.12
277.726	2826.12
277.957	2731.12
278.189	2629.12
278.421	2538.12
278.652	2519.12
278.884	2547.12
279.115	2555.12
279.347	2583.12
279.579	2633.12
279.81	2679.12
280.042	2828.12
280.273	3056.12
280.505	2955.12
280.736	2768.12
280.968	2663.12
281.199	2621.12
281.431	2627.12
281.662	2643.12
281.894	2596.12
282.125	2701.12
282.356	2836.12
282.588	2990.12
282.819	2786.12
283.051	2600.12
283.282	2634.12
283.513	2665.12
283.745	2675.12
283.976	2757.12
284.207	2719.12
284.439	2700.12
284.67	2661.12
284.901	2671.12
285.132	2709.12
285.364	2701.12
285.595	2723.12
285.826	2700.12
286.057	2769.12
286.288	2753.12
286.52	2767.12
286.751	2745.12
286.982	2772.12
287.213	2740.12
287.444	2820.12
287.675	2901.12
287.906	2982.12
288.138	3047.12
288.369	2964.12
288.6	2959.12
288.831	2903.12
289.062	2913.12
289.293	2921.12
289.524	2834.12
289.755	2871.12
289.986	2832.12
290.217	2843.12
290.448	2893.12
290.679	2886.12
290.91	2927.12
291.141	2852.12
291.371	2839.12
291.602	2842.12
291.833	2847.12
292.064	2868.12
292.295	2827.12
292.526	2876.12
292.757	2843.12
292.987	2835.12
293.218	2827.12
293.449	2876.12
293.68	2855.12
293.91	2895.12
294.141	2854.12
294.372	2858.12
294.603	2895.12
294.833	2896.12
295.064	2943.12
295.295	2944.12
295.525	2955.12
295.756	2969.12
295.987	3087.12
296.217	3253.12
296.448	3196.12
296.679	3039.12
296.909	2959.12
297.14	2996.12
297.37	3027.12
297.601	3052.12
297.831	3107.12
298.062	3116.12
298.292	3107.12
298.523	3143.12
298.753	3149.12
298.984	3120.12
299.214	3165.12
299.445	3124.12
299.675	3176.12
299.905	3196.12
300.136	3151.12
300.366	3207.12
300.597	3233.12
300.827	3345.12
301.057	3443.12
301.288	3426.12
301.518	3360.12
301.748	3391.12
301.979	3372.12
302.209	3468.12
302.439	3414.12
302.669	3308.12
302.9	3331.12
303.13	3306.12
303.36	3432.12
303.59	3474.12
303.82	3561.12
304.051	3508.12
304.281	3392.12
304.511	3363.12
304.741	3322.12
304.971	3328.12
305.201	3293.12
305.431	3299.12
305.661	3348.12
305.891	3293.12
306.121	3326.12
306.352	3339.12
306.582	3369.12
306.812	3339.12
307.042	3391.12
307.272	3551.12
307.502	3604.12
307.731	3515.12
307.961	3463.12
308.191	3344.12
308.421	3316.12
308.651	3417.12
308.881	3287.12
309.111	3415.12
309.341	3412.12
309.571	3515.12
309.8	3564.12
310.03	3626.12
310.26	3691.12
310.49	3623.12
310.72	3825.12
310.949	3892.12
311.179	3804.12
311.409	3741.12
311.639	3692.12
311.868	3689.12
312.098	3735.12
312.328	3805.12
312.557	4027.12
312.787	4071.12
313.017	3931.12
313.246	3899.12
313.476	3763.12
313.706	3849.12
313.935	3899.12
314.165	4039.12
314.394	4120.12
314.624	3973.12
314.853	3888.12
315.083	3757.12
315.312	3787.12
315.542	3799.12
315.771	3725.12
316.001	3740.12
316.23	3678.12
316.46	3777.12
316.689	3777.12
316.919	3835.12
317.148	3887.12
317.377	3888.12
317.607	3836.12
317.836	3860.12
318.065	3751.12
318.295	3762.12
318.524	3856.12
318.753	3714.12
318.983	3764.12
319.212	3815.12
319.441	3837.12
319.67	3865.12
319.9	3836.12
320.129	3769.12
320.358	3791.12
320.587	3864.12
320.816	3944.12
321.046	3956.12
321.275	3956.12
321.504	4011.12
321.733	3996.12
321.962	4043.12
322.191	4165.12
322.42	4217.12
322.649	4355.12
322.878	4459.12
323.108	4566.12
323.337	4799.12
323.566	4972.12
323.795	5371.12
324.024	5968.12
324.253	7846.12
324.482	11855.12
324.71	15605.12
324.939	15605.12
325.168	13652.12
325.397	6911.12
325.626	5620.12
325.855	5187.12
326.084	5127.12
326.313	5177.12
326.542	5417.12
326.77	6108.12
326.999	7839.12
327.228	11460.12
327.457	15249.12
327.686	14772.12
327.914	8983.12
328.143	8519.12
328.372	8957.12
328.6	7519.12
328.829	6661.12
329.058	6807.12
329.287	6852.12
329.515	6771.12
329.744	7437.12
329.972	9192.12
330.201	11828.12
330.43	13252.12
330.658	9899.12
330.887	8092.12
331.115	6842.12
331.344	6104.12
331.572	5868.12
331.801	5920.12
332.03	5918.12
332.258	5773.12
332.486	5797.12
332.715	6000.12
332.943	6335.12
333.172	6596.12
333.4	6930.12
333.629	7591.12
333.857	8646.12
334.085	10580.12
334.314	13316.12
334.542	15371.12
334.771	14767.12
334.999	9564.12
335.227	7507.12
335.455	6618.12
335.684	6190.12
335.912	5885.12
336.14	5635.12
336.369	5549.12
336.597	5545.12
336.825	5442.12
337.053	5302.12
337.281	5124.12
337.51	5079.12
337.738	5029.12
337.966	4911.12
338.194	4944.12
338.422	4897.12
338.65	4748.12
338.878	4757.12
339.106	4724.12
339.334	4651.12
339.562	4601.12
339.79	4599.12
340.018	4588.12
340.246	4588.12
340.474	4604.12
340.702	4557.12
340.93	4548.12
341.158	4573.12
341.386	4563.12
341.614	4547.12
341.842	4463.12
342.07	4469.12
342.298	4371.12
342.526	4405.12
342.754	4392.12
342.981	4400.12
343.209	4501.12
343.437	4697.12
343.665	4957.12
343.893	5176.12
344.12	5127.12
344.348	4979.12
344.576	4759.12
344.804	4783.12
345.031	4794.12
345.259	4723.12
345.487	4549.12
345.714	4413.12
345.942	4309.12
346.17	4262.12
346.397	4162.12
346.625	4261.12
346.853	4267.12
347.08	4213.12
347.308	4274.12
347.535	4394.12
347.763	4441.12
347.99	4317.12
348.218	4371.12
348.445	4393.12
348.673	4332.12
348.9	4222.12
349.128	4211.12
349.355	4098.12
349.583	4099.12
349.81	4153.12
350.037	4107.12
350.265	4122.12
350.492	4122.12
350.72	4121.12
350.947	4162.12
351.174	4281.12
351.402	4354.12
351.629	4298.12
351.856	4242.12
352.083	4356.12
352.311	4297.12
352.538	4363.12
352.765	4343.12
352.992	4212.12
353.22	4236.12
353.447	4218.12
353.674	4094.12
353.901	4007.12
354.128	4039.12
354.355	4057.12
354.583	4015.12
354.81	4034.12
355.037	3995.12
355.264	4015.12
355.491	4019.12
355.718	3987.12
355.945	3936.12
356.172	4004.12
356.399	3982.12
356.626	3989.12
356.853	3989.12
357.08	3935.12
357.307	3984.12
357.534	3973.12
357.761	3966.12
357.988	3996.12
358.215	3986.12
358.441	4038.12
358.668	4021.12
358.895	4079.12
359.122	4060.12
359.349	4146.12
359.576	4301.12
359.802	4532.12
360.029	4688.12
360.256	4713.12
360.483	4526.12
360.709	4263.12
360.936	4231.12
361.163	4199.12
361.39	4326.12
361.616	4253.12
361.843	4241.12
362.07	4279.12
362.296	4284.12
362.523	4257.12
362.749	4244.12
362.976	4181.12
363.203	4085.12
363.429	4128.12
363.656	4111.12
363.882	4079.12
364.109	4032.12
364.335	4072.12
364.562	4137.12
364.788	4118.12
365.015	4072.12
365.241	4083.12
365.468	4139.12
365.694	4184.12
365.92	4227.12
366.147	4099.12
366.373	4085.12
366.599	4063.12
366.826	4092.12
367.052	4010.12
367.278	4145.12
367.505	4112.12
367.731	4107.12
367.957	4151.12
368.184	4149.12
368.41	4226.12
368.636	4325.12
368.862	4274.12
369.089	4218.12
369.315	4115.12
369.541	4231.12
369.767	4240.12
369.993	4239.12
370.219	4240.12
370.445	4232.12
370.672	4235.12
370.898	4160.12
371.124	4287.12
371.35	4327.12
371.576	4341.12
371.802	4303.12
372.028	4229.12
372.254	4330.12
372.48	4317.12
372.706	4492.12
372.932	4459.12
373.158	4463.12
373.384	4362.12
373.61	4340.12
373.835	4344.12
374.061	4393.12
374.287	4457.12
374.513	4475.12
374.739	4612.12
374.965	4711.12
375.191	4747.12
375.416	4651.12
375.642	4562.12
375.868	4471.12
376.094	4439.12
376.319	4393.12
376.545	4390.12
376.771	4304.12
376.997	4281.12
377.222	4311.12
377.448	4251.12
377.674	4326.12
377.899	4272.12
378.125	4200.12
378.35	4205.12
378.576	4286.12
378.802	4202.12
379.027	4270.12
379.253	4332.12
379.478	4240.12
379.704	4270.12
379.929	4340.12
380.155	4341.12
380.38	4255.12
380.606	4277.12
380.831	4291.12
381.057	4319.12
381.282	4342.12
381.507	4329.12
381.733	4429.12
381.958	4469.12
382.184	4434.12
382.409	4492.12
382.634	4521.12
382.86	4547.12
383.085	4645.12
383.31	4707.12
383.535	4756.12
383.761	4844.12
383.986	4830.12
384.211	4929.12
384.436	4989.12
384.662	5050.12
384.887	5072.12
385.112	5078.12
385.337	5179.12
385.562	5210.12
385.787	5184.12
386.013	5278.12
386.238	5311.12
386.463	5273.12
386.688	5220.12
386.913	5144.12
387.138	5151.12
387.363	5111.12
387.588	5060.12
387.813	5118.12
388.038	5107.12
388.263	5174.12
388.488	5111.12
388.713	5116.12
388.938	5098.12
389.163	5099.12
389.387	5104.12
389.612	5070.12
389.837	5050.12
390.062	5029.12
390.287	5052.12
390.512	5063.12
390.736	5141.12
390.961	5230.12
391.186	5248.12
391.411	5425.12
391.636	5519.12
391.86	5743.12
392.085	5781.12
392.31	5625.12
392.534	5513.12
392.759	5468.12
392.984	5318.12
393.208	5308.12
393.433	5315.12
393.658	5359.12
393.882	5342.12
394.107	5301.12
394.331	5396.12
394.556	5355.12
394.78	5437.12
395.005	5522.12
395.229	5516.12
395.454	5652.12
395.678	5809.12
395.903	5841.12
396.127	5866.12
396.352	5659.12
396.576	5501.12
396.801	5460.12
397.025	5464.12
397.249	5669.12
397.474	5767.12
397.698	5797.12
397.922	6003.12
398.147	6031.12
398.371	6165.12
398.595	6296.12
398.82	6518.12
399.044	7131.12
399.268	7877.12
399.492	8897.12
399.717	9482.12
399.941	9231.12
400.165	8664.12
400.389	8032.12
400.613	7290.12
400.837	6830.12
401.062	6582.12
401.286	6494.12
401.51	6502.12
401.734	6428.12
401.958	6627.12
402.182	6736.12
402.406	6875.12
402.63	6903.12
402.854	6898.12
403.078	7082.12
403.302	7205.12
403.526	7358.12
403.75	7421.12
403.974	7549.12
404.198	7561.12
404.422	7647.12
404.645	7800.12
404.869	7987.12
405.093	8552.12
405.317	9143.12
405.541	9003.12
405.765	8146.12
405.988	7693.12
406.212	7731.12
406.436	7871.12
406.66	7867.12
406.883	7806.12
407.107	8305.12
407.331	8835.12
407.555	9355.12
407.778	8974.12
408.002	8196.12
408.226	7818.12
408.449	7843.12
408.673	7644.12
408.896	7809.12
409.12	7916.12
409.344	7426.12
409.567	7079.12
409.791	7150.12
410.014	7035.12
410.238	6953.12
410.461	7024.12
410.685	7099.12
410.908	7260.12
411.132	7346.12
411.355	7404.12
411.578	7084.12
411.802	6986.12
412.025	7134.12
412.249	7662.12
412.472	8360.12
412.695	8965.12
412.919	8191.12
413.142	7669.12
413.365	7353.12
413.589	7117.12
413.812	6739.12
414.035	6611.12
414.258	6675.12
414.482	6633.12
414.705	6641.12
414.928	6465.12
415.151	6549.12
415.374	6581.12
415.597	6458.12
415.821	6374.12
416.044	6459.12
416.267	6466.12
416.49	6283.12
416.713	6283.12
416.936	6398.12
417.159	6439.12
417.382	6586.12
417.605	6738.12
417.828	6808.12
418.051	6791.12
418.274	6549.12
418.497	6483.12
418.72	6528.12
418.943	6546.12
419.166	7012.12
419.389	7433.12
419.611	7461.12
419.834	7388.12
420.057	7495.12
420.28	7800.12
420.503	7583.12
420.726	7215.12
420.948	7161.12
421.171	7451.12
421.394	7242.12
421.617	6746.12
421.839	6684.12
422.062	6724.12
422.285	6829.12
422.507	7515.12
422.73	7981.12
422.953	7401.12
423.175	7002.12
423.398	6989.12
423.621	7081.12
423.843	7242.12
424.066	7164.12
424.288	7092.12
424.511	7264.12
424.733	7799.12
424.956	8254.12
425.178	7742.12
425.401	7866.12
425.623	7724.12
425.846	6752.12
426.068	6595.12
426.291	6543.12
426.513	6551.12
426.735	6674.12
426.958	7112.12
427.18	7995.12
427.402	9245.12
427.625	9741.12
427.847	8890.12
428.069	8591.12
428.292	7250.12
428.514	6366.12
428.736	6095.12
428.958	6052.12
429.181	5839.12
429.403	5840.12
429.625	6005.12
429.847	6252.12
430.069	6823.12
430.292	6374.12
430.514	5849.12
430.736	5861.12
430.958	5702.12
431.18	5616.12
431.402	5685.12
431.624	5689.12
431.846	5659.12
432.068	5704.12
432.29	5743.12
432.512	5621.12
432.734	5804.12
432.956	5719.12
433.178	5856.12
433.4	5924.12
433.622	5772.12
433.844	5759.12
434.066	5745.12
434.287	5809.12
434.509	6032.12
434.731	6188.12
434.953	6412.12
435.175	6556.12
435.397	6641.12
435.618	6521.12
435.84	6947.12
436.062	7781.12
436.284	7791.12
436.505	6505.12
436.727	6250.12
436.949	5931.12
437.17	5778.12
437.392	5726.12
437.614	5916.12
437.835	6370.12
438.057	7401.12
438.278	7918.12
438.5	7803.12
438.721	8670.12
438.943	7604.12
439.165	6309.12
439.386	6157.12
439.608	6271.12
439.829	6307.12
440.05	6801.12
440.272	7252.12
440.493	6501.12
440.715	6168.12
440.936	6078.12
441.158	6083.12
441.379	6286.12
441.6	6546.12
441.822	6810.12
442.043	7218.12
442.264	8044.12
442.486	7735.12
442.707	6793.12
442.928	6670.12
443.149	6975.12
443.371	7111.12
443.592	7671.12
443.813	8791.12
444.034	8623.12
444.255	7417.12
444.476	7279.12
444.698	7379.12
444.919	7492.12
445.14	7272.12
445.361	7247.12
445.582	7489.12
445.803	8177.12
446.024	8856.12
446.245	8540.12
446.466	7498.12
446.687	6314.12
446.908	6080.12
447.129	5771.12
447.35	5665.12
447.571	5645.12
447.792	5495.12
448.013	5607.12
448.234	5826.12
448.455	6491.12
448.675	7737.12
448.896	8168.12
449.117	6647.12
449.338	6849.12
449.559	8180.12
449.779	8473.12
450	6387.12
450.221	5693.12
450.442	5468.12
450.662	5435.12
450.883	5561.12
451.104	5724.12
451.324	5450.12
451.545	5340.12
451.766	5193.12
451.986	5077.12
452.207	5047.12
452.428	5049.12
452.648	5063.12
452.869	5091.12
453.089	5205.12
453.31	5278.12
453.53	5011.12
453.751	5009.12
453.971	5108.12
454.192	5202.12
454.412	4969.12
454.633	4877.12
454.853	4891.12
455.073	4924.12
455.294	5333.12
455.514	5895.12
455.734	5386.12
455.955	4823.12
456.175	4726.12
456.395	4661.12
456.616	4710.12
456.836	4666.12
457.056	4683.12
457.276	4588.12
457.497	4829.12
457.717	4738.12
457.937	4838.12
458.157	4892.12
458.377	4997.12
458.598	5322.12
458.818	6094.12
459.038	6958.12
459.258	6642.12
459.478	5962.12
459.698	5836.12
459.918	5886.12
460.138	6047.12
460.358	6270.12
460.578	6314.12
460.798	6344.12
461.018	6332.12
461.238	6269.12
461.458	6148.12
461.678	6099.12
461.898	6235.12
462.118	6377.12
462.338	6761.12
462.558	6830.12
462.777	7103.12
462.997	7682.12
463.217	8018.12
463.437	7977.12
463.657	7361.12
463.876	7127.12
464.096	7237.12
464.316	7256.12
464.536	7271.12
464.755	7004.12
464.975	6927.12
465.195	7213.12
465.414	7317.12
465.634	6247.12
465.854	5983.12
466.073	5682.12
466.293	5557.12
466.512	5430.12
466.732	5300.12
466.951	5325.12
467.171	5410.12
467.391	5473.12
467.61	5569.12
467.829	5768.12
468.049	6507.12
468.268	7549.12
468.488	6159.12
468.707	5571.12
468.927	5470.12
469.146	5227.12
469.365	5312.12
469.585	5284.12
469.804	5503.12
470.023	5663.12
470.243	5592.12
470.462	5682.12
470.681	5907.12
470.901	5810.12
471.12	5584.12
471.339	5634.12
471.558	5578.12
471.777	5750.12
471.997	6130.12
472.216	8340.12
472.435	12459.12
472.654	9185.12
472.873	6841.12
473.092	6205.12
473.311	5867.12
473.53	5705.12
473.749	5639.12
473.968	6095.12
474.187	7101.12
474.406	6617.12
474.625	5605.12
474.844	5332.12
475.063	5266.12
475.282	5282.12
475.501	5341.12
475.72	5367.12
475.939	5339.12
476.158	5366.12
476.377	5337.12
476.596	5412.12
476.814	5500.12
477.033	5530.12
477.252	5654.12
477.471	5784.12
477.69	5853.12
477.908	5936.12
478.127	6121.12
478.346	6175.12
478.564	6219.12
478.783	6402.12
479.002	6589.12
479.22	6601.12
479.439	6729.12
479.658	6773.12
479.876	6872.12
480.095	7211.12
480.313	7726.12
480.532	7794.12
480.751	8241.12
480.969	10354.12
481.188	15517.12
481.406	15605.12
481.624	11141.12
481.843	8887.12
482.061	8012.12
482.28	7430.12
482.498	7010.12
482.717	6851.12
482.935	6718.12
483.153	6657.12
483.372	6544.12
483.59	6369.12
483.808	6485.12
484.027	6362.12
484.245	6465.12
484.463	6444.12
484.681	6560.12
484.9	6413.12
485.118	6480.12
485.336	6491.12
485.554	6640.12
485.772	6669.12
485.99	6656.12
486.209	6702.12
486.427	6724.12
486.645	6797.12
486.863	6963.12
487.081	6882.12
487.299	6767.12
487.517	6702.12
487.735	6635.12
