Data from Circ_2007_H10_HRD10591_00050.txt Node
Date: Wed Jan 03 10:22:07 EST 2024
User: Yrep
Spectrometer: HR+D1059
Trigger mode: 1
Integration Time (sec): 1.000000E-1
Scans to average: 1
Electric dark correction enabled: true
Nonlinearity correction enabled: false
Boxcar width: 0
XAxis mode: Wavelengths
Number of Pixels in Spectrum: 2048
>>>>>Begin Spectral Data<<<<<
223.165	-24.19
223.4	-24.19
223.635	-24.19
223.869	-23.19
224.104	-27.19
224.338	-8.19
224.573	-2.19
224.808	-16.19
225.042	-6.19
225.277	-11.19
225.511	-1.19
225.746	9.81
225.98	4.81
226.215	19.81
226.449	13.81
226.683	16.81
226.918	29.81
227.152	24.81
227.387	17.81
227.621	43.81
227.856	45.81
228.09	38.81
228.324	27.81
228.559	52.81
228.793	44.81
229.027	57.81
229.262	68.81
229.496	74.81
229.73	98.81
229.964	96.81
230.199	63.81
230.433	83.81
230.667	68.81
230.901	90.81
231.136	67.81
231.37	69.81
231.604	79.81
231.838	76.81
232.072	89.81
232.306	78.81
232.541	72.81
232.775	78.81
233.009	80.81
233.243	76.81
233.477	88.81
233.711	89.81
233.945	77.81
234.179	82.81
234.413	80.81
234.647	65.81
234.881	71.81
235.115	71.81
235.349	87.81
235.583	76.81
235.817	89.81
236.051	80.81
236.285	86.81
236.519	83.81
236.753	69.81
236.987	87.81
237.221	91.81
237.455	83.81
237.689	82.81
237.922	71.81
238.156	73.81
238.39	75.81
238.624	73.81
238.858	64.81
239.091	59.81
239.325	80.81
239.559	80.81
239.793	79.81
240.027	71.81
240.26	77.81
240.494	66.81
240.728	56.81
240.961	80.81
241.195	80.81
241.429	80.81
241.662	74.81
241.896	72.81
242.13	74.81
242.363	81.81
242.597	72.81
242.83	79.81
243.064	76.81
243.298	78.81
243.531	76.81
243.765	69.81
243.998	78.81
244.232	76.81
244.465	89.81
244.699	77.81
244.932	74.81
245.166	78.81
245.399	82.81
245.633	74.81
245.866	74.81
246.099	76.81
246.333	65.81
246.566	76.81
246.8	79.81
247.033	90.81
247.266	85.81
247.5	77.81
247.733	80.81
247.966	79.81
248.2	74.81
248.433	81.81
248.666	81.81
248.899	81.81
249.133	76.81
249.366	119.81
249.599	94.81
249.832	69.81
250.066	67.81
250.299	78.81
250.532	80.81
250.765	75.81
250.998	72.81
251.231	86.81
251.465	85.81
251.698	73.81
251.931	83.81
252.164	71.81
252.397	77.81
252.63	75.81
252.863	64.81
253.096	88.81
253.329	86.81
253.562	75.81
253.795	73.81
254.028	99.81
254.261	89.81
254.494	80.81
254.727	74.81
254.96	76.81
255.193	82.81
255.426	76.81
255.659	77.81
255.892	81.81
256.124	80.81
256.357	90.81
256.59	80.81
256.823	84.81
257.056	76.81
257.289	96.81
257.521	89.81
257.754	86.81
257.987	82.81
258.22	89.81
258.452	88.81
258.685	86.81
258.918	62.81
259.151	87.81
259.383	101.81
259.616	79.81
259.849	97.81
260.081	88.81
260.314	81.81
260.547	84.81
260.779	89.81
261.012	100.81
261.244	91.81
261.477	83.81
261.71	97.81
261.942	104.81
262.175	144.81
262.407	93.81
262.64	76.81
262.872	79.81
263.105	76.81
263.337	74.81
263.57	75.81
263.802	88.81
264.035	82.81
264.267	85.81
264.499	87.81
264.732	77.81
264.964	80.81
265.197	84.81
265.429	88.81
265.661	80.81
265.894	79.81
266.126	68.81
266.358	86.81
266.591	86.81
266.823	62.81
267.055	87.81
267.287	87.81
267.52	75.81
267.752	75.81
267.984	78.81
268.216	75.81
268.448	76.81
268.681	72.81
268.913	73.81
269.145	84.81
269.377	80.81
269.609	75.81
269.841	78.81
270.073	76.81
270.306	73.81
270.538	80.81
270.77	75.81
271.002	80.81
271.234	79.81
271.466	91.81
271.698	76.81
271.93	82.81
272.162	86.81
272.394	84.81
272.626	77.81
272.858	86.81
273.09	83.81
273.322	88.81
273.553	70.81
273.785	78.81
274.017	81.81
274.249	93.81
274.481	83.81
274.713	81.81
274.945	88.81
275.176	83.81
275.408	101.81
275.64	98.81
275.872	94.81
276.104	98.81
276.335	92.81
276.567	106.81
276.799	142.81
277.031	152.81
277.262	149.81
277.494	124.81
277.726	98.81
277.957	80.81
278.189	95.81
278.421	83.81
278.652	90.81
278.884	87.81
279.115	87.81
279.347	99.81
279.579	84.81
279.81	96.81
280.042	144.81
280.273	174.81
280.505	130.81
280.736	96.81
280.968	85.81
281.199	95.81
281.431	96.81
281.662	88.81
281.894	95.81
282.125	110.81
282.356	122.81
282.588	160.81
282.819	133.81
283.051	77.81
283.282	81.81
283.513	81.81
283.745	81.81
283.976	91.81
284.207	85.81
284.439	72.81
284.67	73.81
284.901	87.81
285.132	82.81
285.364	84.81
285.595	84.81
285.826	75.81
286.057	82.81
286.288	77.81
286.52	81.81
286.751	94.81
286.982	78.81
287.213	89.81
287.444	101.81
287.675	87.81
287.906	102.81
288.138	85.81
288.369	84.81
288.6	96.81
288.831	87.81
289.062	79.81
289.293	89.81
289.524	79.81
289.755	80.81
289.986	87.81
290.217	92.81
290.448	85.81
290.679	77.81
290.91	88.81
291.141	92.81
291.371	85.81
291.602	69.81
291.833	87.81
292.064	79.81
292.295	74.81
292.526	88.81
292.757	88.81
292.987	72.81
293.218	83.81
293.449	69.81
293.68	85.81
293.91	87.81
294.141	80.81
294.372	90.81
294.603	97.81
294.833	91.81
295.064	93.81
295.295	88.81
295.525	77.81
295.756	102.81
295.987	117.81
296.217	172.81
296.448	150.81
296.679	100.81
296.909	95.81
297.14	77.81
297.37	77.81
297.601	95.81
297.831	90.81
298.062	101.81
298.292	95.81
298.523	78.81
298.753	88.81
298.984	87.81
299.214	80.81
299.445	89.81
299.675	80.81
299.905	101.81
300.136	87.81
300.366	97.81
300.597	85.81
300.827	97.81
301.057	94.81
301.288	113.81
301.518	78.81
301.748	100.81
301.979	116.81
302.209	95.81
302.439	95.81
302.669	103.81
302.9	84.81
303.13	97.81
303.36	100.81
303.59	115.81
303.82	124.81
304.051	98.81
304.281	85.81
304.511	92.81
304.741	93.81
304.971	82.81
305.201	81.81
305.431	90.81
305.661	94.81
305.891	96.81
306.121	95.81
306.352	107.81
306.582	119.81
306.812	81.81
307.042	96.81
307.272	125.81
307.502	122.81
307.731	136.81
307.961	109.81
308.191	88.81
308.421	98.81
308.651	92.81
308.881	80.81
309.111	95.81
309.341	94.81
309.571	100.81
309.8	93.81
310.03	109.81
310.26	96.81
310.49	95.81
310.72	110.81
310.949	116.81
311.179	117.81
311.409	96.81
311.639	100.81
311.868	102.81
312.098	107.81
312.328	101.81
312.557	122.81
312.787	107.81
313.017	133.81
313.246	92.81
313.476	96.81
313.706	91.81
313.935	99.81
314.165	109.81
314.394	109.81
314.624	96.81
314.853	104.81
315.083	99.81
315.312	84.81
315.542	86.81
315.771	107.81
316.001	81.81
316.23	85.81
316.46	88.81
316.689	91.81
316.919	87.81
317.148	102.81
317.377	109.81
317.607	95.81
317.836	89.81
318.065	89.81
318.295	72.81
318.524	89.81
318.753	97.81
318.983	93.81
319.212	104.81
319.441	104.81
319.67	118.81
319.9	93.81
320.129	76.81
320.358	95.81
320.587	85.81
320.816	99.81
321.046	104.81
321.275	106.81
321.504	108.81
321.733	87.81
321.962	96.81
322.191	101.81
322.42	122.81
322.649	123.81
322.878	113.81
323.108	130.81
323.337	139.81
323.566	164.81
323.795	178.81
324.024	242.81
324.253	465.81
324.482	1031.81
324.71	2101.81
324.939	2871.81
325.168	1044.81
325.397	309.81
325.626	181.81
325.855	125.81
326.084	141.81
326.313	140.81
326.542	176.81
326.77	252.81
326.999	531.81
327.228	1134.81
327.457	2008.81
327.686	1632.81
327.914	494.81
328.143	376.81
328.372	452.81
328.6	276.81
328.829	160.81
329.058	161.81
329.287	180.81
329.515	154.81
329.744	188.81
329.972	313.81
330.201	616.81
330.43	906.81
330.658	445.81
330.887	248.81
331.115	185.81
331.344	122.81
331.572	125.81
331.801	127.81
332.03	113.81
332.258	117.81
332.486	97.81
332.715	102.81
332.943	96.81
333.172	118.81
333.4	134.81
333.629	144.81
333.857	185.81
334.085	285.81
334.314	589.81
334.542	1103.81
334.771	1097.81
334.999	307.81
335.227	135.81
335.455	112.81
335.684	123.81
335.912	100.81
336.14	107.81
336.369	109.81
336.597	100.81
336.825	111.81
337.053	95.81
337.281	77.81
337.51	92.81
337.738	91.81
337.966	95.81
338.194	117.81
338.422	94.81
338.65	105.81
338.878	89.81
339.106	95.81
339.334	97.81
339.562	80.81
339.79	89.81
340.018	93.81
340.246	102.81
340.474	105.81
340.702	87.81
340.93	81.81
341.158	116.81
341.386	103.81
341.614	102.81
341.842	95.81
342.07	78.81
342.298	101.81
342.526	101.81
342.754	94.81
342.981	81.81
343.209	94.81
343.437	105.81
343.665	89.81
343.893	109.81
344.12	85.81
344.348	93.81
344.576	101.81
344.804	91.81
345.031	100.81
345.259	119.81
345.487	85.81
345.714	86.81
345.942	86.81
346.17	92.81
346.397	77.81
346.625	93.81
346.853	96.81
347.08	94.81
347.308	95.81
347.535	105.81
347.763	105.81
347.99	100.81
348.218	117.81
348.445	122.81
348.673	116.81
348.9	97.81
349.128	100.81
349.355	91.81
349.583	84.81
349.81	86.81
350.037	97.81
350.265	81.81
350.492	75.81
350.72	90.81
350.947	92.81
351.174	123.81
351.402	126.81
351.629	106.81
351.856	96.81
352.083	97.81
352.311	127.81
352.538	116.81
352.765	120.81
352.992	121.81
353.22	121.81
353.447	109.81
353.674	109.81
353.901	97.81
354.128	96.81
354.355	100.81
354.583	91.81
354.81	84.81
355.037	97.81
355.264	107.81
355.491	96.81
355.718	84.81
355.945	94.81
356.172	89.81
356.399	99.81
356.626	85.81
356.853	73.81
357.08	91.81
357.307	88.81
357.534	85.81
357.761	100.81
357.988	97.81
358.215	83.81
358.441	104.81
358.668	88.81
358.895	104.81
359.122	79.81
359.349	91.81
359.576	105.81
359.802	116.81
360.029	132.81
360.256	134.81
360.483	113.81
360.709	80.81
360.936	83.81
361.163	110.81
361.39	106.81
361.616	94.81
361.843	97.81
362.07	84.81
362.296	90.81
362.523	101.81
362.749	90.81
362.976	104.81
363.203	94.81
363.429	104.81
363.656	67.81
363.882	87.81
364.109	77.81
364.335	80.81
364.562	83.81
364.788	84.81
365.015	89.81
365.241	106.81
365.468	124.81
365.694	110.81
365.92	104.81
366.147	94.81
366.373	90.81
366.599	88.81
366.826	98.81
367.052	97.81
367.278	89.81
367.505	94.81
367.731	85.81
367.957	87.81
368.184	94.81
368.41	101.81
368.636	113.81
368.862	129.81
369.089	113.81
369.315	95.81
369.541	95.81
369.767	87.81
369.993	96.81
370.219	101.81
370.445	97.81
370.672	105.81
370.898	90.81
371.124	83.81
371.35	76.81
371.576	72.81
371.802	84.81
372.028	88.81
372.254	81.81
372.48	78.81
372.706	88.81
372.932	79.81
373.158	77.81
373.384	79.81
373.61	85.81
373.835	78.81
374.061	76.81
374.287	73.81
374.513	96.81
374.739	90.81
374.965	96.81
375.191	99.81
375.416	73.81
375.642	75.81
375.868	82.81
376.094	90.81
376.319	82.81
376.545	80.81
376.771	81.81
376.997	90.81
377.222	73.81
377.448	92.81
377.674	96.81
377.899	86.81
378.125	89.81
378.35	87.81
378.576	95.81
378.802	109.81
379.027	92.81
379.253	78.81
379.478	105.81
379.704	74.81
379.929	94.81
380.155	107.81
380.38	76.81
380.606	108.81
380.831	102.81
381.057	83.81
381.282	84.81
381.507	106.81
381.733	96.81
381.958	94.81
382.184	91.81
382.409	95.81
382.634	106.81
382.86	90.81
383.085	90.81
383.31	89.81
383.535	93.81
383.761	102.81
383.986	84.81
384.211	98.81
384.436	107.81
384.662	98.81
384.887	103.81
385.112	94.81
385.337	88.81
385.562	107.81
385.787	104.81
386.013	102.81
386.238	112.81
386.463	100.81
386.688	102.81
386.913	82.81
387.138	105.81
387.363	99.81
387.588	95.81
387.813	109.81
388.038	97.81
388.263	106.81
388.488	104.81
388.713	100.81
388.938	100.81
389.163	91.81
389.387	89.81
389.612	86.81
389.837	80.81
390.062	74.81
390.287	92.81
390.512	84.81
390.736	89.81
390.961	85.81
391.186	87.81
391.411	82.81
391.636	82.81
391.86	92.81
392.085	85.81
392.31	88.81
392.534	84.81
392.759	86.81
392.984	81.81
393.208	93.81
393.433	76.81
393.658	98.81
393.882	87.81
394.107	81.81
394.331	84.81
394.556	89.81
394.78	90.81
395.005	81.81
395.229	91.81
395.454	84.81
395.678	83.81
395.903	90.81
396.127	85.81
396.352	85.81
396.576	85.81
396.801	91.81
397.025	94.81
397.249	83.81
397.474	92.81
397.698	86.81
397.922	75.81
398.147	77.81
398.371	81.81
398.595	90.81
398.82	96.81
399.044	86.81
399.268	79.81
399.492	93.81
399.717	91.81
399.941	80.81
400.165	97.81
400.389	99.81
400.613	94.81
400.837	83.81
401.062	95.81
401.286	90.81
401.51	96.81
401.734	98.81
401.958	107.81
402.182	141.81
402.406	196.81
402.63	127.81
402.854	103.81
403.078	95.81
403.302	97.81
403.526	92.81
403.75	90.81
403.974	83.81
404.198	84.81
404.422	87.81
404.645	89.81
404.869	77.81
405.093	109.81
405.317	120.81
405.541	126.81
405.765	122.81
405.988	119.81
406.212	217.81
406.436	298.81
406.66	194.81
406.883	112.81
407.107	110.81
407.331	100.81
407.555	109.81
407.778	102.81
408.002	92.81
408.226	86.81
408.449	92.81
408.673	96.81
408.896	78.81
409.12	85.81
409.344	94.81
409.567	87.81
409.791	96.81
410.014	84.81
410.238	86.81
410.461	98.81
410.685	94.81
410.908	95.81
411.132	105.81
411.355	105.81
411.578	95.81
411.802	81.81
412.025	66.81
412.249	99.81
412.472	129.81
412.695	124.81
412.919	108.81
413.142	92.81
413.365	95.81
413.589	87.81
413.812	97.81
414.035	80.81
414.258	75.81
414.482	63.81
414.705	90.81
414.928	86.81
415.151	95.81
415.374	97.81
415.597	90.81
415.821	88.81
416.044	94.81
416.267	86.81
416.49	85.81
416.713	93.81
416.936	72.81
417.159	89.81
417.382	101.81
417.605	106.81
417.828	109.81
418.051	93.81
418.274	95.81
418.497	86.81
418.72	85.81
418.943	88.81
419.166	96.81
419.389	83.81
419.611	85.81
419.834	102.81
420.057	85.81
420.28	90.81
420.503	79.81
420.726	94.81
420.948	108.81
421.171	89.81
421.394	106.81
421.617	95.81
421.839	87.81
422.062	82.81
422.285	87.81
422.507	106.81
422.73	107.81
422.953	88.81
423.175	90.81
423.398	82.81
423.621	80.81
423.843	80.81
424.066	95.81
424.288	91.81
424.511	82.81
424.733	101.81
424.956	126.81
425.178	103.81
425.401	120.81
425.623	102.81
425.846	81.81
426.068	98.81
426.291	89.81
426.513	94.81
426.735	109.81
426.958	104.81
427.18	129.81
427.402	186.81
427.625	234.81
427.847	218.81
428.069	182.81
428.292	110.81
428.514	104.81
428.736	88.81
428.958	92.81
429.181	91.81
429.403	79.81
429.625	89.81
429.847	76.81
430.069	108.81
430.292	91.81
430.514	90.81
430.736	82.81
430.958	86.81
431.18	90.81
431.402	85.81
431.624	90.81
431.846	69.81
432.068	81.81
432.29	82.81
432.512	97.81
432.734	88.81
432.956	88.81
433.178	107.81
433.4	91.81
433.622	82.81
433.844	96.81
434.066	96.81
434.287	99.81
434.509	90.81
434.731	83.81
434.953	94.81
435.175	97.81
435.397	95.81
435.618	103.81
435.84	106.81
436.062	134.81
436.284	122.81
436.505	121.81
436.727	109.81
436.949	89.81
437.17	86.81
437.392	84.81
437.614	79.81
437.835	107.81
438.057	142.81
438.278	133.81
438.5	108.81
438.721	140.81
438.943	120.81
439.165	83.81
439.386	75.81
439.608	94.81
439.829	121.81
440.05	160.81
440.272	195.81
440.493	121.81
440.715	82.81
440.936	80.81
441.158	88.81
441.379	83.81
441.6	88.81
441.822	98.81
442.043	89.81
442.264	113.81
442.486	114.81
442.707	93.81
442.928	117.81
443.149	166.81
443.371	167.81
443.592	112.81
443.813	126.81
444.034	109.81
444.255	102.81
444.476	89.81
444.698	66.81
444.919	82.81
445.14	138.81
445.361	140.81
445.582	136.81
445.803	185.81
446.024	183.81
446.245	180.81
446.466	136.81
446.687	101.81
446.908	92.81
447.129	89.81
447.35	79.81
447.571	88.81
447.792	104.81
448.013	100.81
448.234	128.81
448.455	106.81
448.675	138.81
448.896	140.81
449.117	120.81
449.338	97.81
449.559	152.81
449.779	156.81
450	109.81
450.221	89.81
450.442	103.81
450.662	99.81
450.883	119.81
451.104	140.81
451.324	117.81
451.545	87.81
451.766	72.81
451.986	84.81
452.207	96.81
452.428	87.81
452.648	106.81
452.869	132.81
453.089	138.81
453.31	124.81
453.53	98.81
453.751	91.81
453.971	120.81
454.192	134.81
454.412	107.81
454.633	70.81
454.853	78.81
455.073	94.81
455.294	85.81
455.514	104.81
455.734	90.81
455.955	99.81
456.175	67.81
456.395	85.81
456.616	87.81
456.836	72.81
457.056	74.81
457.276	89.81
457.497	80.81
457.717	71.81
457.937	89.81
458.157	75.81
458.377	82.81
458.598	119.81
458.818	201.81
459.038	215.81
459.258	154.81
459.478	103.81
459.698	81.81
459.918	96.81
460.138	87.81
460.358	80.81
460.578	82.81
460.798	97.81
461.018	81.81
461.238	91.81
461.458	86.81
461.678	87.81
461.898	87.81
462.118	96.81
462.338	81.81
462.558	94.81
462.777	72.81
462.997	99.81
463.217	88.81
463.437	102.81
463.657	97.81
463.876	97.81
464.096	89.81
464.316	97.81
464.536	104.81
464.755	98.81
464.975	124.81
465.195	221.81
465.414	233.81
465.634	106.81
465.854	82.81
466.073	82.81
466.293	80.81
466.512	91.81
466.732	88.81
466.951	88.81
467.171	119.81
467.391	106.81
467.61	117.81
467.829	164.81
468.049	335.81
468.268	488.81
468.488	152.81
468.707	88.81
468.927	104.81
469.146	88.81
469.365	94.81
469.585	79.81
469.804	104.81
470.023	107.81
470.243	102.81
470.462	110.81
470.681	142.81
470.901	107.81
471.12	90.81
471.339	101.81
471.558	88.81
471.777	109.81
471.997	193.81
472.216	628.81
472.435	1467.81
472.654	386.81
472.873	128.81
473.092	85.81
473.311	95.81
473.53	84.81
473.749	71.81
473.968	105.81
474.187	110.81
474.406	104.81
474.625	94.81
474.844	89.81
475.063	94.81
475.282	93.81
475.501	81.81
475.72	89.81
475.939	75.81
476.158	77.81
476.377	83.81
476.596	81.81
476.814	85.81
477.033	90.81
477.252	85.81
477.471	87.81
477.69	82.81
477.908	94.81
478.127	106.81
478.346	81.81
478.564	92.81
478.783	96.81
479.002	101.81
479.22	112.81
479.439	134.81
479.658	135.81
479.876	120.81
480.095	130.81
480.313	115.81
480.532	123.81
480.751	210.81
480.969	591.81
481.188	2444.81
481.406	1552.81
481.624	257.81
481.843	115.81
482.061	89.81
482.28	84.81
482.498	90.81
482.717	82.81
482.935	92.81
483.153	71.81
483.372	89.81
483.59	103.81
483.808	93.81
484.027	93.81
484.245	87.81
484.463	87.81
484.681	105.81
484.9	100.81
485.118	111.81
485.336	92.81
485.554	100.81
485.772	96.81
485.99	94.81
486.209	89.81
486.427	109.81
486.645	118.81
486.863	112.81
487.081	112.81
487.299	93.81
487.517	92.81
487.735	95.81
487.953	95.81
488.171	90.81
488.389	94.81
488.607	109.81
488.825	83.81
489.043	94.81
489.261	98.81
489.479	78.81
489.696	90.81
489.914	76.81
490.132	92.81
490.35	89.81
490.568	80.81
490.786	82.81
491.003	96.81
491.221	92.81
491.439	95.81
491.657	104.81
491.874	101.81
492.092	94.81
492.31	94.81
492.527	78.81
492.745	93.81
492.963	75.81
493.18	78.81
493.398	88.81
493.615	100.81
493.833	92.81
494.05	96.81
494.268	96.81
494.485	89.81
494.703	79.81
494.92	101.81
495.138	81.81
495.355	95.81
495.573	88.81
495.79	93.81
496.008	87.81
496.225	86.81
496.442	75.81
496.66	83.81
496.877	99.81
497.094	94.81
497.312	84.81
497.529	94.81
497.746	85.81
497.963	83.81
498.181	80.81
498.398	102.81
498.615	113.81
498.832	104.81
499.049	90.81
499.267	80.81
499.484	105.81
499.701	109.81
499.918	95.81
500.135	76.81
500.352	93.81
500.569	118.81
500.786	102.81
501.003	88.81
501.22	87.81
501.437	90.81
501.654	91.81
501.871	131.81
502.088	100.81
502.305	80.81
502.522	88.81
502.739	79.81
502.956	77.81
503.172	73.81
503.389	91.81
503.606	113.81
503.823	104.81
504.04	90.81
504.256	82.81
504.473	88.81
504.69	88.81
504.907	77.81
505.123	91.81
505.34	81.81
505.557	78.81
505.773	94.81
505.99	90.81
506.207	95.81
506.423	86.81
506.64	89.81
506.856	93.81
507.073	76.81
507.289	92.81
507.506	94.81
507.722	123.81
507.939	127.81
508.155	105.81
508.372	86.81
508.588	86.81
508.805	104.81
509.021	96.81
509.238	96.81
509.454	93.81
509.67	105.81
509.887	96.81
510.103	132.81
510.319	230.81
510.536	881.81
510.752	3078.81
510.968	845.81
511.184	169.81
511.401	114.81
511.617	99.81
511.833	100.81
512.049	91.81
512.265	94.81
512.481	82.81
512.698	88.81
512.914	98.81
513.13	106.81
513.346	98.81
513.562	110.81
513.778	87.81
513.994	101.81
514.21	116.81
