Data from Circ_2007_H10_HRD10591_00017.txt Node
Date: Wed Jan 03 10:22:00 EST 2024
User: Yrep
Spectrometer: HR+D1059
Trigger mode: 1
Integration Time (sec): 1.000000E-1
Scans to average: 1
Electric dark correction enabled: true
Nonlinearity correction enabled: false
Boxcar width: 0
XAxis mode: Wavelengths
Number of Pixels in Spectrum: 2048
>>>>>Begin Spectral Data<<<<<
223.165	-14
223.4	-14
223.635	-14
223.869	-21
224.104	-10
224.338	-19
224.573	-16
224.808	-13
225.042	-18
225.277	-5
225.511	10
225.746	3
225.98	-1
226.215	14
226.449	19
226.683	15
226.918	29
227.152	27
227.387	36
227.621	43
227.856	49
228.09	50
228.324	51
228.559	62
228.793	61
229.027	75
229.262	85
229.496	84
229.73	113
229.964	90
230.199	74
230.433	81
230.667	89
230.901	76
231.136	80
231.37	94
231.604	78
231.838	80
232.072	85
232.306	75
232.541	93
232.775	83
233.009	76
233.243	87
233.477	86
233.711	86
233.945	96
234.179	89
234.413	83
234.647	81
234.881	89
235.115	82
235.349	84
235.583	72
235.817	81
236.051	84
236.285	86
236.519	68
236.753	84
236.987	84
237.221	91
237.455	99
237.689	92
237.922	79
238.156	77
238.39	86
238.624	83
238.858	86
239.091	86
239.325	79
239.559	89
239.793	96
240.027	94
240.26	79
240.494	76
240.728	89
240.961	89
241.195	78
241.429	63
241.662	77
241.896	80
242.13	77
242.363	89
242.597	77
242.83	80
243.064	64
243.298	79
243.531	90
243.765	83
243.998	88
244.232	89
244.465	100
244.699	79
244.932	81
245.166	70
245.399	75
245.633	75
245.866	89
246.099	82
246.333	93
246.566	90
246.8	87
247.033	87
247.266	81
247.5	89
247.733	78
247.966	97
248.2	76
248.433	89
248.666	84
248.899	86
249.133	68
249.366	100
249.599	89
249.832	79
250.066	83
250.299	71
250.532	92
250.765	80
250.998	71
251.231	91
251.465	71
251.698	76
251.931	93
252.164	89
252.397	81
252.63	99
252.863	73
253.096	64
253.329	91
253.562	96
253.795	89
254.028	76
254.261	89
254.494	80
254.727	71
254.96	81
255.193	83
255.426	89
255.659	101
255.892	109
256.124	100
256.357	85
256.59	91
256.823	77
257.056	73
257.289	64
257.521	85
257.754	89
257.987	76
258.22	79
258.452	103
258.685	92
258.918	96
259.151	80
259.383	85
259.616	84
259.849	81
260.081	85
260.314	83
260.547	80
260.779	87
261.012	93
261.244	102
261.477	96
261.71	105
261.942	151
262.175	146
262.407	117
262.64	98
262.872	94
263.105	74
263.337	92
263.57	100
263.802	97
264.035	97
264.267	87
264.499	89
264.732	88
264.964	82
265.197	90
265.429	76
265.661	86
265.894	85
266.126	78
266.358	105
266.591	98
266.823	89
267.055	92
267.287	91
267.52	88
267.752	82
267.984	80
268.216	91
268.448	83
268.681	92
268.913	91
269.145	83
269.377	83
269.609	84
269.841	79
270.073	79
270.306	86
270.538	91
270.77	94
271.002	79
271.234	73
271.466	95
271.698	74
271.93	95
272.162	91
272.394	88
272.626	90
272.858	87
273.09	88
273.322	83
273.553	72
273.785	84
274.017	92
274.249	94
274.481	94
274.713	101
274.945	91
275.176	86
275.408	86
275.64	107
275.872	97
276.104	90
276.335	108
276.567	125
276.799	143
277.031	142
277.262	130
277.494	133
277.726	101
277.957	103
278.189	93
278.421	94
278.652	79
278.884	94
279.115	96
279.347	85
279.579	98
279.81	132
280.042	127
280.273	179
280.505	112
280.736	80
280.968	89
281.199	92
281.431	94
281.662	102
281.894	96
282.125	115
282.356	143
282.588	187
282.819	133
283.051	88
283.282	95
283.513	89
283.745	75
283.976	80
284.207	82
284.439	91
284.67	92
284.901	86
285.132	95
285.364	80
285.595	85
285.826	93
286.057	98
286.288	93
286.52	101
286.751	88
286.982	93
287.213	93
287.444	86
287.675	89
287.906	96
288.138	93
288.369	92
288.6	88
288.831	97
289.062	95
289.293	108
289.524	87
289.755	88
289.986	94
290.217	89
290.448	94
290.679	84
290.91	109
291.141	88
291.371	87
291.602	87
291.833	94
292.064	89
292.295	80
292.526	102
292.757	94
292.987	93
293.218	97
293.449	101
293.68	96
293.91	88
294.141	89
294.372	101
294.603	93
294.833	87
295.064	105
295.295	107
295.525	98
295.756	121
295.987	145
296.217	187
296.448	153
296.679	98
296.909	96
297.14	91
297.37	98
297.601	85
297.831	85
298.062	85
298.292	94
298.523	99
298.753	97
298.984	85
299.214	80
299.445	91
299.675	85
299.905	104
300.136	100
300.366	84
300.597	88
300.827	101
301.057	119
301.288	123
301.518	111
301.748	101
301.979	100
302.209	93
302.439	105
302.669	91
302.9	101
303.13	97
303.36	103
303.59	115
303.82	148
304.051	104
304.281	92
304.511	93
304.741	101
304.971	88
305.201	82
305.431	88
305.661	87
305.891	91
306.121	123
306.352	127
306.582	117
306.812	91
307.042	95
307.272	137
307.502	141
307.731	140
307.961	93
308.191	102
308.421	117
308.651	110
308.881	93
309.111	95
309.341	104
309.571	111
309.8	108
310.03	119
310.26	115
310.49	112
310.72	120
310.949	124
311.179	115
311.409	91
311.639	90
311.868	103
312.098	101
312.328	110
312.557	137
312.787	142
313.017	117
313.246	93
313.476	103
313.706	83
313.935	97
314.165	119
314.394	121
314.624	115
314.853	111
315.083	114
315.312	107
315.542	104
315.771	93
316.001	93
316.23	107
316.46	87
316.689	87
316.919	103
317.148	105
317.377	110
317.607	119
317.836	108
318.065	93
318.295	95
318.524	107
318.753	88
318.983	102
319.212	101
319.441	123
319.67	125
319.9	100
320.129	96
320.358	102
320.587	99
320.816	101
321.046	112
321.275	111
321.504	91
321.733	101
321.962	110
322.191	100
322.42	113
322.649	144
322.878	118
323.108	128
323.337	133
323.566	141
323.795	191
324.024	237
324.253	520
324.482	1043
324.71	2146
324.939	2863
325.168	1037
325.397	305
325.626	181
325.855	162
326.084	136
326.313	153
326.542	198
326.77	258
326.999	543
327.228	1109
327.457	2065
327.686	1645
327.914	520
328.143	385
328.372	462
328.6	288
328.829	181
329.058	190
329.287	203
329.515	147
329.744	199
329.972	284
330.201	523
330.43	834
330.658	457
330.887	261
331.115	189
331.344	111
331.572	120
331.801	119
332.03	118
332.258	113
332.486	96
332.715	105
332.943	116
333.172	117
333.4	110
333.629	131
333.857	189
334.085	279
334.314	511
334.542	969
334.771	971
334.999	312
335.227	146
335.455	142
335.684	108
335.912	117
336.14	111
336.369	108
336.597	98
336.825	106
337.053	95
337.281	84
337.51	109
337.738	100
337.966	104
338.194	136
338.422	110
338.65	100
338.878	103
339.106	89
339.334	96
339.562	95
339.79	100
340.018	102
340.246	93
340.474	117
340.702	104
340.93	96
341.158	84
341.386	106
341.614	126
341.842	120
342.07	108
342.298	123
342.526	96
342.754	97
342.981	94
343.209	104
343.437	107
343.665	94
343.893	99
344.12	81
344.348	109
344.576	109
344.804	100
345.031	105
345.259	110
345.487	90
345.714	99
345.942	103
346.17	95
346.397	107
346.625	94
346.853	96
347.08	100
347.308	105
347.535	119
347.763	111
347.99	96
348.218	121
348.445	131
348.673	125
348.9	112
349.128	100
349.355	106
349.583	100
349.81	107
350.037	93
350.265	100
350.492	98
350.72	108
350.947	98
351.174	135
351.402	138
351.629	116
351.856	109
352.083	113
352.311	123
352.538	109
352.765	114
352.992	123
353.22	126
353.447	109
353.674	115
353.901	100
354.128	93
354.355	97
354.583	101
354.81	103
355.037	88
355.264	105
355.491	97
355.718	97
355.945	88
356.172	86
356.399	97
356.626	88
356.853	96
357.08	96
357.307	89
357.534	95
357.761	108
357.988	93
358.215	99
358.441	101
358.668	101
358.895	95
359.122	86
359.349	87
359.576	96
359.802	128
360.029	143
360.256	139
360.483	124
360.709	97
360.936	102
361.163	105
361.39	112
361.616	108
361.843	97
362.07	117
362.296	108
362.523	105
362.749	113
362.976	102
363.203	116
363.429	92
363.656	107
363.882	95
364.109	89
364.335	98
364.562	113
364.788	78
365.015	94
365.241	125
365.468	115
365.694	128
365.92	103
366.147	103
366.373	95
366.599	88
366.826	96
367.052	100
367.278	96
367.505	100
367.731	92
367.957	96
368.184	115
368.41	120
368.636	125
368.862	133
369.089	126
369.315	114
369.541	87
369.767	101
369.993	88
370.219	99
370.445	92
370.672	94
370.898	98
371.124	88
371.35	92
371.576	87
371.802	98
372.028	84
372.254	95
372.48	84
372.706	94
372.932	97
373.158	101
373.384	86
373.61	93
373.835	92
374.061	81
374.287	97
374.513	103
374.739	104
374.965	108
375.191	81
375.416	105
375.642	72
375.868	89
376.094	96
376.319	112
376.545	91
376.771	91
376.997	90
377.222	113
377.448	109
377.674	92
377.899	94
378.125	89
378.35	92
378.576	99
378.802	80
379.027	99
379.253	96
379.478	89
379.704	92
379.929	103
380.155	101
380.38	93
380.606	108
380.831	113
381.057	106
381.282	104
381.507	106
381.733	115
381.958	110
382.184	113
382.409	104
382.634	113
382.86	105
383.085	108
383.31	121
383.535	120
383.761	116
383.986	103
384.211	102
384.436	116
384.662	105
384.887	123
385.112	103
385.337	115
385.562	116
385.787	122
386.013	121
386.238	139
386.463	120
386.688	117
386.913	118
387.138	128
387.363	109
387.588	105
387.813	114
388.038	115
388.263	111
388.488	132
388.713	105
388.938	100
389.163	84
389.387	86
389.612	105
389.837	95
390.062	96
390.287	92
390.512	92
390.736	101
390.961	90
391.186	77
391.411	94
391.636	93
391.86	105
392.085	98
392.31	100
392.534	87
392.759	89
392.984	87
393.208	109
393.433	109
393.658	111
393.882	108
394.107	87
394.331	84
394.556	84
394.78	88
395.005	90
395.229	99
395.454	88
395.678	97
395.903	86
396.127	97
396.352	100
396.576	113
396.801	88
397.025	94
397.249	89
397.474	91
397.698	99
397.922	115
398.147	101
398.371	92
398.595	96
398.82	85
399.044	80
399.268	85
399.492	88
399.717	109
399.941	98
400.165	89
400.389	97
400.613	96
400.837	101
401.062	85
401.286	97
401.51	103
401.734	81
401.958	116
402.182	162
402.406	230
402.63	160
402.854	119
403.078	104
403.302	95
403.526	98
403.75	94
403.974	82
404.198	88
404.422	89
404.645	93
404.869	100
405.093	118
405.317	131
405.541	137
405.765	132
405.988	139
406.212	241
406.436	361
406.66	215
406.883	133
407.107	94
407.331	106
407.555	119
407.778	101
408.002	90
408.226	92
408.449	87
408.673	85
408.896	104
409.12	120
409.344	96
409.567	95
409.791	89
410.014	95
410.238	84
410.461	72
410.685	99
410.908	113
411.132	108
411.355	103
411.578	95
411.802	89
412.025	89
412.249	110
412.472	117
412.695	140
412.919	107
413.142	106
413.365	88
413.589	102
413.812	93
414.035	96
414.258	80
414.482	100
414.705	91
414.928	96
415.151	84
415.374	89
415.597	100
415.821	83
416.044	86
416.267	95
416.49	92
416.713	80
416.936	99
417.159	85
417.382	93
417.605	100
417.828	110
418.051	100
418.274	91
418.497	84
418.72	77
418.943	93
419.166	84
419.389	80
419.611	95
419.834	105
420.057	92
420.28	84
420.503	98
420.726	83
420.948	96
421.171	97
421.394	108
421.617	92
421.839	97
422.062	98
422.285	79
422.507	101
422.73	97
422.953	103
423.175	103
423.398	91
423.621	100
423.843	104
424.066	84
424.288	95
424.511	99
424.733	107
424.956	119
425.178	118
425.401	126
425.623	106
425.846	99
426.068	109
426.291	102
426.513	107
426.735	97
426.958	101
427.18	112
427.402	192
427.625	251
427.847	225
428.069	197
428.292	102
428.514	93
428.736	79
428.958	89
429.181	102
429.403	101
429.625	84
429.847	88
430.069	112
430.292	116
430.514	79
430.736	91
430.958	93
431.18	88
431.402	87
431.624	85
431.846	77
432.068	85
432.29	79
432.512	89
432.734	95
432.956	85
433.178	88
433.4	102
433.622	94
433.844	97
434.066	85
434.287	95
434.509	98
434.731	106
434.953	93
435.175	92
435.397	109
435.618	95
435.84	96
436.062	161
436.284	151
436.505	124
436.727	109
436.949	98
437.17	97
437.392	86
437.614	96
437.835	129
438.057	151
438.278	141
438.5	133
438.721	141
438.943	121
439.165	111
439.386	95
439.608	101
439.829	113
440.05	148
440.272	198
440.493	112
440.715	96
440.936	89
441.158	85
441.379	96
441.6	112
441.822	118
442.043	114
442.264	115
442.486	116
442.707	103
442.928	127
443.149	172
443.371	183
443.592	139
443.813	143
444.034	124
444.255	102
444.476	105
444.698	92
444.919	86
445.14	137
445.361	125
445.582	143
445.803	176
446.024	170
446.245	167
446.466	121
446.687	94
446.908	103
447.129	92
447.35	101
447.571	97
447.792	95
448.013	118
448.234	126
448.455	123
448.675	132
448.896	147
449.117	111
449.338	97
449.559	156
449.779	166
450	112
450.221	81
450.442	94
450.662	110
450.883	141
451.104	163
451.324	115
451.545	97
451.766	101
451.986	92
452.207	91
452.428	106
452.648	110
452.869	152
453.089	146
453.31	141
453.53	104
453.751	106
453.971	127
454.192	137
454.412	102
454.633	94
454.853	86
455.073	102
455.294	108
455.514	117
455.734	108
455.955	90
456.175	91
456.395	88
456.616	102
456.836	83
457.056	92
457.276	95
457.497	78
457.717	84
457.937	84
458.157	102
458.377	109
458.598	135
458.818	251
459.038	244
459.258	157
459.478	107
459.698	99
459.918	81
460.138	101
460.358	76
460.578	87
460.798	92
461.018	100
461.238	90
461.458	87
461.678	96
461.898	93
462.118	91
462.338	89
462.558	96
462.777	91
462.997	93
463.217	90
463.437	102
463.657	91
463.876	80
464.096	93
464.316	95
464.536	115
464.755	111
464.975	141
465.195	243
465.414	274
465.634	120
465.854	95
466.073	86
466.293	107
466.512	98
466.732	82
466.951	94
467.171	91
467.391	97
467.61	124
467.829	147
468.049	308
468.268	486
468.488	150
468.707	99
468.927	89
469.146	93
469.365	97
469.585	94
469.804	113
470.023	130
470.243	115
470.462	119
470.681	152
470.901	103
471.12	104
471.339	99
471.558	103
471.777	124
471.997	183
472.216	556
472.435	1323
472.654	351
472.873	130
473.092	107
473.311	92
473.53	99
473.749	89
473.968	102
474.187	128
474.406	101
474.625	98
474.844	95
475.063	83
475.282	89
475.501	90
475.72	86
475.939	83
476.158	96
476.377	83
476.596	82
476.814	99
477.033	106
477.252	80
477.471	100
477.69	105
477.908	110
478.127	88
478.346	81
478.564	108
478.783	115
479.002	117
479.22	107
479.439	136
479.658	130
479.876	120
480.095	103
480.313	120
480.532	116
480.751	178
480.969	537
481.188	2142
481.406	1415
481.624	261
481.843	121
482.061	107
482.28	101
482.498	102
482.717	97
482.935	91
483.153	86
483.372	97
483.59	88
483.808	86
484.027	105
484.245	94
484.463	87
484.681	116
484.9	93
485.118	83
485.336	106
485.554	95
485.772	100
485.99	114
486.209	123
486.427	119
486.645	126
486.863	141
487.081	111
487.299	103
487.517	102
487.735	102
487.953	98
488.171	95
488.389	114
488.607	105
488.825	102
489.043	95
489.261	93
489.479	96
489.696	84
489.914	88
490.132	78
490.35	86
490.568	94
490.786	93
491.003	98
491.221	88
491.439	101
491.657	100
491.874	85
492.092	105
492.31	101
492.527	91
492.745	91
492.963	105
493.18	86
493.398	103
493.615	113
493.833	101
494.05	81
494.268	99
494.485	91
494.703	105
494.92	92
495.138	77
495.355	97
495.573	98
495.79	91
496.008	95
496.225	90
496.442	87
496.66	98
496.877	103
497.094	87
497.312	107
497.529	81
497.746	83
497.963	107
498.181	114
498.398	91
498.615	131
498.832	120
499.049	103
499.267	103
499.484	104
499.701	95
499.918	89
500.135	87
500.352	87
500.569	91
500.786	115
501.003	93
501.22	100
501.437	96
501.654	102
501.871	141
502.088	106
502.305	96
502.522	99
502.739	98
502.956	89
503.172	95
503.389	90
503.606	125
503.823	102
504.04	89
504.256	110
504.473	91
504.69	88
504.907	93
505.123	79
505.34	90
505.557	93
505.773	102
505.99	91
506.207	97
506.423	100
506.64	93
506.856	94
507.073	89
507.289	100
507.506	104
507.722	158
507.939	137
508.155	101
508.372	116
508.588	104
508.805	93
509.021	108
509.238	104
509.454	98
509.67	102
509.887	120
510.103	162
510.319	262
510.536	998
510.752	3583
510.968	976
511.184	183
511.401	135
511.617	114
511.833	116
512.049	93
512.265	106
512.481	108
512.698	107
512.914	102
513.13	107
513.346	82
513.562	108
513.778	101
513.994	116
514.21	124
514.426	150
514.642	198
514.858	165
515.074	227
515.29	751
515.506	2914
515.721	1075
515.937	232
516.153	152
516.369	115
516.585	113
516.801	100
517.016	99
517.232	101
517.448	102
517.664	110
517.879	103
518.095	93
518.311	96
518.527	95
518.742	91
518.958	100
519.173	103
519.389	97
519.605	92
519.82	110
520.036	126
520.251	154
520.467	146
520.682	115
520.898	124
521.113	137
521.329	184
521.544	308
521.76	1004
521.975	4795
522.19	2912
522.406	564
522.621	169
522.836	125
523.052	101
523.267	117
523.482	113
523.698	145
523.913	165
524.128	120
524.343	100
524.559	88
524.774	103
524.989	93
525.204	124
525.419	110
525.634	94
525.849	87
526.064	87
526.28	95
526.495	105
526.71	101
526.925	81
527.14	79
527.355	96
527.57	96
527.785	93
527.999	72
528.214	105
528.429	102
528.644	96
528.859	95
529.074	100
529.289	158
529.503	309
529.718	128
529.933	91
530.148	105
530.363	97
530.577	89
530.792	98
531.007	101
531.221	106
531.436	91
531.651	102
531.865	92
532.08	92
532.295	83
532.509	103
532.724	114
532.938	88
533.153	106
533.367	97
533.582	96
533.796	88
534.011	99
534.225	101
534.44	100
534.654	98
534.868	98
535.083	116
535.297	101
535.511	122
535.726	113
535.94	107
536.154	100
536.369	97
536.583	91
536.797	86
537.011	87
537.225	84
537.44	91
537.654	89
537.868	111
538.082	94
538.296	91
538.51	87
538.724	91
538.938	89
539.153	101
539.367	132
539.581	100
539.795	87
540.009	90
540.222	87
540.436	95
540.65	87
540.864	92
541.078	118
541.292	85
541.506	92
541.72	114
541.934	86
542.147	93
542.361	99
542.575	77
542.789	93
543.002	93
543.216	105
543.43	108
543.644	90
543.857	96
544.071	96
544.285	108
544.498	88
544.712	90
544.925	91
545.139	93
545.352	90
545.566	77
545.779	86
545.993	104
546.206	81
546.42	98
546.633	99
546.847	94
547.06	96
547.274	96
547.487	104
547.7	89
547.914	91
548.127	88
548.34	85
548.554	96
548.767	100
548.98	91
549.193	99
549.407	80
549.62	89
549.833	85
550.046	88
550.259	93
550.473	102
550.686	91
550.899	93
551.112	92
551.325	96
551.538	101
551.751	94
551.964	96
552.177	88
552.39	87
552.603	99
552.816	95
553.029	90
553.242	93
553.455	109
553.667	123
553.88	120
554.093	106
554.306	99
554.519	117
554.732	109
554.944	93
555.157	98
555.37	91
555.583	94
555.795	105
556.008	95
556.221	91
556.433	95
556.646	83
556.859	84
557.071	90
557.284	100
557.496	96
557.709	84
557.921	85
558.134	105
558.346	107
558.559	86
558.771	94
558.984	111
559.196	92
559.409	84
559.621	93
559.833	91
560.046	89
560.258	113
560.47	114
560.683	92
560.895	101
561.107	93
561.32	101
561.532	101
561.744	104
561.956	94
562.168	91
562.381	93
562.593	108
562.805	83
563.017	85
563.229	78
563.441	94
563.653	87
563.865	98
564.077	90
564.289	88
564.501	91
564.713	95
564.925	93
565.137	118
565.349	88
565.561	92
565.773	90
565.985	103
566.197	83
566.408	80
566.62	87
566.832	93
567.044	91
567.255	85
567.467	84
567.679	89
567.891	90
568.102	85
568.314	91
568.526	102
568.737	95
568.949	88
569.161	77
569.372	87
569.584	98
569.795	94
570.007	132
570.218	347
570.43	169
570.641	104
570.853	97
571.064	83
571.276	85
571.487	97
571.698	97
571.91	93
572.121	96
572.333	90
572.544	82
572.755	84
572.966	95
573.178	93
573.389	98
573.6	89
573.811	99
574.023	83
574.234	86
574.445	86
574.656	86
574.867	92
575.078	91
575.289	98
575.501	102
575.712	98
575.923	105
576.134	86
576.345	81
576.556	94
576.767	98
576.978	101
577.188	101
577.399	93
577.61	101
577.821	101
578.032	142
578.243	343
