Data from Circ_2007_H10_HRD10591_00073.txt Node
Date: Wed Jan 03 10:22:11 EST 2024
User: Yrep
Spectrometer: HR+D1059
Trigger mode: 1
Integration Time (sec): 1.000000E-1
Scans to average: 1
Electric dark correction enabled: true
Nonlinearity correction enabled: false
Boxcar width: 0
XAxis mode: Wavelengths
Number of Pixels in Spectrum: 2048
>>>>>Begin Spectral Data<<<<<
223.165	-15.56
223.4	-15.56
223.635	-15.56
223.869	-32.56
224.104	-28.56
224.338	-22.56
224.573	-7.56
224.808	-11.56
225.042	-3.56
225.277	2.44
225.511	-2.56
225.746	9.44
225.98	11.44
226.215	12.44
226.449	15.44
226.683	15.44
226.918	22.44
227.152	35.44
227.387	61.44
227.621	49.44
227.856	45.44
228.09	44.44
228.324	35.44
228.559	55.44
228.793	69.44
229.027	57.44
229.262	78.44
229.496	72.44
229.73	90.44
229.964	110.44
230.199	90.44
230.433	80.44
230.667	83.44
230.901	81.44
231.136	84.44
231.37	86.44
231.604	90.44
231.838	73.44
232.072	94.44
232.306	93.44
232.541	97.44
232.775	86.44
233.009	81.44
233.243	84.44
233.477	78.44
233.711	92.44
233.945	95.44
234.179	82.44
234.413	83.44
234.647	89.44
234.881	76.44
235.115	69.44
235.349	88.44
235.583	77.44
235.817	82.44
236.051	83.44
236.285	77.44
236.519	73.44
236.753	72.44
236.987	80.44
237.221	94.44
237.455	90.44
237.689	79.44
237.922	77.44
238.156	69.44
238.39	91.44
238.624	79.44
238.858	84.44
239.091	93.44
239.325	84.44
239.559	93.44
239.793	88.44
240.027	78.44
240.26	84.44
240.494	81.44
240.728	88.44
240.961	95.44
241.195	84.44
241.429	59.44
241.662	69.44
241.896	82.44
242.13	92.44
242.363	85.44
242.597	82.44
242.83	87.44
243.064	92.44
243.298	77.44
243.531	77.44
243.765	79.44
243.998	78.44
244.232	86.44
244.465	94.44
244.699	87.44
244.932	77.44
245.166	88.44
245.399	83.44
245.633	79.44
245.866	79.44
246.099	75.44
246.333	83.44
246.566	86.44
246.8	85.44
247.033	86.44
247.266	95.44
247.5	95.44
247.733	85.44
247.966	86.44
248.2	92.44
248.433	86.44
248.666	85.44
248.899	87.44
249.133	93.44
249.366	108.44
249.599	100.44
249.832	93.44
250.066	72.44
250.299	84.44
250.532	86.44
250.765	72.44
250.998	90.44
251.231	88.44
251.465	88.44
251.698	86.44
251.931	89.44
252.164	102.44
252.397	83.44
252.63	94.44
252.863	88.44
253.096	86.44
253.329	94.44
253.562	85.44
253.795	73.44
254.028	86.44
254.261	96.44
254.494	89.44
254.727	81.44
254.96	89.44
255.193	93.44
255.426	88.44
255.659	73.44
255.892	96.44
256.124	88.44
256.357	90.44
256.59	98.44
256.823	93.44
257.056	90.44
257.289	93.44
257.521	103.44
257.754	82.44
257.987	92.44
258.22	92.44
258.452	89.44
258.685	83.44
258.918	85.44
259.151	93.44
259.383	76.44
259.616	93.44
259.849	94.44
260.081	97.44
260.314	89.44
260.547	109.44
260.779	97.44
261.012	98.44
261.244	104.44
261.477	98.44
261.71	104.44
261.942	126.44
262.175	125.44
262.407	111.44
262.64	75.44
262.872	93.44
263.105	95.44
263.337	72.44
263.57	74.44
263.802	96.44
264.035	105.44
264.267	87.44
264.499	77.44
264.732	95.44
264.964	77.44
265.197	99.44
265.429	78.44
265.661	87.44
265.894	85.44
266.126	93.44
266.358	95.44
266.591	91.44
266.823	99.44
267.055	98.44
267.287	95.44
267.52	89.44
267.752	81.44
267.984	88.44
268.216	85.44
268.448	79.44
268.681	101.44
268.913	92.44
269.145	93.44
269.377	92.44
269.609	83.44
269.841	80.44
270.073	88.44
270.306	89.44
270.538	92.44
270.77	91.44
271.002	90.44
271.234	97.44
271.466	85.44
271.698	87.44
271.93	98.44
272.162	98.44
272.394	85.44
272.626	83.44
272.858	99.44
273.09	96.44
273.322	94.44
273.553	95.44
273.785	88.44
274.017	79.44
274.249	76.44
274.481	100.44
274.713	93.44
274.945	85.44
275.176	108.44
275.408	90.44
275.64	104.44
275.872	109.44
276.104	109.44
276.335	101.44
276.567	113.44
276.799	129.44
277.031	137.44
277.262	151.44
277.494	119.44
277.726	100.44
277.957	104.44
278.189	95.44
278.421	82.44
278.652	93.44
278.884	91.44
279.115	86.44
279.347	88.44
279.579	105.44
279.81	131.44
280.042	160.44
280.273	187.44
280.505	159.44
280.736	102.44
280.968	97.44
281.199	95.44
281.431	91.44
281.662	92.44
281.894	97.44
282.125	108.44
282.356	151.44
282.588	158.44
282.819	113.44
283.051	101.44
283.282	94.44
283.513	88.44
283.745	95.44
283.976	85.44
284.207	87.44
284.439	90.44
284.67	99.44
284.901	80.44
285.132	86.44
285.364	88.44
285.595	95.44
285.826	84.44
286.057	83.44
286.288	75.44
286.52	98.44
286.751	99.44
286.982	97.44
287.213	97.44
287.444	79.44
287.675	86.44
287.906	85.44
288.138	99.44
288.369	85.44
288.6	83.44
288.831	93.44
289.062	85.44
289.293	91.44
289.524	79.44
289.755	94.44
289.986	105.44
290.217	97.44
290.448	96.44
290.679	96.44
290.91	97.44
291.141	99.44
291.371	105.44
291.602	98.44
291.833	95.44
292.064	92.44
292.295	100.44
292.526	87.44
292.757	93.44
292.987	112.44
293.218	79.44
293.449	88.44
293.68	89.44
293.91	88.44
294.141	93.44
294.372	83.44
294.603	88.44
294.833	87.44
295.064	87.44
295.295	80.44
295.525	101.44
295.756	109.44
295.987	115.44
296.217	159.44
296.448	147.44
296.679	102.44
296.909	82.44
297.14	86.44
297.37	96.44
297.601	96.44
297.831	79.44
298.062	101.44
298.292	93.44
298.523	85.44
298.753	76.44
298.984	100.44
299.214	101.44
299.445	83.44
299.675	88.44
299.905	116.44
300.136	95.44
300.366	95.44
300.597	96.44
300.827	96.44
301.057	109.44
301.288	90.44
301.518	100.44
301.748	108.44
301.979	105.44
302.209	94.44
302.439	105.44
302.669	92.44
302.9	87.44
303.13	101.44
303.36	96.44
303.59	113.44
303.82	131.44
304.051	99.44
304.281	94.44
304.511	94.44
304.741	95.44
304.971	94.44
305.201	91.44
305.431	96.44
305.661	95.44
305.891	88.44
306.121	83.44
306.352	110.44
306.582	117.44
306.812	97.44
307.042	110.44
307.272	129.44
307.502	141.44
307.731	142.44
307.961	102.44
308.191	105.44
308.421	101.44
308.651	97.44
308.881	104.44
309.111	100.44
309.341	99.44
309.571	93.44
309.8	93.44
310.03	102.44
310.26	107.44
310.49	107.44
310.72	120.44
310.949	124.44
311.179	112.44
311.409	87.44
311.639	109.44
311.868	111.44
312.098	110.44
312.328	92.44
312.557	101.44
312.787	112.44
313.017	117.44
313.246	99.44
313.476	90.44
313.706	100.44
313.935	99.44
314.165	95.44
314.394	94.44
314.624	108.44
314.853	108.44
315.083	100.44
315.312	87.44
315.542	94.44
315.771	91.44
316.001	108.44
316.23	99.44
316.46	83.44
316.689	86.44
316.919	94.44
317.148	111.44
317.377	101.44
317.607	103.44
317.836	96.44
318.065	84.44
318.295	100.44
318.524	106.44
318.753	87.44
318.983	90.44
319.212	107.44
319.441	101.44
319.67	127.44
319.9	99.44
320.129	111.44
320.358	102.44
320.587	106.44
320.816	116.44
321.046	113.44
321.275	107.44
321.504	96.44
321.733	106.44
321.962	103.44
322.191	105.44
322.42	113.44
322.649	108.44
322.878	126.44
323.108	127.44
323.337	147.44
323.566	150.44
323.795	177.44
324.024	226.44
324.253	490.44
324.482	1076.44
324.71	2335.44
324.939	3148.44
325.168	1112.44
325.397	314.44
325.626	191.44
325.855	137.44
326.084	127.44
326.313	166.44
326.542	190.44
326.77	292.44
326.999	581.44
327.228	1233.44
327.457	2309.44
327.686	1889.44
327.914	550.44
328.143	385.44
328.372	441.44
328.6	281.44
328.829	164.44
329.058	176.44
329.287	189.44
329.515	156.44
329.744	194.44
329.972	324.44
330.201	605.44
330.43	889.44
330.658	451.44
330.887	250.44
331.115	175.44
331.344	126.44
331.572	128.44
331.801	148.44
332.03	109.44
332.258	99.44
332.486	100.44
332.715	110.44
332.943	107.44
333.172	109.44
333.4	124.44
333.629	131.44
333.857	190.44
334.085	297.44
334.314	569.44
334.542	1120.44
334.771	1105.44
334.999	307.44
335.227	149.44
335.455	110.44
335.684	108.44
335.912	100.44
336.14	93.44
336.369	98.44
336.597	100.44
336.825	105.44
337.053	109.44
337.281	96.44
337.51	91.44
337.738	93.44
337.966	99.44
338.194	109.44
338.422	114.44
338.65	100.44
338.878	98.44
339.106	89.44
339.334	98.44
339.562	93.44
339.79	97.44
340.018	103.44
340.246	90.44
340.474	108.44
340.702	101.44
340.93	79.44
341.158	97.44
341.386	88.44
341.614	101.44
341.842	122.44
342.07	102.44
342.298	116.44
342.526	102.44
342.754	101.44
342.981	86.44
343.209	86.44
343.437	98.44
343.665	103.44
343.893	103.44
344.12	101.44
344.348	83.44
344.576	93.44
344.804	95.44
345.031	107.44
345.259	126.44
345.487	108.44
345.714	110.44
345.942	100.44
346.17	88.44
346.397	88.44
346.625	104.44
346.853	113.44
347.08	104.44
347.308	100.44
347.535	97.44
347.763	97.44
347.99	116.44
348.218	113.44
348.445	127.44
348.673	109.44
348.9	99.44
349.128	95.44
349.355	90.44
349.583	104.44
349.81	109.44
350.037	104.44
350.265	104.44
350.492	102.44
350.72	103.44
350.947	111.44
351.174	112.44
351.402	129.44
351.629	110.44
351.856	110.44
352.083	119.44
352.311	111.44
352.538	130.44
352.765	129.44
352.992	121.44
353.22	134.44
353.447	109.44
353.674	99.44
353.901	107.44
354.128	109.44
354.355	96.44
354.583	98.44
354.81	100.44
355.037	110.44
355.264	84.44
355.491	86.44
355.718	78.44
355.945	111.44
356.172	92.44
356.399	91.44
356.626	93.44
356.853	102.44
357.08	96.44
357.307	86.44
357.534	90.44
357.761	109.44
357.988	95.44
358.215	97.44
358.441	102.44
358.668	100.44
358.895	95.44
359.122	97.44
359.349	103.44
359.576	99.44
359.802	110.44
360.029	139.44
360.256	149.44
360.483	113.44
360.709	93.44
360.936	95.44
361.163	93.44
361.39	100.44
361.616	119.44
361.843	96.44
362.07	94.44
362.296	103.44
362.523	107.44
362.749	93.44
362.976	98.44
363.203	95.44
363.429	87.44
363.656	109.44
363.882	95.44
364.109	101.44
364.335	92.44
364.562	99.44
364.788	106.44
365.015	106.44
365.241	95.44
365.468	105.44
365.694	110.44
365.92	116.44
366.147	91.44
366.373	97.44
366.599	101.44
366.826	95.44
367.052	95.44
367.278	100.44
367.505	81.44
367.731	96.44
367.957	89.44
368.184	96.44
368.41	111.44
368.636	113.44
368.862	115.44
369.089	110.44
369.315	101.44
369.541	101.44
369.767	105.44
369.993	99.44
370.219	92.44
370.445	94.44
370.672	90.44
370.898	91.44
371.124	92.44
371.35	80.44
371.576	96.44
371.802	103.44
372.028	79.44
372.254	101.44
372.48	94.44
372.706	103.44
372.932	83.44
373.158	98.44
373.384	100.44
373.61	96.44
373.835	92.44
374.061	99.44
374.287	96.44
374.513	89.44
374.739	108.44
374.965	91.44
375.191	78.44
375.416	90.44
375.642	103.44
375.868	87.44
376.094	93.44
376.319	89.44
376.545	86.44
376.771	85.44
376.997	96.44
377.222	92.44
377.448	99.44
377.674	91.44
377.899	93.44
378.125	99.44
378.35	81.44
378.576	99.44
378.802	90.44
379.027	94.44
379.253	100.44
379.478	86.44
379.704	91.44
379.929	98.44
380.155	109.44
380.38	98.44
380.606	108.44
380.831	78.44
381.057	96.44
381.282	95.44
381.507	114.44
381.733	113.44
381.958	95.44
382.184	97.44
382.409	102.44
382.634	95.44
382.86	111.44
383.085	105.44
383.31	103.44
383.535	101.44
383.761	107.44
383.986	97.44
384.211	106.44
384.436	96.44
384.662	91.44
384.887	104.44
385.112	99.44
385.337	109.44
385.562	105.44
385.787	86.44
386.013	120.44
386.238	118.44
386.463	112.44
386.688	101.44
386.913	111.44
387.138	103.44
387.363	95.44
387.588	106.44
387.813	90.44
388.038	95.44
388.263	128.44
388.488	97.44
388.713	103.44
388.938	101.44
389.163	82.44
389.387	95.44
389.612	86.44
389.837	99.44
390.062	97.44
390.287	87.44
390.512	93.44
390.736	88.44
390.961	110.44
391.186	100.44
391.411	93.44
391.636	105.44
391.86	90.44
392.085	88.44
392.31	103.44
392.534	93.44
392.759	81.44
392.984	86.44
393.208	89.44
393.433	102.44
393.658	87.44
393.882	88.44
394.107	82.44
394.331	94.44
394.556	94.44
394.78	103.44
395.005	91.44
395.229	100.44
395.454	75.44
395.678	96.44
395.903	87.44
396.127	92.44
396.352	89.44
396.576	75.44
396.801	79.44
397.025	101.44
397.249	86.44
397.474	73.44
397.698	92.44
397.922	89.44
398.147	92.44
398.371	94.44
398.595	80.44
398.82	97.44
399.044	75.44
399.268	93.44
399.492	95.44
399.717	96.44
399.941	113.44
400.165	107.44
400.389	109.44
400.613	93.44
400.837	93.44
401.062	84.44
401.286	96.44
401.51	82.44
401.734	104.44
401.958	112.44
402.182	133.44
402.406	175.44
402.63	135.44
402.854	93.44
403.078	99.44
403.302	108.44
403.526	96.44
403.75	94.44
403.974	96.44
404.198	107.44
404.422	95.44
404.645	91.44
404.869	96.44
405.093	123.44
405.317	143.44
405.541	148.44
405.765	128.44
405.988	141.44
406.212	204.44
406.436	288.44
406.66	183.44
406.883	117.44
407.107	112.44
407.331	102.44
407.555	108.44
407.778	111.44
408.002	97.44
408.226	78.44
408.449	92.44
408.673	86.44
408.896	107.44
409.12	92.44
409.344	89.44
409.567	91.44
409.791	88.44
410.014	88.44
410.238	97.44
410.461	96.44
410.685	105.44
410.908	91.44
411.132	112.44
411.355	112.44
411.578	87.44
411.802	93.44
412.025	91.44
412.249	99.44
412.472	118.44
412.695	142.44
412.919	111.44
413.142	88.44
413.365	89.44
413.589	94.44
413.812	84.44
414.035	92.44
414.258	102.44
414.482	104.44
414.705	100.44
414.928	93.44
415.151	89.44
415.374	103.44
415.597	103.44
415.821	91.44
416.044	87.44
416.267	97.44
416.49	92.44
416.713	106.44
416.936	87.44
417.159	80.44
417.382	89.44
417.605	98.44
417.828	113.44
418.051	105.44
418.274	90.44
418.497	86.44
418.72	86.44
418.943	88.44
419.166	93.44
419.389	101.44
419.611	84.44
419.834	88.44
420.057	96.44
420.28	96.44
420.503	76.44
420.726	87.44
420.948	104.44
421.171	101.44
421.394	103.44
421.617	102.44
421.839	87.44
422.062	97.44
422.285	100.44
422.507	120.44
422.73	115.44
422.953	102.44
423.175	92.44
423.398	84.44
423.621	95.44
423.843	104.44
424.066	98.44
424.288	86.44
424.511	86.44
424.733	100.44
424.956	135.44
425.178	104.44
425.401	101.44
425.623	108.44
425.846	78.44
426.068	103.44
426.291	115.44
426.513	115.44
426.735	89.44
426.958	105.44
427.18	115.44
427.402	188.44
427.625	239.44
427.847	208.44
428.069	212.44
428.292	126.44
428.514	110.44
428.736	96.44
428.958	93.44
429.181	100.44
429.403	94.44
429.625	92.44
429.847	94.44
430.069	128.44
430.292	110.44
430.514	86.44
430.736	99.44
430.958	75.44
431.18	72.44
431.402	98.44
431.624	79.44
431.846	84.44
432.068	92.44
432.29	83.44
432.512	85.44
432.734	88.44
432.956	106.44
433.178	98.44
433.4	112.44
433.622	95.44
433.844	94.44
434.066	97.44
434.287	100.44
434.509	88.44
434.731	97.44
434.953	86.44
435.175	82.44
435.397	102.44
435.618	94.44
435.84	126.44
436.062	148.44
436.284	148.44
436.505	116.44
436.727	124.44
436.949	105.44
437.17	86.44
437.392	89.44
437.614	95.44
437.835	136.44
438.057	129.44
438.278	128.44
438.5	113.44
438.721	151.44
438.943	108.44
439.165	97.44
439.386	111.44
439.608	105.44
439.829	109.44
440.05	153.44
440.272	197.44
440.493	114.44
440.715	91.44
440.936	99.44
441.158	107.44
441.379	95.44
441.6	102.44
441.822	96.44
442.043	118.44
442.264	110.44
442.486	117.44
442.707	97.44
442.928	118.44
443.149	167.44
443.371	172.44
443.592	121.44
443.813	144.44
444.034	137.44
444.255	110.44
444.476	88.44
444.698	95.44
444.919	84.44
445.14	124.44
445.361	131.44
445.582	143.44
445.803	199.44
446.024	184.44
446.245	178.44
446.466	131.44
446.687	91.44
446.908	88.44
447.129	107.44
447.35	82.44
447.571	109.44
447.792	97.44
448.013	110.44
448.234	122.44
448.455	97.44
448.675	135.44
448.896	147.44
449.117	106.44
449.338	113.44
449.559	150.44
449.779	150.44
450	105.44
450.221	108.44
450.442	95.44
450.662	106.44
450.883	135.44
451.104	135.44
451.324	107.44
451.545	112.44
451.766	90.44
451.986	99.44
452.207	95.44
452.428	87.44
452.648	100.44
452.869	133.44
453.089	139.44
453.31	125.44
453.53	95.44
453.751	96.44
453.971	109.44
454.192	128.44
454.412	107.44
454.633	104.44
454.853	76.44
455.073	89.44
455.294	96.44
455.514	127.44
455.734	103.44
455.955	79.44
456.175	86.44
456.395	89.44
456.616	102.44
456.836	91.44
457.056	92.44
457.276	92.44
457.497	86.44
457.717	86.44
457.937	84.44
458.157	100.44
458.377	102.44
458.598	126.44
458.818	189.44
459.038	223.44
459.258	150.44
459.478	99.44
459.698	104.44
459.918	86.44
460.138	84.44
460.358	108.44
460.578	95.44
460.798	96.44
461.018	86.44
461.238	94.44
461.458	99.44
461.678	87.44
461.898	85.44
462.118	100.44
462.338	85.44
462.558	79.44
462.777	88.44
462.997	92.44
463.217	106.44
463.437	105.44
463.657	99.44
463.876	108.44
464.096	91.44
464.316	103.44
464.536	103.44
464.755	97.44
464.975	123.44
465.195	213.44
465.414	225.44
465.634	109.44
465.854	95.44
466.073	88.44
466.293	91.44
466.512	83.44
466.732	88.44
466.951	103.44
467.171	84.44
467.391	116.44
467.61	138.44
467.829	139.44
468.049	339.44
468.268	483.44
468.488	164.44
468.707	112.44
468.927	98.44
469.146	98.44
469.365	86.44
469.585	97.44
469.804	110.44
470.023	105.44
470.243	100.44
470.462	119.44
470.681	124.44
470.901	103.44
471.12	90.44
471.339	109.44
471.558	124.44
471.777	137.44
471.997	208.44
472.216	625.44
472.435	1452.44
472.654	412.44
472.873	125.44
473.092	96.44
473.311	91.44
473.53	89.44
473.749	104.44
473.968	107.44
474.187	116.44
474.406	112.44
474.625	85.44
474.844	96.44
475.063	93.44
475.282	90.44
475.501	98.44
475.72	104.44
475.939	98.44
476.158	97.44
476.377	84.44
476.596	93.44
476.814	109.44
477.033	99.44
477.252	91.44
477.471	93.44
477.69	108.44
477.908	91.44
478.127	96.44
478.346	98.44
478.564	86.44
478.783	95.44
479.002	110.44
479.22	104.44
479.439	124.44
479.658	133.44
479.876	134.44
480.095	109.44
480.313	131.44
480.532	128.44
480.751	197.44
480.969	610.44
481.188	2473.44
481.406	1559.44
481.624	256.44
481.843	119.44
482.061	108.44
482.28	98.44
482.498	86.44
482.717	89.44
482.935	99.44
483.153	106.44
483.372	89.44
483.59	85.44
483.808	91.44
484.027	107.44
484.245	113.44
484.463	108.44
484.681	107.44
484.9	102.44
485.118	108.44
485.336	91.44
485.554	102.44
485.772	101.44
485.99	125.44
486.209	115.44
486.427	113.44
486.645	118.44
486.863	120.44
487.081	119.44
487.299	95.44
487.517	98.44
487.735	102.44
487.953	100.44
488.171	99.44
488.389	96.44
488.607	105.44
488.825	86.44
489.043	101.44
489.261	102.44
489.479	82.44
489.696	95.44
489.914	84.44
490.132	88.44
490.35	87.44
490.568	104.44
490.786	87.44
491.003	88.44
491.221	97.44
491.439	103.44
491.657	96.44
491.874	95.44
492.092	96.44
492.31	98.44
492.527	91.44
492.745	101.44
492.963	108.44
493.18	101.44
493.398	93.44
493.615	100.44
493.833	92.44
494.05	104.44
494.268	82.44
494.485	91.44
494.703	88.44
494.92	93.44
495.138	116.44
495.355	100.44
495.573	85.44
495.79	93.44
496.008	97.44
496.225	95.44
496.442	99.44
496.66	108.44
496.877	97.44
497.094	103.44
497.312	93.44
497.529	93.44
497.746	100.44
497.963	80.44
498.181	96.44
498.398	103.44
498.615	108.44
498.832	117.44
499.049	88.44
499.267	93.44
499.484	82.44
499.701	102.44
499.918	101.44
500.135	99.44
500.352	103.44
500.569	106.44
500.786	101.44
501.003	88.44
501.22	104.44
501.437	102.44
501.654	101.44
501.871	101.44
502.088	107.44
502.305	101.44
502.522	105.44
502.739	81.44
502.956	95.44
503.172	81.44
503.389	95.44
503.606	106.44
503.823	112.44
504.04	92.44
504.256	97.44
504.473	91.44
504.69	95.44
504.907	94.44
505.123	95.44
505.34	98.44
505.557	98.44
505.773	97.44
505.99	101.44
506.207	106.44
506.423	102.44
506.64	99.44
506.856	76.44
507.073	88.44
507.289	83.44
507.506	106.44
507.722	113.44
507.939	129.44
508.155	100.44
508.372	100.44
508.588	88.44
508.805	89.44
509.021	82.44
509.238	104.44
509.454	114.44
509.67	109.44
509.887	124.44
510.103	119.44
510.319	227.44
510.536	797.44
510.752	2721.44
510.968	790.44
511.184	169.44
511.401	123.44
511.617	105.44
511.833	102.44
512.049	93.44
