Data from Circ_2007_H10_HRD10591_00010.txt Node
Date: Wed Jan 03 10:21:59 EST 2024
User: Yrep
Spectrometer: HR+D1059
Trigger mode: 1
Integration Time (sec): 1.000000E-1
Scans to average: 1
Electric dark correction enabled: true
Nonlinearity correction enabled: false
Boxcar width: 0
XAxis mode: Wavelengths
Number of Pixels in Spectrum: 2048
>>>>>Begin Spectral Data<<<<<
223.165	-13.06
223.4	-13.06
223.635	-13.06
223.869	-25.06
224.104	-19.06
224.338	-5.06
224.573	-21.06
224.808	-11.06
225.042	-3.06
225.277	-11.06
225.511	0.94
225.746	-0.06
225.98	4.94
226.215	13.94
226.449	15.94
226.683	18.94
226.918	27.94
227.152	25.94
227.387	29.94
227.621	30.94
227.856	56.94
228.09	47.94
228.324	43.94
228.559	53.94
228.793	50.94
229.027	49.94
229.262	64.94
229.496	76.94
229.73	78.94
229.964	97.94
230.199	76.94
230.433	82.94
230.667	86.94
230.901	80.94
231.136	64.94
231.37	74.94
231.604	75.94
231.838	76.94
232.072	77.94
232.306	83.94
232.541	77.94
232.775	82.94
233.009	83.94
233.243	81.94
233.477	86.94
233.711	86.94
233.945	82.94
234.179	85.94
234.413	78.94
234.647	76.94
234.881	69.94
235.115	71.94
235.349	64.94
235.583	86.94
235.817	78.94
236.051	81.94
236.285	76.94
236.519	77.94
236.753	83.94
236.987	69.94
237.221	96.94
237.455	88.94
237.689	73.94
237.922	76.94
238.156	78.94
238.39	74.94
238.624	74.94
238.858	74.94
239.091	70.94
239.325	78.94
239.559	80.94
239.793	82.94
240.027	69.94
240.26	81.94
240.494	91.94
240.728	61.94
240.961	76.94
241.195	87.94
241.429	68.94
241.662	67.94
241.896	67.94
242.13	64.94
242.363	76.94
242.597	81.94
242.83	73.94
243.064	77.94
243.298	83.94
243.531	67.94
243.765	73.94
243.998	77.94
244.232	77.94
244.465	90.94
244.699	73.94
244.932	78.94
245.166	77.94
245.399	90.94
245.633	71.94
245.866	75.94
246.099	83.94
246.333	63.94
246.566	89.94
246.8	72.94
247.033	78.94
247.266	86.94
247.5	81.94
247.733	70.94
247.966	77.94
248.2	86.94
248.433	84.94
248.666	84.94
248.899	78.94
249.133	85.94
249.366	95.94
249.599	111.94
249.832	86.94
250.066	77.94
250.299	77.94
250.532	91.94
250.765	82.94
250.998	77.94
251.231	85.94
251.465	82.94
251.698	70.94
251.931	54.94
252.164	82.94
252.397	79.94
252.63	79.94
252.863	76.94
253.096	81.94
253.329	74.94
253.562	83.94
253.795	83.94
254.028	84.94
254.261	77.94
254.494	83.94
254.727	75.94
254.96	69.94
255.193	66.94
255.426	93.94
255.659	85.94
255.892	96.94
256.124	96.94
256.357	83.94
256.59	76.94
256.823	73.94
257.056	77.94
257.289	77.94
257.521	75.94
257.754	75.94
257.987	81.94
258.22	89.94
258.452	90.94
258.685	101.94
258.918	74.94
259.151	65.94
259.383	72.94
259.616	87.94
259.849	92.94
260.081	81.94
260.314	81.94
260.547	71.94
260.779	83.94
261.012	93.94
261.244	100.94
261.477	101.94
261.71	98.94
261.942	118.94
262.175	147.94
262.407	84.94
262.64	93.94
262.872	78.94
263.105	80.94
263.337	77.94
263.57	83.94
263.802	81.94
264.035	88.94
264.267	81.94
264.499	88.94
264.732	88.94
264.964	73.94
265.197	91.94
265.429	93.94
265.661	99.94
265.894	83.94
266.126	78.94
266.358	85.94
266.591	85.94
266.823	79.94
267.055	82.94
267.287	79.94
267.52	76.94
267.752	95.94
267.984	80.94
268.216	71.94
268.448	89.94
268.681	63.94
268.913	81.94
269.145	90.94
269.377	75.94
269.609	76.94
269.841	82.94
270.073	64.94
270.306	86.94
270.538	75.94
270.77	92.94
271.002	84.94
271.234	89.94
271.466	86.94
271.698	86.94
271.93	74.94
272.162	79.94
272.394	87.94
272.626	86.94
272.858	77.94
273.09	89.94
273.322	69.94
273.553	82.94
273.785	77.94
274.017	74.94
274.249	87.94
274.481	91.94
274.713	85.94
274.945	82.94
275.176	103.94
275.408	101.94
275.64	89.94
275.872	112.94
276.104	98.94
276.335	104.94
276.567	115.94
276.799	124.94
277.031	159.94
277.262	167.94
277.494	142.94
277.726	96.94
277.957	92.94
278.189	82.94
278.421	87.94
278.652	83.94
278.884	87.94
279.115	78.94
279.347	100.94
279.579	101.94
279.81	98.94
280.042	148.94
280.273	193.94
280.505	136.94
280.736	97.94
280.968	90.94
281.199	74.94
281.431	92.94
281.662	79.94
281.894	87.94
282.125	103.94
282.356	141.94
282.588	176.94
282.819	137.94
283.051	96.94
283.282	84.94
283.513	98.94
283.745	82.94
283.976	76.94
284.207	94.94
284.439	100.94
284.67	103.94
284.901	96.94
285.132	90.94
285.364	89.94
285.595	86.94
285.826	89.94
286.057	69.94
286.288	79.94
286.52	74.94
286.751	82.94
286.982	80.94
287.213	74.94
287.444	87.94
287.675	73.94
287.906	83.94
288.138	87.94
288.369	88.94
288.6	102.94
288.831	69.94
289.062	81.94
289.293	88.94
289.524	88.94
289.755	71.94
289.986	98.94
290.217	78.94
290.448	79.94
290.679	82.94
290.91	73.94
291.141	84.94
291.371	81.94
291.602	72.94
291.833	89.94
292.064	75.94
292.295	84.94
292.526	94.94
292.757	89.94
292.987	87.94
293.218	68.94
293.449	80.94
293.68	98.94
293.91	83.94
294.141	73.94
294.372	90.94
294.603	88.94
294.833	83.94
295.064	76.94
295.295	90.94
295.525	110.94
295.756	108.94
295.987	114.94
296.217	160.94
296.448	143.94
296.679	95.94
296.909	92.94
297.14	90.94
297.37	97.94
297.601	83.94
297.831	87.94
298.062	93.94
298.292	81.94
298.523	91.94
298.753	101.94
298.984	71.94
299.214	87.94
299.445	100.94
299.675	83.94
299.905	97.94
300.136	77.94
300.366	101.94
300.597	94.94
300.827	100.94
301.057	108.94
301.288	119.94
301.518	102.94
301.748	88.94
301.979	96.94
302.209	79.94
302.439	86.94
302.669	96.94
302.9	96.94
303.13	94.94
303.36	93.94
303.59	123.94
303.82	133.94
304.051	106.94
304.281	98.94
304.511	87.94
304.741	71.94
304.971	91.94
305.201	98.94
305.431	97.94
305.661	92.94
305.891	88.94
306.121	101.94
306.352	114.94
306.582	114.94
306.812	106.94
307.042	101.94
307.272	109.94
307.502	142.94
307.731	114.94
307.961	104.94
308.191	97.94
308.421	83.94
308.651	79.94
308.881	85.94
309.111	97.94
309.341	99.94
309.571	113.94
309.8	102.94
310.03	91.94
310.26	102.94
310.49	92.94
310.72	128.94
310.949	111.94
311.179	112.94
311.409	89.94
311.639	104.94
311.868	106.94
312.098	101.94
312.328	114.94
312.557	110.94
312.787	157.94
313.017	121.94
313.246	113.94
313.476	89.94
313.706	90.94
313.935	98.94
314.165	107.94
314.394	116.94
314.624	100.94
314.853	119.94
315.083	99.94
315.312	89.94
315.542	85.94
315.771	81.94
316.001	82.94
316.23	79.94
316.46	74.94
316.689	85.94
316.919	77.94
317.148	98.94
317.377	99.94
317.607	87.94
317.836	86.94
318.065	97.94
318.295	107.94
318.524	93.94
318.753	109.94
318.983	100.94
319.212	107.94
319.441	105.94
319.67	111.94
319.9	80.94
320.129	110.94
320.358	89.94
320.587	86.94
320.816	104.94
321.046	101.94
321.275	90.94
321.504	98.94
321.733	94.94
321.962	113.94
322.191	115.94
322.42	129.94
322.649	144.94
322.878	140.94
323.108	147.94
323.337	151.94
323.566	166.94
323.795	194.94
324.024	272.94
324.253	545.94
324.482	1177.94
324.71	2533.94
324.939	3404.94
325.168	1202.94
325.397	339.94
325.626	165.94
325.855	149.94
326.084	146.94
326.313	169.94
326.542	201.94
326.77	295.94
326.999	602.94
327.228	1320.94
327.457	2485.94
327.686	1965.94
327.914	581.94
328.143	448.94
328.372	511.94
328.6	301.94
328.829	187.94
329.058	210.94
329.287	200.94
329.515	167.94
329.744	223.94
329.972	369.94
330.201	717.94
330.43	1017.94
330.658	519.94
330.887	282.94
331.115	205.94
331.344	126.94
331.572	103.94
331.801	139.94
332.03	111.94
332.258	119.94
332.486	106.94
332.715	101.94
332.943	125.94
333.172	109.94
333.4	129.94
333.629	150.94
333.857	189.94
334.085	351.94
334.314	671.94
334.542	1298.94
334.771	1211.94
334.999	333.94
335.227	153.94
335.455	110.94
335.684	112.94
335.912	122.94
336.14	102.94
336.369	90.94
336.597	114.94
336.825	117.94
337.053	99.94
337.281	73.94
337.51	97.94
337.738	102.94
337.966	106.94
338.194	107.94
338.422	113.94
338.65	96.94
338.878	93.94
339.106	96.94
339.334	88.94
339.562	94.94
339.79	98.94
340.018	90.94
340.246	107.94
340.474	118.94
340.702	92.94
340.93	82.94
341.158	94.94
341.386	93.94
341.614	80.94
341.842	92.94
342.07	94.94
342.298	101.94
342.526	88.94
342.754	86.94
342.981	96.94
343.209	93.94
343.437	100.94
343.665	91.94
343.893	75.94
344.12	97.94
344.348	84.94
344.576	88.94
344.804	110.94
345.031	107.94
345.259	108.94
345.487	96.94
345.714	96.94
345.942	107.94
346.17	93.94
346.397	95.94
346.625	108.94
346.853	103.94
347.08	90.94
347.308	94.94
347.535	110.94
347.763	115.94
347.99	101.94
348.218	96.94
348.445	113.94
348.673	111.94
348.9	95.94
349.128	101.94
349.355	88.94
349.583	81.94
349.81	98.94
350.037	99.94
350.265	94.94
350.492	97.94
350.72	118.94
350.947	117.94
351.174	114.94
351.402	102.94
351.629	114.94
351.856	108.94
352.083	118.94
352.311	139.94
352.538	131.94
352.765	127.94
352.992	121.94
353.22	118.94
353.447	106.94
353.674	102.94
353.901	96.94
354.128	88.94
354.355	94.94
354.583	103.94
354.81	101.94
355.037	89.94
355.264	86.94
355.491	85.94
355.718	95.94
355.945	95.94
356.172	92.94
356.399	106.94
356.626	94.94
356.853	85.94
357.08	86.94
357.307	95.94
357.534	92.94
357.761	90.94
357.988	72.94
358.215	104.94
358.441	87.94
358.668	92.94
358.895	93.94
359.122	111.94
359.349	95.94
359.576	103.94
359.802	103.94
360.029	155.94
360.256	146.94
360.483	117.94
360.709	91.94
360.936	101.94
361.163	94.94
361.39	113.94
361.616	116.94
361.843	95.94
362.07	91.94
362.296	121.94
362.523	93.94
362.749	92.94
362.976	97.94
363.203	83.94
363.429	97.94
363.656	95.94
363.882	94.94
364.109	90.94
364.335	88.94
364.562	88.94
364.788	82.94
365.015	103.94
365.241	101.94
365.468	129.94
365.694	119.94
365.92	119.94
366.147	98.94
366.373	94.94
366.599	96.94
366.826	102.94
367.052	94.94
367.278	88.94
367.505	91.94
367.731	106.94
367.957	109.94
368.184	89.94
368.41	110.94
368.636	122.94
368.862	137.94
369.089	121.94
369.315	97.94
369.541	85.94
369.767	101.94
369.993	84.94
370.219	104.94
370.445	99.94
370.672	76.94
370.898	95.94
371.124	83.94
371.35	88.94
371.576	69.94
371.802	86.94
372.028	97.94
372.254	87.94
372.48	80.94
372.706	79.94
372.932	80.94
373.158	81.94
373.384	93.94
373.61	95.94
373.835	97.94
374.061	98.94
374.287	93.94
374.513	87.94
374.739	93.94
374.965	90.94
375.191	90.94
375.416	92.94
375.642	93.94
375.868	86.94
376.094	94.94
376.319	94.94
376.545	85.94
376.771	89.94
376.997	87.94
377.222	94.94
377.448	105.94
377.674	97.94
377.899	87.94
378.125	95.94
378.35	91.94
378.576	97.94
378.802	79.94
379.027	89.94
379.253	91.94
379.478	97.94
379.704	91.94
379.929	93.94
380.155	92.94
380.38	103.94
380.606	95.94
380.831	88.94
381.057	94.94
381.282	75.94
381.507	97.94
381.733	119.94
381.958	98.94
382.184	91.94
382.409	107.94
382.634	103.94
382.86	105.94
383.085	113.94
383.31	108.94
383.535	104.94
383.761	97.94
383.986	109.94
384.211	105.94
384.436	108.94
384.662	111.94
384.887	106.94
385.112	131.94
385.337	117.94
385.562	109.94
385.787	119.94
386.013	121.94
386.238	137.94
386.463	110.94
386.688	122.94
386.913	112.94
387.138	117.94
387.363	98.94
387.588	96.94
387.813	97.94
388.038	122.94
388.263	127.94
388.488	128.94
388.713	99.94
388.938	97.94
389.163	95.94
389.387	74.94
389.612	85.94
389.837	81.94
390.062	90.94
390.287	73.94
390.512	93.94
390.736	76.94
390.961	79.94
391.186	76.94
391.411	101.94
391.636	92.94
391.86	85.94
392.085	87.94
392.31	88.94
392.534	89.94
392.759	90.94
392.984	82.94
393.208	82.94
393.433	99.94
393.658	90.94
393.882	71.94
394.107	84.94
394.331	88.94
394.556	86.94
394.78	96.94
395.005	86.94
395.229	94.94
395.454	76.94
395.678	75.94
395.903	78.94
396.127	82.94
396.352	85.94
396.576	96.94
396.801	104.94
397.025	97.94
397.249	95.94
397.474	91.94
397.698	73.94
397.922	84.94
398.147	92.94
398.371	77.94
398.595	77.94
398.82	72.94
399.044	90.94
399.268	88.94
399.492	90.94
399.717	106.94
399.941	88.94
400.165	88.94
400.389	91.94
400.613	82.94
400.837	91.94
401.062	91.94
401.286	89.94
401.51	84.94
401.734	95.94
401.958	102.94
402.182	151.94
402.406	223.94
402.63	160.94
402.854	103.94
403.078	87.94
403.302	105.94
403.526	97.94
403.75	99.94
403.974	81.94
404.198	89.94
404.422	97.94
404.645	90.94
404.869	99.94
405.093	114.94
405.317	145.94
405.541	126.94
405.765	110.94
405.988	145.94
406.212	212.94
406.436	334.94
406.66	224.94
406.883	110.94
407.107	122.94
407.331	109.94
407.555	118.94
407.778	101.94
408.002	96.94
408.226	87.94
408.449	85.94
408.673	91.94
408.896	85.94
409.12	96.94
409.344	102.94
409.567	104.94
409.791	98.94
410.014	102.94
410.238	95.94
410.461	107.94
410.685	91.94
410.908	99.94
411.132	116.94
411.355	115.94
411.578	94.94
411.802	99.94
412.025	87.94
412.249	105.94
412.472	119.94
412.695	137.94
412.919	110.94
413.142	99.94
413.365	92.94
413.589	92.94
413.812	91.94
414.035	87.94
414.258	79.94
414.482	88.94
414.705	90.94
414.928	95.94
415.151	88.94
415.374	90.94
415.597	72.94
415.821	84.94
416.044	90.94
416.267	102.94
416.49	93.94
416.713	100.94
416.936	73.94
417.159	92.94
417.382	106.94
417.605	99.94
417.828	122.94
418.051	99.94
418.274	84.94
418.497	77.94
418.72	79.94
418.943	94.94
419.166	75.94
419.389	86.94
419.611	98.94
419.834	77.94
420.057	80.94
420.28	100.94
420.503	81.94
420.726	111.94
420.948	95.94
421.171	101.94
421.394	89.94
421.617	92.94
421.839	107.94
422.062	93.94
422.285	89.94
422.507	120.94
422.73	112.94
422.953	97.94
423.175	89.94
423.398	94.94
423.621	77.94
423.843	77.94
424.066	91.94
424.288	94.94
424.511	89.94
424.733	112.94
424.956	117.94
425.178	109.94
425.401	102.94
425.623	112.94
425.846	80.94
426.068	87.94
426.291	94.94
426.513	93.94
426.735	89.94
426.958	92.94
427.18	117.94
427.402	167.94
427.625	279.94
427.847	242.94
428.069	209.94
428.292	115.94
428.514	94.94
428.736	82.94
428.958	88.94
429.181	97.94
429.403	87.94
429.625	86.94
429.847	95.94
430.069	121.94
430.292	96.94
430.514	74.94
430.736	80.94
430.958	88.94
431.18	85.94
431.402	94.94
431.624	90.94
431.846	90.94
432.068	75.94
432.29	79.94
432.512	83.94
432.734	80.94
432.956	90.94
433.178	113.94
433.4	104.94
433.622	95.94
433.844	102.94
434.066	81.94
434.287	95.94
434.509	88.94
434.731	96.94
434.953	89.94
435.175	91.94
435.397	103.94
435.618	93.94
435.84	118.94
436.062	147.94
436.284	131.94
436.505	110.94
436.727	108.94
436.949	94.94
437.17	83.94
437.392	96.94
437.614	113.94
437.835	128.94
438.057	172.94
438.278	123.94
438.5	126.94
438.721	154.94
438.943	127.94
439.165	97.94
439.386	84.94
439.608	100.94
439.829	114.94
440.05	161.94
440.272	204.94
440.493	110.94
440.715	87.94
440.936	78.94
441.158	81.94
441.379	74.94
441.6	99.94
441.822	111.94
442.043	102.94
442.264	120.94
442.486	113.94
442.707	100.94
442.928	117.94
443.149	166.94
443.371	188.94
443.592	150.94
443.813	145.94
444.034	122.94
444.255	94.94
444.476	90.94
444.698	90.94
444.919	98.94
445.14	140.94
445.361	137.94
445.582	147.94
445.803	199.94
446.024	198.94
446.245	189.94
446.466	147.94
446.687	94.94
446.908	96.94
447.129	99.94
447.35	86.94
447.571	103.94
447.792	92.94
448.013	104.94
448.234	117.94
448.455	124.94
448.675	141.94
448.896	159.94
449.117	105.94
449.338	125.94
449.559	152.94
449.779	159.94
450	89.94
450.221	78.94
450.442	79.94
450.662	101.94
450.883	122.94
451.104	133.94
451.324	113.94
451.545	91.94
451.766	89.94
451.986	79.94
452.207	90.94
452.428	112.94
452.648	89.94
452.869	138.94
453.089	147.94
453.31	149.94
453.53	104.94
453.751	106.94
453.971	114.94
454.192	136.94
454.412	104.94
454.633	95.94
454.853	90.94
455.073	81.94
455.294	90.94
455.514	112.94
455.734	99.94
455.955	78.94
456.175	94.94
456.395	86.94
456.616	85.94
456.836	71.94
457.056	102.94
457.276	78.94
457.497	91.94
457.717	98.94
457.937	75.94
458.157	87.94
458.377	87.94
458.598	135.94
458.818	218.94
459.038	234.94
459.258	154.94
459.478	96.94
459.698	97.94
459.918	78.94
460.138	85.94
460.358	90.94
460.578	96.94
460.798	86.94
461.018	85.94
461.238	76.94
461.458	95.94
461.678	83.94
461.898	75.94
462.118	91.94
462.338	80.94
462.558	82.94
462.777	57.94
462.997	83.94
463.217	84.94
463.437	79.94
463.657	75.94
463.876	98.94
464.096	83.94
464.316	106.94
464.536	103.94
464.755	93.94
464.975	112.94
465.195	257.94
465.414	269.94
465.634	119.94
465.854	87.94
466.073	84.94
466.293	83.94
466.512	97.94
466.732	95.94
466.951	88.94
467.171	88.94
467.391	100.94
467.61	151.94
467.829	170.94
468.049	374.94
468.268	512.94
468.488	169.94
468.707	85.94
468.927	94.94
469.146	91.94
469.365	80.94
469.585	108.94
469.804	121.94
470.023	114.94
470.243	98.94
470.462	136.94
470.681	141.94
470.901	103.94
471.12	106.94
471.339	94.94
471.558	89.94
471.777	114.94
471.997	218.94
472.216	664.94
472.435	1549.94
472.654	409.94
472.873	134.94
473.092	107.94
473.311	89.94
473.53	82.94
473.749	90.94
473.968	97.94
474.187	128.94
474.406	107.94
474.625	91.94
474.844	87.94
475.063	91.94
475.282	86.94
475.501	72.94
475.72	109.94
475.939	91.94
476.158	98.94
476.377	85.94
476.596	99.94
476.814	94.94
477.033	105.94
477.252	95.94
477.471	77.94
477.69	97.94
477.908	89.94
478.127	93.94
478.346	86.94
478.564	87.94
478.783	89.94
479.002	117.94
479.22	117.94
479.439	127.94
479.658	130.94
479.876	120.94
480.095	106.94
480.313	109.94
480.532	134.94
480.751	219.94
480.969	656.94
481.188	2602.94
481.406	1644.94
481.624	265.94
481.843	124.94
482.061	104.94
482.28	91.94
482.498	89.94
482.717	91.94
482.935	91.94
483.153	80.94
483.372	90.94
483.59	96.94
483.808	94.94
484.027	79.94
484.245	94.94
484.463	97.94
484.681	85.94
484.9	74.94
485.118	91.94
485.336	86.94
485.554	95.94
485.772	104.94
485.99	101.94
486.209	111.94
486.427	107.94
486.645	125.94
486.863	141.94
487.081	121.94
487.299	96.94
487.517	81.94
487.735	103.94
487.953	85.94
488.171	103.94
488.389	97.94
488.607	102.94
488.825	91.94
489.043	89.94
489.261	87.94
489.479	81.94
489.696	89.94
489.914	71.94
490.132	87.94
490.35	86.94
490.568	100.94
490.786	87.94
491.003	85.94
491.221	82.94
491.439	100.94
491.657	94.94
491.874	111.94
492.092	97.94
492.31	93.94
492.527	95.94
492.745	90.94
492.963	88.94
493.18	85.94
493.398	93.94
493.615	85.94
493.833	97.94
494.05	87.94
494.268	86.94
494.485	95.94
494.703	87.94
494.92	91.94
495.138	95.94
495.355	91.94
495.573	91.94
495.79	90.94
496.008	95.94
496.225	90.94
496.442	83.94
496.66	72.94
496.877	78.94
497.094	93.94
497.312	102.94
497.529	89.94
497.746	106.94
497.963	91.94
498.181	102.94
498.398	85.94
498.615	111.94
498.832	103.94
499.049	93.94
499.267	97.94
499.484	70.94
499.701	97.94
499.918	82.94
500.135	86.94
500.352	101.94
500.569	103.94
500.786	88.94
501.003	88.94
501.22	89.94
501.437	90.94
501.654	94.94
501.871	129.94
502.088	94.94
502.305	79.94
502.522	88.94
502.739	100.94
502.956	91.94
503.172	82.94
503.389	94.94
503.606	119.94
503.823	103.94
504.04	97.94
504.256	85.94
504.473	90.94
504.69	87.94
504.907	95.94
505.123	95.94
505.34	92.94
505.557	80.94
505.773	89.94
505.99	84.94
506.207	86.94
506.423	78.94
506.64	95.94
506.856	99.94
507.073	85.94
507.289	92.94
507.506	101.94
507.722	138.94
507.939	145.94
508.155	93.94
508.372	91.94
508.588	90.94
508.805	105.94
509.021	97.94
509.238	109.94
509.454	105.94
509.67	111.94
509.887	119.94
510.103	121.94
510.319	251.94
510.536	972.94
510.752	3366.94
510.968	929.94
511.184	184.94
511.401	146.94
511.617	105.94
511.833	108.94
512.049	95.94
512.265	100.94
512.481	82.94
512.698	91.94
512.914	91.94
513.13	93.94
513.346	108.94
513.562	74.94
