Data from Circ_2007_H10_HRD10591_00019.txt Node
Date: Wed Jan 03 10:22:01 EST 2024
User: Yrep
Spectrometer: HR+D1059
Trigger mode: 1
Integration Time (sec): 1.000000E-1
Scans to average: 1
Electric dark correction enabled: true
Nonlinearity correction enabled: false
Boxcar width: 0
XAxis mode: Wavelengths
Number of Pixels in Spectrum: 2048
>>>>>Begin Spectral Data<<<<<
223.165	-29
223.4	-29
223.635	-29
223.869	-15
224.104	-11
224.338	-11
224.573	-3
224.808	1
225.042	-17
225.277	-11
225.511	-16
225.746	1
225.98	17
226.215	12
226.449	10
226.683	29
226.918	27
227.152	16
227.387	35
227.621	44
227.856	36
228.09	53
228.324	60
228.559	66
228.793	62
229.027	79
229.262	82
229.496	74
229.73	89
229.964	101
230.199	97
230.433	78
230.667	79
230.901	87
231.136	81
231.37	87
231.604	78
231.838	86
232.072	95
232.306	79
232.541	80
232.775	81
233.009	85
233.243	77
233.477	81
233.711	90
233.945	81
234.179	89
234.413	88
234.647	55
234.881	71
235.115	81
235.349	83
235.583	77
235.817	73
236.051	94
236.285	72
236.519	76
236.753	77
236.987	95
237.221	97
237.455	99
237.689	85
237.922	66
238.156	65
238.39	86
238.624	97
238.858	89
239.091	75
239.325	78
239.559	84
239.793	77
240.027	86
240.26	87
240.494	90
240.728	76
240.961	88
241.195	77
241.429	78
241.662	76
241.896	84
242.13	83
242.363	99
242.597	85
242.83	84
243.064	81
243.298	75
243.531	65
243.765	87
243.998	95
244.232	99
244.465	91
244.699	73
244.932	80
245.166	91
245.399	93
245.633	88
245.866	63
246.099	86
246.333	84
246.566	83
246.8	91
247.033	96
247.266	95
247.5	81
247.733	70
247.966	100
248.2	77
248.433	84
248.666	91
248.899	94
249.133	88
249.366	107
249.599	99
249.832	98
250.066	87
250.299	83
250.532	73
250.765	65
250.998	88
251.231	95
251.465	81
251.698	82
251.931	101
252.164	86
252.397	82
252.63	104
252.863	83
253.096	78
253.329	84
253.562	56
253.795	88
254.028	78
254.261	92
254.494	80
254.727	90
254.96	96
255.193	87
255.426	83
255.659	82
255.892	101
256.124	93
256.357	82
256.59	78
256.823	88
257.056	93
257.289	75
257.521	76
257.754	79
257.987	87
258.22	89
258.452	82
258.685	83
258.918	96
259.151	78
259.383	89
259.616	94
259.849	77
260.081	71
260.314	81
260.547	101
260.779	82
261.012	106
261.244	89
261.477	93
261.71	99
261.942	142
262.175	135
262.407	105
262.64	88
262.872	94
263.105	93
263.337	91
263.57	75
263.802	87
264.035	86
264.267	75
264.499	84
264.732	92
264.964	97
265.197	84
265.429	94
265.661	75
265.894	84
266.126	89
266.358	90
266.591	82
266.823	85
267.055	81
267.287	87
267.52	90
267.752	78
267.984	104
268.216	83
268.448	77
268.681	90
268.913	85
269.145	87
269.377	100
269.609	84
269.841	103
270.073	85
270.306	94
270.538	102
270.77	88
271.002	81
271.234	93
271.466	92
271.698	99
271.93	85
272.162	89
272.394	89
272.626	96
272.858	102
273.09	88
273.322	88
273.553	87
273.785	72
274.017	88
274.249	95
274.481	100
274.713	91
274.945	88
275.176	93
275.408	103
275.64	95
275.872	104
276.104	95
276.335	95
276.567	142
276.799	138
277.031	144
277.262	130
277.494	131
277.726	106
277.957	92
278.189	98
278.421	100
278.652	89
278.884	79
279.115	93
279.347	80
279.579	95
279.81	96
280.042	120
280.273	183
280.505	153
280.736	101
280.968	99
281.199	94
281.431	89
281.662	90
281.894	81
282.125	103
282.356	139
282.588	165
282.819	150
283.051	104
283.282	88
283.513	94
283.745	90
283.976	93
284.207	91
284.439	91
284.67	97
284.901	89
285.132	102
285.364	93
285.595	99
285.826	97
286.057	69
286.288	103
286.52	83
286.751	95
286.982	99
287.213	88
287.444	98
287.675	88
287.906	102
288.138	103
288.369	95
288.6	100
288.831	92
289.062	88
289.293	86
289.524	92
289.755	85
289.986	85
290.217	85
290.448	89
290.679	84
290.91	93
291.141	95
291.371	88
291.602	79
291.833	96
292.064	84
292.295	85
292.526	99
292.757	94
292.987	94
293.218	95
293.449	91
293.68	98
293.91	99
294.141	105
294.372	99
294.603	102
294.833	86
295.064	95
295.295	103
295.525	88
295.756	116
295.987	136
296.217	161
296.448	142
296.679	95
296.909	92
297.14	93
297.37	92
297.601	76
297.831	90
298.062	102
298.292	80
298.523	93
298.753	97
298.984	99
299.214	90
299.445	108
299.675	105
299.905	97
300.136	96
300.366	102
300.597	98
300.827	96
301.057	118
301.288	114
301.518	110
301.748	102
301.979	104
302.209	111
302.439	93
302.669	86
302.9	86
303.13	102
303.36	100
303.59	122
303.82	129
304.051	95
304.281	92
304.511	103
304.741	94
304.971	81
305.201	101
305.431	97
305.661	88
305.891	94
306.121	112
306.352	119
306.582	108
306.812	105
307.042	116
307.272	137
307.502	129
307.731	131
307.961	110
308.191	95
308.421	87
308.651	95
308.881	106
309.111	111
309.341	114
309.571	114
309.8	103
310.03	104
310.26	113
310.49	91
310.72	104
310.949	118
311.179	113
311.409	103
311.639	110
311.868	112
312.098	107
312.328	103
312.557	123
312.787	141
313.017	123
313.246	109
313.476	109
313.706	97
313.935	112
314.165	115
314.394	112
314.624	107
314.853	118
315.083	105
315.312	101
315.542	100
315.771	109
316.001	94
316.23	108
316.46	98
316.689	120
316.919	99
317.148	108
317.377	96
317.607	109
317.836	100
318.065	93
318.295	93
318.524	93
318.753	100
318.983	101
319.212	111
319.441	120
319.67	133
319.9	102
320.129	92
320.358	103
320.587	118
320.816	109
321.046	109
321.275	111
321.504	101
321.733	93
321.962	120
322.191	108
322.42	132
322.649	139
322.878	124
323.108	136
323.337	143
323.566	163
323.795	199
324.024	266
324.253	511
324.482	1167
324.71	2467
324.939	3272
325.168	1181
325.397	343
325.626	179
325.855	151
326.084	155
326.313	149
326.542	177
326.77	297
326.999	605
327.228	1271
327.457	2363
327.686	1918
327.914	548
328.143	413
328.372	475
328.6	275
328.829	175
329.058	194
329.287	194
329.515	165
329.744	196
329.972	316
330.201	624
330.43	915
330.658	459
330.887	255
331.115	199
331.344	117
331.572	117
331.801	148
332.03	135
332.258	134
332.486	114
332.715	93
332.943	113
333.172	109
333.4	107
333.629	143
333.857	195
334.085	310
334.314	579
334.542	1130
334.771	1091
334.999	319
335.227	147
335.455	118
335.684	117
335.912	106
336.14	111
336.369	110
336.597	129
336.825	109
337.053	113
337.281	93
337.51	96
337.738	111
337.966	112
338.194	102
338.422	99
338.65	104
338.878	99
339.106	99
339.334	93
339.562	95
339.79	86
340.018	103
340.246	108
340.474	102
340.702	107
340.93	101
341.158	100
341.386	113
341.614	115
341.842	99
342.07	100
342.298	107
342.526	102
342.754	93
342.981	92
343.209	92
343.437	117
343.665	97
343.893	102
344.12	83
344.348	99
344.576	92
344.804	87
345.031	115
345.259	121
345.487	122
345.714	96
345.942	100
346.17	95
346.397	106
346.625	115
346.853	98
347.08	97
347.308	97
347.535	97
347.763	112
347.99	99
348.218	117
348.445	111
348.673	120
348.9	112
349.128	111
349.355	102
349.583	97
349.81	104
350.037	111
350.265	104
350.492	91
350.72	111
350.947	95
351.174	121
351.402	125
351.629	109
351.856	114
352.083	123
352.311	125
352.538	144
352.765	136
352.992	113
353.22	126
353.447	115
353.674	103
353.901	110
354.128	100
354.355	96
354.583	103
354.81	107
355.037	93
355.264	89
355.491	102
355.718	100
355.945	115
356.172	98
356.399	91
356.626	80
356.853	106
357.08	102
357.307	101
357.534	104
357.761	106
357.988	94
358.215	97
358.441	110
358.668	111
358.895	85
359.122	101
359.349	100
359.576	95
359.802	120
360.029	151
360.256	144
360.483	144
360.709	96
360.936	109
361.163	102
361.39	117
361.616	104
361.843	106
362.07	92
362.296	117
362.523	100
362.749	108
362.976	101
363.203	88
363.429	88
363.656	87
363.882	84
364.109	97
364.335	87
364.562	97
364.788	109
365.015	112
365.241	124
365.468	123
365.694	124
365.92	121
366.147	97
366.373	96
366.599	94
366.826	92
367.052	91
367.278	95
367.505	101
367.731	103
367.957	111
368.184	101
368.41	116
368.636	139
368.862	145
369.089	121
369.315	109
369.541	100
369.767	108
369.993	95
370.219	91
370.445	88
370.672	94
370.898	95
371.124	96
371.35	97
371.576	99
371.802	101
372.028	92
372.254	88
372.48	86
372.706	88
372.932	103
373.158	85
373.384	96
373.61	98
373.835	99
374.061	88
374.287	108
374.513	96
374.739	99
374.965	89
375.191	107
375.416	102
375.642	88
375.868	100
376.094	105
376.319	93
376.545	85
376.771	82
376.997	94
377.222	97
377.448	97
377.674	101
377.899	91
378.125	84
378.35	104
378.576	100
378.802	112
379.027	94
379.253	93
379.478	87
379.704	92
379.929	102
380.155	107
380.38	98
380.606	107
380.831	94
381.057	113
381.282	105
381.507	106
381.733	109
381.958	101
382.184	97
382.409	112
382.634	111
382.86	93
383.085	110
383.31	99
383.535	105
383.761	112
383.986	112
384.211	101
384.436	103
384.662	104
384.887	114
385.112	119
385.337	109
385.562	127
385.787	113
386.013	118
386.238	150
386.463	122
386.688	120
386.913	117
387.138	109
387.363	106
387.588	107
387.813	110
388.038	128
388.263	120
388.488	118
388.713	104
388.938	96
389.163	98
389.387	94
389.612	86
389.837	91
390.062	93
390.287	93
390.512	96
390.736	91
390.961	98
391.186	71
391.411	97
391.636	94
391.86	79
392.085	95
392.31	89
392.534	110
392.759	83
392.984	101
393.208	106
393.433	112
393.658	110
393.882	92
394.107	93
394.331	89
394.556	97
394.78	87
395.005	94
395.229	93
395.454	88
395.678	72
395.903	98
396.127	100
396.352	88
396.576	101
396.801	86
397.025	98
397.249	95
397.474	89
397.698	100
397.922	85
398.147	94
398.371	102
398.595	84
398.82	91
399.044	77
399.268	80
399.492	79
399.717	88
399.941	91
400.165	96
400.389	96
400.613	86
400.837	96
401.062	88
401.286	88
401.51	102
401.734	96
401.958	110
402.182	146
402.406	211
402.63	156
402.854	114
403.078	103
403.302	104
403.526	97
403.75	101
403.974	92
404.198	81
404.422	88
404.645	94
404.869	102
405.093	128
405.317	152
405.541	128
405.765	125
405.988	147
406.212	218
406.436	299
406.66	211
406.883	124
407.107	114
407.331	111
407.555	124
407.778	113
408.002	87
408.226	104
408.449	102
408.673	105
408.896	95
409.12	103
409.344	101
409.567	96
409.791	91
410.014	96
410.238	106
410.461	108
410.685	94
410.908	107
411.132	92
411.355	113
411.578	84
411.802	96
412.025	95
412.249	107
412.472	117
412.695	129
412.919	112
413.142	86
413.365	92
413.589	89
413.812	109
414.035	109
414.258	96
414.482	95
414.705	82
414.928	96
415.151	90
415.374	100
415.597	95
415.821	97
416.044	110
416.267	102
416.49	85
416.713	92
416.936	99
417.159	112
417.382	100
417.605	110
417.828	113
418.051	109
418.274	101
418.497	94
418.72	105
418.943	91
419.166	100
419.389	87
419.611	114
419.834	101
420.057	108
420.28	105
420.503	96
420.726	97
420.948	90
421.171	97
421.394	103
421.617	104
421.839	104
422.062	94
422.285	102
422.507	87
422.73	101
422.953	105
423.175	103
423.398	80
423.621	103
423.843	90
424.066	86
424.288	76
424.511	97
424.733	99
424.956	134
425.178	114
425.401	107
425.623	121
425.846	114
426.068	105
426.291	103
426.513	85
426.735	95
426.958	102
427.18	123
427.402	174
427.625	273
427.847	246
428.069	217
428.292	104
428.514	97
428.736	87
428.958	103
429.181	98
429.403	82
429.625	99
429.847	115
430.069	134
430.292	98
430.514	91
430.736	92
430.958	98
431.18	89
431.402	76
431.624	93
431.846	82
432.068	93
432.29	69
432.512	90
432.734	101
432.956	98
433.178	97
433.4	112
433.622	97
433.844	100
434.066	96
434.287	110
434.509	95
434.731	95
434.953	82
435.175	92
435.397	83
435.618	92
435.84	129
436.062	150
436.284	141
436.505	117
436.727	115
436.949	119
437.17	93
437.392	116
437.614	104
437.835	137
438.057	149
438.278	130
438.5	115
438.721	134
438.943	107
439.165	95
439.386	98
439.608	82
439.829	104
440.05	169
440.272	202
440.493	121
440.715	93
440.936	96
441.158	90
441.379	115
441.6	98
441.822	103
442.043	111
442.264	132
442.486	119
442.707	99
442.928	139
443.149	178
443.371	181
443.592	130
443.813	148
444.034	115
444.255	115
444.476	96
444.698	91
444.919	110
445.14	156
445.361	157
445.582	160
445.803	204
446.024	201
446.245	189
446.466	158
446.687	93
446.908	100
447.129	100
447.35	100
447.571	86
447.792	100
448.013	104
448.234	127
448.455	108
448.675	124
448.896	144
449.117	124
449.338	113
449.559	151
449.779	167
450	108
450.221	96
450.442	97
450.662	108
450.883	148
451.104	156
451.324	102
451.545	102
451.766	100
451.986	99
452.207	108
452.428	98
452.648	109
452.869	141
453.089	141
453.31	135
453.53	101
453.751	111
453.971	115
454.192	146
454.412	116
454.633	92
454.853	112
455.073	96
455.294	86
455.514	103
455.734	93
455.955	82
456.175	99
456.395	89
456.616	83
456.836	95
457.056	85
457.276	84
457.497	113
457.717	91
457.937	84
458.157	97
458.377	100
458.598	131
458.818	224
459.038	241
459.258	159
459.478	94
459.698	96
459.918	101
460.138	84
460.358	100
460.578	89
460.798	88
461.018	116
461.238	92
461.458	92
461.678	93
461.898	95
462.118	86
462.338	87
462.558	107
462.777	87
462.997	84
463.217	89
463.437	108
463.657	113
463.876	100
464.096	96
464.316	113
464.536	110
464.755	91
464.975	123
465.195	245
465.414	237
465.634	109
465.854	108
466.073	91
466.293	81
466.512	89
466.732	99
466.951	93
467.171	92
467.391	104
467.61	141
467.829	173
468.049	321
468.268	469
468.488	166
468.707	104
468.927	76
469.146	88
469.365	89
469.585	103
469.804	101
470.023	117
470.243	118
470.462	112
470.681	149
470.901	107
471.12	100
471.339	116
471.558	110
471.777	134
471.997	205
472.216	598
472.435	1393
472.654	379
472.873	126
473.092	106
473.311	95
473.53	97
473.749	107
473.968	94
474.187	138
474.406	119
474.625	98
474.844	104
475.063	99
475.282	87
475.501	78
475.72	85
475.939	96
476.158	79
476.377	94
476.596	107
476.814	85
477.033	98
477.252	95
477.471	89
477.69	96
477.908	100
478.127	89
478.346	96
478.564	106
478.783	110
479.002	100
479.22	119
479.439	118
479.658	126
479.876	117
480.095	98
480.313	129
480.532	126
480.751	200
480.969	582
481.188	2379
481.406	1515
481.624	271
481.843	127
482.061	97
482.28	105
482.498	91
482.717	106
482.935	90
483.153	92
483.372	93
483.59	78
483.808	73
484.027	93
484.245	112
484.463	90
484.681	105
484.9	95
485.118	94
485.336	100
485.554	101
485.772	99
485.99	102
486.209	127
486.427	105
486.645	123
486.863	127
487.081	119
487.299	111
487.517	101
487.735	101
487.953	94
488.171	84
488.389	107
488.607	99
488.825	105
489.043	97
489.261	101
489.479	92
489.696	97
489.914	87
490.132	107
490.35	102
490.568	97
490.786	105
491.003	96
491.221	101
491.439	104
491.657	95
491.874	90
492.092	86
492.31	87
492.527	94
492.745	92
492.963	96
493.18	99
493.398	93
493.615	99
493.833	88
494.05	92
494.268	90
494.485	96
494.703	87
494.92	84
495.138	97
495.355	93
495.573	96
495.79	101
496.008	101
496.225	100
496.442	112
496.66	89
496.877	83
497.094	102
497.312	102
497.529	104
497.746	93
497.963	78
498.181	85
498.398	102
498.615	119
498.832	110
499.049	96
499.267	93
499.484	96
499.701	95
499.918	87
500.135	99
500.352	79
500.569	98
500.786	120
501.003	95
501.22	93
501.437	98
501.654	110
501.871	140
502.088	99
502.305	87
502.522	87
502.739	83
502.956	94
503.172	102
503.389	103
503.606	127
503.823	112
504.04	88
504.256	95
504.473	97
504.69	94
504.907	89
505.123	95
505.34	91
505.557	99
505.773	92
505.99	96
506.207	98
506.423	88
506.64	93
506.856	93
507.073	91
507.289	106
507.506	120
507.722	142
507.939	146
508.155	104
508.372	95
508.588	91
508.805	98
509.021	96
509.238	96
509.454	104
509.67	113
509.887	124
510.103	148
510.319	258
510.536	950
510.752	3278
510.968	908
511.184	181
511.401	139
511.617	128
511.833	104
512.049	96
512.265	98
512.481	86
512.698	95
512.914	108
513.13	109
513.346	111
513.562	99
513.778	101
513.994	102
514.21	132
514.426	148
514.642	207
514.858	174
515.074	220
515.29	709
515.506	2621
515.721	970
515.937	226
516.153	132
516.369	107
516.585	107
516.801	116
517.016	100
517.232	95
517.448	103
517.664	102
517.879	107
518.095	92
518.311	98
518.527	94
518.742	89
518.958	89
519.173	102
519.389	110
519.605	97
519.82	114
520.036	116
520.251	161
520.467	125
520.682	126
520.898	129
521.113	150
521.329	184
521.544	309
521.76	952
521.975	4411
522.19	2723
522.406	544
522.621	172
522.836	121
523.052	128
523.267	115
523.482	109
523.698	124
523.913	159
524.128	121
524.343	89
524.559	105
524.774	97
524.989	100
525.204	134
525.419	115
525.634	100
525.849	86
526.064	95
526.28	97
526.495	100
526.71	88
526.925	100
527.14	76
527.355	93
527.57	80
527.785	97
527.999	93
528.214	107
528.429	92
528.644	88
528.859	95
529.074	100
529.289	172
529.503	296
529.718	141
529.933	102
530.148	87
530.363	94
530.577	86
530.792	87
531.007	82
531.221	95
531.436	89
531.651	92
531.865	81
532.08	97
532.295	109
532.509	95
532.724	109
532.938	99
533.153	93
533.367	104
533.582	106
533.796	101
534.011	101
534.225	112
534.44	79
534.654	94
534.868	88
535.083	92
535.297	108
535.511	105
535.726	129
535.94	99
536.154	89
536.369	94
536.583	85
536.797	88
537.011	103
537.225	93
537.44	94
537.654	94
537.868	96
538.082	88
538.296	89
538.51	100
538.724	89
538.938	89
539.153	113
539.367	129
539.581	117
539.795	90
540.009	98
540.222	94
540.436	92
540.65	95
540.864	92
541.078	98
541.292	93
541.506	93
541.72	83
541.934	96
542.147	92
542.361	100
542.575	93
542.789	100
543.002	86
543.216	95
543.43	104
543.644	87
543.857	86
544.071	88
544.285	92
544.498	92
544.712	99
544.925	83
545.139	86
545.352	99
545.566	104
545.779	100
545.993	98
546.206	91
546.42	100
546.633	97
546.847	94
547.06	76
547.274	80
547.487	99
547.7	97
547.914	99
548.127	107
548.34	102
548.554	84
548.767	92
548.98	87
549.193	83
549.407	86
549.62	93
549.833	98
550.046	91
550.259	86
550.473	95
550.686	106
550.899	95
551.112	92
551.325	76
551.538	97
551.751	86
551.964	90
552.177	88
552.39	81
552.603	95
552.816	84
553.029	103
553.242	96
553.455	101
553.667	128
553.88	128
554.093	100
554.306	103
554.519	120
554.732	109
554.944	91
555.157	93
555.37	102
555.583	83
555.795	105
556.008	104
556.221	95
556.433	84
556.646	104
556.859	95
557.071	103
557.284	89
557.496	92
557.709	100
557.921	83
558.134	84
558.346	100
558.559	94
558.771	99
558.984	94
559.196	95
559.409	101
559.621	102
559.833	89
560.046	88
560.258	101
560.47	105
560.683	104
560.895	96
561.107	97
561.32	96
561.532	85
561.744	105
561.956	92
562.168	87
562.381	97
562.593	84
562.805	112
563.017	96
563.229	86
563.441	100
563.653	100
563.865	89
564.077	92
564.289	82
564.501	91
564.713	81
564.925	109
565.137	113
565.349	94
565.561	83
565.773	94
565.985	94
566.197	92
566.408	93
566.62	85
566.832	103
567.044	92
567.255	83
567.467	88
567.679	90
567.891	98
568.102	89
568.314	100
568.526	93
568.737	95
568.949	85
569.161	96
569.372	80
569.584	91
569.795	109
570.007	142
570.218	329
570.43	161
570.641	94
570.853	91
571.064	84
571.276	85
571.487	86
571.698	96
571.91	76
572.121	91
572.333	81
572.544	92
572.755	93
572.966	112
573.178	101
573.389	109
573.6	100
573.811	96
574.023	104
574.234	99
574.445	88
574.656	88
574.867	102
575.078	101
575.289	78
575.501	87
575.712	96
575.923	101
576.134	101
576.345	96
576.556	96
576.767	106
576.978	104
577.188	83
577.399	86
577.61	91
577.821	103
