Data from Circ_2007_H10_HRD10591_00065.txt Node
Date: Wed Jan 03 10:22:10 EST 2024
User: Yrep
Spectrometer: HR+D1059
Trigger mode: 1
Integration Time (sec): 1.000000E-1
Scans to average: 1
Electric dark correction enabled: true
Nonlinearity correction enabled: false
Boxcar width: 0
XAxis mode: Wavelengths
Number of Pixels in Spectrum: 2048
>>>>>Begin Spectral Data<<<<<
223.165	-5.69
223.4	-5.69
223.635	-5.69
223.869	-22.69
224.104	-14.69
224.338	-16.69
224.573	-14.69
224.808	-14.69
225.042	-6.69
225.277	2.31
225.511	-8.69
225.746	4.31
225.98	11.31
226.215	23.31
226.449	8.31
226.683	25.31
226.918	4.31
227.152	25.31
227.387	39.31
227.621	44.31
227.856	47.31
228.09	40.31
228.324	52.31
228.559	58.31
228.793	55.31
229.027	52.31
229.262	70.31
229.496	77.31
229.73	90.31
229.964	78.31
230.199	77.31
230.433	80.31
230.667	74.31
230.901	73.31
231.136	82.31
231.37	71.31
231.604	73.31
231.838	80.31
232.072	79.31
232.306	76.31
232.541	88.31
232.775	78.31
233.009	69.31
233.243	75.31
233.477	91.31
233.711	88.31
233.945	85.31
234.179	73.31
234.413	75.31
234.647	93.31
234.881	83.31
235.115	79.31
235.349	71.31
235.583	81.31
235.817	75.31
236.051	90.31
236.285	73.31
236.519	79.31
236.753	66.31
236.987	66.31
237.221	82.31
237.455	85.31
237.689	92.31
237.922	81.31
238.156	87.31
238.39	73.31
238.624	75.31
238.858	72.31
239.091	83.31
239.325	75.31
239.559	91.31
239.793	79.31
240.027	80.31
240.26	90.31
240.494	78.31
240.728	93.31
240.961	88.31
241.195	88.31
241.429	77.31
241.662	80.31
241.896	75.31
242.13	69.31
242.363	70.31
242.597	68.31
242.83	85.31
243.064	72.31
243.298	77.31
243.531	75.31
243.765	79.31
243.998	90.31
244.232	85.31
244.465	72.31
244.699	88.31
244.932	81.31
245.166	68.31
245.399	79.31
245.633	77.31
245.866	72.31
246.099	88.31
246.333	87.31
246.566	75.31
246.8	69.31
247.033	82.31
247.266	75.31
247.5	74.31
247.733	79.31
247.966	75.31
248.2	76.31
248.433	83.31
248.666	81.31
248.899	79.31
249.133	88.31
249.366	103.31
249.599	116.31
249.832	92.31
250.066	85.31
250.299	75.31
250.532	81.31
250.765	66.31
250.998	75.31
251.231	89.31
251.465	65.31
251.698	69.31
251.931	85.31
252.164	78.31
252.397	84.31
252.63	73.31
252.863	69.31
253.096	85.31
253.329	76.31
253.562	79.31
253.795	89.31
254.028	85.31
254.261	73.31
254.494	75.31
254.727	90.31
254.96	90.31
255.193	79.31
255.426	82.31
255.659	87.31
255.892	80.31
256.124	84.31
256.357	86.31
256.59	87.31
256.823	81.31
257.056	91.31
257.289	80.31
257.521	80.31
257.754	89.31
257.987	76.31
258.22	83.31
258.452	74.31
258.685	87.31
258.918	91.31
259.151	88.31
259.383	78.31
259.616	100.31
259.849	72.31
260.081	77.31
260.314	98.31
260.547	92.31
260.779	76.31
261.012	100.31
261.244	101.31
261.477	92.31
261.71	111.31
261.942	141.31
262.175	139.31
262.407	106.31
262.64	81.31
262.872	81.31
263.105	79.31
263.337	71.31
263.57	85.31
263.802	72.31
264.035	89.31
264.267	75.31
264.499	104.31
264.732	84.31
264.964	71.31
265.197	85.31
265.429	94.31
265.661	84.31
265.894	82.31
266.126	82.31
266.358	83.31
266.591	88.31
266.823	96.31
267.055	68.31
267.287	80.31
267.52	81.31
267.752	94.31
267.984	88.31
268.216	76.31
268.448	86.31
268.681	73.31
268.913	82.31
269.145	85.31
269.377	77.31
269.609	77.31
269.841	80.31
270.073	82.31
270.306	89.31
270.538	67.31
270.77	84.31
271.002	85.31
271.234	90.31
271.466	96.31
271.698	80.31
271.93	77.31
272.162	77.31
272.394	89.31
272.626	91.31
272.858	91.31
273.09	83.31
273.322	82.31
273.553	80.31
273.785	97.31
274.017	89.31
274.249	92.31
274.481	82.31
274.713	90.31
274.945	101.31
275.176	91.31
275.408	104.31
275.64	91.31
275.872	109.31
276.104	101.31
276.335	100.31
276.567	104.31
276.799	142.31
277.031	136.31
277.262	147.31
277.494	113.31
277.726	94.31
277.957	89.31
278.189	99.31
278.421	93.31
278.652	80.31
278.884	80.31
279.115	86.31
279.347	84.31
279.579	89.31
279.81	104.31
280.042	143.31
280.273	187.31
280.505	140.31
280.736	106.31
280.968	84.31
281.199	82.31
281.431	84.31
281.662	91.31
281.894	88.31
282.125	109.31
282.356	141.31
282.588	180.31
282.819	135.31
283.051	84.31
283.282	76.31
283.513	107.31
283.745	95.31
283.976	92.31
284.207	89.31
284.439	85.31
284.67	71.31
284.901	94.31
285.132	79.31
285.364	100.31
285.595	94.31
285.826	103.31
286.057	88.31
286.288	68.31
286.52	75.31
286.751	75.31
286.982	87.31
287.213	92.31
287.444	92.31
287.675	100.31
287.906	89.31
288.138	102.31
288.369	83.31
288.6	103.31
288.831	92.31
289.062	93.31
289.293	94.31
289.524	91.31
289.755	101.31
289.986	96.31
290.217	104.31
290.448	92.31
290.679	86.31
290.91	93.31
291.141	78.31
291.371	92.31
291.602	84.31
291.833	102.31
292.064	98.31
292.295	88.31
292.526	95.31
292.757	100.31
292.987	80.31
293.218	87.31
293.449	87.31
293.68	88.31
293.91	89.31
294.141	93.31
294.372	97.31
294.603	86.31
294.833	86.31
295.064	98.31
295.295	79.31
295.525	81.31
295.756	111.31
295.987	133.31
296.217	172.31
296.448	155.31
296.679	111.31
296.909	85.31
297.14	92.31
297.37	79.31
297.601	103.31
297.831	93.31
298.062	88.31
298.292	82.31
298.523	99.31
298.753	101.31
298.984	73.31
299.214	85.31
299.445	91.31
299.675	88.31
299.905	116.31
300.136	98.31
300.366	94.31
300.597	91.31
300.827	100.31
301.057	99.31
301.288	116.31
301.518	109.31
301.748	91.31
301.979	98.31
302.209	95.31
302.439	103.31
302.669	99.31
302.9	99.31
303.13	96.31
303.36	109.31
303.59	133.31
303.82	134.31
304.051	102.31
304.281	101.31
304.511	87.31
304.741	101.31
304.971	97.31
305.201	88.31
305.431	83.31
305.661	89.31
305.891	95.31
306.121	100.31
306.352	105.31
306.582	120.31
306.812	95.31
307.042	98.31
307.272	138.31
307.502	151.31
307.731	149.31
307.961	108.31
308.191	79.31
308.421	96.31
308.651	103.31
308.881	98.31
309.111	98.31
309.341	96.31
309.571	95.31
309.8	101.31
310.03	97.31
310.26	107.31
310.49	95.31
310.72	105.31
310.949	109.31
311.179	124.31
311.409	93.31
311.639	107.31
311.868	98.31
312.098	82.31
312.328	102.31
312.557	105.31
312.787	117.31
313.017	100.31
313.246	89.31
313.476	84.31
313.706	99.31
313.935	91.31
314.165	103.31
314.394	114.31
314.624	110.31
314.853	95.31
315.083	106.31
315.312	102.31
315.542	105.31
315.771	77.31
316.001	114.31
316.23	98.31
316.46	85.31
316.689	82.31
316.919	103.31
317.148	96.31
317.377	84.31
317.607	102.31
317.836	88.31
318.065	89.31
318.295	102.31
318.524	97.31
318.753	81.31
318.983	97.31
319.212	108.31
319.441	119.31
319.67	129.31
319.9	91.31
320.129	93.31
320.358	100.31
320.587	102.31
320.816	92.31
321.046	116.31
321.275	106.31
321.504	106.31
321.733	107.31
321.962	99.31
322.191	109.31
322.42	110.31
322.649	120.31
322.878	127.31
323.108	138.31
323.337	156.31
323.566	137.31
323.795	183.31
324.024	254.31
324.253	491.31
324.482	1047.31
324.71	2140.31
324.939	2853.31
325.168	1035.31
325.397	291.31
325.626	166.31
325.855	133.31
326.084	127.31
326.313	145.31
326.542	167.31
326.77	279.31
326.999	553.31
327.228	1095.31
327.457	2012.31
327.686	1625.31
327.914	531.31
328.143	429.31
328.372	480.31
328.6	279.31
328.829	168.31
329.058	203.31
329.287	182.31
329.515	163.31
329.744	193.31
329.972	326.31
330.201	651.31
330.43	962.31
330.658	431.31
330.887	263.31
331.115	177.31
331.344	103.31
331.572	135.31
331.801	122.31
332.03	110.31
332.258	122.31
332.486	100.31
332.715	106.31
332.943	108.31
333.172	97.31
333.4	124.31
333.629	149.31
333.857	171.31
334.085	312.31
334.314	596.31
334.542	1149.31
334.771	1102.31
334.999	318.31
335.227	179.31
335.455	116.31
335.684	108.31
335.912	120.31
336.14	89.31
336.369	98.31
336.597	116.31
336.825	110.31
337.053	111.31
337.281	112.31
337.51	98.31
337.738	106.31
337.966	103.31
338.194	102.31
338.422	120.31
338.65	104.31
338.878	93.31
339.106	84.31
339.334	100.31
339.562	91.31
339.79	95.31
340.018	91.31
340.246	99.31
340.474	95.31
340.702	101.31
340.93	96.31
341.158	104.31
341.386	96.31
341.614	103.31
341.842	111.31
342.07	102.31
342.298	96.31
342.526	81.31
342.754	89.31
342.981	76.31
343.209	91.31
343.437	85.31
343.665	90.31
343.893	93.31
344.12	95.31
344.348	90.31
344.576	86.31
344.804	89.31
345.031	95.31
345.259	105.31
345.487	87.31
345.714	103.31
345.942	95.31
346.17	79.31
346.397	84.31
346.625	99.31
346.853	103.31
347.08	108.31
347.308	102.31
347.535	101.31
347.763	108.31
347.99	105.31
348.218	104.31
348.445	114.31
348.673	108.31
348.9	93.31
349.128	96.31
349.355	92.31
349.583	91.31
349.81	103.31
350.037	99.31
350.265	80.31
350.492	101.31
350.72	95.31
350.947	98.31
351.174	115.31
351.402	135.31
351.629	100.31
351.856	107.31
352.083	112.31
352.311	128.31
352.538	137.31
352.765	117.31
352.992	117.31
353.22	124.31
353.447	127.31
353.674	100.31
353.901	84.31
354.128	85.31
354.355	88.31
354.583	101.31
354.81	96.31
355.037	83.31
355.264	99.31
355.491	90.31
355.718	88.31
355.945	88.31
356.172	80.31
356.399	89.31
356.626	84.31
356.853	79.31
357.08	99.31
357.307	95.31
357.534	93.31
357.761	88.31
357.988	98.31
358.215	86.31
358.441	103.31
358.668	99.31
358.895	90.31
359.122	92.31
359.349	89.31
359.576	102.31
359.802	112.31
360.029	156.31
360.256	144.31
360.483	125.31
360.709	105.31
360.936	105.31
361.163	112.31
361.39	110.31
361.616	95.31
361.843	80.31
362.07	99.31
362.296	98.31
362.523	97.31
362.749	96.31
362.976	93.31
363.203	95.31
363.429	80.31
363.656	106.31
363.882	98.31
364.109	77.31
364.335	94.31
364.562	88.31
364.788	103.31
365.015	98.31
365.241	116.31
365.468	102.31
365.694	104.31
365.92	107.31
366.147	101.31
366.373	90.31
366.599	98.31
366.826	75.31
367.052	104.31
367.278	98.31
367.505	81.31
367.731	95.31
367.957	81.31
368.184	104.31
368.41	101.31
368.636	125.31
368.862	137.31
369.089	133.31
369.315	104.31
369.541	86.31
369.767	93.31
369.993	98.31
370.219	96.31
370.445	87.31
370.672	97.31
370.898	92.31
371.124	93.31
371.35	104.31
371.576	95.31
371.802	79.31
372.028	89.31
372.254	88.31
372.48	87.31
372.706	88.31
372.932	89.31
373.158	77.31
373.384	80.31
373.61	106.31
373.835	81.31
374.061	95.31
374.287	95.31
374.513	105.31
374.739	77.31
374.965	81.31
375.191	82.31
375.416	90.31
375.642	74.31
375.868	78.31
376.094	85.31
376.319	89.31
376.545	80.31
376.771	81.31
376.997	87.31
377.222	96.31
377.448	84.31
377.674	99.31
377.899	83.31
378.125	94.31
378.35	87.31
378.576	81.31
378.802	90.31
379.027	103.31
379.253	80.31
379.478	98.31
379.704	89.31
379.929	89.31
380.155	90.31
380.38	99.31
380.606	90.31
380.831	91.31
381.057	104.31
381.282	92.31
381.507	83.31
381.733	100.31
381.958	96.31
382.184	89.31
382.409	96.31
382.634	98.31
382.86	98.31
383.085	103.31
383.31	80.31
383.535	73.31
383.761	100.31
383.986	96.31
384.211	102.31
384.436	89.31
384.662	94.31
384.887	90.31
385.112	89.31
385.337	109.31
385.562	100.31
385.787	95.31
386.013	121.31
386.238	109.31
386.463	104.31
386.688	106.31
386.913	108.31
387.138	104.31
387.363	110.31
387.588	93.31
387.813	89.31
388.038	99.31
388.263	104.31
388.488	101.31
388.713	106.31
388.938	80.31
389.163	91.31
389.387	93.31
389.612	84.31
389.837	88.31
390.062	84.31
390.287	91.31
390.512	89.31
390.736	100.31
390.961	99.31
391.186	88.31
391.411	83.31
391.636	87.31
391.86	82.31
392.085	81.31
392.31	67.31
392.534	87.31
392.759	91.31
392.984	82.31
393.208	88.31
393.433	83.31
393.658	94.31
393.882	84.31
394.107	82.31
394.331	80.31
394.556	85.31
394.78	80.31
395.005	82.31
395.229	91.31
395.454	88.31
395.678	91.31
395.903	88.31
396.127	99.31
396.352	78.31
396.576	82.31
396.801	94.31
397.025	102.31
397.249	90.31
397.474	98.31
397.698	89.31
397.922	85.31
398.147	86.31
398.371	85.31
398.595	82.31
398.82	89.31
399.044	89.31
399.268	76.31
399.492	76.31
399.717	77.31
399.941	98.31
400.165	73.31
400.389	98.31
400.613	91.31
400.837	93.31
401.062	86.31
401.286	71.31
401.51	95.31
401.734	94.31
401.958	106.31
402.182	150.31
402.406	220.31
402.63	150.31
402.854	110.31
403.078	90.31
403.302	92.31
403.526	98.31
403.75	83.31
403.974	79.31
404.198	81.31
404.422	79.31
404.645	103.31
404.869	102.31
405.093	113.31
405.317	119.31
405.541	115.31
405.765	108.31
405.988	157.31
406.212	231.31
406.436	325.31
406.66	215.31
406.883	119.31
407.107	103.31
407.331	93.31
407.555	119.31
407.778	103.31
408.002	95.31
408.226	96.31
408.449	92.31
408.673	86.31
408.896	82.31
409.12	100.31
409.344	85.31
409.567	84.31
409.791	99.31
410.014	96.31
410.238	84.31
410.461	106.31
410.685	97.31
410.908	96.31
411.132	105.31
411.355	91.31
411.578	83.31
411.802	83.31
412.025	87.31
412.249	85.31
412.472	110.31
412.695	116.31
412.919	105.31
413.142	92.31
413.365	93.31
413.589	90.31
413.812	94.31
414.035	82.31
414.258	81.31
414.482	93.31
414.705	100.31
414.928	90.31
415.151	96.31
415.374	99.31
415.597	87.31
415.821	82.31
416.044	94.31
416.267	90.31
416.49	90.31
416.713	85.31
416.936	80.31
417.159	98.31
417.382	90.31
417.605	99.31
417.828	109.31
418.051	94.31
418.274	78.31
418.497	84.31
418.72	88.31
418.943	88.31
419.166	89.31
419.389	84.31
419.611	101.31
419.834	89.31
420.057	93.31
420.28	90.31
420.503	90.31
420.726	85.31
420.948	100.31
421.171	107.31
421.394	85.31
421.617	92.31
421.839	85.31
422.062	70.31
422.285	92.31
422.507	89.31
422.73	97.31
422.953	95.31
423.175	101.31
423.398	86.31
423.621	95.31
423.843	66.31
424.066	87.31
424.288	98.31
424.511	97.31
424.733	96.31
424.956	113.31
425.178	106.31
425.401	101.31
425.623	109.31
425.846	97.31
426.068	94.31
426.291	103.31
426.513	92.31
426.735	101.31
426.958	109.31
427.18	120.31
427.402	176.31
427.625	253.31
427.847	191.31
428.069	193.31
428.292	120.31
428.514	92.31
428.736	83.31
428.958	93.31
429.181	95.31
429.403	94.31
429.625	92.31
429.847	97.31
430.069	108.31
430.292	89.31
430.514	92.31
430.736	90.31
430.958	85.31
431.18	87.31
431.402	89.31
431.624	73.31
431.846	85.31
432.068	91.31
432.29	76.31
432.512	89.31
432.734	93.31
432.956	99.31
433.178	117.31
433.4	99.31
433.622	86.31
433.844	88.31
434.066	98.31
434.287	83.31
434.509	94.31
434.731	83.31
434.953	94.31
435.175	96.31
435.397	80.31
435.618	90.31
435.84	92.31
436.062	130.31
436.284	132.31
436.505	115.31
436.727	97.31
436.949	95.31
437.17	92.31
437.392	84.31
437.614	101.31
437.835	133.31
438.057	178.31
438.278	127.31
438.5	108.31
438.721	135.31
438.943	110.31
439.165	94.31
439.386	91.31
439.608	112.31
439.829	105.31
440.05	160.31
440.272	180.31
440.493	107.31
440.715	100.31
440.936	97.31
441.158	82.31
441.379	93.31
441.6	109.31
441.822	95.31
442.043	96.31
442.264	112.31
442.486	100.31
442.707	108.31
442.928	135.31
443.149	174.31
443.371	173.31
443.592	146.31
443.813	127.31
444.034	122.31
444.255	93.31
444.476	103.31
444.698	92.31
444.919	77.31
445.14	119.31
445.361	125.31
445.582	133.31
445.803	175.31
446.024	188.31
446.245	159.31
446.466	132.31
446.687	99.31
446.908	82.31
447.129	76.31
447.35	88.31
447.571	93.31
447.792	100.31
448.013	105.31
448.234	122.31
448.455	100.31
448.675	126.31
448.896	136.31
449.117	107.31
449.338	102.31
449.559	152.31
449.779	147.31
450	102.31
450.221	96.31
450.442	90.31
450.662	109.31
450.883	135.31
451.104	141.31
451.324	115.31
451.545	96.31
451.766	89.31
451.986	95.31
452.207	100.31
452.428	101.31
452.648	101.31
452.869	144.31
453.089	145.31
453.31	167.31
453.53	104.31
453.751	91.31
453.971	119.31
454.192	148.31
454.412	92.31
454.633	81.31
454.853	89.31
455.073	87.31
455.294	95.31
455.514	106.31
455.734	97.31
455.955	81.31
456.175	85.31
456.395	87.31
456.616	84.31
456.836	86.31
457.056	85.31
457.276	75.31
457.497	98.31
457.717	100.31
457.937	87.31
458.157	90.31
458.377	91.31
458.598	131.31
458.818	206.31
459.038	225.31
459.258	142.31
459.478	99.31
459.698	96.31
459.918	96.31
460.138	91.31
460.358	86.31
460.578	69.31
460.798	74.31
461.018	102.31
461.238	87.31
461.458	87.31
461.678	97.31
461.898	99.31
462.118	81.31
462.338	79.31
462.558	87.31
462.777	85.31
462.997	88.31
463.217	97.31
463.437	95.31
463.657	97.31
463.876	92.31
464.096	85.31
464.316	109.31
464.536	97.31
464.755	98.31
464.975	127.31
465.195	261.31
465.414	251.31
465.634	112.31
465.854	89.31
466.073	91.31
466.293	85.31
466.512	85.31
466.732	84.31
466.951	96.31
467.171	91.31
467.391	93.31
467.61	131.31
467.829	155.31
468.049	365.31
468.268	536.31
468.488	171.31
468.707	94.31
468.927	86.31
469.146	103.31
469.365	89.31
469.585	102.31
469.804	108.31
470.023	106.31
470.243	95.31
470.462	116.31
470.681	151.31
470.901	102.31
471.12	108.31
471.339	104.31
471.558	110.31
471.777	137.31
471.997	219.31
472.216	691.31
472.435	1581.31
472.654	413.31
472.873	141.31
473.092	117.31
473.311	79.31
473.53	77.31
473.749	89.31
473.968	129.31
474.187	108.31
474.406	105.31
474.625	92.31
474.844	77.31
475.063	88.31
475.282	103.31
475.501	73.31
475.72	90.31
475.939	91.31
476.158	97.31
476.377	98.31
476.596	93.31
476.814	93.31
477.033	97.31
477.252	97.31
477.471	78.31
477.69	80.31
477.908	95.31
478.127	97.31
478.346	101.31
478.564	93.31
478.783	97.31
479.002	96.31
479.22	100.31
479.439	109.31
479.658	141.31
479.876	109.31
480.095	116.31
480.313	109.31
480.532	143.31
480.751	202.31
480.969	651.31
481.188	2651.31
481.406	1658.31
481.624	271.31
481.843	131.31
482.061	109.31
482.28	86.31
482.498	96.31
482.717	92.31
482.935	92.31
483.153	85.31
483.372	87.31
483.59	88.31
483.808	97.31
484.027	80.31
484.245	85.31
484.463	92.31
484.681	99.31
484.9	76.31
485.118	82.31
485.336	90.31
485.554	94.31
485.772	96.31
485.99	107.31
486.209	116.31
486.427	117.31
486.645	108.31
486.863	115.31
487.081	110.31
487.299	91.31
487.517	85.31
487.735	92.31
487.953	97.31
488.171	90.31
488.389	94.31
488.607	101.31
488.825	90.31
489.043	85.31
489.261	90.31
489.479	91.31
489.696	92.31
489.914	95.31
490.132	96.31
490.35	101.31
490.568	85.31
490.786	72.31
491.003	91.31
491.221	95.31
491.439	90.31
491.657	101.31
491.874	93.31
492.092	80.31
492.31	85.31
492.527	84.31
492.745	93.31
492.963	98.31
493.18	88.31
493.398	91.31
493.615	92.31
493.833	97.31
494.05	89.31
494.268	101.31
494.485	86.31
494.703	90.31
494.92	86.31
495.138	112.31
495.355	98.31
495.573	92.31
495.79	93.31
496.008	88.31
496.225	66.31
496.442	98.31
496.66	93.31
496.877	93.31
497.094	105.31
497.312	97.31
497.529	91.31
497.746	87.31
497.963	88.31
498.181	87.31
498.398	84.31
498.615	126.31
498.832	110.31
499.049	97.31
499.267	75.31
499.484	90.31
499.701	90.31
499.918	82.31
500.135	87.31
500.352	98.31
500.569	105.31
500.786	81.31
501.003	106.31
501.22	88.31
501.437	83.31
501.654	85.31
501.871	125.31
502.088	105.31
502.305	97.31
502.522	79.31
502.739	84.31
502.956	90.31
503.172	102.31
503.389	102.31
503.606	109.31
503.823	114.31
504.04	93.31
504.256	95.31
504.473	87.31
504.69	96.31
504.907	91.31
505.123	88.31
505.34	79.31
505.557	90.31
505.773	96.31
505.99	85.31
506.207	91.31
506.423	72.31
506.64	97.31
506.856	91.31
507.073	85.31
507.289	85.31
507.506	109.31
507.722	143.31
507.939	139.31
508.155	101.31
508.372	91.31
508.588	97.31
508.805	101.31
509.021	100.31
509.238	104.31
509.454	109.31
509.67	83.31
509.887	113.31
510.103	145.31
510.319	239.31
510.536	1035.31
510.752	3672.31
510.968	967.31
511.184	197.31
511.401	131.31
511.617	107.31
511.833	106.31
512.049	90.31
512.265	116.31
512.481	108.31
512.698	104.31
512.914	91.31
513.13	112.31
513.346	86.31
513.562	108.31
