Data from Circ_2007_H10_HRD10591_00013.txt Node
Date: Wed Jan 03 10:21:59 EST 2024
User: Yrep
Spectrometer: HR+D1059
Trigger mode: 1
Integration Time (sec): 1.000000E-1
Scans to average: 1
Electric dark correction enabled: true
Nonlinearity correction enabled: false
Boxcar width: 0
XAxis mode: Wavelengths
Number of Pixels in Spectrum: 2048
>>>>>Begin Spectral Data<<<<<
223.165	-5.25
223.4	-5.25
223.635	-5.25
223.869	-14.25
224.104	-29.25
224.338	-21.25
224.573	-23.25
224.808	-11.25
225.042	-6.25
225.277	-5.25
225.511	2.75
225.746	5.75
225.98	-0.25
226.215	13.75
226.449	17.75
226.683	22.75
226.918	22.75
227.152	30.75
227.387	56.75
227.621	29.75
227.856	58.75
228.09	50.75
228.324	54.75
228.559	61.75
228.793	54.75
229.027	69.75
229.262	68.75
229.496	83.75
229.73	91.75
229.964	90.75
230.199	79.75
230.433	70.75
230.667	62.75
230.901	78.75
231.136	77.75
231.37	77.75
231.604	69.75
231.838	79.75
232.072	74.75
232.306	85.75
232.541	82.75
232.775	90.75
233.009	92.75
233.243	76.75
233.477	84.75
233.711	80.75
233.945	73.75
234.179	70.75
234.413	90.75
234.647	83.75
234.881	79.75
235.115	83.75
235.349	91.75
235.583	79.75
235.817	80.75
236.051	84.75
236.285	69.75
236.519	75.75
236.753	64.75
236.987	74.75
237.221	91.75
237.455	85.75
237.689	72.75
237.922	72.75
238.156	77.75
238.39	69.75
238.624	84.75
238.858	70.75
239.091	78.75
239.325	72.75
239.559	96.75
239.793	88.75
240.027	80.75
240.26	78.75
240.494	78.75
240.728	86.75
240.961	74.75
241.195	73.75
241.429	77.75
241.662	82.75
241.896	71.75
242.13	80.75
242.363	73.75
242.597	73.75
242.83	77.75
243.064	86.75
243.298	69.75
243.531	86.75
243.765	85.75
243.998	73.75
244.232	84.75
244.465	98.75
244.699	77.75
244.932	79.75
245.166	89.75
245.399	94.75
245.633	89.75
245.866	87.75
246.099	74.75
246.333	64.75
246.566	70.75
246.8	73.75
247.033	76.75
247.266	85.75
247.5	81.75
247.733	67.75
247.966	83.75
248.2	85.75
248.433	73.75
248.666	88.75
248.899	90.75
249.133	70.75
249.366	101.75
249.599	114.75
249.832	78.75
250.066	85.75
250.299	72.75
250.532	83.75
250.765	77.75
250.998	87.75
251.231	82.75
251.465	88.75
251.698	85.75
251.931	83.75
252.164	74.75
252.397	94.75
252.63	78.75
252.863	81.75
253.096	81.75
253.329	92.75
253.562	80.75
253.795	77.75
254.028	99.75
254.261	81.75
254.494	82.75
254.727	77.75
254.96	77.75
255.193	91.75
255.426	91.75
255.659	92.75
255.892	92.75
256.124	78.75
256.357	73.75
256.59	82.75
256.823	82.75
257.056	81.75
257.289	92.75
257.521	90.75
257.754	93.75
257.987	87.75
258.22	90.75
258.452	99.75
258.685	92.75
258.918	85.75
259.151	94.75
259.383	102.75
259.616	100.75
259.849	78.75
260.081	79.75
260.314	84.75
260.547	77.75
260.779	84.75
261.012	85.75
261.244	83.75
261.477	109.75
261.71	112.75
261.942	116.75
262.175	135.75
262.407	84.75
262.64	81.75
262.872	78.75
263.105	86.75
263.337	80.75
263.57	79.75
263.802	77.75
264.035	68.75
264.267	74.75
264.499	94.75
264.732	80.75
264.964	80.75
265.197	97.75
265.429	78.75
265.661	82.75
265.894	90.75
266.126	85.75
266.358	65.75
266.591	70.75
266.823	77.75
267.055	69.75
267.287	83.75
267.52	87.75
267.752	86.75
267.984	83.75
268.216	99.75
268.448	74.75
268.681	93.75
268.913	86.75
269.145	87.75
269.377	81.75
269.609	84.75
269.841	99.75
270.073	84.75
270.306	97.75
270.538	67.75
270.77	87.75
271.002	82.75
271.234	93.75
271.466	91.75
271.698	76.75
271.93	86.75
272.162	80.75
272.394	86.75
272.626	89.75
272.858	99.75
273.09	107.75
273.322	72.75
273.553	78.75
273.785	69.75
274.017	86.75
274.249	84.75
274.481	88.75
274.713	101.75
274.945	82.75
275.176	93.75
275.408	94.75
275.64	88.75
275.872	113.75
276.104	90.75
276.335	98.75
276.567	96.75
276.799	110.75
277.031	130.75
277.262	140.75
277.494	109.75
277.726	86.75
277.957	94.75
278.189	85.75
278.421	98.75
278.652	93.75
278.884	76.75
279.115	83.75
279.347	81.75
279.579	97.75
279.81	112.75
280.042	135.75
280.273	158.75
280.505	112.75
280.736	85.75
280.968	89.75
281.199	86.75
281.431	78.75
281.662	92.75
281.894	104.75
282.125	93.75
282.356	154.75
282.588	176.75
282.819	139.75
283.051	86.75
283.282	90.75
283.513	90.75
283.745	90.75
283.976	86.75
284.207	86.75
284.439	85.75
284.67	93.75
284.901	74.75
285.132	81.75
285.364	87.75
285.595	107.75
285.826	95.75
286.057	89.75
286.288	82.75
286.52	79.75
286.751	81.75
286.982	86.75
287.213	84.75
287.444	90.75
287.675	94.75
287.906	91.75
288.138	83.75
288.369	100.75
288.6	87.75
288.831	85.75
289.062	94.75
289.293	99.75
289.524	90.75
289.755	81.75
289.986	86.75
290.217	96.75
290.448	70.75
290.679	86.75
290.91	88.75
291.141	93.75
291.371	92.75
291.602	98.75
291.833	97.75
292.064	104.75
292.295	98.75
292.526	93.75
292.757	86.75
292.987	101.75
293.218	73.75
293.449	89.75
293.68	95.75
293.91	96.75
294.141	86.75
294.372	85.75
294.603	81.75
294.833	96.75
295.064	98.75
295.295	91.75
295.525	95.75
295.756	91.75
295.987	124.75
296.217	159.75
296.448	132.75
296.679	106.75
296.909	98.75
297.14	72.75
297.37	77.75
297.601	85.75
297.831	84.75
298.062	90.75
298.292	79.75
298.523	92.75
298.753	89.75
298.984	99.75
299.214	98.75
299.445	85.75
299.675	85.75
299.905	98.75
300.136	86.75
300.366	77.75
300.597	83.75
300.827	90.75
301.057	111.75
301.288	98.75
301.518	102.75
301.748	101.75
301.979	102.75
302.209	105.75
302.439	93.75
302.669	97.75
302.9	72.75
303.13	90.75
303.36	100.75
303.59	104.75
303.82	129.75
304.051	91.75
304.281	84.75
304.511	83.75
304.741	99.75
304.971	92.75
305.201	89.75
305.431	90.75
305.661	91.75
305.891	101.75
306.121	95.75
306.352	112.75
306.582	102.75
306.812	85.75
307.042	96.75
307.272	116.75
307.502	131.75
307.731	124.75
307.961	83.75
308.191	93.75
308.421	84.75
308.651	91.75
308.881	96.75
309.111	93.75
309.341	104.75
309.571	107.75
309.8	101.75
310.03	99.75
310.26	103.75
310.49	97.75
310.72	104.75
310.949	112.75
311.179	103.75
311.409	98.75
311.639	89.75
311.868	103.75
312.098	95.75
312.328	100.75
312.557	103.75
312.787	129.75
313.017	109.75
313.246	104.75
313.476	88.75
313.706	112.75
313.935	116.75
314.165	105.75
314.394	105.75
314.624	98.75
314.853	99.75
315.083	104.75
315.312	92.75
315.542	87.75
315.771	90.75
316.001	102.75
316.23	96.75
316.46	101.75
316.689	75.75
316.919	109.75
317.148	92.75
317.377	88.75
317.607	95.75
317.836	106.75
318.065	105.75
318.295	86.75
318.524	95.75
318.753	102.75
318.983	93.75
319.212	101.75
319.441	115.75
319.67	116.75
319.9	101.75
320.129	107.75
320.358	90.75
320.587	105.75
320.816	107.75
321.046	108.75
321.275	108.75
321.504	96.75
321.733	106.75
321.962	109.75
322.191	95.75
322.42	129.75
322.649	120.75
322.878	128.75
323.108	133.75
323.337	158.75
323.566	160.75
323.795	198.75
324.024	258.75
324.253	513.75
324.482	1176.75
324.71	2440.75
324.939	3298.75
325.168	1159.75
325.397	324.75
325.626	188.75
325.855	164.75
326.084	138.75
326.313	154.75
326.542	172.75
326.77	283.75
326.999	595.75
327.228	1309.75
327.457	2446.75
327.686	1926.75
327.914	554.75
328.143	350.75
328.372	396.75
328.6	250.75
328.829	158.75
329.058	169.75
329.287	195.75
329.515	156.75
329.744	180.75
329.972	253.75
330.201	482.75
330.43	712.75
330.658	403.75
330.887	242.75
331.115	179.75
331.344	132.75
331.572	111.75
331.801	139.75
332.03	123.75
332.258	108.75
332.486	101.75
332.715	101.75
332.943	114.75
333.172	103.75
333.4	112.75
333.629	138.75
333.857	160.75
334.085	256.75
334.314	478.75
334.542	888.75
334.771	838.75
334.999	271.75
335.227	139.75
335.455	115.75
335.684	129.75
335.912	102.75
336.14	94.75
336.369	103.75
336.597	113.75
336.825	109.75
337.053	90.75
337.281	107.75
337.51	89.75
337.738	89.75
337.966	91.75
338.194	128.75
338.422	115.75
338.65	109.75
338.878	93.75
339.106	97.75
339.334	108.75
339.562	99.75
339.79	99.75
340.018	93.75
340.246	90.75
340.474	92.75
340.702	101.75
340.93	94.75
341.158	91.75
341.386	93.75
341.614	102.75
341.842	96.75
342.07	86.75
342.298	101.75
342.526	93.75
342.754	121.75
342.981	100.75
343.209	94.75
343.437	98.75
343.665	101.75
343.893	84.75
344.12	92.75
344.348	93.75
344.576	106.75
344.804	99.75
345.031	109.75
345.259	116.75
345.487	95.75
345.714	89.75
345.942	90.75
346.17	92.75
346.397	103.75
346.625	91.75
346.853	106.75
347.08	85.75
347.308	92.75
347.535	108.75
347.763	107.75
347.99	92.75
348.218	120.75
348.445	119.75
348.673	108.75
348.9	97.75
349.128	95.75
349.355	86.75
349.583	105.75
349.81	99.75
350.037	114.75
350.265	94.75
350.492	90.75
350.72	87.75
350.947	103.75
351.174	122.75
351.402	126.75
351.629	108.75
351.856	109.75
352.083	133.75
352.311	128.75
352.538	116.75
352.765	116.75
352.992	127.75
353.22	124.75
353.447	107.75
353.674	86.75
353.901	104.75
354.128	96.75
354.355	91.75
354.583	115.75
354.81	84.75
355.037	92.75
355.264	106.75
355.491	98.75
355.718	89.75
355.945	93.75
356.172	85.75
356.399	96.75
356.626	93.75
356.853	85.75
357.08	105.75
357.307	90.75
357.534	93.75
357.761	90.75
357.988	102.75
358.215	82.75
358.441	96.75
358.668	106.75
358.895	110.75
359.122	93.75
359.349	84.75
359.576	110.75
359.802	120.75
360.029	126.75
360.256	124.75
360.483	108.75
360.709	93.75
360.936	92.75
361.163	106.75
361.39	113.75
361.616	122.75
361.843	94.75
362.07	111.75
362.296	121.75
362.523	110.75
362.749	94.75
362.976	115.75
363.203	89.75
363.429	95.75
363.656	91.75
363.882	91.75
364.109	91.75
364.335	100.75
364.562	100.75
364.788	91.75
365.015	95.75
365.241	108.75
365.468	116.75
365.694	107.75
365.92	100.75
366.147	83.75
366.373	93.75
366.599	86.75
366.826	104.75
367.052	81.75
367.278	94.75
367.505	86.75
367.731	108.75
367.957	88.75
368.184	97.75
368.41	108.75
368.636	140.75
368.862	130.75
369.089	113.75
369.315	102.75
369.541	89.75
369.767	86.75
369.993	98.75
370.219	97.75
370.445	101.75
370.672	92.75
370.898	102.75
371.124	80.75
371.35	100.75
371.576	85.75
371.802	80.75
372.028	86.75
372.254	90.75
372.48	97.75
372.706	87.75
372.932	102.75
373.158	81.75
373.384	88.75
373.61	81.75
373.835	91.75
374.061	92.75
374.287	90.75
374.513	91.75
374.739	91.75
374.965	79.75
375.191	82.75
375.416	93.75
375.642	95.75
375.868	93.75
376.094	89.75
376.319	94.75
376.545	92.75
376.771	83.75
376.997	90.75
377.222	81.75
377.448	86.75
377.674	96.75
377.899	90.75
378.125	90.75
378.35	82.75
378.576	84.75
378.802	96.75
379.027	87.75
379.253	104.75
379.478	96.75
379.704	101.75
379.929	109.75
380.155	90.75
380.38	108.75
380.606	106.75
380.831	110.75
381.057	101.75
381.282	98.75
381.507	96.75
381.733	97.75
381.958	107.75
382.184	102.75
382.409	99.75
382.634	114.75
382.86	104.75
383.085	101.75
383.31	110.75
383.535	97.75
383.761	99.75
383.986	116.75
384.211	106.75
384.436	95.75
384.662	96.75
384.887	101.75
385.112	115.75
385.337	109.75
385.562	108.75
385.787	127.75
386.013	108.75
386.238	116.75
386.463	124.75
386.688	111.75
386.913	111.75
387.138	110.75
387.363	115.75
387.588	96.75
387.813	108.75
388.038	110.75
388.263	121.75
388.488	129.75
388.713	94.75
388.938	93.75
389.163	94.75
389.387	97.75
389.612	79.75
389.837	92.75
390.062	104.75
390.287	96.75
390.512	87.75
390.736	92.75
390.961	90.75
391.186	93.75
391.411	82.75
391.636	88.75
391.86	93.75
392.085	97.75
392.31	101.75
392.534	85.75
392.759	93.75
392.984	77.75
393.208	88.75
393.433	109.75
393.658	124.75
393.882	79.75
394.107	82.75
394.331	79.75
394.556	89.75
394.78	100.75
395.005	88.75
395.229	92.75
395.454	108.75
395.678	86.75
395.903	94.75
396.127	92.75
396.352	79.75
396.576	88.75
396.801	94.75
397.025	93.75
397.249	98.75
397.474	81.75
397.698	104.75
397.922	93.75
398.147	78.75
398.371	105.75
398.595	73.75
398.82	83.75
399.044	97.75
399.268	97.75
399.492	74.75
399.717	87.75
399.941	94.75
400.165	107.75
400.389	91.75
400.613	94.75
400.837	94.75
401.062	79.75
401.286	106.75
401.51	101.75
401.734	87.75
401.958	103.75
402.182	145.75
402.406	181.75
402.63	139.75
402.854	97.75
403.078	103.75
403.302	93.75
403.526	83.75
403.75	94.75
403.974	103.75
404.198	88.75
404.422	101.75
404.645	80.75
404.869	96.75
405.093	129.75
405.317	140.75
405.541	145.75
405.765	116.75
405.988	118.75
406.212	200.75
406.436	290.75
406.66	202.75
406.883	125.75
407.107	102.75
407.331	111.75
407.555	112.75
407.778	101.75
408.002	84.75
408.226	84.75
408.449	89.75
408.673	78.75
408.896	104.75
409.12	108.75
409.344	110.75
409.567	92.75
409.791	86.75
410.014	86.75
410.238	93.75
410.461	86.75
410.685	89.75
410.908	99.75
411.132	102.75
411.355	111.75
411.578	99.75
411.802	94.75
412.025	87.75
412.249	109.75
412.472	112.75
412.695	134.75
412.919	94.75
413.142	103.75
413.365	100.75
413.589	98.75
413.812	96.75
414.035	94.75
414.258	84.75
414.482	96.75
414.705	103.75
414.928	82.75
415.151	91.75
415.374	94.75
415.597	82.75
415.821	91.75
416.044	74.75
416.267	96.75
416.49	86.75
416.713	91.75
416.936	83.75
417.159	94.75
417.382	101.75
417.605	92.75
417.828	107.75
418.051	104.75
418.274	108.75
418.497	90.75
418.72	92.75
418.943	79.75
419.166	94.75
419.389	94.75
419.611	94.75
419.834	100.75
420.057	89.75
420.28	94.75
420.503	96.75
420.726	103.75
420.948	96.75
421.171	89.75
421.394	98.75
421.617	102.75
421.839	81.75
422.062	86.75
422.285	93.75
422.507	95.75
422.73	117.75
422.953	114.75
423.175	100.75
423.398	97.75
423.621	76.75
423.843	80.75
424.066	86.75
424.288	84.75
424.511	100.75
424.733	114.75
424.956	128.75
425.178	112.75
425.401	107.75
425.623	104.75
425.846	93.75
426.068	84.75
426.291	88.75
426.513	95.75
426.735	85.75
426.958	107.75
427.18	126.75
427.402	182.75
427.625	253.75
427.847	230.75
428.069	202.75
428.292	143.75
428.514	105.75
428.736	94.75
428.958	95.75
429.181	86.75
429.403	81.75
429.625	81.75
429.847	106.75
430.069	120.75
430.292	92.75
430.514	83.75
430.736	86.75
430.958	84.75
431.18	90.75
431.402	65.75
431.624	86.75
431.846	85.75
432.068	82.75
432.29	83.75
432.512	80.75
432.734	102.75
432.956	95.75
433.178	106.75
433.4	101.75
433.622	98.75
433.844	85.75
434.066	106.75
434.287	85.75
434.509	98.75
434.731	97.75
434.953	69.75
435.175	94.75
435.397	90.75
435.618	98.75
435.84	124.75
436.062	148.75
436.284	135.75
436.505	111.75
436.727	123.75
436.949	90.75
437.17	81.75
437.392	81.75
437.614	102.75
437.835	121.75
438.057	164.75
438.278	132.75
438.5	144.75
438.721	149.75
438.943	97.75
439.165	94.75
439.386	83.75
439.608	93.75
439.829	113.75
440.05	156.75
440.272	201.75
440.493	120.75
440.715	99.75
440.936	90.75
441.158	99.75
441.379	76.75
441.6	102.75
441.822	85.75
442.043	109.75
442.264	121.75
442.486	105.75
442.707	95.75
442.928	120.75
443.149	177.75
443.371	168.75
443.592	130.75
443.813	148.75
444.034	134.75
444.255	104.75
444.476	88.75
444.698	101.75
444.919	99.75
445.14	126.75
445.361	136.75
445.582	138.75
445.803	218.75
446.024	187.75
446.245	179.75
446.466	139.75
446.687	108.75
446.908	94.75
447.129	90.75
447.35	77.75
447.571	100.75
447.792	95.75
448.013	101.75
448.234	120.75
448.455	98.75
448.675	150.75
448.896	146.75
449.117	110.75
449.338	121.75
449.559	160.75
449.779	176.75
450	112.75
450.221	91.75
450.442	91.75
450.662	108.75
450.883	110.75
451.104	133.75
451.324	113.75
451.545	98.75
451.766	89.75
451.986	81.75
452.207	92.75
452.428	93.75
452.648	101.75
452.869	109.75
453.089	121.75
453.31	152.75
453.53	110.75
453.751	110.75
453.971	102.75
454.192	123.75
454.412	95.75
454.633	88.75
454.853	97.75
455.073	93.75
455.294	77.75
455.514	110.75
455.734	91.75
455.955	87.75
456.175	77.75
456.395	81.75
456.616	89.75
456.836	102.75
457.056	86.75
457.276	89.75
457.497	84.75
457.717	91.75
457.937	81.75
458.157	104.75
458.377	84.75
458.598	114.75
458.818	217.75
459.038	241.75
459.258	146.75
459.478	99.75
459.698	81.75
459.918	87.75
460.138	75.75
460.358	84.75
460.578	93.75
460.798	78.75
461.018	93.75
461.238	99.75
461.458	71.75
461.678	98.75
461.898	70.75
462.118	85.75
462.338	75.75
462.558	94.75
462.777	78.75
462.997	82.75
463.217	89.75
463.437	89.75
463.657	83.75
463.876	77.75
464.096	94.75
464.316	106.75
464.536	95.75
464.755	92.75
464.975	131.75
465.195	232.75
465.414	218.75
465.634	114.75
465.854	86.75
466.073	90.75
466.293	111.75
466.512	84.75
466.732	92.75
466.951	89.75
467.171	90.75
467.391	93.75
467.61	116.75
467.829	160.75
468.049	252.75
468.268	382.75
468.488	125.75
468.707	90.75
468.927	100.75
469.146	75.75
469.365	79.75
469.585	100.75
469.804	99.75
470.023	126.75
470.243	105.75
470.462	112.75
470.681	128.75
470.901	95.75
471.12	97.75
471.339	93.75
471.558	94.75
471.777	121.75
471.997	164.75
472.216	468.75
472.435	1058.75
472.654	312.75
472.873	139.75
473.092	107.75
473.311	91.75
473.53	98.75
473.749	93.75
473.968	89.75
474.187	118.75
474.406	113.75
474.625	98.75
474.844	89.75
475.063	87.75
475.282	77.75
475.501	96.75
475.72	94.75
475.939	89.75
476.158	85.75
476.377	93.75
476.596	74.75
476.814	105.75
477.033	103.75
477.252	98.75
477.471	90.75
477.69	100.75
477.908	102.75
478.127	81.75
478.346	84.75
478.564	102.75
478.783	100.75
479.002	99.75
479.22	107.75
479.439	111.75
479.658	114.75
479.876	115.75
480.095	111.75
480.313	98.75
480.532	131.75
480.751	158.75
480.969	480.75
481.188	1782.75
481.406	1170.75
481.624	193.75
481.843	114.75
482.061	100.75
482.28	87.75
482.498	102.75
482.717	83.75
482.935	83.75
483.153	87.75
483.372	89.75
483.59	75.75
483.808	96.75
484.027	90.75
484.245	96.75
484.463	83.75
484.681	88.75
484.9	105.75
485.118	86.75
485.336	89.75
485.554	100.75
485.772	114.75
485.99	118.75
486.209	98.75
486.427	116.75
486.645	108.75
486.863	142.75
487.081	106.75
487.299	105.75
487.517	92.75
487.735	91.75
487.953	89.75
488.171	99.75
488.389	92.75
488.607	103.75
488.825	88.75
489.043	88.75
489.261	77.75
489.479	83.75
489.696	87.75
489.914	85.75
490.132	87.75
490.35	91.75
490.568	97.75
490.786	100.75
491.003	102.75
491.221	96.75
491.439	98.75
491.657	99.75
491.874	94.75
492.092	90.75
492.31	102.75
492.527	92.75
492.745	100.75
492.963	80.75
493.18	99.75
493.398	88.75
493.615	95.75
493.833	86.75
494.05	88.75
494.268	90.75
494.485	87.75
494.703	99.75
494.92	97.75
495.138	86.75
495.355	99.75
495.573	109.75
495.79	102.75
496.008	96.75
496.225	93.75
496.442	102.75
496.66	95.75
496.877	84.75
497.094	77.75
497.312	91.75
497.529	77.75
497.746	90.75
497.963	93.75
498.181	96.75
498.398	76.75
498.615	104.75
498.832	98.75
499.049	95.75
499.267	96.75
499.484	76.75
499.701	92.75
499.918	97.75
500.135	85.75
500.352	99.75
500.569	105.75
500.786	91.75
501.003	89.75
501.22	84.75
501.437	85.75
501.654	108.75
501.871	125.75
502.088	89.75
502.305	90.75
502.522	100.75
502.739	88.75
502.956	84.75
503.172	84.75
503.389	92.75
503.606	133.75
503.823	95.75
504.04	101.75
504.256	80.75
504.473	88.75
504.69	91.75
504.907	102.75
505.123	85.75
505.34	85.75
505.557	76.75
505.773	78.75
505.99	82.75
506.207	74.75
506.423	100.75
506.64	91.75
506.856	84.75
507.073	102.75
507.289	95.75
507.506	97.75
507.722	121.75
507.939	138.75
508.155	98.75
508.372	89.75
508.588	92.75
508.805	96.75
509.021	110.75
509.238	101.75
509.454	96.75
509.67	115.75
509.887	123.75
510.103	144.75
510.319	246.75
510.536	888.75
510.752	3008.75
510.968	834.75
511.184	178.75
511.401	120.75
511.617	109.75
511.833	110.75
512.049	102.75
512.265	90.75
512.481	95.75
512.698	91.75
512.914	85.75
513.13	80.75
513.346	89.75
