Data from Circ_2007_H10_HRD10591_00021.txt Node
Date: Wed Jan 03 10:22:01 EST 2024
User: Yrep
Spectrometer: HR+D1059
Trigger mode: 1
Integration Time (sec): 1.000000E-1
Scans to average: 1
Electric dark correction enabled: true
Nonlinearity correction enabled: false
Boxcar width: 0
XAxis mode: Wavelengths
Number of Pixels in Spectrum: 2048
>>>>>Begin Spectral Data<<<<<
223.165	-27.94
223.4	-27.94
223.635	-27.94
223.869	-16.94
224.104	-7.94
224.338	-25.94
224.573	-13.94
224.808	-5.94
225.042	-10.94
225.277	5.06
225.511	-5.94
225.746	7.06
225.98	7.06
226.215	19.06
226.449	3.06
226.683	14.06
226.918	27.06
227.152	33.06
227.387	35.06
227.621	43.06
227.856	40.06
228.09	36.06
228.324	44.06
228.559	40.06
228.793	42.06
229.027	62.06
229.262	56.06
229.496	86.06
229.73	101.06
229.964	93.06
230.199	87.06
230.433	59.06
230.667	83.06
230.901	77.06
231.136	80.06
231.37	73.06
231.604	85.06
231.838	77.06
232.072	82.06
232.306	76.06
232.541	75.06
232.775	86.06
233.009	91.06
233.243	97.06
233.477	103.06
233.711	79.06
233.945	73.06
234.179	74.06
234.413	86.06
234.647	79.06
234.881	92.06
235.115	81.06
235.349	85.06
235.583	82.06
235.817	74.06
236.051	77.06
236.285	77.06
236.519	84.06
236.753	85.06
236.987	92.06
237.221	83.06
237.455	99.06
237.689	77.06
237.922	78.06
238.156	77.06
238.39	74.06
238.624	68.06
238.858	72.06
239.091	80.06
239.325	69.06
239.559	84.06
239.793	84.06
240.027	67.06
240.26	82.06
240.494	79.06
240.728	78.06
240.961	79.06
241.195	80.06
241.429	87.06
241.662	65.06
241.896	69.06
242.13	67.06
242.363	75.06
242.597	78.06
242.83	83.06
243.064	80.06
243.298	78.06
243.531	76.06
243.765	83.06
243.998	73.06
244.232	77.06
244.465	95.06
244.699	92.06
244.932	72.06
245.166	93.06
245.399	86.06
245.633	84.06
245.866	89.06
246.099	77.06
246.333	80.06
246.566	74.06
246.8	75.06
247.033	76.06
247.266	89.06
247.5	80.06
247.733	75.06
247.966	100.06
248.2	96.06
248.433	91.06
248.666	86.06
248.899	85.06
249.133	98.06
249.366	119.06
249.599	113.06
249.832	100.06
250.066	83.06
250.299	90.06
250.532	90.06
250.765	98.06
250.998	84.06
251.231	83.06
251.465	96.06
251.698	75.06
251.931	88.06
252.164	91.06
252.397	97.06
252.63	74.06
252.863	86.06
253.096	87.06
253.329	89.06
253.562	100.06
253.795	80.06
254.028	88.06
254.261	74.06
254.494	88.06
254.727	100.06
254.96	88.06
255.193	78.06
255.426	86.06
255.659	84.06
255.892	96.06
256.124	101.06
256.357	91.06
256.59	89.06
256.823	78.06
257.056	76.06
257.289	91.06
257.521	87.06
257.754	81.06
257.987	92.06
258.22	92.06
258.452	82.06
258.685	75.06
258.918	92.06
259.151	78.06
259.383	97.06
259.616	86.06
259.849	79.06
260.081	97.06
260.314	92.06
260.547	96.06
260.779	89.06
261.012	88.06
261.244	112.06
261.477	100.06
261.71	104.06
261.942	157.06
262.175	130.06
262.407	103.06
262.64	84.06
262.872	79.06
263.105	98.06
263.337	84.06
263.57	103.06
263.802	89.06
264.035	75.06
264.267	94.06
264.499	92.06
264.732	84.06
264.964	90.06
265.197	73.06
265.429	80.06
265.661	95.06
265.894	82.06
266.126	70.06
266.358	86.06
266.591	82.06
266.823	92.06
267.055	101.06
267.287	81.06
267.52	92.06
267.752	81.06
267.984	84.06
268.216	93.06
268.448	84.06
268.681	97.06
268.913	74.06
269.145	92.06
269.377	77.06
269.609	79.06
269.841	93.06
270.073	90.06
270.306	87.06
270.538	73.06
270.77	83.06
271.002	83.06
271.234	76.06
271.466	99.06
271.698	92.06
271.93	102.06
272.162	90.06
272.394	80.06
272.626	83.06
272.858	84.06
273.09	81.06
273.322	88.06
273.553	100.06
273.785	78.06
274.017	69.06
274.249	73.06
274.481	85.06
274.713	75.06
274.945	99.06
275.176	104.06
275.408	102.06
275.64	108.06
275.872	110.06
276.104	102.06
276.335	96.06
276.567	130.06
276.799	164.06
277.031	177.06
277.262	177.06
277.494	143.06
277.726	88.06
277.957	86.06
278.189	90.06
278.421	95.06
278.652	97.06
278.884	88.06
279.115	90.06
279.347	94.06
279.579	91.06
279.81	104.06
280.042	161.06
280.273	212.06
280.505	149.06
280.736	102.06
280.968	103.06
281.199	95.06
281.431	86.06
281.662	102.06
281.894	85.06
282.125	107.06
282.356	144.06
282.588	192.06
282.819	138.06
283.051	102.06
283.282	92.06
283.513	89.06
283.745	81.06
283.976	91.06
284.207	79.06
284.439	91.06
284.67	84.06
284.901	91.06
285.132	101.06
285.364	82.06
285.595	99.06
285.826	83.06
286.057	90.06
286.288	74.06
286.52	85.06
286.751	80.06
286.982	89.06
287.213	95.06
287.444	82.06
287.675	96.06
287.906	91.06
288.138	88.06
288.369	82.06
288.6	92.06
288.831	96.06
289.062	88.06
289.293	91.06
289.524	93.06
289.755	96.06
289.986	87.06
290.217	84.06
290.448	102.06
290.679	99.06
290.91	97.06
291.141	86.06
291.371	88.06
291.602	94.06
291.833	95.06
292.064	93.06
292.295	93.06
292.526	98.06
292.757	90.06
292.987	90.06
293.218	102.06
293.449	69.06
293.68	87.06
293.91	96.06
294.141	94.06
294.372	85.06
294.603	88.06
294.833	90.06
295.064	97.06
295.295	91.06
295.525	97.06
295.756	107.06
295.987	143.06
296.217	210.06
296.448	145.06
296.679	104.06
296.909	101.06
297.14	90.06
297.37	99.06
297.601	85.06
297.831	91.06
298.062	87.06
298.292	92.06
298.523	93.06
298.753	93.06
298.984	85.06
299.214	86.06
299.445	75.06
299.675	102.06
299.905	97.06
300.136	97.06
300.366	89.06
300.597	93.06
300.827	91.06
301.057	109.06
301.288	117.06
301.518	98.06
301.748	98.06
301.979	98.06
302.209	99.06
302.439	100.06
302.669	96.06
302.9	93.06
303.13	100.06
303.36	104.06
303.59	124.06
303.82	148.06
304.051	103.06
304.281	102.06
304.511	102.06
304.741	85.06
304.971	95.06
305.201	96.06
305.431	81.06
305.661	104.06
305.891	96.06
306.121	95.06
306.352	109.06
306.582	120.06
306.812	106.06
307.042	109.06
307.272	137.06
307.502	142.06
307.731	139.06
307.961	121.06
308.191	97.06
308.421	102.06
308.651	86.06
308.881	98.06
309.111	85.06
309.341	104.06
309.571	104.06
309.8	96.06
310.03	113.06
310.26	113.06
310.49	92.06
310.72	124.06
310.949	123.06
311.179	121.06
311.409	107.06
311.639	107.06
311.868	107.06
312.098	113.06
312.328	97.06
312.557	125.06
312.787	132.06
313.017	111.06
313.246	94.06
313.476	98.06
313.706	107.06
313.935	120.06
314.165	122.06
314.394	117.06
314.624	115.06
314.853	107.06
315.083	90.06
315.312	106.06
315.542	96.06
315.771	94.06
316.001	93.06
316.23	101.06
316.46	102.06
316.689	88.06
316.919	101.06
317.148	107.06
317.377	100.06
317.607	109.06
317.836	102.06
318.065	92.06
318.295	99.06
318.524	85.06
318.753	97.06
318.983	92.06
319.212	106.06
319.441	114.06
319.67	122.06
319.9	108.06
320.129	81.06
320.358	102.06
320.587	101.06
320.816	107.06
321.046	104.06
321.275	123.06
321.504	82.06
321.733	104.06
321.962	92.06
322.191	89.06
322.42	118.06
322.649	138.06
322.878	126.06
323.108	150.06
323.337	165.06
323.566	161.06
323.795	202.06
324.024	284.06
324.253	542.06
324.482	1173.06
324.71	2541.06
324.939	3375.06
325.168	1244.06
325.397	351.06
325.626	181.06
325.855	157.06
326.084	142.06
326.313	165.06
326.542	187.06
326.77	307.06
326.999	608.06
327.228	1280.06
327.457	2364.06
327.686	1922.06
327.914	609.06
328.143	494.06
328.372	579.06
328.6	351.06
328.829	210.06
329.058	203.06
329.287	220.06
329.515	186.06
329.744	213.06
329.972	370.06
330.201	765.06
330.43	1137.06
330.658	568.06
330.887	326.06
331.115	228.06
331.344	129.06
331.572	124.06
331.801	140.06
332.03	139.06
332.258	108.06
332.486	106.06
332.715	100.06
332.943	127.06
333.172	133.06
333.4	125.06
333.629	164.06
333.857	219.06
334.085	381.06
334.314	732.06
334.542	1411.06
334.771	1389.06
334.999	380.06
335.227	177.06
335.455	123.06
335.684	125.06
335.912	93.06
336.14	102.06
336.369	112.06
336.597	125.06
336.825	116.06
337.053	89.06
337.281	84.06
337.51	103.06
337.738	98.06
337.966	84.06
338.194	121.06
338.422	116.06
338.65	110.06
338.878	99.06
339.106	86.06
339.334	86.06
339.562	92.06
339.79	82.06
340.018	106.06
340.246	105.06
340.474	98.06
340.702	101.06
340.93	98.06
341.158	100.06
341.386	115.06
341.614	115.06
341.842	101.06
342.07	115.06
342.298	88.06
342.526	96.06
342.754	91.06
342.981	83.06
343.209	89.06
343.437	105.06
343.665	82.06
343.893	82.06
344.12	79.06
344.348	85.06
344.576	94.06
344.804	102.06
345.031	108.06
345.259	114.06
345.487	120.06
345.714	100.06
345.942	95.06
346.17	111.06
346.397	92.06
346.625	84.06
346.853	97.06
347.08	92.06
347.308	101.06
347.535	100.06
347.763	126.06
347.99	121.06
348.218	114.06
348.445	129.06
348.673	139.06
348.9	108.06
349.128	110.06
349.355	94.06
349.583	95.06
349.81	100.06
350.037	101.06
350.265	92.06
350.492	105.06
350.72	112.06
350.947	102.06
351.174	129.06
351.402	137.06
351.629	117.06
351.856	125.06
352.083	100.06
352.311	113.06
352.538	124.06
352.765	141.06
352.992	147.06
353.22	136.06
353.447	107.06
353.674	93.06
353.901	90.06
354.128	96.06
354.355	87.06
354.583	105.06
354.81	97.06
355.037	81.06
355.264	98.06
355.491	91.06
355.718	94.06
355.945	89.06
356.172	94.06
356.399	97.06
356.626	95.06
356.853	100.06
357.08	79.06
357.307	99.06
357.534	84.06
357.761	103.06
357.988	82.06
358.215	92.06
358.441	104.06
358.668	97.06
358.895	87.06
359.122	80.06
359.349	90.06
359.576	98.06
359.802	114.06
360.029	162.06
360.256	160.06
360.483	127.06
360.709	92.06
360.936	101.06
361.163	94.06
361.39	107.06
361.616	120.06
361.843	107.06
362.07	113.06
362.296	114.06
362.523	102.06
362.749	99.06
362.976	97.06
363.203	93.06
363.429	86.06
363.656	93.06
363.882	93.06
364.109	98.06
364.335	101.06
364.562	104.06
364.788	102.06
365.015	99.06
365.241	117.06
365.468	122.06
365.694	138.06
365.92	97.06
366.147	96.06
366.373	104.06
366.599	100.06
366.826	98.06
367.052	94.06
367.278	92.06
367.505	98.06
367.731	99.06
367.957	93.06
368.184	104.06
368.41	118.06
368.636	146.06
368.862	142.06
369.089	116.06
369.315	109.06
369.541	96.06
369.767	104.06
369.993	98.06
370.219	104.06
370.445	83.06
370.672	83.06
370.898	89.06
371.124	87.06
371.35	90.06
371.576	84.06
371.802	92.06
372.028	116.06
372.254	113.06
372.48	98.06
372.706	96.06
372.932	83.06
373.158	88.06
373.384	82.06
373.61	98.06
373.835	96.06
374.061	97.06
374.287	98.06
374.513	94.06
374.739	90.06
374.965	91.06
375.191	89.06
375.416	86.06
375.642	86.06
375.868	93.06
376.094	100.06
376.319	92.06
376.545	92.06
376.771	100.06
376.997	86.06
377.222	78.06
377.448	94.06
377.674	84.06
377.899	85.06
378.125	91.06
378.35	107.06
378.576	106.06
378.802	90.06
379.027	85.06
379.253	82.06
379.478	104.06
379.704	94.06
379.929	108.06
380.155	97.06
380.38	104.06
380.606	117.06
380.831	103.06
381.057	98.06
381.282	94.06
381.507	108.06
381.733	107.06
381.958	105.06
382.184	109.06
382.409	116.06
382.634	125.06
382.86	88.06
383.085	94.06
383.31	98.06
383.535	99.06
383.761	101.06
383.986	115.06
384.211	94.06
384.436	103.06
384.662	116.06
384.887	105.06
385.112	110.06
385.337	116.06
385.562	100.06
385.787	100.06
386.013	121.06
386.238	138.06
386.463	116.06
386.688	130.06
386.913	114.06
387.138	124.06
387.363	119.06
387.588	97.06
387.813	118.06
388.038	112.06
388.263	134.06
388.488	110.06
388.713	97.06
388.938	85.06
389.163	94.06
389.387	86.06
389.612	74.06
389.837	92.06
390.062	104.06
390.287	92.06
390.512	105.06
390.736	91.06
390.961	96.06
391.186	98.06
391.411	94.06
391.636	85.06
391.86	81.06
392.085	101.06
392.31	100.06
392.534	96.06
392.759	82.06
392.984	101.06
393.208	87.06
393.433	106.06
393.658	89.06
393.882	84.06
394.107	98.06
394.331	86.06
394.556	82.06
394.78	89.06
395.005	90.06
395.229	92.06
395.454	81.06
395.678	94.06
395.903	92.06
396.127	94.06
396.352	102.06
396.576	78.06
396.801	93.06
397.025	91.06
397.249	102.06
397.474	89.06
397.698	89.06
397.922	93.06
398.147	85.06
398.371	86.06
398.595	99.06
398.82	84.06
399.044	66.06
399.268	91.06
399.492	89.06
399.717	90.06
399.941	91.06
400.165	95.06
400.389	99.06
400.613	83.06
400.837	89.06
401.062	85.06
401.286	94.06
401.51	100.06
401.734	105.06
401.958	99.06
402.182	160.06
402.406	230.06
402.63	159.06
402.854	109.06
403.078	97.06
403.302	93.06
403.526	79.06
403.75	98.06
403.974	85.06
404.198	92.06
404.422	100.06
404.645	104.06
404.869	99.06
405.093	129.06
405.317	142.06
405.541	156.06
405.765	111.06
405.988	148.06
406.212	229.06
406.436	371.06
406.66	243.06
406.883	136.06
407.107	108.06
407.331	121.06
407.555	120.06
407.778	115.06
408.002	95.06
408.226	99.06
408.449	81.06
408.673	97.06
408.896	92.06
409.12	93.06
409.344	89.06
409.567	89.06
409.791	100.06
410.014	104.06
410.238	104.06
410.461	101.06
410.685	99.06
410.908	102.06
411.132	100.06
411.355	109.06
411.578	75.06
411.802	103.06
412.025	94.06
412.249	110.06
412.472	117.06
412.695	133.06
412.919	131.06
413.142	87.06
413.365	91.06
413.589	89.06
413.812	99.06
414.035	101.06
414.258	80.06
414.482	91.06
414.705	93.06
414.928	89.06
415.151	99.06
415.374	109.06
415.597	103.06
415.821	93.06
416.044	96.06
416.267	87.06
416.49	93.06
416.713	85.06
416.936	97.06
417.159	105.06
417.382	99.06
417.605	121.06
417.828	125.06
418.051	117.06
418.274	95.06
418.497	92.06
418.72	88.06
418.943	96.06
419.166	85.06
419.389	85.06
419.611	89.06
419.834	97.06
420.057	97.06
420.28	91.06
420.503	87.06
420.726	71.06
420.948	97.06
421.171	107.06
421.394	108.06
421.617	86.06
421.839	107.06
422.062	102.06
422.285	98.06
422.507	109.06
422.73	107.06
422.953	97.06
423.175	105.06
423.398	92.06
423.621	86.06
423.843	91.06
424.066	79.06
424.288	93.06
424.511	104.06
424.733	117.06
424.956	121.06
425.178	118.06
425.401	103.06
425.623	115.06
425.846	105.06
426.068	87.06
426.291	109.06
426.513	103.06
426.735	89.06
426.958	103.06
427.18	126.06
427.402	196.06
427.625	288.06
427.847	269.06
428.069	235.06
428.292	132.06
428.514	112.06
428.736	91.06
428.958	85.06
429.181	100.06
429.403	86.06
429.625	90.06
429.847	93.06
430.069	115.06
430.292	99.06
430.514	90.06
430.736	85.06
430.958	78.06
431.18	81.06
431.402	94.06
431.624	94.06
431.846	80.06
432.068	85.06
432.29	87.06
432.512	105.06
432.734	84.06
432.956	104.06
433.178	96.06
433.4	104.06
433.622	95.06
433.844	85.06
434.066	91.06
434.287	94.06
434.509	83.06
434.731	86.06
434.953	101.06
435.175	92.06
435.397	96.06
435.618	96.06
435.84	117.06
436.062	149.06
436.284	124.06
436.505	101.06
436.727	109.06
436.949	95.06
437.17	95.06
437.392	101.06
437.614	91.06
437.835	139.06
438.057	165.06
438.278	152.06
438.5	124.06
438.721	148.06
438.943	109.06
439.165	99.06
439.386	105.06
439.608	100.06
439.829	112.06
440.05	184.06
440.272	217.06
440.493	127.06
440.715	89.06
440.936	92.06
441.158	93.06
441.379	82.06
441.6	108.06
441.822	92.06
442.043	108.06
442.264	128.06
442.486	124.06
442.707	107.06
442.928	139.06
443.149	189.06
443.371	188.06
443.592	142.06
443.813	149.06
444.034	133.06
444.255	104.06
444.476	105.06
444.698	100.06
444.919	84.06
445.14	154.06
445.361	143.06
445.582	160.06
445.803	219.06
446.024	211.06
446.245	195.06
446.466	138.06
446.687	96.06
446.908	94.06
447.129	100.06
447.35	82.06
447.571	105.06
447.792	101.06
448.013	125.06
448.234	137.06
448.455	107.06
448.675	136.06
448.896	153.06
449.117	111.06
449.338	114.06
449.559	164.06
449.779	163.06
450	98.06
450.221	103.06
450.442	91.06
450.662	114.06
450.883	122.06
451.104	143.06
451.324	109.06
451.545	99.06
451.766	89.06
451.986	90.06
452.207	90.06
452.428	86.06
452.648	101.06
452.869	149.06
453.089	146.06
453.31	160.06
453.53	110.06
453.751	98.06
453.971	114.06
454.192	157.06
454.412	112.06
454.633	97.06
454.853	93.06
455.073	95.06
455.294	85.06
455.514	109.06
455.734	97.06
455.955	83.06
456.175	91.06
456.395	94.06
456.616	74.06
456.836	84.06
457.056	91.06
457.276	91.06
457.497	83.06
457.717	86.06
457.937	84.06
458.157	94.06
458.377	99.06
458.598	142.06
458.818	254.06
459.038	284.06
459.258	180.06
459.478	106.06
459.698	91.06
459.918	96.06
460.138	92.06
460.358	77.06
460.578	84.06
460.798	93.06
461.018	85.06
461.238	92.06
461.458	96.06
461.678	95.06
461.898	89.06
462.118	91.06
462.338	90.06
462.558	98.06
462.777	93.06
462.997	101.06
463.217	95.06
463.437	93.06
463.657	96.06
463.876	97.06
464.096	85.06
464.316	109.06
464.536	106.06
464.755	115.06
464.975	125.06
465.195	281.06
465.414	292.06
465.634	114.06
465.854	88.06
466.073	92.06
466.293	87.06
466.512	100.06
466.732	97.06
466.951	83.06
467.171	98.06
467.391	88.06
467.61	144.06
467.829	173.06
468.049	395.06
468.268	596.06
468.488	182.06
468.707	93.06
468.927	91.06
469.146	85.06
469.365	93.06
469.585	86.06
469.804	95.06
470.023	104.06
470.243	113.06
470.462	137.06
470.681	169.06
470.901	112.06
471.12	97.06
471.339	92.06
471.558	125.06
471.777	138.06
471.997	237.06
472.216	764.06
472.435	1775.06
472.654	466.06
472.873	150.06
473.092	108.06
473.311	104.06
473.53	95.06
473.749	88.06
473.968	100.06
474.187	133.06
474.406	105.06
474.625	99.06
474.844	99.06
475.063	94.06
475.282	84.06
475.501	96.06
475.72	81.06
475.939	78.06
476.158	89.06
476.377	97.06
476.596	78.06
476.814	92.06
477.033	104.06
477.252	100.06
477.471	98.06
477.69	96.06
477.908	99.06
478.127	86.06
478.346	96.06
478.564	107.06
478.783	108.06
479.002	93.06
479.22	111.06
479.439	129.06
479.658	147.06
479.876	139.06
480.095	102.06
480.313	123.06
480.532	134.06
480.751	232.06
480.969	727.06
481.188	3003.06
481.406	1896.06
481.624	297.06
481.843	132.06
482.061	111.06
482.28	91.06
482.498	94.06
482.717	90.06
482.935	93.06
483.153	94.06
483.372	87.06
483.59	83.06
483.808	76.06
484.027	85.06
484.245	95.06
484.463	98.06
484.681	94.06
484.9	104.06
485.118	101.06
485.336	93.06
485.554	93.06
485.772	117.06
485.99	102.06
486.209	99.06
486.427	116.06
486.645	112.06
486.863	134.06
487.081	111.06
487.299	99.06
487.517	102.06
487.735	85.06
487.953	85.06
488.171	89.06
488.389	90.06
488.607	107.06
488.825	93.06
489.043	83.06
489.261	91.06
489.479	87.06
489.696	90.06
489.914	94.06
490.132	70.06
490.35	85.06
490.568	84.06
490.786	84.06
491.003	90.06
491.221	114.06
491.439	99.06
491.657	103.06
491.874	96.06
492.092	96.06
492.31	85.06
492.527	106.06
492.745	84.06
492.963	84.06
493.18	85.06
493.398	91.06
493.615	94.06
493.833	81.06
494.05	88.06
494.268	90.06
494.485	91.06
494.703	92.06
494.92	93.06
495.138	100.06
495.355	90.06
495.573	101.06
495.79	85.06
496.008	92.06
496.225	79.06
496.442	90.06
496.66	87.06
496.877	93.06
497.094	99.06
497.312	81.06
497.529	88.06
497.746	76.06
497.963	85.06
498.181	102.06
498.398	105.06
498.615	113.06
498.832	107.06
499.049	95.06
499.267	98.06
499.484	80.06
499.701	89.06
499.918	88.06
500.135	85.06
500.352	95.06
500.569	93.06
500.786	89.06
501.003	97.06
501.22	81.06
501.437	92.06
501.654	103.06
501.871	145.06
502.088	110.06
502.305	97.06
502.522	65.06
502.739	85.06
502.956	82.06
503.172	93.06
503.389	124.06
503.606	140.06
503.823	105.06
504.04	92.06
504.256	92.06
504.473	98.06
504.69	88.06
504.907	78.06
505.123	94.06
505.34	98.06
505.557	83.06
505.773	102.06
505.99	89.06
506.207	94.06
506.423	104.06
506.64	93.06
506.856	87.06
507.073	91.06
507.289	87.06
507.506	111.06
507.722	154.06
507.939	166.06
508.155	114.06
508.372	85.06
508.588	105.06
508.805	81.06
509.021	90.06
509.238	103.06
509.454	122.06
509.67	114.06
509.887	127.06
510.103	154.06
510.319	264.06
510.536	1028.06
510.752	3680.06
510.968	990.06
511.184	185.06
511.401	147.06
511.617	109.06
511.833	116.06
512.049	108.06
512.265	102.06
512.481	112.06
