Data from Circ_2007_H10_HRD10591_00064.txt Node
Date: Wed Jan 03 10:22:10 EST 2024
User: Yrep
Spectrometer: HR+D1059
Trigger mode: 1
Integration Time (sec): 1.000000E-1
Scans to average: 1
Electric dark correction enabled: true
Nonlinearity correction enabled: false
Boxcar width: 0
XAxis mode: Wavelengths
Number of Pixels in Spectrum: 2048
>>>>>Begin Spectral Data<<<<<
223.165	-17.5
223.4	-17.5
223.635	-17.5
223.869	-21.5
224.104	-7.5
224.338	-25.5
224.573	-12.5
224.808	-13.5
225.042	-6.5
225.277	-0.5
225.511	2.5
225.746	10.5
225.98	1.5
226.215	0.5
226.449	15.5
226.683	23.5
226.918	14.5
227.152	36.5
227.387	37.5
227.621	41.5
227.856	44.5
228.09	56.5
228.324	62.5
228.559	49.5
228.793	44.5
229.027	42.5
229.262	64.5
229.496	83.5
229.73	120.5
229.964	101.5
230.199	95.5
230.433	90.5
230.667	85.5
230.901	66.5
231.136	70.5
231.37	77.5
231.604	87.5
231.838	83.5
232.072	76.5
232.306	83.5
232.541	77.5
232.775	83.5
233.009	88.5
233.243	88.5
233.477	72.5
233.711	77.5
233.945	94.5
234.179	95.5
234.413	70.5
234.647	81.5
234.881	83.5
235.115	94.5
235.349	74.5
235.583	102.5
235.817	79.5
236.051	87.5
236.285	75.5
236.519	72.5
236.753	82.5
236.987	77.5
237.221	99.5
237.455	95.5
237.689	83.5
237.922	82.5
238.156	74.5
238.39	80.5
238.624	80.5
238.858	60.5
239.091	67.5
239.325	59.5
239.559	86.5
239.793	84.5
240.027	83.5
240.26	74.5
240.494	85.5
240.728	86.5
240.961	74.5
241.195	85.5
241.429	80.5
241.662	87.5
241.896	90.5
242.13	87.5
242.363	86.5
242.597	81.5
242.83	79.5
243.064	69.5
243.298	64.5
243.531	54.5
243.765	82.5
243.998	85.5
244.232	92.5
244.465	89.5
244.699	83.5
244.932	82.5
245.166	93.5
245.399	77.5
245.633	80.5
245.866	71.5
246.099	72.5
246.333	88.5
246.566	76.5
246.8	86.5
247.033	63.5
247.266	72.5
247.5	98.5
247.733	88.5
247.966	72.5
248.2	95.5
248.433	81.5
248.666	84.5
248.899	83.5
249.133	90.5
249.366	100.5
249.599	114.5
249.832	88.5
250.066	86.5
250.299	108.5
250.532	79.5
250.765	78.5
250.998	95.5
251.231	80.5
251.465	83.5
251.698	81.5
251.931	86.5
252.164	94.5
252.397	78.5
252.63	93.5
252.863	87.5
253.096	91.5
253.329	90.5
253.562	72.5
253.795	88.5
254.028	81.5
254.261	86.5
254.494	75.5
254.727	78.5
254.96	75.5
255.193	82.5
255.426	81.5
255.659	83.5
255.892	100.5
256.124	93.5
256.357	109.5
256.59	75.5
256.823	66.5
257.056	82.5
257.289	79.5
257.521	93.5
257.754	85.5
257.987	79.5
258.22	86.5
258.452	84.5
258.685	79.5
258.918	85.5
259.151	74.5
259.383	92.5
259.616	67.5
259.849	86.5
260.081	84.5
260.314	103.5
260.547	94.5
260.779	95.5
261.012	107.5
261.244	108.5
261.477	84.5
261.71	102.5
261.942	130.5
262.175	154.5
262.407	111.5
262.64	92.5
262.872	85.5
263.105	88.5
263.337	93.5
263.57	101.5
263.802	96.5
264.035	75.5
264.267	76.5
264.499	87.5
264.732	90.5
264.964	78.5
265.197	87.5
265.429	95.5
265.661	101.5
265.894	95.5
266.126	96.5
266.358	79.5
266.591	94.5
266.823	88.5
267.055	92.5
267.287	77.5
267.52	94.5
267.752	82.5
267.984	81.5
268.216	82.5
268.448	100.5
268.681	97.5
268.913	92.5
269.145	86.5
269.377	96.5
269.609	84.5
269.841	85.5
270.073	97.5
270.306	92.5
270.538	84.5
270.77	84.5
271.002	81.5
271.234	78.5
271.466	87.5
271.698	71.5
271.93	111.5
272.162	96.5
272.394	97.5
272.626	87.5
272.858	94.5
273.09	88.5
273.322	78.5
273.553	90.5
273.785	87.5
274.017	90.5
274.249	78.5
274.481	96.5
274.713	79.5
274.945	91.5
275.176	100.5
275.408	99.5
275.64	103.5
275.872	114.5
276.104	110.5
276.335	106.5
276.567	136.5
276.799	151.5
277.031	153.5
277.262	166.5
277.494	132.5
277.726	115.5
277.957	109.5
278.189	95.5
278.421	97.5
278.652	87.5
278.884	95.5
279.115	87.5
279.347	85.5
279.579	90.5
279.81	124.5
280.042	165.5
280.273	204.5
280.505	138.5
280.736	106.5
280.968	91.5
281.199	72.5
281.431	72.5
281.662	94.5
281.894	95.5
282.125	99.5
282.356	142.5
282.588	174.5
282.819	145.5
283.051	104.5
283.282	93.5
283.513	79.5
283.745	87.5
283.976	78.5
284.207	85.5
284.439	94.5
284.67	86.5
284.901	80.5
285.132	108.5
285.364	93.5
285.595	98.5
285.826	94.5
286.057	107.5
286.288	83.5
286.52	72.5
286.751	81.5
286.982	88.5
287.213	93.5
287.444	100.5
287.675	84.5
287.906	100.5
288.138	91.5
288.369	92.5
288.6	99.5
288.831	93.5
289.062	71.5
289.293	92.5
289.524	88.5
289.755	79.5
289.986	86.5
290.217	87.5
290.448	86.5
290.679	80.5
290.91	94.5
291.141	91.5
291.371	89.5
291.602	80.5
291.833	83.5
292.064	88.5
292.295	99.5
292.526	113.5
292.757	94.5
292.987	96.5
293.218	93.5
293.449	93.5
293.68	90.5
293.91	91.5
294.141	92.5
294.372	98.5
294.603	90.5
294.833	89.5
295.064	90.5
295.295	97.5
295.525	95.5
295.756	125.5
295.987	144.5
296.217	160.5
296.448	158.5
296.679	95.5
296.909	83.5
297.14	99.5
297.37	109.5
297.601	94.5
297.831	108.5
298.062	92.5
298.292	102.5
298.523	90.5
298.753	88.5
298.984	96.5
299.214	84.5
299.445	81.5
299.675	119.5
299.905	111.5
300.136	108.5
300.366	97.5
300.597	106.5
300.827	93.5
301.057	106.5
301.288	127.5
301.518	92.5
301.748	95.5
301.979	104.5
302.209	104.5
302.439	106.5
302.669	102.5
302.9	103.5
303.13	102.5
303.36	111.5
303.59	113.5
303.82	120.5
304.051	113.5
304.281	100.5
304.511	87.5
304.741	102.5
304.971	95.5
305.201	92.5
305.431	94.5
305.661	101.5
305.891	88.5
306.121	103.5
306.352	119.5
306.582	107.5
306.812	106.5
307.042	110.5
307.272	129.5
307.502	155.5
307.731	142.5
307.961	109.5
308.191	99.5
308.421	98.5
308.651	103.5
308.881	88.5
309.111	108.5
309.341	103.5
309.571	94.5
309.8	110.5
310.03	100.5
310.26	107.5
310.49	96.5
310.72	128.5
310.949	115.5
311.179	104.5
311.409	103.5
311.639	117.5
311.868	98.5
312.098	106.5
312.328	112.5
312.557	127.5
312.787	124.5
313.017	116.5
313.246	90.5
313.476	106.5
313.706	103.5
313.935	97.5
314.165	115.5
314.394	121.5
314.624	114.5
314.853	109.5
315.083	102.5
315.312	103.5
315.542	93.5
315.771	101.5
316.001	103.5
316.23	98.5
316.46	109.5
316.689	86.5
316.919	109.5
317.148	112.5
317.377	112.5
317.607	102.5
317.836	106.5
318.065	89.5
318.295	108.5
318.524	95.5
318.753	94.5
318.983	96.5
319.212	102.5
319.441	109.5
319.67	100.5
319.9	89.5
320.129	96.5
320.358	106.5
320.587	102.5
320.816	91.5
321.046	116.5
321.275	110.5
321.504	94.5
321.733	116.5
321.962	106.5
322.191	112.5
322.42	122.5
322.649	126.5
322.878	133.5
323.108	138.5
323.337	152.5
323.566	170.5
323.795	202.5
324.024	277.5
324.253	568.5
324.482	1223.5
324.71	2527.5
324.939	3365.5
325.168	1175.5
325.397	337.5
325.626	177.5
325.855	138.5
326.084	152.5
326.313	168.5
326.542	202.5
326.77	306.5
326.999	647.5
327.228	1352.5
327.457	2489.5
327.686	1997.5
327.914	608.5
328.143	470.5
328.372	535.5
328.6	307.5
328.829	177.5
329.058	202.5
329.287	200.5
329.515	177.5
329.744	240.5
329.972	396.5
330.201	753.5
330.43	1078.5
330.658	524.5
330.887	295.5
331.115	208.5
331.344	128.5
331.572	130.5
331.801	135.5
332.03	140.5
332.258	120.5
332.486	106.5
332.715	101.5
332.943	101.5
333.172	110.5
333.4	131.5
333.629	151.5
333.857	216.5
334.085	370.5
334.314	722.5
334.542	1435.5
334.771	1276.5
334.999	373.5
335.227	162.5
335.455	124.5
335.684	126.5
335.912	116.5
336.14	112.5
336.369	110.5
336.597	128.5
336.825	104.5
337.053	87.5
337.281	88.5
337.51	96.5
337.738	99.5
337.966	109.5
338.194	125.5
338.422	104.5
338.65	96.5
338.878	89.5
339.106	98.5
339.334	96.5
339.562	84.5
339.79	103.5
340.018	98.5
340.246	113.5
340.474	101.5
340.702	119.5
340.93	108.5
341.158	102.5
341.386	112.5
341.614	115.5
341.842	110.5
342.07	102.5
342.298	90.5
342.526	98.5
342.754	99.5
342.981	92.5
343.209	88.5
343.437	97.5
343.665	90.5
343.893	92.5
344.12	86.5
344.348	93.5
344.576	78.5
344.804	98.5
345.031	114.5
345.259	116.5
345.487	109.5
345.714	83.5
345.942	97.5
346.17	94.5
346.397	103.5
346.625	96.5
346.853	101.5
347.08	91.5
347.308	108.5
347.535	104.5
347.763	124.5
347.99	100.5
348.218	124.5
348.445	122.5
348.673	109.5
348.9	96.5
349.128	100.5
349.355	89.5
349.583	102.5
349.81	107.5
350.037	98.5
350.265	94.5
350.492	113.5
350.72	99.5
350.947	96.5
351.174	125.5
351.402	126.5
351.629	137.5
351.856	119.5
352.083	106.5
352.311	104.5
352.538	138.5
352.765	121.5
352.992	129.5
353.22	111.5
353.447	110.5
353.674	111.5
353.901	94.5
354.128	91.5
354.355	114.5
354.583	101.5
354.81	103.5
355.037	88.5
355.264	103.5
355.491	95.5
355.718	93.5
355.945	96.5
356.172	85.5
356.399	89.5
356.626	102.5
356.853	99.5
357.08	92.5
357.307	109.5
357.534	105.5
357.761	96.5
357.988	92.5
358.215	92.5
358.441	94.5
358.668	99.5
358.895	97.5
359.122	97.5
359.349	95.5
359.576	106.5
359.802	117.5
360.029	131.5
360.256	161.5
360.483	111.5
360.709	89.5
360.936	102.5
361.163	93.5
361.39	115.5
361.616	107.5
361.843	103.5
362.07	104.5
362.296	112.5
362.523	96.5
362.749	93.5
362.976	114.5
363.203	95.5
363.429	91.5
363.656	97.5
363.882	92.5
364.109	100.5
364.335	102.5
364.562	96.5
364.788	87.5
365.015	117.5
365.241	118.5
365.468	114.5
365.694	116.5
365.92	105.5
366.147	83.5
366.373	82.5
366.599	87.5
366.826	96.5
367.052	95.5
367.278	91.5
367.505	88.5
367.731	90.5
367.957	100.5
368.184	85.5
368.41	115.5
368.636	120.5
368.862	132.5
369.089	115.5
369.315	112.5
369.541	88.5
369.767	93.5
369.993	103.5
370.219	91.5
370.445	91.5
370.672	96.5
370.898	102.5
371.124	96.5
371.35	93.5
371.576	90.5
371.802	83.5
372.028	91.5
372.254	99.5
372.48	80.5
372.706	89.5
372.932	101.5
373.158	86.5
373.384	98.5
373.61	91.5
373.835	80.5
374.061	100.5
374.287	93.5
374.513	106.5
374.739	104.5
374.965	91.5
375.191	74.5
375.416	96.5
375.642	95.5
375.868	94.5
376.094	92.5
376.319	87.5
376.545	89.5
376.771	93.5
376.997	89.5
377.222	96.5
377.448	87.5
377.674	88.5
377.899	91.5
378.125	100.5
378.35	102.5
378.576	87.5
378.802	83.5
379.027	96.5
379.253	93.5
379.478	90.5
379.704	104.5
379.929	81.5
380.155	96.5
380.38	96.5
380.606	96.5
380.831	98.5
381.057	88.5
381.282	94.5
381.507	100.5
381.733	99.5
381.958	84.5
382.184	98.5
382.409	82.5
382.634	97.5
382.86	111.5
383.085	102.5
383.31	101.5
383.535	92.5
383.761	91.5
383.986	86.5
384.211	89.5
384.436	111.5
384.662	118.5
384.887	107.5
385.112	117.5
385.337	101.5
385.562	99.5
385.787	108.5
386.013	110.5
386.238	130.5
386.463	125.5
386.688	110.5
386.913	91.5
387.138	104.5
387.363	100.5
387.588	89.5
387.813	109.5
388.038	113.5
388.263	122.5
388.488	101.5
388.713	97.5
388.938	107.5
389.163	96.5
389.387	105.5
389.612	92.5
389.837	83.5
390.062	81.5
390.287	88.5
390.512	89.5
390.736	83.5
390.961	85.5
391.186	96.5
391.411	105.5
391.636	92.5
391.86	92.5
392.085	94.5
392.31	88.5
392.534	109.5
392.759	89.5
392.984	88.5
393.208	99.5
393.433	98.5
393.658	113.5
393.882	91.5
394.107	70.5
394.331	84.5
394.556	103.5
394.78	87.5
395.005	82.5
395.229	93.5
395.454	96.5
395.678	85.5
395.903	92.5
396.127	79.5
396.352	96.5
396.576	69.5
396.801	85.5
397.025	86.5
397.249	96.5
397.474	95.5
397.698	93.5
397.922	92.5
398.147	83.5
398.371	79.5
398.595	100.5
398.82	87.5
399.044	88.5
399.268	70.5
399.492	83.5
399.717	100.5
399.941	95.5
400.165	100.5
400.389	95.5
400.613	87.5
400.837	86.5
401.062	96.5
401.286	101.5
401.51	104.5
401.734	103.5
401.958	100.5
402.182	144.5
402.406	211.5
402.63	150.5
402.854	100.5
403.078	101.5
403.302	102.5
403.526	89.5
403.75	97.5
403.974	92.5
404.198	81.5
404.422	94.5
404.645	83.5
404.869	108.5
405.093	115.5
405.317	140.5
405.541	145.5
405.765	123.5
405.988	136.5
406.212	213.5
406.436	328.5
406.66	221.5
406.883	130.5
407.107	110.5
407.331	124.5
407.555	117.5
407.778	113.5
408.002	108.5
408.226	94.5
408.449	90.5
408.673	115.5
408.896	104.5
409.12	110.5
409.344	88.5
409.567	90.5
409.791	92.5
410.014	93.5
410.238	84.5
410.461	96.5
410.685	112.5
410.908	95.5
411.132	119.5
411.355	95.5
411.578	96.5
411.802	91.5
412.025	92.5
412.249	110.5
412.472	106.5
412.695	138.5
412.919	107.5
413.142	87.5
413.365	87.5
413.589	105.5
413.812	81.5
414.035	88.5
414.258	90.5
414.482	97.5
414.705	90.5
414.928	99.5
415.151	103.5
415.374	91.5
415.597	85.5
415.821	85.5
416.044	88.5
416.267	99.5
416.49	94.5
416.713	86.5
416.936	111.5
417.159	108.5
417.382	96.5
417.605	97.5
417.828	115.5
418.051	107.5
418.274	102.5
418.497	87.5
418.72	93.5
418.943	85.5
419.166	100.5
419.389	93.5
419.611	94.5
419.834	91.5
420.057	99.5
420.28	98.5
420.503	101.5
420.726	92.5
420.948	101.5
421.171	107.5
421.394	103.5
421.617	86.5
421.839	92.5
422.062	87.5
422.285	99.5
422.507	93.5
422.73	110.5
422.953	99.5
423.175	98.5
423.398	107.5
423.621	111.5
423.843	92.5
424.066	73.5
424.288	98.5
424.511	109.5
424.733	104.5
424.956	128.5
425.178	119.5
425.401	123.5
425.623	131.5
425.846	102.5
426.068	93.5
426.291	85.5
426.513	103.5
426.735	102.5
426.958	110.5
427.18	130.5
427.402	215.5
427.625	266.5
427.847	238.5
428.069	243.5
428.292	128.5
428.514	109.5
428.736	97.5
428.958	82.5
429.181	91.5
429.403	79.5
429.625	101.5
429.847	111.5
430.069	123.5
430.292	94.5
430.514	84.5
430.736	91.5
430.958	85.5
431.18	79.5
431.402	98.5
431.624	107.5
431.846	91.5
432.068	87.5
432.29	81.5
432.512	78.5
432.734	94.5
432.956	110.5
433.178	105.5
433.4	113.5
433.622	99.5
433.844	88.5
434.066	90.5
434.287	87.5
434.509	88.5
434.731	100.5
434.953	92.5
435.175	86.5
435.397	92.5
435.618	98.5
435.84	122.5
436.062	152.5
436.284	158.5
436.505	119.5
436.727	117.5
436.949	101.5
437.17	94.5
437.392	94.5
437.614	110.5
437.835	113.5
438.057	166.5
438.278	159.5
438.5	140.5
438.721	156.5
438.943	110.5
439.165	86.5
439.386	100.5
439.608	109.5
439.829	118.5
440.05	173.5
440.272	227.5
440.493	108.5
440.715	98.5
440.936	99.5
441.158	93.5
441.379	97.5
441.6	86.5
441.822	106.5
442.043	98.5
442.264	154.5
442.486	124.5
442.707	105.5
442.928	119.5
443.149	189.5
443.371	188.5
443.592	148.5
443.813	147.5
444.034	129.5
444.255	104.5
444.476	91.5
444.698	109.5
444.919	95.5
445.14	152.5
445.361	148.5
445.582	153.5
445.803	210.5
446.024	231.5
446.245	212.5
446.466	142.5
446.687	98.5
446.908	96.5
447.129	88.5
447.35	97.5
447.571	93.5
447.792	106.5
448.013	117.5
448.234	123.5
448.455	122.5
448.675	142.5
448.896	161.5
449.117	119.5
449.338	114.5
449.559	163.5
449.779	176.5
450	125.5
450.221	101.5
450.442	87.5
450.662	106.5
450.883	126.5
451.104	150.5
451.324	118.5
451.545	87.5
451.766	96.5
451.986	93.5
452.207	105.5
452.428	99.5
452.648	98.5
452.869	116.5
453.089	140.5
453.31	144.5
453.53	92.5
453.751	101.5
453.971	114.5
454.192	152.5
454.412	127.5
454.633	98.5
454.853	93.5
455.073	98.5
455.294	100.5
455.514	143.5
455.734	84.5
455.955	85.5
456.175	88.5
456.395	100.5
456.616	88.5
456.836	87.5
457.056	96.5
457.276	88.5
457.497	83.5
457.717	92.5
457.937	86.5
458.157	89.5
458.377	105.5
458.598	133.5
458.818	220.5
459.038	254.5
459.258	154.5
459.478	112.5
459.698	86.5
459.918	94.5
460.138	98.5
460.358	92.5
460.578	91.5
460.798	99.5
461.018	98.5
461.238	88.5
461.458	87.5
461.678	85.5
461.898	77.5
462.118	78.5
462.338	80.5
462.558	91.5
462.777	85.5
462.997	100.5
463.217	103.5
463.437	98.5
463.657	90.5
463.876	71.5
464.096	90.5
464.316	92.5
464.536	106.5
464.755	104.5
464.975	140.5
465.195	243.5
465.414	237.5
465.634	115.5
465.854	90.5
466.073	85.5
466.293	84.5
466.512	82.5
466.732	81.5
466.951	94.5
467.171	101.5
467.391	111.5
467.61	148.5
467.829	167.5
468.049	383.5
468.268	552.5
468.488	178.5
468.707	98.5
468.927	98.5
469.146	94.5
469.365	99.5
469.585	115.5
469.804	111.5
470.023	124.5
470.243	122.5
470.462	114.5
470.681	144.5
470.901	117.5
471.12	107.5
471.339	121.5
471.558	104.5
471.777	131.5
471.997	238.5
472.216	764.5
472.435	1698.5
472.654	448.5
472.873	145.5
473.092	110.5
473.311	94.5
473.53	99.5
473.749	102.5
473.968	93.5
474.187	155.5
474.406	128.5
474.625	86.5
474.844	91.5
475.063	84.5
475.282	81.5
475.501	100.5
475.72	105.5
475.939	88.5
476.158	93.5
476.377	96.5
476.596	96.5
476.814	96.5
477.033	80.5
477.252	92.5
477.471	100.5
477.69	93.5
477.908	84.5
478.127	96.5
478.346	86.5
478.564	90.5
478.783	110.5
479.002	107.5
479.22	98.5
479.439	123.5
479.658	128.5
479.876	134.5
480.095	118.5
480.313	112.5
480.532	150.5
480.751	207.5
480.969	728.5
481.188	2960.5
481.406	1774.5
481.624	290.5
481.843	137.5
482.061	117.5
482.28	88.5
482.498	115.5
482.717	114.5
482.935	108.5
483.153	101.5
483.372	82.5
483.59	102.5
483.808	101.5
484.027	98.5
484.245	106.5
484.463	96.5
484.681	100.5
484.9	100.5
485.118	99.5
485.336	85.5
485.554	101.5
485.772	112.5
485.99	108.5
486.209	96.5
486.427	124.5
486.645	117.5
486.863	126.5
487.081	106.5
487.299	101.5
487.517	102.5
487.735	78.5
487.953	103.5
488.171	93.5
488.389	112.5
488.607	112.5
488.825	93.5
489.043	100.5
489.261	83.5
489.479	101.5
489.696	91.5
489.914	96.5
490.132	102.5
490.35	92.5
490.568	95.5
490.786	94.5
491.003	88.5
491.221	102.5
491.439	102.5
491.657	84.5
491.874	97.5
492.092	97.5
492.31	99.5
492.527	106.5
492.745	98.5
492.963	95.5
493.18	94.5
493.398	94.5
493.615	94.5
493.833	99.5
494.05	90.5
494.268	89.5
494.485	99.5
494.703	109.5
494.92	100.5
495.138	98.5
495.355	101.5
495.573	83.5
495.79	92.5
496.008	94.5
496.225	85.5
496.442	103.5
496.66	102.5
496.877	100.5
497.094	95.5
497.312	77.5
497.529	84.5
497.746	101.5
497.963	99.5
498.181	109.5
498.398	99.5
498.615	134.5
498.832	118.5
499.049	105.5
499.267	79.5
499.484	86.5
499.701	80.5
499.918	100.5
500.135	92.5
500.352	99.5
500.569	92.5
500.786	88.5
501.003	88.5
501.22	99.5
501.437	83.5
501.654	111.5
501.871	140.5
502.088	107.5
502.305	97.5
502.522	82.5
502.739	92.5
502.956	82.5
503.172	102.5
503.389	96.5
503.606	142.5
503.823	109.5
504.04	80.5
504.256	93.5
504.473	92.5
504.69	91.5
504.907	96.5
505.123	92.5
505.34	87.5
505.557	92.5
505.773	97.5
505.99	101.5
506.207	94.5
506.423	100.5
506.64	96.5
506.856	85.5
507.073	98.5
507.289	87.5
507.506	119.5
507.722	128.5
507.939	135.5
508.155	104.5
508.372	106.5
508.588	107.5
508.805	96.5
509.021	103.5
509.238	124.5
509.454	109.5
509.67	116.5
509.887	126.5
510.103	145.5
510.319	241.5
510.536	930.5
510.752	3234.5
510.968	886.5
511.184	189.5
511.401	123.5
511.617	114.5
511.833	104.5
512.049	107.5
512.265	110.5
512.481	86.5
512.698	94.5
512.914	104.5
513.13	106.5
513.346	97.5
513.562	99.5
513.778	100.5
513.994	108.5
514.21	132.5
514.426	158.5
514.642	194.5
514.858	167.5
515.074	229.5
515.29	737.5
515.506	2585.5
515.721	934.5
515.937	222.5
516.153	144.5
516.369	115.5
516.585	122.5
516.801	105.5
517.016	100.5
517.232	86.5
517.448	100.5
517.664	83.5
517.879	99.5
518.095	94.5
518.311	112.5
518.527	114.5
518.742	100.5
518.958	96.5
519.173	116.5
519.389	106.5
519.605	103.5
519.82	115.5
520.036	113.5
520.251	157.5
520.467	132.5
520.682	122.5
520.898	111.5
521.113	149.5
521.329	189.5
521.544	311.5
521.76	975.5
521.975	4364.5
522.19	2571.5
522.406	516.5
522.621	174.5
522.836	128.5
523.052	105.5
523.267	100.5
523.482	101.5
523.698	127.5
523.913	152.5
524.128	139.5
524.343	111.5
524.559	94.5
524.774	108.5
524.989	109.5
525.204	116.5
525.419	113.5
525.634	111.5
525.849	96.5
526.064	93.5
526.28	105.5
526.495	92.5
526.71	94.5
526.925	101.5
527.14	99.5
527.355	100.5
527.57	98.5
527.785	99.5
527.999	86.5
528.214	106.5
528.429	80.5
528.644	102.5
528.859	107.5
529.074	97.5
529.289	154.5
529.503	291.5
529.718	124.5
529.933	86.5
530.148	90.5
530.363	103.5
530.577	91.5
530.792	109.5
