Data from Circ_2007_H10_HRD10591_00044.txt Node
Date: Wed Jan 03 10:22:06 EST 2024
User: Yrep
Spectrometer: HR+D1059
Trigger mode: 1
Integration Time (sec): 1.000000E-1
Scans to average: 1
Electric dark correction enabled: true
Nonlinearity correction enabled: false
Boxcar width: 0
XAxis mode: Wavelengths
Number of Pixels in Spectrum: 2048
>>>>>Begin Spectral Data<<<<<
223.165	-31.56
223.4	-31.56
223.635	-31.56
223.869	-19.56
224.104	-29.56
224.338	-19.56
224.573	-9.56
224.808	-21.56
225.042	-7.56
225.277	8.44
225.511	1.44
225.746	8.44
225.98	21.44
226.215	8.44
226.449	21.44
226.683	14.44
226.918	16.44
227.152	38.44
227.387	38.44
227.621	38.44
227.856	62.44
228.09	49.44
228.324	43.44
228.559	51.44
228.793	59.44
229.027	44.44
229.262	57.44
229.496	67.44
229.73	96.44
229.964	91.44
230.199	63.44
230.433	73.44
230.667	76.44
230.901	74.44
231.136	85.44
231.37	78.44
231.604	81.44
231.838	70.44
232.072	74.44
232.306	87.44
232.541	86.44
232.775	78.44
233.009	80.44
233.243	84.44
233.477	77.44
233.711	84.44
233.945	75.44
234.179	76.44
234.413	67.44
234.647	70.44
234.881	83.44
235.115	75.44
235.349	83.44
235.583	82.44
235.817	81.44
236.051	86.44
236.285	76.44
236.519	87.44
236.753	63.44
236.987	83.44
237.221	98.44
237.455	85.44
237.689	79.44
237.922	74.44
238.156	75.44
238.39	63.44
238.624	84.44
238.858	80.44
239.091	73.44
239.325	73.44
239.559	73.44
239.793	57.44
240.027	78.44
240.26	62.44
240.494	73.44
240.728	83.44
240.961	70.44
241.195	86.44
241.429	72.44
241.662	74.44
241.896	79.44
242.13	82.44
242.363	81.44
242.597	73.44
242.83	63.44
243.064	75.44
243.298	63.44
243.531	70.44
243.765	71.44
243.998	75.44
244.232	80.44
244.465	86.44
244.699	69.44
244.932	61.44
245.166	77.44
245.399	72.44
245.633	70.44
245.866	73.44
246.099	80.44
246.333	73.44
246.566	78.44
246.8	76.44
247.033	64.44
247.266	80.44
247.5	81.44
247.733	92.44
247.966	79.44
248.2	73.44
248.433	76.44
248.666	78.44
248.899	76.44
249.133	66.44
249.366	90.44
249.599	104.44
249.832	83.44
250.066	79.44
250.299	78.44
250.532	74.44
250.765	83.44
250.998	82.44
251.231	78.44
251.465	85.44
251.698	79.44
251.931	77.44
252.164	79.44
252.397	95.44
252.63	81.44
252.863	75.44
253.096	84.44
253.329	75.44
253.562	90.44
253.795	78.44
254.028	77.44
254.261	81.44
254.494	82.44
254.727	83.44
254.96	84.44
255.193	74.44
255.426	68.44
255.659	75.44
255.892	97.44
256.124	99.44
256.357	77.44
256.59	73.44
256.823	79.44
257.056	69.44
257.289	81.44
257.521	93.44
257.754	77.44
257.987	70.44
258.22	90.44
258.452	86.44
258.685	85.44
258.918	84.44
259.151	90.44
259.383	85.44
259.616	96.44
259.849	82.44
260.081	76.44
260.314	97.44
260.547	77.44
260.779	88.44
261.012	92.44
261.244	91.44
261.477	92.44
261.71	100.44
261.942	116.44
262.175	130.44
262.407	102.44
262.64	90.44
262.872	82.44
263.105	82.44
263.337	82.44
263.57	74.44
263.802	96.44
264.035	71.44
264.267	76.44
264.499	84.44
264.732	86.44
264.964	86.44
265.197	87.44
265.429	72.44
265.661	77.44
265.894	88.44
266.126	82.44
266.358	84.44
266.591	80.44
266.823	91.44
267.055	86.44
267.287	80.44
267.52	76.44
267.752	78.44
267.984	76.44
268.216	64.44
268.448	78.44
268.681	99.44
268.913	91.44
269.145	83.44
269.377	76.44
269.609	79.44
269.841	86.44
270.073	83.44
270.306	89.44
270.538	78.44
270.77	95.44
271.002	89.44
271.234	82.44
271.466	93.44
271.698	96.44
271.93	77.44
272.162	88.44
272.394	86.44
272.626	82.44
272.858	80.44
273.09	75.44
273.322	88.44
273.553	72.44
273.785	92.44
274.017	84.44
274.249	91.44
274.481	101.44
274.713	78.44
274.945	86.44
275.176	82.44
275.408	81.44
275.64	88.44
275.872	105.44
276.104	98.44
276.335	91.44
276.567	92.44
276.799	124.44
277.031	132.44
277.262	120.44
277.494	101.44
277.726	86.44
277.957	89.44
278.189	76.44
278.421	72.44
278.652	88.44
278.884	78.44
279.115	89.44
279.347	84.44
279.579	93.44
279.81	103.44
280.042	133.44
280.273	148.44
280.505	110.44
280.736	102.44
280.968	80.44
281.199	93.44
281.431	90.44
281.662	82.44
281.894	92.44
282.125	103.44
282.356	122.44
282.588	163.44
282.819	137.44
283.051	98.44
283.282	78.44
283.513	73.44
283.745	95.44
283.976	80.44
284.207	74.44
284.439	81.44
284.67	69.44
284.901	75.44
285.132	67.44
285.364	91.44
285.595	81.44
285.826	95.44
286.057	92.44
286.288	77.44
286.52	94.44
286.751	82.44
286.982	75.44
287.213	82.44
287.444	80.44
287.675	75.44
287.906	75.44
288.138	89.44
288.369	102.44
288.6	73.44
288.831	80.44
289.062	89.44
289.293	96.44
289.524	79.44
289.755	79.44
289.986	78.44
290.217	80.44
290.448	89.44
290.679	102.44
290.91	78.44
291.141	96.44
291.371	80.44
291.602	82.44
291.833	76.44
292.064	83.44
292.295	70.44
292.526	79.44
292.757	91.44
292.987	84.44
293.218	89.44
293.449	101.44
293.68	86.44
293.91	94.44
294.141	94.44
294.372	82.44
294.603	80.44
294.833	84.44
295.064	74.44
295.295	89.44
295.525	84.44
295.756	100.44
295.987	122.44
296.217	139.44
296.448	135.44
296.679	93.44
296.909	86.44
297.14	75.44
297.37	72.44
297.601	95.44
297.831	88.44
298.062	97.44
298.292	88.44
298.523	89.44
298.753	75.44
298.984	90.44
299.214	111.44
299.445	90.44
299.675	89.44
299.905	85.44
300.136	87.44
300.366	94.44
300.597	98.44
300.827	83.44
301.057	96.44
301.288	109.44
301.518	112.44
301.748	100.44
301.979	107.44
302.209	98.44
302.439	87.44
302.669	99.44
302.9	75.44
303.13	95.44
303.36	95.44
303.59	102.44
303.82	126.44
304.051	104.44
304.281	101.44
304.511	91.44
304.741	74.44
304.971	94.44
305.201	102.44
305.431	81.44
305.661	76.44
305.891	93.44
306.121	90.44
306.352	107.44
306.582	110.44
306.812	106.44
307.042	109.44
307.272	95.44
307.502	123.44
307.731	118.44
307.961	95.44
308.191	84.44
308.421	90.44
308.651	78.44
308.881	97.44
309.111	89.44
309.341	90.44
309.571	98.44
309.8	85.44
310.03	108.44
310.26	93.44
310.49	95.44
310.72	107.44
310.949	111.44
311.179	115.44
311.409	96.44
311.639	86.44
311.868	94.44
312.098	90.44
312.328	98.44
312.557	107.44
312.787	115.44
313.017	105.44
313.246	99.44
313.476	100.44
313.706	84.44
313.935	103.44
314.165	97.44
314.394	96.44
314.624	95.44
314.853	111.44
315.083	82.44
315.312	107.44
315.542	99.44
315.771	103.44
316.001	95.44
316.23	80.44
316.46	78.44
316.689	100.44
316.919	105.44
317.148	102.44
317.377	93.44
317.607	90.44
317.836	105.44
318.065	84.44
318.295	90.44
318.524	90.44
318.753	99.44
318.983	101.44
319.212	115.44
319.441	114.44
319.67	117.44
319.9	101.44
320.129	93.44
320.358	99.44
320.587	99.44
320.816	108.44
321.046	107.44
321.275	88.44
321.504	86.44
321.733	84.44
321.962	109.44
322.191	102.44
322.42	120.44
322.649	111.44
322.878	99.44
323.108	111.44
323.337	135.44
323.566	152.44
323.795	172.44
324.024	224.44
324.253	454.44
324.482	964.44
324.71	2040.44
324.939	2696.44
325.168	1002.44
325.397	276.44
325.626	160.44
325.855	147.44
326.084	130.44
326.313	154.44
326.542	162.44
326.77	259.44
326.999	509.44
327.228	1084.44
327.457	2041.44
327.686	1656.44
327.914	503.44
328.143	342.44
328.372	359.44
328.6	223.44
328.829	145.44
329.058	152.44
329.287	150.44
329.515	144.44
329.744	169.44
329.972	239.44
330.201	439.44
330.43	664.44
330.658	350.44
330.887	201.44
331.115	143.44
331.344	103.44
331.572	105.44
331.801	97.44
332.03	102.44
332.258	90.44
332.486	107.44
332.715	89.44
332.943	107.44
333.172	102.44
333.4	112.44
333.629	113.44
333.857	158.44
334.085	249.44
334.314	447.44
334.542	808.44
334.771	771.44
334.999	232.44
335.227	139.44
335.455	106.44
335.684	111.44
335.912	91.44
336.14	103.44
336.369	85.44
336.597	109.44
336.825	100.44
337.053	96.44
337.281	97.44
337.51	110.44
337.738	87.44
337.966	87.44
338.194	104.44
338.422	105.44
338.65	114.44
338.878	76.44
339.106	96.44
339.334	87.44
339.562	79.44
339.79	91.44
340.018	78.44
340.246	96.44
340.474	89.44
340.702	85.44
340.93	89.44
341.158	97.44
341.386	99.44
341.614	88.44
341.842	92.44
342.07	98.44
342.298	98.44
342.526	82.44
342.754	91.44
342.981	92.44
343.209	91.44
343.437	96.44
343.665	88.44
343.893	91.44
344.12	89.44
344.348	97.44
344.576	95.44
344.804	100.44
345.031	91.44
345.259	103.44
345.487	97.44
345.714	92.44
345.942	95.44
346.17	107.44
346.397	97.44
346.625	95.44
346.853	89.44
347.08	90.44
347.308	87.44
347.535	94.44
347.763	103.44
347.99	97.44
348.218	97.44
348.445	106.44
348.673	90.44
348.9	110.44
349.128	94.44
349.355	91.44
349.583	94.44
349.81	96.44
350.037	103.44
350.265	98.44
350.492	100.44
350.72	78.44
350.947	84.44
351.174	108.44
351.402	118.44
351.629	101.44
351.856	112.44
352.083	100.44
352.311	110.44
352.538	103.44
352.765	123.44
352.992	108.44
353.22	118.44
353.447	111.44
353.674	96.44
353.901	90.44
354.128	104.44
354.355	102.44
354.583	92.44
354.81	104.44
355.037	92.44
355.264	103.44
355.491	87.44
355.718	86.44
355.945	88.44
356.172	105.44
356.399	86.44
356.626	105.44
356.853	93.44
357.08	107.44
357.307	75.44
357.534	81.44
357.761	87.44
357.988	100.44
358.215	99.44
358.441	95.44
358.668	88.44
358.895	79.44
359.122	82.44
359.349	93.44
359.576	95.44
359.802	109.44
360.029	132.44
360.256	113.44
360.483	88.44
360.709	94.44
360.936	98.44
361.163	96.44
361.39	105.44
361.616	118.44
361.843	92.44
362.07	107.44
362.296	84.44
362.523	88.44
362.749	102.44
362.976	77.44
363.203	89.44
363.429	103.44
363.656	97.44
363.882	90.44
364.109	105.44
364.335	96.44
364.562	98.44
364.788	85.44
365.015	102.44
365.241	99.44
365.468	115.44
365.694	118.44
365.92	109.44
366.147	100.44
366.373	105.44
366.599	82.44
366.826	98.44
367.052	96.44
367.278	92.44
367.505	99.44
367.731	96.44
367.957	77.44
368.184	106.44
368.41	89.44
368.636	110.44
368.862	131.44
369.089	102.44
369.315	92.44
369.541	91.44
369.767	98.44
369.993	109.44
370.219	86.44
370.445	83.44
370.672	84.44
370.898	88.44
371.124	86.44
371.35	91.44
371.576	90.44
371.802	97.44
372.028	91.44
372.254	97.44
372.48	77.44
372.706	96.44
372.932	92.44
373.158	105.44
373.384	84.44
373.61	90.44
373.835	99.44
374.061	98.44
374.287	93.44
374.513	97.44
374.739	88.44
374.965	86.44
375.191	85.44
375.416	103.44
375.642	94.44
375.868	99.44
376.094	92.44
376.319	104.44
376.545	88.44
376.771	104.44
376.997	93.44
377.222	99.44
377.448	94.44
377.674	95.44
377.899	83.44
378.125	95.44
378.35	94.44
378.576	89.44
378.802	92.44
379.027	97.44
379.253	99.44
379.478	85.44
379.704	90.44
379.929	98.44
380.155	96.44
380.38	91.44
380.606	91.44
380.831	102.44
381.057	106.44
381.282	80.44
381.507	103.44
381.733	101.44
381.958	94.44
382.184	105.44
382.409	98.44
382.634	96.44
382.86	87.44
383.085	110.44
383.31	95.44
383.535	87.44
383.761	98.44
383.986	95.44
384.211	90.44
384.436	87.44
384.662	98.44
384.887	105.44
385.112	115.44
385.337	102.44
385.562	105.44
385.787	111.44
386.013	106.44
386.238	111.44
386.463	106.44
386.688	110.44
386.913	103.44
387.138	112.44
387.363	95.44
387.588	91.44
387.813	92.44
388.038	110.44
388.263	119.44
388.488	105.44
388.713	100.44
388.938	94.44
389.163	88.44
389.387	97.44
389.612	83.44
389.837	84.44
390.062	101.44
390.287	94.44
390.512	84.44
390.736	70.44
390.961	90.44
391.186	94.44
391.411	94.44
391.636	107.44
391.86	98.44
392.085	92.44
392.31	87.44
392.534	83.44
392.759	87.44
392.984	83.44
393.208	90.44
393.433	88.44
393.658	64.44
393.882	84.44
394.107	99.44
394.331	76.44
394.556	85.44
394.78	83.44
395.005	75.44
395.229	83.44
395.454	78.44
395.678	88.44
395.903	75.44
396.127	70.44
396.352	91.44
396.576	95.44
396.801	83.44
397.025	94.44
397.249	87.44
397.474	92.44
397.698	95.44
397.922	81.44
398.147	67.44
398.371	87.44
398.595	83.44
398.82	90.44
399.044	95.44
399.268	89.44
399.492	90.44
399.717	70.44
399.941	94.44
400.165	96.44
400.389	104.44
400.613	99.44
400.837	97.44
401.062	87.44
401.286	88.44
401.51	90.44
401.734	75.44
401.958	102.44
402.182	142.44
402.406	176.44
402.63	139.44
402.854	88.44
403.078	72.44
403.302	83.44
403.526	83.44
403.75	92.44
403.974	85.44
404.198	102.44
404.422	81.44
404.645	92.44
404.869	99.44
405.093	108.44
405.317	118.44
405.541	113.44
405.765	110.44
405.988	114.44
406.212	202.44
406.436	251.44
406.66	177.44
406.883	104.44
407.107	111.44
407.331	109.44
407.555	108.44
407.778	93.44
408.002	89.44
408.226	92.44
408.449	83.44
408.673	82.44
408.896	103.44
409.12	102.44
409.344	78.44
409.567	80.44
409.791	92.44
410.014	95.44
410.238	96.44
410.461	104.44
410.685	98.44
410.908	89.44
411.132	84.44
411.355	102.44
411.578	88.44
411.802	89.44
412.025	79.44
412.249	107.44
412.472	104.44
412.695	110.44
412.919	96.44
413.142	91.44
413.365	79.44
413.589	91.44
413.812	83.44
414.035	96.44
414.258	79.44
414.482	98.44
414.705	96.44
414.928	91.44
415.151	94.44
415.374	92.44
415.597	96.44
415.821	93.44
416.044	95.44
416.267	82.44
416.49	72.44
416.713	86.44
416.936	82.44
417.159	78.44
417.382	88.44
417.605	94.44
417.828	112.44
418.051	87.44
418.274	92.44
418.497	92.44
418.72	82.44
418.943	97.44
419.166	86.44
419.389	91.44
419.611	95.44
419.834	82.44
420.057	92.44
420.28	94.44
420.503	94.44
420.726	98.44
420.948	84.44
421.171	99.44
421.394	106.44
421.617	90.44
421.839	89.44
422.062	84.44
422.285	91.44
422.507	99.44
422.73	96.44
422.953	100.44
423.175	96.44
423.398	94.44
423.621	89.44
423.843	73.44
424.066	75.44
424.288	92.44
424.511	81.44
424.733	102.44
424.956	118.44
425.178	105.44
425.401	99.44
425.623	105.44
425.846	88.44
426.068	95.44
426.291	91.44
426.513	87.44
426.735	97.44
426.958	104.44
427.18	119.44
427.402	146.44
427.625	231.44
427.847	182.44
428.069	174.44
428.292	106.44
428.514	82.44
428.736	75.44
428.958	94.44
429.181	101.44
429.403	98.44
429.625	69.44
429.847	91.44
430.069	107.44
430.292	104.44
430.514	88.44
430.736	84.44
430.958	76.44
431.18	85.44
431.402	94.44
431.624	92.44
431.846	78.44
432.068	94.44
432.29	81.44
432.512	87.44
432.734	80.44
432.956	93.44
433.178	103.44
433.4	96.44
433.622	91.44
433.844	87.44
434.066	82.44
434.287	87.44
434.509	98.44
434.731	94.44
434.953	92.44
435.175	81.44
435.397	89.44
435.618	89.44
435.84	105.44
436.062	120.44
436.284	114.44
436.505	112.44
436.727	113.44
436.949	101.44
437.17	95.44
437.392	82.44
437.614	98.44
437.835	119.44
438.057	120.44
438.278	125.44
438.5	108.44
438.721	127.44
438.943	105.44
439.165	100.44
439.386	113.44
439.608	83.44
439.829	119.44
440.05	134.44
440.272	179.44
440.493	118.44
440.715	99.44
440.936	93.44
441.158	106.44
441.379	88.44
441.6	94.44
441.822	102.44
442.043	89.44
442.264	108.44
442.486	118.44
442.707	91.44
442.928	123.44
443.149	142.44
443.371	154.44
443.592	109.44
443.813	115.44
444.034	121.44
444.255	83.44
444.476	80.44
444.698	97.44
444.919	98.44
445.14	136.44
445.361	133.44
445.582	115.44
445.803	166.44
446.024	162.44
446.245	163.44
446.466	125.44
446.687	95.44
446.908	90.44
447.129	93.44
447.35	83.44
447.571	94.44
447.792	95.44
448.013	107.44
448.234	109.44
448.455	91.44
448.675	130.44
448.896	143.44
449.117	105.44
449.338	111.44
449.559	140.44
449.779	141.44
450	91.44
450.221	91.44
450.442	98.44
450.662	103.44
450.883	107.44
451.104	119.44
451.324	102.44
451.545	89.44
451.766	95.44
451.986	85.44
452.207	92.44
452.428	87.44
452.648	88.44
452.869	103.44
453.089	119.44
453.31	137.44
453.53	111.44
453.751	83.44
453.971	135.44
454.192	114.44
454.412	105.44
454.633	97.44
454.853	93.44
455.073	75.44
455.294	94.44
455.514	101.44
455.734	98.44
455.955	78.44
456.175	84.44
456.395	76.44
456.616	89.44
456.836	82.44
457.056	90.44
457.276	71.44
457.497	95.44
457.717	98.44
457.937	98.44
458.157	79.44
458.377	95.44
458.598	118.44
458.818	177.44
459.038	180.44
459.258	138.44
459.478	95.44
459.698	78.44
459.918	91.44
460.138	84.44
460.358	77.44
460.578	90.44
460.798	98.44
461.018	87.44
461.238	90.44
461.458	73.44
461.678	84.44
461.898	80.44
462.118	83.44
462.338	88.44
462.558	79.44
462.777	91.44
462.997	82.44
463.217	85.44
463.437	101.44
463.657	82.44
463.876	79.44
464.096	83.44
464.316	85.44
464.536	89.44
464.755	95.44
464.975	114.44
465.195	195.44
465.414	215.44
465.634	94.44
465.854	88.44
466.073	81.44
466.293	81.44
466.512	94.44
466.732	94.44
466.951	95.44
467.171	103.44
467.391	99.44
467.61	121.44
467.829	145.44
468.049	274.44
468.268	374.44
468.488	133.44
468.707	90.44
468.927	88.44
469.146	96.44
469.365	84.44
469.585	98.44
469.804	82.44
470.023	117.44
470.243	93.44
470.462	95.44
470.681	123.44
470.901	90.44
471.12	89.44
471.339	98.44
471.558	97.44
471.777	93.44
471.997	163.44
472.216	488.44
472.435	1046.44
472.654	319.44
472.873	109.44
473.092	99.44
473.311	74.44
473.53	90.44
473.749	102.44
473.968	103.44
474.187	132.44
474.406	103.44
474.625	92.44
474.844	107.44
475.063	95.44
475.282	81.44
475.501	78.44
475.72	94.44
475.939	80.44
476.158	88.44
476.377	93.44
476.596	92.44
476.814	89.44
477.033	105.44
477.252	88.44
477.471	80.44
477.69	86.44
477.908	70.44
478.127	79.44
478.346	83.44
478.564	99.44
478.783	113.44
479.002	111.44
479.22	87.44
479.439	108.44
479.658	118.44
479.876	110.44
480.095	106.44
480.313	112.44
480.532	105.44
480.751	153.44
480.969	440.44
481.188	1788.44
481.406	1140.44
481.624	210.44
481.843	118.44
482.061	88.44
482.28	82.44
482.498	81.44
482.717	80.44
482.935	92.44
483.153	103.44
483.372	83.44
483.59	89.44
483.808	96.44
484.027	96.44
484.245	92.44
484.463	100.44
484.681	92.44
484.9	91.44
485.118	84.44
485.336	75.44
485.554	113.44
485.772	110.44
485.99	104.44
486.209	98.44
486.427	104.44
486.645	98.44
486.863	120.44
487.081	116.44
487.299	73.44
487.517	101.44
487.735	94.44
487.953	79.44
488.171	93.44
488.389	102.44
488.607	96.44
488.825	91.44
489.043	88.44
489.261	90.44
489.479	96.44
489.696	88.44
489.914	82.44
490.132	84.44
490.35	84.44
490.568	88.44
490.786	83.44
491.003	94.44
491.221	81.44
491.439	92.44
491.657	95.44
491.874	76.44
492.092	81.44
492.31	97.44
492.527	96.44
492.745	102.44
492.963	84.44
493.18	81.44
493.398	85.44
493.615	88.44
493.833	88.44
494.05	59.44
494.268	93.44
494.485	98.44
494.703	106.44
494.92	90.44
495.138	77.44
495.355	83.44
495.573	80.44
495.79	97.44
496.008	96.44
496.225	91.44
496.442	73.44
496.66	91.44
496.877	101.44
497.094	82.44
497.312	78.44
497.529	90.44
497.746	88.44
497.963	80.44
498.181	89.44
498.398	84.44
498.615	107.44
498.832	99.44
499.049	91.44
499.267	101.44
499.484	73.44
499.701	80.44
499.918	99.44
500.135	92.44
500.352	84.44
500.569	84.44
500.786	100.44
501.003	92.44
501.22	81.44
501.437	94.44
501.654	100.44
501.871	109.44
502.088	86.44
502.305	97.44
502.522	84.44
502.739	94.44
502.956	103.44
503.172	82.44
503.389	87.44
503.606	117.44
503.823	113.44
504.04	104.44
504.256	88.44
504.473	90.44
504.69	92.44
504.907	91.44
505.123	81.44
505.34	90.44
505.557	81.44
505.773	83.44
505.99	86.44
506.207	83.44
506.423	74.44
506.64	92.44
506.856	98.44
507.073	94.44
507.289	92.44
507.506	101.44
507.722	119.44
507.939	122.44
508.155	94.44
508.372	97.44
508.588	83.44
508.805	92.44
509.021	96.44
509.238	99.44
509.454	102.44
509.67	106.44
509.887	113.44
510.103	136.44
510.319	239.44
510.536	830.44
510.752	2794.44
510.968	771.44
511.184	160.44
511.401	125.44
511.617	105.44
511.833	103.44
512.049	111.44
512.265	87.44
512.481	76.44
512.698	85.44
512.914	92.44
513.13	94.44
513.346	90.44
513.562	92.44
513.778	89.44
513.994	91.44
514.21	103.44
514.426	126.44
514.642	146.44
