Data from Circ_2007_H10_HRD10591_00048.txt Node
Date: Wed Jan 03 10:22:06 EST 2024
User: Yrep
Spectrometer: HR+D1059
Trigger mode: 1
Integration Time (sec): 1.000000E-1
Scans to average: 1
Electric dark correction enabled: true
Nonlinearity correction enabled: false
Boxcar width: 0
XAxis mode: Wavelengths
Number of Pixels in Spectrum: 2048
>>>>>Begin Spectral Data<<<<<
223.165	-10.88
223.4	-10.88
223.635	-10.88
223.869	-28.88
224.104	-20.88
224.338	-21.88
224.573	-16.88
224.808	-27.88
225.042	-5.88
225.277	-13.88
225.511	-4.88
225.746	9.12
225.98	1.12
226.215	25.12
226.449	34.12
226.683	29.12
226.918	29.12
227.152	24.12
227.387	25.12
227.621	45.12
227.856	35.12
228.09	38.12
228.324	42.12
228.559	70.12
228.793	50.12
229.027	57.12
229.262	79.12
229.496	81.12
229.73	100.12
229.964	112.12
230.199	69.12
230.433	75.12
230.667	85.12
230.901	82.12
231.136	83.12
231.37	86.12
231.604	67.12
231.838	82.12
232.072	79.12
232.306	73.12
232.541	76.12
232.775	83.12
233.009	82.12
233.243	82.12
233.477	76.12
233.711	80.12
233.945	78.12
234.179	76.12
234.413	93.12
234.647	74.12
234.881	76.12
235.115	72.12
235.349	84.12
235.583	90.12
235.817	77.12
236.051	79.12
236.285	65.12
236.519	82.12
236.753	80.12
236.987	103.12
237.221	86.12
237.455	98.12
237.689	91.12
237.922	73.12
238.156	83.12
238.39	72.12
238.624	64.12
238.858	66.12
239.091	82.12
239.325	71.12
239.559	90.12
239.793	88.12
240.027	72.12
240.26	90.12
240.494	97.12
240.728	66.12
240.961	96.12
241.195	94.12
241.429	69.12
241.662	67.12
241.896	77.12
242.13	83.12
242.363	80.12
242.597	76.12
242.83	77.12
243.064	85.12
243.298	85.12
243.531	76.12
243.765	78.12
243.998	74.12
244.232	89.12
244.465	82.12
244.699	84.12
244.932	78.12
245.166	74.12
245.399	71.12
245.633	73.12
245.866	78.12
246.099	74.12
246.333	75.12
246.566	75.12
246.8	74.12
247.033	80.12
247.266	80.12
247.5	66.12
247.733	88.12
247.966	75.12
248.2	74.12
248.433	82.12
248.666	78.12
248.899	83.12
249.133	82.12
249.366	106.12
249.599	113.12
249.832	88.12
250.066	92.12
250.299	84.12
250.532	90.12
250.765	73.12
250.998	81.12
251.231	92.12
251.465	76.12
251.698	90.12
251.931	81.12
252.164	79.12
252.397	78.12
252.63	80.12
252.863	85.12
253.096	83.12
253.329	88.12
253.562	71.12
253.795	85.12
254.028	85.12
254.261	70.12
254.494	85.12
254.727	90.12
254.96	79.12
255.193	74.12
255.426	82.12
255.659	76.12
255.892	90.12
256.124	100.12
256.357	80.12
256.59	79.12
256.823	82.12
257.056	86.12
257.289	86.12
257.521	99.12
257.754	82.12
257.987	78.12
258.22	97.12
258.452	94.12
258.685	89.12
258.918	81.12
259.151	77.12
259.383	79.12
259.616	88.12
259.849	71.12
260.081	80.12
260.314	83.12
260.547	91.12
260.779	89.12
261.012	102.12
261.244	100.12
261.477	97.12
261.71	111.12
261.942	149.12
262.175	173.12
262.407	94.12
262.64	79.12
262.872	76.12
263.105	78.12
263.337	86.12
263.57	81.12
263.802	82.12
264.035	80.12
264.267	72.12
264.499	77.12
264.732	89.12
264.964	85.12
265.197	68.12
265.429	81.12
265.661	85.12
265.894	87.12
266.126	81.12
266.358	90.12
266.591	90.12
266.823	72.12
267.055	93.12
267.287	80.12
267.52	75.12
267.752	85.12
267.984	82.12
268.216	92.12
268.448	98.12
268.681	86.12
268.913	78.12
269.145	80.12
269.377	82.12
269.609	74.12
269.841	77.12
270.073	85.12
270.306	81.12
270.538	90.12
270.77	82.12
271.002	90.12
271.234	83.12
271.466	105.12
271.698	91.12
271.93	85.12
272.162	89.12
272.394	81.12
272.626	89.12
272.858	75.12
273.09	85.12
273.322	80.12
273.553	90.12
273.785	93.12
274.017	90.12
274.249	88.12
274.481	77.12
274.713	89.12
274.945	101.12
275.176	96.12
275.408	104.12
275.64	108.12
275.872	109.12
276.104	98.12
276.335	111.12
276.567	123.12
276.799	164.12
277.031	176.12
277.262	191.12
277.494	153.12
277.726	106.12
277.957	105.12
278.189	96.12
278.421	80.12
278.652	78.12
278.884	104.12
279.115	89.12
279.347	89.12
279.579	107.12
279.81	143.12
280.042	183.12
280.273	252.12
280.505	176.12
280.736	113.12
280.968	88.12
281.199	95.12
281.431	93.12
281.662	99.12
281.894	98.12
282.125	103.12
282.356	153.12
282.588	218.12
282.819	152.12
283.051	108.12
283.282	102.12
283.513	96.12
283.745	85.12
283.976	84.12
284.207	97.12
284.439	80.12
284.67	90.12
284.901	97.12
285.132	92.12
285.364	92.12
285.595	90.12
285.826	75.12
286.057	101.12
286.288	77.12
286.52	80.12
286.751	83.12
286.982	84.12
287.213	79.12
287.444	89.12
287.675	84.12
287.906	92.12
288.138	94.12
288.369	101.12
288.6	91.12
288.831	98.12
289.062	101.12
289.293	89.12
289.524	82.12
289.755	94.12
289.986	74.12
290.217	85.12
290.448	103.12
290.679	106.12
290.91	82.12
291.141	89.12
291.371	93.12
291.602	89.12
291.833	88.12
292.064	90.12
292.295	93.12
292.526	90.12
292.757	101.12
292.987	78.12
293.218	79.12
293.449	72.12
293.68	90.12
293.91	100.12
294.141	90.12
294.372	82.12
294.603	95.12
294.833	90.12
295.064	91.12
295.295	97.12
295.525	105.12
295.756	101.12
295.987	155.12
296.217	211.12
296.448	194.12
296.679	105.12
296.909	97.12
297.14	85.12
297.37	97.12
297.601	90.12
297.831	96.12
298.062	88.12
298.292	96.12
298.523	96.12
298.753	87.12
298.984	91.12
299.214	90.12
299.445	112.12
299.675	123.12
299.905	118.12
300.136	93.12
300.366	99.12
300.597	102.12
300.827	110.12
301.057	112.12
301.288	118.12
301.518	103.12
301.748	98.12
301.979	129.12
302.209	105.12
302.439	106.12
302.669	93.12
302.9	93.12
303.13	96.12
303.36	101.12
303.59	117.12
303.82	166.12
304.051	103.12
304.281	96.12
304.511	95.12
304.741	89.12
304.971	82.12
305.201	87.12
305.431	104.12
305.661	92.12
305.891	101.12
306.121	111.12
306.352	105.12
306.582	125.12
306.812	109.12
307.042	111.12
307.272	150.12
307.502	170.12
307.731	161.12
307.961	127.12
308.191	103.12
308.421	100.12
308.651	94.12
308.881	96.12
309.111	101.12
309.341	106.12
309.571	101.12
309.8	96.12
310.03	118.12
310.26	123.12
310.49	115.12
310.72	107.12
310.949	126.12
311.179	121.12
311.409	104.12
311.639	115.12
311.868	114.12
312.098	98.12
312.328	121.12
312.557	123.12
312.787	137.12
313.017	130.12
313.246	113.12
313.476	109.12
313.706	100.12
313.935	104.12
314.165	112.12
314.394	115.12
314.624	111.12
314.853	97.12
315.083	86.12
315.312	103.12
315.542	85.12
315.771	97.12
316.001	97.12
316.23	75.12
316.46	104.12
316.689	83.12
316.919	111.12
317.148	112.12
317.377	105.12
317.607	93.12
317.836	113.12
318.065	99.12
318.295	107.12
318.524	99.12
318.753	94.12
318.983	104.12
319.212	120.12
319.441	134.12
319.67	147.12
319.9	105.12
320.129	101.12
320.358	100.12
320.587	107.12
320.816	125.12
321.046	130.12
321.275	120.12
321.504	95.12
321.733	98.12
321.962	99.12
322.191	109.12
322.42	116.12
322.649	141.12
322.878	135.12
323.108	144.12
323.337	163.12
323.566	187.12
323.795	221.12
324.024	290.12
324.253	621.12
324.482	1307.12
324.71	2644.12
324.939	3529.12
325.168	1291.12
325.397	356.12
325.626	197.12
325.855	169.12
326.084	127.12
326.313	171.12
326.542	199.12
326.77	311.12
326.999	665.12
327.228	1322.12
327.457	2451.12
327.686	2000.12
327.914	665.12
328.143	561.12
328.372	650.12
328.6	415.12
328.829	214.12
329.058	243.12
329.287	265.12
329.515	194.12
329.744	236.12
329.972	446.12
330.201	911.12
330.43	1381.12
330.658	654.12
330.887	347.12
331.115	234.12
331.344	144.12
331.572	127.12
331.801	144.12
332.03	158.12
332.258	132.12
332.486	112.12
332.715	117.12
332.943	114.12
333.172	119.12
333.4	138.12
333.629	172.12
333.857	243.12
334.085	438.12
334.314	858.12
334.542	1694.12
334.771	1586.12
334.999	427.12
335.227	181.12
335.455	145.12
335.684	115.12
335.912	112.12
336.14	107.12
336.369	108.12
336.597	123.12
336.825	117.12
337.053	104.12
337.281	102.12
337.51	105.12
337.738	108.12
337.966	102.12
338.194	119.12
338.422	104.12
338.65	104.12
338.878	96.12
339.106	96.12
339.334	86.12
339.562	117.12
339.79	90.12
340.018	105.12
340.246	98.12
340.474	100.12
340.702	97.12
340.93	93.12
341.158	98.12
341.386	109.12
341.614	122.12
341.842	109.12
342.07	102.12
342.298	95.12
342.526	89.12
342.754	89.12
342.981	77.12
343.209	97.12
343.437	103.12
343.665	107.12
343.893	83.12
344.12	107.12
344.348	92.12
344.576	90.12
344.804	101.12
345.031	109.12
345.259	129.12
345.487	104.12
345.714	96.12
345.942	94.12
346.17	95.12
346.397	95.12
346.625	101.12
346.853	103.12
347.08	98.12
347.308	119.12
347.535	118.12
347.763	127.12
347.99	110.12
348.218	112.12
348.445	127.12
348.673	121.12
348.9	109.12
349.128	101.12
349.355	105.12
349.583	84.12
349.81	79.12
350.037	83.12
350.265	118.12
350.492	82.12
350.72	105.12
350.947	119.12
351.174	131.12
351.402	152.12
351.629	114.12
351.856	109.12
352.083	118.12
352.311	125.12
352.538	153.12
352.765	131.12
352.992	147.12
353.22	134.12
353.447	118.12
353.674	101.12
353.901	87.12
354.128	103.12
354.355	98.12
354.583	104.12
354.81	100.12
355.037	97.12
355.264	99.12
355.491	86.12
355.718	93.12
355.945	91.12
356.172	96.12
356.399	89.12
356.626	90.12
356.853	79.12
357.08	87.12
357.307	96.12
357.534	96.12
357.761	89.12
357.988	89.12
358.215	97.12
358.441	83.12
358.668	99.12
358.895	89.12
359.122	96.12
359.349	95.12
359.576	103.12
359.802	132.12
360.029	168.12
360.256	173.12
360.483	135.12
360.709	109.12
360.936	111.12
361.163	119.12
361.39	112.12
361.616	112.12
361.843	108.12
362.07	97.12
362.296	116.12
362.523	97.12
362.749	102.12
362.976	101.12
363.203	99.12
363.429	98.12
363.656	102.12
363.882	100.12
364.109	91.12
364.335	96.12
364.562	89.12
364.788	94.12
365.015	94.12
365.241	103.12
365.468	138.12
365.694	129.12
365.92	107.12
366.147	110.12
366.373	117.12
366.599	94.12
366.826	96.12
367.052	102.12
367.278	97.12
367.505	99.12
367.731	109.12
367.957	110.12
368.184	114.12
368.41	121.12
368.636	146.12
368.862	157.12
369.089	137.12
369.315	93.12
369.541	95.12
369.767	103.12
369.993	102.12
370.219	105.12
370.445	104.12
370.672	88.12
370.898	88.12
371.124	81.12
371.35	78.12
371.576	82.12
371.802	75.12
372.028	81.12
372.254	81.12
372.48	75.12
372.706	92.12
372.932	90.12
373.158	97.12
373.384	95.12
373.61	92.12
373.835	94.12
374.061	84.12
374.287	95.12
374.513	102.12
374.739	90.12
374.965	92.12
375.191	98.12
375.416	74.12
375.642	91.12
375.868	88.12
376.094	87.12
376.319	85.12
376.545	86.12
376.771	80.12
376.997	99.12
377.222	113.12
377.448	98.12
377.674	90.12
377.899	87.12
378.125	88.12
378.35	89.12
378.576	84.12
378.802	80.12
379.027	96.12
379.253	95.12
379.478	86.12
379.704	86.12
379.929	98.12
380.155	102.12
380.38	95.12
380.606	90.12
380.831	101.12
381.057	101.12
381.282	91.12
381.507	95.12
381.733	103.12
381.958	82.12
382.184	107.12
382.409	109.12
382.634	104.12
382.86	83.12
383.085	85.12
383.31	97.12
383.535	89.12
383.761	107.12
383.986	93.12
384.211	102.12
384.436	96.12
384.662	105.12
384.887	90.12
385.112	105.12
385.337	112.12
385.562	82.12
385.787	109.12
386.013	113.12
386.238	120.12
386.463	119.12
386.688	103.12
386.913	104.12
387.138	108.12
387.363	97.12
387.588	91.12
387.813	102.12
388.038	110.12
388.263	122.12
388.488	112.12
388.713	98.12
388.938	88.12
389.163	89.12
389.387	88.12
389.612	93.12
389.837	86.12
390.062	86.12
390.287	85.12
390.512	92.12
390.736	82.12
390.961	94.12
391.186	97.12
391.411	78.12
391.636	91.12
391.86	82.12
392.085	94.12
392.31	103.12
392.534	98.12
392.759	78.12
392.984	88.12
393.208	74.12
393.433	86.12
393.658	91.12
393.882	87.12
394.107	92.12
394.331	85.12
394.556	87.12
394.78	101.12
395.005	89.12
395.229	77.12
395.454	81.12
395.678	88.12
395.903	85.12
396.127	83.12
396.352	75.12
396.576	102.12
396.801	89.12
397.025	82.12
397.249	83.12
397.474	83.12
397.698	80.12
397.922	85.12
398.147	76.12
398.371	71.12
398.595	79.12
398.82	88.12
399.044	79.12
399.268	80.12
399.492	81.12
399.717	92.12
399.941	106.12
400.165	99.12
400.389	98.12
400.613	79.12
400.837	88.12
401.062	85.12
401.286	82.12
401.51	98.12
401.734	106.12
401.958	140.12
402.182	178.12
402.406	240.12
402.63	187.12
402.854	115.12
403.078	97.12
403.302	83.12
403.526	107.12
403.75	89.12
403.974	88.12
404.198	90.12
404.422	84.12
404.645	86.12
404.869	102.12
405.093	111.12
405.317	143.12
405.541	164.12
405.765	136.12
405.988	183.12
406.212	294.12
406.436	468.12
406.66	288.12
406.883	156.12
407.107	106.12
407.331	125.12
407.555	127.12
407.778	115.12
408.002	92.12
408.226	94.12
408.449	85.12
408.673	91.12
408.896	93.12
409.12	99.12
409.344	97.12
409.567	82.12
409.791	98.12
410.014	91.12
410.238	94.12
410.461	105.12
410.685	82.12
410.908	97.12
411.132	106.12
411.355	120.12
411.578	105.12
411.802	81.12
412.025	81.12
412.249	93.12
412.472	124.12
412.695	141.12
412.919	111.12
413.142	90.12
413.365	83.12
413.589	89.12
413.812	98.12
414.035	95.12
414.258	89.12
414.482	92.12
414.705	78.12
414.928	84.12
415.151	85.12
415.374	94.12
415.597	77.12
415.821	87.12
416.044	85.12
416.267	106.12
416.49	86.12
416.713	87.12
416.936	87.12
417.159	86.12
417.382	106.12
417.605	104.12
417.828	114.12
418.051	106.12
418.274	96.12
418.497	87.12
418.72	90.12
418.943	87.12
419.166	87.12
419.389	100.12
419.611	87.12
419.834	98.12
420.057	100.12
420.28	101.12
420.503	97.12
420.726	80.12
420.948	99.12
421.171	108.12
421.394	110.12
421.617	98.12
421.839	79.12
422.062	91.12
422.285	98.12
422.507	96.12
422.73	118.12
422.953	100.12
423.175	91.12
423.398	100.12
423.621	101.12
423.843	80.12
424.066	94.12
424.288	83.12
424.511	92.12
424.733	121.12
424.956	119.12
425.178	133.12
425.401	99.12
425.623	100.12
425.846	95.12
426.068	114.12
426.291	101.12
426.513	97.12
426.735	102.12
426.958	119.12
427.18	114.12
427.402	187.12
427.625	344.12
427.847	269.12
428.069	203.12
428.292	130.12
428.514	90.12
428.736	98.12
428.958	83.12
429.181	92.12
429.403	89.12
429.625	92.12
429.847	107.12
430.069	125.12
430.292	97.12
430.514	92.12
430.736	88.12
430.958	81.12
431.18	74.12
431.402	79.12
431.624	103.12
431.846	100.12
432.068	84.12
432.29	89.12
432.512	96.12
432.734	93.12
432.956	85.12
433.178	95.12
433.4	112.12
433.622	86.12
433.844	102.12
434.066	97.12
434.287	91.12
434.509	90.12
434.731	103.12
434.953	91.12
435.175	81.12
435.397	93.12
435.618	99.12
435.84	118.12
436.062	150.12
436.284	140.12
436.505	113.12
436.727	110.12
436.949	100.12
437.17	85.12
437.392	97.12
437.614	100.12
437.835	145.12
438.057	201.12
438.278	145.12
438.5	123.12
438.721	151.12
438.943	111.12
439.165	82.12
439.386	86.12
439.608	91.12
439.829	120.12
440.05	168.12
440.272	202.12
440.493	109.12
440.715	85.12
440.936	88.12
441.158	111.12
441.379	98.12
441.6	93.12
441.822	111.12
442.043	108.12
442.264	133.12
442.486	113.12
442.707	110.12
442.928	146.12
443.149	215.12
443.371	220.12
443.592	142.12
443.813	141.12
444.034	134.12
444.255	91.12
444.476	93.12
444.698	64.12
444.919	96.12
445.14	143.12
445.361	127.12
445.582	148.12
445.803	217.12
446.024	203.12
446.245	186.12
446.466	142.12
446.687	101.12
446.908	91.12
447.129	98.12
447.35	101.12
447.571	117.12
447.792	107.12
448.013	119.12
448.234	145.12
448.455	130.12
448.675	154.12
448.896	149.12
449.117	133.12
449.338	113.12
449.559	158.12
449.779	151.12
450	101.12
450.221	101.12
450.442	99.12
450.662	118.12
450.883	151.12
451.104	162.12
451.324	130.12
451.545	91.12
451.766	94.12
451.986	93.12
452.207	98.12
452.428	99.12
452.648	125.12
452.869	157.12
453.089	161.12
453.31	173.12
453.53	109.12
453.751	119.12
453.971	144.12
454.192	175.12
454.412	106.12
454.633	97.12
454.853	110.12
455.073	86.12
455.294	102.12
455.514	129.12
455.734	92.12
455.955	106.12
456.175	84.12
456.395	74.12
456.616	90.12
456.836	85.12
457.056	82.12
457.276	80.12
457.497	90.12
457.717	94.12
457.937	98.12
458.157	74.12
458.377	96.12
458.598	146.12
458.818	288.12
459.038	326.12
459.258	197.12
459.478	110.12
459.698	96.12
459.918	83.12
460.138	81.12
460.358	89.12
460.578	73.12
460.798	95.12
461.018	98.12
461.238	82.12
461.458	81.12
461.678	89.12
461.898	99.12
462.118	104.12
462.338	76.12
462.558	88.12
462.777	93.12
462.997	96.12
463.217	99.12
463.437	91.12
463.657	76.12
463.876	90.12
464.096	103.12
464.316	112.12
464.536	110.12
464.755	99.12
464.975	148.12
465.195	328.12
465.414	352.12
465.634	127.12
465.854	102.12
466.073	93.12
466.293	93.12
466.512	89.12
466.732	97.12
466.951	81.12
467.171	95.12
467.391	121.12
467.61	159.12
467.829	207.12
468.049	487.12
468.268	767.12
468.488	212.12
468.707	118.12
468.927	98.12
469.146	85.12
469.365	85.12
469.585	95.12
469.804	101.12
470.023	136.12
470.243	106.12
470.462	144.12
470.681	170.12
470.901	123.12
471.12	92.12
471.339	113.12
471.558	119.12
471.777	139.12
471.997	270.12
472.216	965.12
472.435	2273.12
472.654	556.12
472.873	172.12
473.092	113.12
473.311	97.12
473.53	89.12
473.749	88.12
473.968	118.12
474.187	138.12
474.406	108.12
474.625	97.12
474.844	95.12
475.063	88.12
475.282	84.12
475.501	81.12
475.72	66.12
475.939	66.12
476.158	98.12
476.377	87.12
476.596	94.12
476.814	92.12
477.033	87.12
477.252	106.12
477.471	97.12
477.69	95.12
477.908	103.12
478.127	105.12
478.346	81.12
478.564	86.12
478.783	109.12
479.002	107.12
479.22	107.12
479.439	149.12
479.658	147.12
479.876	127.12
480.095	128.12
480.313	120.12
480.532	148.12
480.751	262.12
480.969	874.12
481.188	3822.12
481.406	2300.12
481.624	341.12
481.843	143.12
482.061	112.12
482.28	98.12
482.498	110.12
482.717	101.12
482.935	86.12
483.153	95.12
483.372	88.12
483.59	77.12
483.808	89.12
484.027	91.12
484.245	83.12
484.463	103.12
484.681	105.12
484.9	94.12
485.118	86.12
485.336	97.12
485.554	106.12
485.772	93.12
485.99	104.12
486.209	117.12
486.427	107.12
486.645	131.12
486.863	163.12
487.081	135.12
487.299	117.12
487.517	97.12
487.735	95.12
487.953	97.12
488.171	110.12
488.389	93.12
488.607	101.12
488.825	97.12
489.043	94.12
489.261	93.12
489.479	89.12
489.696	100.12
489.914	99.12
490.132	84.12
490.35	83.12
490.568	91.12
490.786	85.12
491.003	98.12
491.221	93.12
491.439	90.12
491.657	82.12
491.874	90.12
492.092	79.12
492.31	100.12
492.527	99.12
492.745	95.12
492.963	93.12
493.18	86.12
493.398	100.12
493.615	99.12
493.833	102.12
494.05	101.12
494.268	72.12
494.485	103.12
494.703	73.12
494.92	80.12
495.138	90.12
495.355	110.12
495.573	90.12
495.79	88.12
496.008	94.12
496.225	93.12
496.442	87.12
496.66	91.12
496.877	83.12
497.094	80.12
497.312	88.12
497.529	100.12
497.746	97.12
497.963	100.12
498.181	106.12
498.398	100.12
498.615	129.12
498.832	117.12
499.049	94.12
499.267	94.12
499.484	94.12
499.701	87.12
499.918	91.12
500.135	85.12
500.352	94.12
500.569	102.12
500.786	99.12
501.003	101.12
501.22	86.12
501.437	88.12
501.654	101.12
501.871	150.12
502.088	100.12
502.305	78.12
502.522	94.12
502.739	91.12
502.956	90.12
503.172	95.12
503.389	107.12
503.606	157.12
503.823	122.12
504.04	99.12
504.256	87.12
504.473	89.12
504.69	92.12
504.907	77.12
505.123	89.12
505.34	84.12
505.557	91.12
505.773	103.12
505.99	88.12
506.207	95.12
506.423	80.12
506.64	93.12
506.856	96.12
507.073	94.12
507.289	105.12
507.506	122.12
507.722	143.12
507.939	157.12
508.155	107.12
508.372	98.12
508.588	98.12
508.805	112.12
509.021	96.12
509.238	106.12
509.454	98.12
509.67	123.12
509.887	132.12
510.103	158.12
510.319	321.12
510.536	1317.12
510.752	4913.12
510.968	1279.12
511.184	233.12
511.401	163.12
511.617	107.12
511.833	110.12
512.049	102.12
