Data from Circ_2007_H10_HRD10591_00063.txt Node
Date: Wed Jan 03 10:22:09 EST 2024
User: Yrep
Spectrometer: HR+D1059
Trigger mode: 1
Integration Time (sec): 1.000000E-1
Scans to average: 1
Electric dark correction enabled: true
Nonlinearity correction enabled: false
Boxcar width: 0
XAxis mode: Wavelengths
Number of Pixels in Spectrum: 2048
>>>>>Begin Spectral Data<<<<<
223.165	-16.56
223.4	-16.56
223.635	-16.56
223.869	-15.56
224.104	-32.56
224.338	-18.56
224.573	-22.56
224.808	-13.56
225.042	-8.56
225.277	-4.56
225.511	14.44
225.746	1.44
225.98	1.44
226.215	23.44
226.449	16.44
226.683	28.44
226.918	16.44
227.152	30.44
227.387	35.44
227.621	32.44
227.856	46.44
228.09	45.44
228.324	42.44
228.559	55.44
228.793	45.44
229.027	65.44
229.262	59.44
229.496	80.44
229.73	105.44
229.964	81.44
230.199	79.44
230.433	62.44
230.667	74.44
230.901	78.44
231.136	79.44
231.37	80.44
231.604	78.44
231.838	83.44
232.072	74.44
232.306	72.44
232.541	79.44
232.775	82.44
233.009	77.44
233.243	85.44
233.477	79.44
233.711	75.44
233.945	78.44
234.179	72.44
234.413	65.44
234.647	79.44
234.881	89.44
235.115	83.44
235.349	75.44
235.583	74.44
235.817	69.44
236.051	82.44
236.285	73.44
236.519	61.44
236.753	78.44
236.987	89.44
237.221	109.44
237.455	86.44
237.689	81.44
237.922	75.44
238.156	69.44
238.39	61.44
238.624	78.44
238.858	88.44
239.091	82.44
239.325	83.44
239.559	83.44
239.793	75.44
240.027	80.44
240.26	74.44
240.494	59.44
240.728	80.44
240.961	83.44
241.195	76.44
241.429	66.44
241.662	76.44
241.896	66.44
242.13	79.44
242.363	83.44
242.597	72.44
242.83	73.44
243.064	88.44
243.298	75.44
243.531	83.44
243.765	74.44
243.998	82.44
244.232	69.44
244.465	84.44
244.699	73.44
244.932	71.44
245.166	69.44
245.399	67.44
245.633	60.44
245.866	60.44
246.099	85.44
246.333	74.44
246.566	93.44
246.8	74.44
247.033	81.44
247.266	90.44
247.5	76.44
247.733	87.44
247.966	76.44
248.2	89.44
248.433	62.44
248.666	90.44
248.899	89.44
249.133	92.44
249.366	120.44
249.599	120.44
249.832	80.44
250.066	87.44
250.299	79.44
250.532	80.44
250.765	74.44
250.998	85.44
251.231	79.44
251.465	87.44
251.698	84.44
251.931	81.44
252.164	75.44
252.397	63.44
252.63	64.44
252.863	77.44
253.096	80.44
253.329	70.44
253.562	82.44
253.795	79.44
254.028	78.44
254.261	66.44
254.494	79.44
254.727	75.44
254.96	79.44
255.193	78.44
255.426	84.44
255.659	98.44
255.892	95.44
256.124	78.44
256.357	92.44
256.59	78.44
256.823	86.44
257.056	78.44
257.289	82.44
257.521	101.44
257.754	82.44
257.987	79.44
258.22	89.44
258.452	97.44
258.685	93.44
258.918	76.44
259.151	89.44
259.383	80.44
259.616	86.44
259.849	76.44
260.081	91.44
260.314	73.44
260.547	86.44
260.779	86.44
261.012	84.44
261.244	95.44
261.477	84.44
261.71	108.44
261.942	123.44
262.175	137.44
262.407	107.44
262.64	83.44
262.872	77.44
263.105	86.44
263.337	98.44
263.57	88.44
263.802	83.44
264.035	83.44
264.267	79.44
264.499	70.44
264.732	90.44
264.964	87.44
265.197	92.44
265.429	90.44
265.661	95.44
265.894	94.44
266.126	82.44
266.358	94.44
266.591	76.44
266.823	77.44
267.055	86.44
267.287	86.44
267.52	95.44
267.752	79.44
267.984	86.44
268.216	77.44
268.448	91.44
268.681	94.44
268.913	83.44
269.145	93.44
269.377	81.44
269.609	73.44
269.841	86.44
270.073	82.44
270.306	83.44
270.538	101.44
270.77	82.44
271.002	74.44
271.234	87.44
271.466	90.44
271.698	94.44
271.93	79.44
272.162	83.44
272.394	77.44
272.626	80.44
272.858	83.44
273.09	79.44
273.322	88.44
273.553	83.44
273.785	72.44
274.017	86.44
274.249	94.44
274.481	91.44
274.713	89.44
274.945	77.44
275.176	93.44
275.408	104.44
275.64	91.44
275.872	115.44
276.104	103.44
276.335	105.44
276.567	111.44
276.799	124.44
277.031	154.44
277.262	150.44
277.494	133.44
277.726	94.44
277.957	108.44
278.189	92.44
278.421	81.44
278.652	93.44
278.884	86.44
279.115	99.44
279.347	92.44
279.579	107.44
279.81	109.44
280.042	153.44
280.273	218.44
280.505	156.44
280.736	110.44
280.968	86.44
281.199	92.44
281.431	87.44
281.662	84.44
281.894	78.44
282.125	83.44
282.356	144.44
282.588	165.44
282.819	118.44
283.051	74.44
283.282	88.44
283.513	87.44
283.745	98.44
283.976	88.44
284.207	87.44
284.439	89.44
284.67	67.44
284.901	85.44
285.132	81.44
285.364	80.44
285.595	76.44
285.826	80.44
286.057	80.44
286.288	85.44
286.52	88.44
286.751	83.44
286.982	89.44
287.213	74.44
287.444	79.44
287.675	76.44
287.906	95.44
288.138	79.44
288.369	107.44
288.6	89.44
288.831	103.44
289.062	87.44
289.293	101.44
289.524	74.44
289.755	81.44
289.986	84.44
290.217	90.44
290.448	74.44
290.679	77.44
290.91	91.44
291.141	87.44
291.371	103.44
291.602	91.44
291.833	72.44
292.064	70.44
292.295	71.44
292.526	86.44
292.757	102.44
292.987	94.44
293.218	86.44
293.449	98.44
293.68	101.44
293.91	93.44
294.141	81.44
294.372	90.44
294.603	82.44
294.833	94.44
295.064	91.44
295.295	75.44
295.525	93.44
295.756	110.44
295.987	137.44
296.217	173.44
296.448	139.44
296.679	113.44
296.909	88.44
297.14	88.44
297.37	84.44
297.601	87.44
297.831	96.44
298.062	89.44
298.292	102.44
298.523	92.44
298.753	94.44
298.984	78.44
299.214	107.44
299.445	104.44
299.675	88.44
299.905	95.44
300.136	97.44
300.366	83.44
300.597	104.44
300.827	91.44
301.057	107.44
301.288	137.44
301.518	91.44
301.748	91.44
301.979	118.44
302.209	112.44
302.439	109.44
302.669	102.44
302.9	78.44
303.13	86.44
303.36	99.44
303.59	123.44
303.82	125.44
304.051	98.44
304.281	102.44
304.511	80.44
304.741	94.44
304.971	85.44
305.201	91.44
305.431	88.44
305.661	102.44
305.891	90.44
306.121	96.44
306.352	103.44
306.582	107.44
306.812	110.44
307.042	103.44
307.272	136.44
307.502	157.44
307.731	146.44
307.961	103.44
308.191	91.44
308.421	86.44
308.651	85.44
308.881	93.44
309.111	80.44
309.341	101.44
309.571	81.44
309.8	106.44
310.03	114.44
310.26	118.44
310.49	104.44
310.72	109.44
310.949	117.44
311.179	117.44
311.409	112.44
311.639	105.44
311.868	88.44
312.098	96.44
312.328	97.44
312.557	111.44
312.787	136.44
313.017	113.44
313.246	102.44
313.476	82.44
313.706	94.44
313.935	103.44
314.165	109.44
314.394	95.44
314.624	106.44
314.853	105.44
315.083	90.44
315.312	107.44
315.542	87.44
315.771	95.44
316.001	81.44
316.23	86.44
316.46	75.44
316.689	101.44
316.919	107.44
317.148	96.44
317.377	111.44
317.607	110.44
317.836	99.44
318.065	87.44
318.295	95.44
318.524	75.44
318.753	97.44
318.983	97.44
319.212	114.44
319.441	110.44
319.67	110.44
319.9	92.44
320.129	94.44
320.358	97.44
320.587	104.44
320.816	117.44
321.046	110.44
321.275	108.44
321.504	98.44
321.733	104.44
321.962	97.44
322.191	108.44
322.42	111.44
322.649	129.44
322.878	118.44
323.108	142.44
323.337	144.44
323.566	158.44
323.795	187.44
324.024	258.44
324.253	564.44
324.482	1230.44
324.71	2625.44
324.939	3563.44
325.168	1278.44
325.397	345.44
325.626	185.44
325.855	145.44
326.084	142.44
326.313	161.44
326.542	194.44
326.77	306.44
326.999	632.44
327.228	1384.44
327.457	2593.44
327.686	2046.44
327.914	603.44
328.143	471.44
328.372	556.44
328.6	329.44
328.829	193.44
329.058	187.44
329.287	193.44
329.515	187.44
329.744	207.44
329.972	378.44
330.201	788.44
330.43	1152.44
330.658	549.44
330.887	275.44
331.115	202.44
331.344	133.44
331.572	117.44
331.801	131.44
332.03	122.44
332.258	99.44
332.486	115.44
332.715	109.44
332.943	110.44
333.172	105.44
333.4	119.44
333.629	155.44
333.857	206.44
334.085	346.44
334.314	737.44
334.542	1427.44
334.771	1392.44
334.999	365.44
335.227	165.44
335.455	137.44
335.684	120.44
335.912	98.44
336.14	91.44
336.369	118.44
336.597	107.44
336.825	97.44
337.053	93.44
337.281	97.44
337.51	101.44
337.738	108.44
337.966	84.44
338.194	110.44
338.422	107.44
338.65	98.44
338.878	93.44
339.106	97.44
339.334	83.44
339.562	87.44
339.79	94.44
340.018	92.44
340.246	92.44
340.474	107.44
340.702	84.44
340.93	83.44
341.158	99.44
341.386	102.44
341.614	106.44
341.842	82.44
342.07	98.44
342.298	94.44
342.526	90.44
342.754	84.44
342.981	96.44
343.209	80.44
343.437	87.44
343.665	86.44
343.893	86.44
344.12	101.44
344.348	84.44
344.576	86.44
344.804	100.44
345.031	108.44
345.259	125.44
345.487	103.44
345.714	94.44
345.942	85.44
346.17	95.44
346.397	102.44
346.625	93.44
346.853	88.44
347.08	89.44
347.308	106.44
347.535	107.44
347.763	121.44
347.99	105.44
348.218	114.44
348.445	119.44
348.673	114.44
348.9	109.44
349.128	94.44
349.355	86.44
349.583	103.44
349.81	93.44
350.037	104.44
350.265	92.44
350.492	88.44
350.72	107.44
350.947	98.44
351.174	113.44
351.402	129.44
351.629	105.44
351.856	113.44
352.083	109.44
352.311	122.44
352.538	129.44
352.765	113.44
352.992	122.44
353.22	125.44
353.447	94.44
353.674	110.44
353.901	109.44
354.128	98.44
354.355	90.44
354.583	103.44
354.81	107.44
355.037	102.44
355.264	91.44
355.491	110.44
355.718	100.44
355.945	85.44
356.172	86.44
356.399	78.44
356.626	81.44
356.853	83.44
357.08	95.44
357.307	84.44
357.534	70.44
357.761	92.44
357.988	97.44
358.215	92.44
358.441	81.44
358.668	82.44
358.895	98.44
359.122	107.44
359.349	81.44
359.576	102.44
359.802	125.44
360.029	160.44
360.256	144.44
360.483	129.44
360.709	90.44
360.936	102.44
361.163	100.44
361.39	101.44
361.616	104.44
361.843	103.44
362.07	109.44
362.296	122.44
362.523	98.44
362.749	103.44
362.976	91.44
363.203	98.44
363.429	94.44
363.656	93.44
363.882	83.44
364.109	88.44
364.335	96.44
364.562	103.44
364.788	93.44
365.015	108.44
365.241	104.44
365.468	114.44
365.694	109.44
365.92	113.44
366.147	107.44
366.373	99.44
366.599	103.44
366.826	87.44
367.052	93.44
367.278	92.44
367.505	104.44
367.731	100.44
367.957	86.44
368.184	103.44
368.41	102.44
368.636	125.44
368.862	120.44
369.089	136.44
369.315	98.44
369.541	97.44
369.767	88.44
369.993	94.44
370.219	97.44
370.445	95.44
370.672	91.44
370.898	76.44
371.124	67.44
371.35	89.44
371.576	93.44
371.802	85.44
372.028	88.44
372.254	81.44
372.48	82.44
372.706	76.44
372.932	77.44
373.158	85.44
373.384	85.44
373.61	96.44
373.835	91.44
374.061	86.44
374.287	87.44
374.513	97.44
374.739	72.44
374.965	75.44
375.191	80.44
375.416	87.44
375.642	75.44
375.868	85.44
376.094	94.44
376.319	97.44
376.545	92.44
376.771	103.44
376.997	92.44
377.222	90.44
377.448	85.44
377.674	79.44
377.899	80.44
378.125	95.44
378.35	81.44
378.576	93.44
378.802	90.44
379.027	87.44
379.253	87.44
379.478	69.44
379.704	85.44
379.929	95.44
380.155	95.44
380.38	88.44
380.606	91.44
380.831	96.44
381.057	107.44
381.282	96.44
381.507	78.44
381.733	93.44
381.958	98.44
382.184	92.44
382.409	102.44
382.634	99.44
382.86	101.44
383.085	95.44
383.31	83.44
383.535	95.44
383.761	88.44
383.986	91.44
384.211	90.44
384.436	96.44
384.662	107.44
384.887	93.44
385.112	92.44
385.337	89.44
385.562	102.44
385.787	110.44
386.013	115.44
386.238	108.44
386.463	105.44
386.688	120.44
386.913	93.44
387.138	91.44
387.363	99.44
387.588	88.44
387.813	102.44
388.038	97.44
388.263	119.44
388.488	111.44
388.713	95.44
388.938	78.44
389.163	77.44
389.387	89.44
389.612	78.44
389.837	88.44
390.062	104.44
390.287	85.44
390.512	92.44
390.736	92.44
390.961	83.44
391.186	97.44
391.411	95.44
391.636	80.44
391.86	70.44
392.085	88.44
392.31	98.44
392.534	91.44
392.759	82.44
392.984	93.44
393.208	70.44
393.433	78.44
393.658	83.44
393.882	83.44
394.107	81.44
394.331	87.44
394.556	71.44
394.78	82.44
395.005	80.44
395.229	85.44
395.454	80.44
395.678	87.44
395.903	89.44
396.127	85.44
396.352	83.44
396.576	82.44
396.801	83.44
397.025	81.44
397.249	94.44
397.474	94.44
397.698	86.44
397.922	73.44
398.147	82.44
398.371	79.44
398.595	86.44
398.82	79.44
399.044	95.44
399.268	101.44
399.492	84.44
399.717	85.44
399.941	90.44
400.165	92.44
400.389	92.44
400.613	100.44
400.837	90.44
401.062	87.44
401.286	80.44
401.51	94.44
401.734	97.44
401.958	103.44
402.182	151.44
402.406	208.44
402.63	162.44
402.854	113.44
403.078	89.44
403.302	94.44
403.526	97.44
403.75	83.44
403.974	83.44
404.198	91.44
404.422	77.44
404.645	87.44
404.869	110.44
405.093	112.44
405.317	137.44
405.541	143.44
405.765	103.44
405.988	136.44
406.212	213.44
406.436	330.44
406.66	236.44
406.883	126.44
407.107	109.44
407.331	103.44
407.555	116.44
407.778	104.44
408.002	97.44
408.226	78.44
408.449	85.44
408.673	88.44
408.896	95.44
409.12	96.44
409.344	86.44
409.567	77.44
409.791	89.44
410.014	105.44
410.238	87.44
410.461	86.44
410.685	95.44
410.908	104.44
411.132	106.44
411.355	107.44
411.578	103.44
411.802	83.44
412.025	79.44
412.249	112.44
412.472	103.44
412.695	151.44
412.919	104.44
413.142	87.44
413.365	72.44
413.589	89.44
413.812	85.44
414.035	82.44
414.258	85.44
414.482	81.44
414.705	88.44
414.928	81.44
415.151	83.44
415.374	94.44
415.597	96.44
415.821	83.44
416.044	86.44
416.267	106.44
416.49	86.44
416.713	75.44
416.936	83.44
417.159	99.44
417.382	97.44
417.605	101.44
417.828	104.44
418.051	105.44
418.274	89.44
418.497	79.44
418.72	89.44
418.943	97.44
419.166	74.44
419.389	72.44
419.611	91.44
419.834	83.44
420.057	83.44
420.28	98.44
420.503	86.44
420.726	87.44
420.948	93.44
421.171	109.44
421.394	111.44
421.617	86.44
421.839	86.44
422.062	93.44
422.285	99.44
422.507	98.44
422.73	109.44
422.953	101.44
423.175	97.44
423.398	110.44
423.621	92.44
423.843	90.44
424.066	88.44
424.288	89.44
424.511	79.44
424.733	114.44
424.956	113.44
425.178	111.44
425.401	125.44
425.623	110.44
425.846	90.44
426.068	97.44
426.291	92.44
426.513	106.44
426.735	104.44
426.958	83.44
427.18	133.44
427.402	197.44
427.625	287.44
427.847	241.44
428.069	213.44
428.292	123.44
428.514	95.44
428.736	91.44
428.958	83.44
429.181	87.44
429.403	82.44
429.625	97.44
429.847	91.44
430.069	109.44
430.292	101.44
430.514	79.44
430.736	83.44
430.958	87.44
431.18	87.44
431.402	73.44
431.624	69.44
431.846	82.44
432.068	74.44
432.29	86.44
432.512	93.44
432.734	86.44
432.956	79.44
433.178	90.44
433.4	101.44
433.622	95.44
433.844	94.44
434.066	81.44
434.287	98.44
434.509	93.44
434.731	86.44
434.953	85.44
435.175	99.44
435.397	82.44
435.618	102.44
435.84	113.44
436.062	138.44
436.284	143.44
436.505	108.44
436.727	99.44
436.949	94.44
437.17	82.44
437.392	93.44
437.614	91.44
437.835	125.44
438.057	162.44
438.278	139.44
438.5	130.44
438.721	152.44
438.943	110.44
439.165	89.44
439.386	92.44
439.608	80.44
439.829	132.44
440.05	167.44
440.272	209.44
440.493	136.44
440.715	102.44
440.936	63.44
441.158	98.44
441.379	86.44
441.6	102.44
441.822	99.44
442.043	106.44
442.264	120.44
442.486	116.44
442.707	98.44
442.928	122.44
443.149	172.44
443.371	177.44
443.592	136.44
443.813	139.44
444.034	137.44
444.255	91.44
444.476	81.44
444.698	95.44
444.919	94.44
445.14	149.44
445.361	137.44
445.582	153.44
445.803	207.44
446.024	200.44
446.245	171.44
446.466	140.44
446.687	107.44
446.908	91.44
447.129	86.44
447.35	94.44
447.571	95.44
447.792	93.44
448.013	112.44
448.234	114.44
448.455	112.44
448.675	129.44
448.896	155.44
449.117	108.44
449.338	116.44
449.559	158.44
449.779	170.44
450	111.44
450.221	103.44
450.442	105.44
450.662	98.44
450.883	139.44
451.104	135.44
451.324	101.44
451.545	107.44
451.766	77.44
451.986	103.44
452.207	95.44
452.428	97.44
452.648	111.44
452.869	145.44
453.089	128.44
453.31	155.44
453.53	107.44
453.751	94.44
453.971	130.44
454.192	146.44
454.412	103.44
454.633	77.44
454.853	92.44
455.073	78.44
455.294	93.44
455.514	116.44
455.734	79.44
455.955	91.44
456.175	94.44
456.395	89.44
456.616	84.44
456.836	77.44
457.056	88.44
457.276	64.44
457.497	91.44
457.717	77.44
457.937	88.44
458.157	75.44
458.377	104.44
458.598	145.44
458.818	230.44
459.038	261.44
459.258	177.44
459.478	104.44
459.698	82.44
459.918	68.44
460.138	86.44
460.358	88.44
460.578	78.44
460.798	82.44
461.018	93.44
461.238	65.44
461.458	88.44
461.678	72.44
461.898	85.44
462.118	83.44
462.338	75.44
462.558	80.44
462.777	88.44
462.997	98.44
463.217	100.44
463.437	74.44
463.657	82.44
463.876	92.44
464.096	90.44
464.316	98.44
464.536	100.44
464.755	91.44
464.975	133.44
465.195	256.44
465.414	237.44
465.634	96.44
465.854	94.44
466.073	99.44
466.293	92.44
466.512	87.44
466.732	91.44
466.951	108.44
467.171	99.44
467.391	108.44
467.61	124.44
467.829	193.44
468.049	405.44
468.268	625.44
468.488	183.44
468.707	103.44
468.927	86.44
469.146	93.44
469.365	77.44
469.585	86.44
469.804	108.44
470.023	126.44
470.243	114.44
470.462	123.44
470.681	141.44
470.901	109.44
471.12	96.44
471.339	83.44
471.558	113.44
471.777	144.44
471.997	240.44
472.216	797.44
472.435	1827.44
472.654	493.44
472.873	164.44
473.092	97.44
473.311	99.44
473.53	89.44
473.749	102.44
473.968	112.44
474.187	131.44
474.406	118.44
474.625	81.44
474.844	92.44
475.063	92.44
475.282	80.44
475.501	98.44
475.72	89.44
475.939	87.44
476.158	85.44
476.377	101.44
476.596	99.44
476.814	102.44
477.033	102.44
477.252	85.44
477.471	103.44
477.69	94.44
477.908	98.44
478.127	97.44
478.346	98.44
478.564	95.44
478.783	104.44
479.002	99.44
479.22	102.44
479.439	121.44
479.658	130.44
479.876	131.44
480.095	120.44
480.313	129.44
480.532	151.44
480.751	233.44
480.969	754.44
481.188	3117.44
481.406	1969.44
481.624	311.44
481.843	122.44
482.061	107.44
482.28	98.44
482.498	87.44
482.717	85.44
482.935	75.44
483.153	80.44
483.372	92.44
483.59	90.44
483.808	83.44
484.027	86.44
484.245	98.44
484.463	99.44
484.681	102.44
484.9	91.44
485.118	90.44
485.336	86.44
485.554	100.44
485.772	103.44
485.99	109.44
486.209	108.44
486.427	118.44
486.645	123.44
486.863	128.44
487.081	108.44
487.299	89.44
487.517	90.44
487.735	95.44
487.953	109.44
488.171	98.44
488.389	96.44
488.607	101.44
488.825	89.44
489.043	87.44
489.261	93.44
489.479	72.44
489.696	88.44
489.914	90.44
490.132	85.44
490.35	97.44
490.568	82.44
490.786	86.44
491.003	93.44
491.221	72.44
491.439	106.44
491.657	96.44
491.874	99.44
492.092	79.44
492.31	88.44
492.527	80.44
492.745	101.44
492.963	88.44
493.18	83.44
493.398	94.44
493.615	105.44
493.833	83.44
494.05	86.44
494.268	97.44
494.485	99.44
494.703	81.44
494.92	94.44
495.138	84.44
495.355	85.44
495.573	94.44
495.79	87.44
496.008	86.44
496.225	91.44
496.442	89.44
496.66	85.44
496.877	101.44
497.094	101.44
497.312	103.44
497.529	106.44
497.746	84.44
497.963	100.44
498.181	90.44
498.398	104.44
498.615	118.44
498.832	113.44
499.049	91.44
499.267	92.44
499.484	87.44
499.701	93.44
499.918	89.44
500.135	87.44
500.352	99.44
500.569	84.44
500.786	99.44
501.003	100.44
501.22	93.44
501.437	79.44
501.654	96.44
501.871	139.44
502.088	94.44
502.305	95.44
502.522	97.44
502.739	80.44
502.956	80.44
503.172	95.44
503.389	94.44
503.606	114.44
503.823	108.44
504.04	98.44
504.256	94.44
504.473	93.44
504.69	90.44
504.907	80.44
505.123	85.44
505.34	73.44
505.557	88.44
505.773	93.44
505.99	93.44
506.207	82.44
506.423	89.44
506.64	89.44
506.856	95.44
507.073	85.44
507.289	94.44
507.506	96.44
507.722	133.44
507.939	140.44
508.155	100.44
508.372	89.44
508.588	98.44
508.805	86.44
509.021	100.44
509.238	94.44
509.454	95.44
509.67	98.44
509.887	115.44
510.103	138.44
510.319	225.44
510.536	955.44
510.752	3386.44
510.968	951.44
511.184	183.44
511.401	128.44
511.617	110.44
511.833	117.44
512.049	87.44
512.265	87.44
512.481	98.44
512.698	101.44
512.914	100.44
513.13	105.44
513.346	93.44
513.562	98.44
