Data from Circ_2007_H10_HRD10591_00097.txt Node
Date: Wed Jan 03 10:22:16 EST 2024
User: Yrep
Spectrometer: HR+D1059
Trigger mode: 1
Integration Time (sec): 1.000000E-1
Scans to average: 1
Electric dark correction enabled: true
Nonlinearity correction enabled: false
Boxcar width: 0
XAxis mode: Wavelengths
Number of Pixels in Spectrum: 2048
>>>>>Begin Spectral Data<<<<<
223.165	-8.81
223.4	-8.81
223.635	-8.81
223.869	-26.81
224.104	-13.81
224.338	-23.81
224.573	-15.81
224.808	-17.81
225.042	-0.81
225.277	-13.81
225.511	-1.81
225.746	3.19
225.98	19.19
226.215	16.19
226.449	13.19
226.683	16.19
226.918	20.19
227.152	35.19
227.387	35.19
227.621	28.19
227.856	47.19
228.09	62.19
228.324	34.19
228.559	49.19
228.793	65.19
229.027	58.19
229.262	68.19
229.496	90.19
229.73	102.19
229.964	102.19
230.199	67.19
230.433	81.19
230.667	76.19
230.901	88.19
231.136	89.19
231.37	76.19
231.604	82.19
231.838	73.19
232.072	79.19
232.306	83.19
232.541	95.19
232.775	76.19
233.009	100.19
233.243	76.19
233.477	89.19
233.711	87.19
233.945	84.19
234.179	72.19
234.413	90.19
234.647	85.19
234.881	91.19
235.115	73.19
235.349	83.19
235.583	84.19
235.817	89.19
236.051	79.19
236.285	82.19
236.519	92.19
236.753	76.19
236.987	75.19
237.221	101.19
237.455	82.19
237.689	93.19
237.922	87.19
238.156	76.19
238.39	90.19
238.624	86.19
238.858	81.19
239.091	82.19
239.325	78.19
239.559	82.19
239.793	85.19
240.027	82.19
240.26	84.19
240.494	77.19
240.728	89.19
240.961	82.19
241.195	79.19
241.429	81.19
241.662	68.19
241.896	67.19
242.13	75.19
242.363	79.19
242.597	86.19
242.83	85.19
243.064	84.19
243.298	72.19
243.531	76.19
243.765	78.19
243.998	82.19
244.232	97.19
244.465	83.19
244.699	94.19
244.932	76.19
245.166	94.19
245.399	78.19
245.633	82.19
245.866	81.19
246.099	70.19
246.333	91.19
246.566	84.19
246.8	86.19
247.033	84.19
247.266	77.19
247.5	66.19
247.733	87.19
247.966	75.19
248.2	89.19
248.433	90.19
248.666	68.19
248.899	85.19
249.133	85.19
249.366	123.19
249.599	95.19
249.832	92.19
250.066	94.19
250.299	91.19
250.532	88.19
250.765	87.19
250.998	86.19
251.231	75.19
251.465	79.19
251.698	94.19
251.931	76.19
252.164	81.19
252.397	76.19
252.63	64.19
252.863	90.19
253.096	87.19
253.329	79.19
253.562	81.19
253.795	56.19
254.028	90.19
254.261	76.19
254.494	79.19
254.727	79.19
254.96	84.19
255.193	110.19
255.426	106.19
255.659	85.19
255.892	66.19
256.124	87.19
256.357	87.19
256.59	82.19
256.823	83.19
257.056	91.19
257.289	91.19
257.521	79.19
257.754	75.19
257.987	91.19
258.22	89.19
258.452	87.19
258.685	93.19
258.918	83.19
259.151	90.19
259.383	83.19
259.616	91.19
259.849	80.19
260.081	85.19
260.314	80.19
260.547	78.19
260.779	90.19
261.012	92.19
261.244	113.19
261.477	107.19
261.71	111.19
261.942	102.19
262.175	118.19
262.407	94.19
262.64	94.19
262.872	85.19
263.105	91.19
263.337	81.19
263.57	90.19
263.802	82.19
264.035	65.19
264.267	90.19
264.499	86.19
264.732	83.19
264.964	87.19
265.197	94.19
265.429	78.19
265.661	80.19
265.894	89.19
266.126	83.19
266.358	86.19
266.591	69.19
266.823	80.19
267.055	80.19
267.287	73.19
267.52	86.19
267.752	81.19
267.984	87.19
268.216	82.19
268.448	87.19
268.681	102.19
268.913	86.19
269.145	102.19
269.377	88.19
269.609	88.19
269.841	90.19
270.073	85.19
270.306	88.19
270.538	100.19
270.77	88.19
271.002	93.19
271.234	93.19
271.466	111.19
271.698	100.19
271.93	78.19
272.162	88.19
272.394	88.19
272.626	90.19
272.858	85.19
273.09	99.19
273.322	88.19
273.553	96.19
273.785	70.19
274.017	88.19
274.249	98.19
274.481	91.19
274.713	98.19
274.945	91.19
275.176	95.19
275.408	95.19
275.64	96.19
275.872	95.19
276.104	90.19
276.335	111.19
276.567	107.19
276.799	126.19
277.031	139.19
277.262	149.19
277.494	133.19
277.726	88.19
277.957	86.19
278.189	94.19
278.421	83.19
278.652	88.19
278.884	87.19
279.115	92.19
279.347	95.19
279.579	96.19
279.81	112.19
280.042	162.19
280.273	186.19
280.505	145.19
280.736	107.19
280.968	96.19
281.199	95.19
281.431	104.19
281.662	104.19
281.894	97.19
282.125	87.19
282.356	127.19
282.588	153.19
282.819	137.19
283.051	94.19
283.282	88.19
283.513	94.19
283.745	101.19
283.976	82.19
284.207	86.19
284.439	92.19
284.67	88.19
284.901	97.19
285.132	103.19
285.364	85.19
285.595	94.19
285.826	80.19
286.057	87.19
286.288	88.19
286.52	87.19
286.751	86.19
286.982	97.19
287.213	76.19
287.444	88.19
287.675	94.19
287.906	94.19
288.138	88.19
288.369	104.19
288.6	107.19
288.831	86.19
289.062	102.19
289.293	95.19
289.524	89.19
289.755	88.19
289.986	79.19
290.217	84.19
290.448	87.19
290.679	88.19
290.91	103.19
291.141	96.19
291.371	94.19
291.602	98.19
291.833	94.19
292.064	82.19
292.295	95.19
292.526	87.19
292.757	113.19
292.987	91.19
293.218	95.19
293.449	83.19
293.68	76.19
293.91	86.19
294.141	115.19
294.372	96.19
294.603	86.19
294.833	82.19
295.064	78.19
295.295	99.19
295.525	101.19
295.756	92.19
295.987	125.19
296.217	159.19
296.448	130.19
296.679	86.19
296.909	87.19
297.14	108.19
297.37	88.19
297.601	106.19
297.831	93.19
298.062	94.19
298.292	96.19
298.523	88.19
298.753	95.19
298.984	91.19
299.214	91.19
299.445	102.19
299.675	106.19
299.905	108.19
300.136	87.19
300.366	99.19
300.597	92.19
300.827	91.19
301.057	116.19
301.288	116.19
301.518	105.19
301.748	87.19
301.979	100.19
302.209	87.19
302.439	102.19
302.669	106.19
302.9	96.19
303.13	91.19
303.36	102.19
303.59	123.19
303.82	130.19
304.051	95.19
304.281	89.19
304.511	92.19
304.741	91.19
304.971	82.19
305.201	100.19
305.431	111.19
305.661	90.19
305.891	89.19
306.121	106.19
306.352	104.19
306.582	110.19
306.812	96.19
307.042	99.19
307.272	130.19
307.502	145.19
307.731	137.19
307.961	109.19
308.191	97.19
308.421	99.19
308.651	102.19
308.881	103.19
309.111	103.19
309.341	111.19
309.571	96.19
309.8	102.19
310.03	107.19
310.26	118.19
310.49	97.19
310.72	102.19
310.949	109.19
311.179	108.19
311.409	100.19
311.639	95.19
311.868	103.19
312.098	103.19
312.328	85.19
312.557	98.19
312.787	131.19
313.017	108.19
313.246	88.19
313.476	90.19
313.706	94.19
313.935	107.19
314.165	94.19
314.394	111.19
314.624	118.19
314.853	107.19
315.083	95.19
315.312	92.19
315.542	100.19
315.771	86.19
316.001	101.19
316.23	91.19
316.46	96.19
316.689	85.19
316.919	94.19
317.148	106.19
317.377	89.19
317.607	98.19
317.836	93.19
318.065	100.19
318.295	91.19
318.524	110.19
318.753	95.19
318.983	95.19
319.212	102.19
319.441	133.19
319.67	115.19
319.9	89.19
320.129	82.19
320.358	89.19
320.587	109.19
320.816	113.19
321.046	94.19
321.275	99.19
321.504	107.19
321.733	94.19
321.962	104.19
322.191	126.19
322.42	127.19
322.649	117.19
322.878	126.19
323.108	130.19
323.337	142.19
323.566	157.19
323.795	163.19
324.024	227.19
324.253	475.19
324.482	1013.19
324.71	2089.19
324.939	2759.19
325.168	1010.19
325.397	283.19
325.626	158.19
325.855	136.19
326.084	138.19
326.313	150.19
326.542	169.19
326.77	272.19
326.999	531.19
327.228	1127.19
327.457	2048.19
327.686	1640.19
327.914	511.19
328.143	396.19
328.372	460.19
328.6	293.19
328.829	176.19
329.058	172.19
329.287	180.19
329.515	149.19
329.744	194.19
329.972	333.19
330.201	639.19
330.43	950.19
330.658	467.19
330.887	229.19
331.115	181.19
331.344	119.19
331.572	123.19
331.801	129.19
332.03	134.19
332.258	104.19
332.486	99.19
332.715	102.19
332.943	117.19
333.172	113.19
333.4	115.19
333.629	150.19
333.857	178.19
334.085	295.19
334.314	629.19
334.542	1173.19
334.771	1122.19
334.999	323.19
335.227	140.19
335.455	107.19
335.684	104.19
335.912	118.19
336.14	93.19
336.369	111.19
336.597	118.19
336.825	120.19
337.053	89.19
337.281	87.19
337.51	109.19
337.738	111.19
337.966	110.19
338.194	106.19
338.422	87.19
338.65	99.19
338.878	98.19
339.106	96.19
339.334	106.19
339.562	87.19
339.79	87.19
340.018	86.19
340.246	101.19
340.474	85.19
340.702	85.19
340.93	93.19
341.158	105.19
341.386	97.19
341.614	103.19
341.842	87.19
342.07	105.19
342.298	93.19
342.526	94.19
342.754	87.19
342.981	94.19
343.209	88.19
343.437	106.19
343.665	87.19
343.893	93.19
344.12	101.19
344.348	103.19
344.576	98.19
344.804	108.19
345.031	107.19
345.259	105.19
345.487	109.19
345.714	94.19
345.942	91.19
346.17	90.19
346.397	86.19
346.625	92.19
346.853	99.19
347.08	93.19
347.308	96.19
347.535	95.19
347.763	100.19
347.99	101.19
348.218	101.19
348.445	115.19
348.673	118.19
348.9	108.19
349.128	98.19
349.355	105.19
349.583	94.19
349.81	94.19
350.037	98.19
350.265	90.19
350.492	108.19
350.72	86.19
350.947	106.19
351.174	124.19
351.402	122.19
351.629	119.19
351.856	96.19
352.083	121.19
352.311	109.19
352.538	115.19
352.765	135.19
352.992	132.19
353.22	113.19
353.447	106.19
353.674	101.19
353.901	97.19
354.128	85.19
354.355	93.19
354.583	87.19
354.81	104.19
355.037	96.19
355.264	103.19
355.491	93.19
355.718	91.19
355.945	94.19
356.172	100.19
356.399	93.19
356.626	98.19
356.853	90.19
357.08	88.19
357.307	81.19
357.534	94.19
357.761	95.19
357.988	98.19
358.215	84.19
358.441	92.19
358.668	80.19
358.895	93.19
359.122	86.19
359.349	100.19
359.576	87.19
359.802	116.19
360.029	127.19
360.256	139.19
360.483	111.19
360.709	99.19
360.936	100.19
361.163	103.19
361.39	101.19
361.616	103.19
361.843	101.19
362.07	103.19
362.296	116.19
362.523	86.19
362.749	93.19
362.976	94.19
363.203	98.19
363.429	93.19
363.656	91.19
363.882	97.19
364.109	94.19
364.335	105.19
364.562	101.19
364.788	84.19
365.015	101.19
365.241	111.19
365.468	125.19
365.694	117.19
365.92	114.19
366.147	96.19
366.373	96.19
366.599	81.19
366.826	90.19
367.052	102.19
367.278	101.19
367.505	94.19
367.731	104.19
367.957	102.19
368.184	103.19
368.41	113.19
368.636	114.19
368.862	128.19
369.089	107.19
369.315	104.19
369.541	100.19
369.767	95.19
369.993	89.19
370.219	84.19
370.445	99.19
370.672	92.19
370.898	87.19
371.124	87.19
371.35	91.19
371.576	88.19
371.802	91.19
372.028	82.19
372.254	97.19
372.48	98.19
372.706	83.19
372.932	89.19
373.158	72.19
373.384	96.19
373.61	98.19
373.835	88.19
374.061	86.19
374.287	89.19
374.513	92.19
374.739	83.19
374.965	96.19
375.191	96.19
375.416	107.19
375.642	106.19
375.868	103.19
376.094	102.19
376.319	93.19
376.545	88.19
376.771	95.19
376.997	82.19
377.222	100.19
377.448	112.19
377.674	92.19
377.899	95.19
378.125	94.19
378.35	69.19
378.576	86.19
378.802	92.19
379.027	101.19
379.253	99.19
379.478	102.19
379.704	99.19
379.929	110.19
380.155	92.19
380.38	102.19
380.606	96.19
380.831	99.19
381.057	104.19
381.282	91.19
381.507	94.19
381.733	111.19
381.958	98.19
382.184	96.19
382.409	104.19
382.634	91.19
382.86	81.19
383.085	90.19
383.31	92.19
383.535	100.19
383.761	101.19
383.986	91.19
384.211	95.19
384.436	100.19
384.662	107.19
384.887	94.19
385.112	101.19
385.337	106.19
385.562	101.19
385.787	99.19
386.013	105.19
386.238	113.19
386.463	100.19
386.688	117.19
386.913	122.19
387.138	103.19
387.363	97.19
387.588	100.19
387.813	88.19
388.038	109.19
388.263	115.19
388.488	100.19
388.713	100.19
388.938	97.19
389.163	89.19
389.387	82.19
389.612	84.19
389.837	87.19
390.062	94.19
390.287	88.19
390.512	92.19
390.736	83.19
390.961	91.19
391.186	91.19
391.411	88.19
391.636	84.19
391.86	93.19
392.085	103.19
392.31	90.19
392.534	101.19
392.759	95.19
392.984	86.19
393.208	83.19
393.433	91.19
393.658	74.19
393.882	70.19
394.107	94.19
394.331	82.19
394.556	75.19
394.78	91.19
395.005	88.19
395.229	90.19
395.454	85.19
395.678	79.19
395.903	84.19
396.127	98.19
396.352	95.19
396.576	85.19
396.801	93.19
397.025	91.19
397.249	94.19
397.474	100.19
397.698	84.19
397.922	74.19
398.147	85.19
398.371	71.19
398.595	73.19
398.82	88.19
399.044	90.19
399.268	91.19
399.492	93.19
399.717	103.19
399.941	84.19
400.165	108.19
400.389	106.19
400.613	94.19
400.837	95.19
401.062	92.19
401.286	101.19
401.51	96.19
401.734	94.19
401.958	95.19
402.182	131.19
402.406	183.19
402.63	138.19
402.854	107.19
403.078	84.19
403.302	82.19
403.526	88.19
403.75	86.19
403.974	84.19
404.198	99.19
404.422	92.19
404.645	101.19
404.869	91.19
405.093	108.19
405.317	144.19
405.541	127.19
405.765	118.19
405.988	125.19
406.212	189.19
406.436	272.19
406.66	183.19
406.883	121.19
407.107	108.19
407.331	113.19
407.555	107.19
407.778	107.19
408.002	99.19
408.226	97.19
408.449	96.19
408.673	91.19
408.896	93.19
409.12	104.19
409.344	96.19
409.567	88.19
409.791	96.19
410.014	99.19
410.238	101.19
410.461	98.19
410.685	108.19
410.908	94.19
411.132	112.19
411.355	117.19
411.578	97.19
411.802	90.19
412.025	77.19
412.249	94.19
412.472	118.19
412.695	138.19
412.919	109.19
413.142	103.19
413.365	94.19
413.589	80.19
413.812	83.19
414.035	88.19
414.258	96.19
414.482	88.19
414.705	98.19
414.928	113.19
415.151	103.19
415.374	90.19
415.597	80.19
415.821	95.19
416.044	102.19
416.267	98.19
416.49	87.19
416.713	91.19
416.936	85.19
417.159	94.19
417.382	109.19
417.605	85.19
417.828	88.19
418.051	102.19
418.274	91.19
418.497	72.19
418.72	95.19
418.943	86.19
419.166	78.19
419.389	95.19
419.611	90.19
419.834	88.19
420.057	101.19
420.28	102.19
420.503	96.19
420.726	94.19
420.948	102.19
421.171	118.19
421.394	94.19
421.617	80.19
421.839	91.19
422.062	95.19
422.285	84.19
422.507	88.19
422.73	114.19
422.953	100.19
423.175	84.19
423.398	85.19
423.621	96.19
423.843	84.19
424.066	79.19
424.288	94.19
424.511	109.19
424.733	96.19
424.956	113.19
425.178	110.19
425.401	103.19
425.623	103.19
425.846	102.19
426.068	94.19
426.291	98.19
426.513	99.19
426.735	82.19
426.958	104.19
427.18	116.19
427.402	181.19
427.625	241.19
427.847	211.19
428.069	190.19
428.292	115.19
428.514	97.19
428.736	99.19
428.958	91.19
429.181	83.19
429.403	88.19
429.625	98.19
429.847	100.19
430.069	118.19
430.292	110.19
430.514	89.19
430.736	92.19
430.958	87.19
431.18	88.19
431.402	92.19
431.624	99.19
431.846	86.19
432.068	85.19
432.29	100.19
432.512	79.19
432.734	91.19
432.956	96.19
433.178	114.19
433.4	107.19
433.622	98.19
433.844	95.19
434.066	101.19
434.287	106.19
434.509	99.19
434.731	91.19
434.953	94.19
435.175	83.19
435.397	82.19
435.618	110.19
435.84	108.19
436.062	129.19
436.284	141.19
436.505	114.19
436.727	125.19
436.949	93.19
437.17	87.19
437.392	86.19
437.614	104.19
437.835	137.19
438.057	139.19
438.278	139.19
438.5	119.19
438.721	142.19
438.943	110.19
439.165	84.19
439.386	95.19
439.608	101.19
439.829	120.19
440.05	153.19
440.272	171.19
440.493	116.19
440.715	88.19
440.936	99.19
441.158	77.19
441.379	78.19
441.6	88.19
441.822	110.19
442.043	98.19
442.264	101.19
442.486	114.19
442.707	104.19
442.928	127.19
443.149	165.19
443.371	157.19
443.592	129.19
443.813	122.19
444.034	121.19
444.255	91.19
444.476	92.19
444.698	95.19
444.919	102.19
445.14	128.19
445.361	128.19
445.582	133.19
445.803	190.19
446.024	166.19
446.245	165.19
446.466	122.19
446.687	88.19
446.908	90.19
447.129	92.19
447.35	104.19
447.571	114.19
447.792	98.19
448.013	100.19
448.234	118.19
448.455	107.19
448.675	127.19
448.896	128.19
449.117	124.19
449.338	119.19
449.559	134.19
449.779	150.19
450	109.19
450.221	82.19
450.442	73.19
450.662	99.19
450.883	129.19
451.104	135.19
451.324	103.19
451.545	85.19
451.766	82.19
451.986	80.19
452.207	93.19
452.428	96.19
452.648	109.19
452.869	136.19
453.089	130.19
453.31	132.19
453.53	114.19
453.751	103.19
453.971	107.19
454.192	130.19
454.412	103.19
454.633	82.19
454.853	99.19
455.073	90.19
455.294	109.19
455.514	111.19
455.734	88.19
455.955	105.19
456.175	95.19
456.395	89.19
456.616	91.19
456.836	95.19
457.056	84.19
457.276	82.19
457.497	101.19
457.717	101.19
457.937	91.19
458.157	82.19
458.377	94.19
458.598	108.19
458.818	199.19
459.038	218.19
459.258	123.19
459.478	107.19
459.698	82.19
459.918	90.19
460.138	105.19
460.358	92.19
460.578	91.19
460.798	96.19
461.018	87.19
461.238	93.19
461.458	71.19
461.678	84.19
461.898	88.19
462.118	88.19
462.338	93.19
462.558	89.19
462.777	90.19
462.997	95.19
463.217	99.19
463.437	78.19
463.657	81.19
463.876	81.19
464.096	97.19
464.316	127.19
464.536	95.19
464.755	109.19
464.975	126.19
465.195	216.19
465.414	207.19
465.634	106.19
465.854	98.19
466.073	85.19
466.293	81.19
466.512	85.19
466.732	87.19
466.951	100.19
467.171	96.19
467.391	101.19
467.61	129.19
467.829	161.19
468.049	381.19
468.268	546.19
468.488	174.19
468.707	104.19
468.927	95.19
469.146	78.19
469.365	105.19
469.585	92.19
469.804	107.19
470.023	107.19
470.243	116.19
470.462	125.19
470.681	130.19
470.901	106.19
471.12	101.19
471.339	105.19
471.558	103.19
471.777	139.19
471.997	226.19
472.216	691.19
472.435	1559.19
472.654	428.19
472.873	156.19
473.092	102.19
473.311	90.19
473.53	100.19
473.749	99.19
473.968	112.19
474.187	122.19
474.406	110.19
474.625	94.19
474.844	74.19
475.063	94.19
475.282	93.19
475.501	88.19
475.72	86.19
475.939	91.19
476.158	111.19
476.377	90.19
476.596	94.19
476.814	102.19
477.033	91.19
477.252	107.19
477.471	115.19
477.69	87.19
477.908	99.19
478.127	99.19
478.346	91.19
478.564	93.19
478.783	107.19
479.002	110.19
479.22	96.19
479.439	100.19
479.658	114.19
479.876	101.19
480.095	119.19
480.313	132.19
480.532	122.19
480.751	224.19
480.969	660.19
481.188	2699.19
481.406	1679.19
481.624	277.19
481.843	131.19
482.061	98.19
482.28	102.19
482.498	109.19
482.717	88.19
482.935	99.19
483.153	96.19
483.372	99.19
483.59	96.19
483.808	101.19
484.027	91.19
484.245	86.19
484.463	106.19
484.681	88.19
484.9	101.19
485.118	102.19
485.336	95.19
485.554	102.19
485.772	104.19
485.99	87.19
486.209	101.19
486.427	113.19
486.645	117.19
486.863	128.19
487.081	120.19
487.299	84.19
487.517	86.19
487.735	108.19
487.953	86.19
488.171	93.19
488.389	116.19
488.607	88.19
488.825	91.19
489.043	90.19
489.261	88.19
489.479	94.19
489.696	93.19
489.914	88.19
490.132	92.19
490.35	92.19
490.568	85.19
490.786	94.19
491.003	92.19
491.221	103.19
491.439	85.19
491.657	93.19
491.874	104.19
492.092	85.19
492.31	94.19
492.527	84.19
492.745	96.19
492.963	103.19
493.18	88.19
493.398	100.19
493.615	102.19
493.833	99.19
494.05	87.19
494.268	106.19
494.485	105.19
494.703	87.19
494.92	94.19
495.138	90.19
495.355	84.19
495.573	93.19
495.79	86.19
496.008	107.19
496.225	95.19
496.442	101.19
496.66	96.19
496.877	92.19
497.094	98.19
497.312	100.19
497.529	94.19
497.746	101.19
497.963	91.19
498.181	92.19
498.398	100.19
498.615	102.19
498.832	108.19
499.049	108.19
499.267	87.19
499.484	99.19
499.701	93.19
499.918	103.19
500.135	85.19
500.352	103.19
500.569	96.19
500.786	99.19
501.003	87.19
501.22	90.19
501.437	101.19
501.654	98.19
501.871	123.19
502.088	104.19
502.305	85.19
502.522	85.19
502.739	100.19
502.956	104.19
503.172	96.19
503.389	107.19
503.606	116.19
503.823	97.19
504.04	99.19
504.256	82.19
504.473	92.19
504.69	87.19
504.907	86.19
505.123	104.19
505.34	104.19
505.557	93.19
505.773	92.19
505.99	84.19
506.207	95.19
506.423	80.19
506.64	95.19
506.856	98.19
507.073	95.19
507.289	96.19
507.506	103.19
507.722	136.19
507.939	130.19
508.155	87.19
508.372	92.19
508.588	90.19
508.805	94.19
509.021	102.19
509.238	102.19
509.454	99.19
509.67	109.19
509.887	116.19
510.103	137.19
510.319	238.19
510.536	823.19
510.752	2832.19
510.968	795.19
511.184	180.19
511.401	128.19
511.617	116.19
511.833	122.19
512.049	98.19
512.265	99.19
512.481	101.19
512.698	107.19
