Data from Circ_2007_H10_HRD10591_00018.txt Node
Date: Wed Jan 03 10:22:00 EST 2024
User: Yrep
Spectrometer: HR+D1059
Trigger mode: 1
Integration Time (sec): 1.000000E-1
Scans to average: 1
Electric dark correction enabled: true
Nonlinearity correction enabled: false
Boxcar width: 0
XAxis mode: Wavelengths
Number of Pixels in Spectrum: 2048
>>>>>Begin Spectral Data<<<<<
223.165	-15.38
223.4	-15.38
223.635	-15.38
223.869	-23.38
224.104	-11.38
224.338	-28.38
224.573	-15.38
224.808	-15.38
225.042	-12.38
225.277	-1.38
225.511	-7.38
225.746	8.62
225.98	21.62
226.215	20.62
226.449	5.62
226.683	14.62
226.918	27.62
227.152	31.62
227.387	33.62
227.621	39.62
227.856	47.62
228.09	43.62
228.324	56.62
228.559	58.62
228.793	50.62
229.027	71.62
229.262	60.62
229.496	75.62
229.73	80.62
229.964	93.62
230.199	72.62
230.433	71.62
230.667	66.62
230.901	77.62
231.136	88.62
231.37	62.62
231.604	59.62
231.838	75.62
232.072	72.62
232.306	78.62
232.541	84.62
232.775	81.62
233.009	64.62
233.243	83.62
233.477	76.62
233.711	85.62
233.945	76.62
234.179	93.62
234.413	90.62
234.647	85.62
234.881	86.62
235.115	80.62
235.349	88.62
235.583	84.62
235.817	74.62
236.051	84.62
236.285	79.62
236.519	73.62
236.753	85.62
236.987	70.62
237.221	84.62
237.455	95.62
237.689	91.62
237.922	79.62
238.156	78.62
238.39	65.62
238.624	74.62
238.858	75.62
239.091	66.62
239.325	69.62
239.559	64.62
239.793	67.62
240.027	73.62
240.26	80.62
240.494	76.62
240.728	79.62
240.961	82.62
241.195	67.62
241.429	81.62
241.662	68.62
241.896	75.62
242.13	57.62
242.363	81.62
242.597	71.62
242.83	77.62
243.064	77.62
243.298	90.62
243.531	81.62
243.765	85.62
243.998	76.62
244.232	89.62
244.465	88.62
244.699	92.62
244.932	89.62
245.166	70.62
245.399	84.62
245.633	73.62
245.866	66.62
246.099	80.62
246.333	84.62
246.566	89.62
246.8	79.62
247.033	76.62
247.266	68.62
247.5	83.62
247.733	89.62
247.966	73.62
248.2	81.62
248.433	66.62
248.666	84.62
248.899	58.62
249.133	77.62
249.366	87.62
249.599	95.62
249.832	88.62
250.066	82.62
250.299	74.62
250.532	80.62
250.765	76.62
250.998	90.62
251.231	94.62
251.465	65.62
251.698	77.62
251.931	79.62
252.164	79.62
252.397	79.62
252.63	84.62
252.863	84.62
253.096	75.62
253.329	90.62
253.562	80.62
253.795	67.62
254.028	77.62
254.261	80.62
254.494	86.62
254.727	82.62
254.96	81.62
255.193	86.62
255.426	88.62
255.659	78.62
255.892	62.62
256.124	95.62
256.357	79.62
256.59	78.62
256.823	78.62
257.056	83.62
257.289	82.62
257.521	86.62
257.754	89.62
257.987	75.62
258.22	94.62
258.452	89.62
258.685	99.62
258.918	79.62
259.151	82.62
259.383	81.62
259.616	86.62
259.849	80.62
260.081	76.62
260.314	84.62
260.547	85.62
260.779	87.62
261.012	88.62
261.244	90.62
261.477	96.62
261.71	104.62
261.942	122.62
262.175	104.62
262.407	80.62
262.64	66.62
262.872	92.62
263.105	66.62
263.337	81.62
263.57	79.62
263.802	64.62
264.035	86.62
264.267	85.62
264.499	87.62
264.732	86.62
264.964	90.62
265.197	81.62
265.429	92.62
265.661	89.62
265.894	87.62
266.126	89.62
266.358	74.62
266.591	82.62
266.823	83.62
267.055	88.62
267.287	86.62
267.52	75.62
267.752	75.62
267.984	60.62
268.216	96.62
268.448	81.62
268.681	84.62
268.913	101.62
269.145	78.62
269.377	84.62
269.609	89.62
269.841	91.62
270.073	79.62
270.306	85.62
270.538	79.62
270.77	89.62
271.002	76.62
271.234	91.62
271.466	88.62
271.698	89.62
271.93	88.62
272.162	90.62
272.394	82.62
272.626	103.62
272.858	91.62
273.09	87.62
273.322	96.62
273.553	79.62
273.785	91.62
274.017	75.62
274.249	84.62
274.481	84.62
274.713	83.62
274.945	94.62
275.176	89.62
275.408	111.62
275.64	103.62
275.872	91.62
276.104	81.62
276.335	91.62
276.567	102.62
276.799	123.62
277.031	117.62
277.262	122.62
277.494	106.62
277.726	99.62
277.957	78.62
278.189	86.62
278.421	81.62
278.652	82.62
278.884	91.62
279.115	88.62
279.347	85.62
279.579	91.62
279.81	91.62
280.042	120.62
280.273	136.62
280.505	127.62
280.736	103.62
280.968	79.62
281.199	101.62
281.431	98.62
281.662	83.62
281.894	101.62
282.125	103.62
282.356	131.62
282.588	159.62
282.819	117.62
283.051	88.62
283.282	74.62
283.513	99.62
283.745	93.62
283.976	82.62
284.207	85.62
284.439	100.62
284.67	100.62
284.901	85.62
285.132	86.62
285.364	91.62
285.595	108.62
285.826	91.62
286.057	91.62
286.288	84.62
286.52	77.62
286.751	86.62
286.982	81.62
287.213	95.62
287.444	101.62
287.675	79.62
287.906	87.62
288.138	88.62
288.369	98.62
288.6	83.62
288.831	91.62
289.062	86.62
289.293	93.62
289.524	88.62
289.755	68.62
289.986	61.62
290.217	91.62
290.448	89.62
290.679	75.62
290.91	92.62
291.141	88.62
291.371	82.62
291.602	94.62
291.833	84.62
292.064	88.62
292.295	80.62
292.526	82.62
292.757	75.62
292.987	79.62
293.218	81.62
293.449	101.62
293.68	95.62
293.91	80.62
294.141	82.62
294.372	82.62
294.603	78.62
294.833	90.62
295.064	76.62
295.295	89.62
295.525	93.62
295.756	94.62
295.987	124.62
296.217	157.62
296.448	137.62
296.679	94.62
296.909	83.62
297.14	69.62
297.37	81.62
297.601	71.62
297.831	85.62
298.062	91.62
298.292	90.62
298.523	91.62
298.753	99.62
298.984	91.62
299.214	82.62
299.445	89.62
299.675	99.62
299.905	101.62
300.136	78.62
300.366	92.62
300.597	88.62
300.827	91.62
301.057	103.62
301.288	115.62
301.518	95.62
301.748	87.62
301.979	113.62
302.209	87.62
302.439	89.62
302.669	87.62
302.9	89.62
303.13	94.62
303.36	94.62
303.59	107.62
303.82	122.62
304.051	95.62
304.281	87.62
304.511	82.62
304.741	85.62
304.971	91.62
305.201	84.62
305.431	87.62
305.661	85.62
305.891	87.62
306.121	99.62
306.352	93.62
306.582	108.62
306.812	84.62
307.042	91.62
307.272	109.62
307.502	111.62
307.731	100.62
307.961	97.62
308.191	94.62
308.421	97.62
308.651	102.62
308.881	91.62
309.111	92.62
309.341	104.62
309.571	100.62
309.8	99.62
310.03	100.62
310.26	88.62
310.49	97.62
310.72	96.62
310.949	103.62
311.179	108.62
311.409	82.62
311.639	88.62
311.868	92.62
312.098	97.62
312.328	99.62
312.557	100.62
312.787	111.62
313.017	116.62
313.246	105.62
313.476	93.62
313.706	84.62
313.935	94.62
314.165	106.62
314.394	100.62
314.624	110.62
314.853	93.62
315.083	89.62
315.312	84.62
315.542	86.62
315.771	81.62
316.001	81.62
316.23	82.62
316.46	88.62
316.689	92.62
316.919	88.62
317.148	102.62
317.377	80.62
317.607	92.62
317.836	94.62
318.065	90.62
318.295	88.62
318.524	87.62
318.753	82.62
318.983	94.62
319.212	104.62
319.441	99.62
319.67	110.62
319.9	88.62
320.129	88.62
320.358	112.62
320.587	113.62
320.816	115.62
321.046	107.62
321.275	93.62
321.504	89.62
321.733	88.62
321.962	90.62
322.191	100.62
322.42	114.62
322.649	112.62
322.878	131.62
323.108	121.62
323.337	120.62
323.566	141.62
323.795	167.62
324.024	232.62
324.253	480.62
324.482	987.62
324.71	2083.62
324.939	2757.62
325.168	967.62
325.397	290.62
325.626	168.62
325.855	140.62
326.084	142.62
326.313	144.62
326.542	167.62
326.77	258.62
326.999	519.62
327.228	1105.62
327.457	2037.62
327.686	1621.62
327.914	459.62
328.143	296.62
328.372	297.62
328.6	208.62
328.829	141.62
329.058	148.62
329.287	156.62
329.515	129.62
329.744	145.62
329.972	211.62
330.201	365.62
330.43	525.62
330.658	283.62
330.887	202.62
331.115	152.62
331.344	107.62
331.572	107.62
331.801	105.62
332.03	127.62
332.258	96.62
332.486	99.62
332.715	97.62
332.943	95.62
333.172	109.62
333.4	107.62
333.629	121.62
333.857	155.62
334.085	199.62
334.314	352.62
334.542	639.62
334.771	612.62
334.999	197.62
335.227	117.62
335.455	99.62
335.684	97.62
335.912	91.62
336.14	105.62
336.369	90.62
336.597	119.62
336.825	96.62
337.053	91.62
337.281	95.62
337.51	94.62
337.738	102.62
337.966	96.62
338.194	93.62
338.422	98.62
338.65	98.62
338.878	81.62
339.106	89.62
339.334	92.62
339.562	89.62
339.79	80.62
340.018	94.62
340.246	83.62
340.474	90.62
340.702	104.62
340.93	94.62
341.158	109.62
341.386	97.62
341.614	91.62
341.842	95.62
342.07	86.62
342.298	95.62
342.526	93.62
342.754	95.62
342.981	100.62
343.209	94.62
343.437	74.62
343.665	97.62
343.893	96.62
344.12	85.62
344.348	84.62
344.576	87.62
344.804	93.62
345.031	111.62
345.259	111.62
345.487	91.62
345.714	99.62
345.942	77.62
346.17	84.62
346.397	80.62
346.625	92.62
346.853	90.62
347.08	81.62
347.308	98.62
347.535	96.62
347.763	101.62
347.99	97.62
348.218	103.62
348.445	93.62
348.673	97.62
348.9	79.62
349.128	107.62
349.355	99.62
349.583	83.62
349.81	95.62
350.037	87.62
350.265	90.62
350.492	96.62
350.72	98.62
350.947	96.62
351.174	95.62
351.402	123.62
351.629	114.62
351.856	95.62
352.083	103.62
352.311	123.62
352.538	132.62
352.765	113.62
352.992	112.62
353.22	116.62
353.447	104.62
353.674	98.62
353.901	111.62
354.128	89.62
354.355	89.62
354.583	103.62
354.81	92.62
355.037	95.62
355.264	95.62
355.491	74.62
355.718	75.62
355.945	98.62
356.172	89.62
356.399	90.62
356.626	103.62
356.853	100.62
357.08	84.62
357.307	90.62
357.534	95.62
357.761	91.62
357.988	100.62
358.215	92.62
358.441	91.62
358.668	84.62
358.895	92.62
359.122	98.62
359.349	87.62
359.576	77.62
359.802	108.62
360.029	127.62
360.256	124.62
360.483	114.62
360.709	96.62
360.936	104.62
361.163	100.62
361.39	112.62
361.616	100.62
361.843	88.62
362.07	100.62
362.296	89.62
362.523	83.62
362.749	91.62
362.976	85.62
363.203	97.62
363.429	89.62
363.656	85.62
363.882	97.62
364.109	86.62
364.335	97.62
364.562	96.62
364.788	88.62
365.015	75.62
365.241	104.62
365.468	113.62
365.694	124.62
365.92	102.62
366.147	96.62
366.373	90.62
366.599	96.62
366.826	97.62
367.052	73.62
367.278	88.62
367.505	85.62
367.731	89.62
367.957	86.62
368.184	92.62
368.41	108.62
368.636	110.62
368.862	119.62
369.089	106.62
369.315	96.62
369.541	81.62
369.767	97.62
369.993	91.62
370.219	107.62
370.445	87.62
370.672	81.62
370.898	85.62
371.124	90.62
371.35	102.62
371.576	96.62
371.802	89.62
372.028	96.62
372.254	83.62
372.48	80.62
372.706	79.62
372.932	78.62
373.158	91.62
373.384	96.62
373.61	104.62
373.835	87.62
374.061	88.62
374.287	99.62
374.513	82.62
374.739	90.62
374.965	88.62
375.191	88.62
375.416	82.62
375.642	98.62
375.868	91.62
376.094	90.62
376.319	93.62
376.545	95.62
376.771	82.62
376.997	93.62
377.222	96.62
377.448	78.62
377.674	96.62
377.899	95.62
378.125	93.62
378.35	77.62
378.576	85.62
378.802	97.62
379.027	85.62
379.253	102.62
379.478	81.62
379.704	98.62
379.929	94.62
380.155	93.62
380.38	104.62
380.606	87.62
380.831	100.62
381.057	95.62
381.282	97.62
381.507	103.62
381.733	104.62
381.958	88.62
382.184	92.62
382.409	104.62
382.634	107.62
382.86	88.62
383.085	100.62
383.31	106.62
383.535	95.62
383.761	104.62
383.986	114.62
384.211	109.62
384.436	101.62
384.662	120.62
384.887	104.62
385.112	103.62
385.337	121.62
385.562	119.62
385.787	120.62
386.013	125.62
386.238	134.62
386.463	113.62
386.688	113.62
386.913	124.62
387.138	129.62
387.363	110.62
387.588	106.62
387.813	112.62
388.038	126.62
388.263	132.62
388.488	107.62
388.713	104.62
388.938	91.62
389.163	101.62
389.387	98.62
389.612	107.62
389.837	101.62
390.062	95.62
390.287	96.62
390.512	85.62
390.736	95.62
390.961	95.62
391.186	91.62
391.411	86.62
391.636	89.62
391.86	94.62
392.085	82.62
392.31	90.62
392.534	90.62
392.759	85.62
392.984	81.62
393.208	102.62
393.433	121.62
393.658	116.62
393.882	83.62
394.107	89.62
394.331	91.62
394.556	99.62
394.78	97.62
395.005	93.62
395.229	87.62
395.454	88.62
395.678	97.62
395.903	91.62
396.127	101.62
396.352	90.62
396.576	95.62
396.801	90.62
397.025	108.62
397.249	88.62
397.474	89.62
397.698	91.62
397.922	89.62
398.147	81.62
398.371	102.62
398.595	92.62
398.82	81.62
399.044	86.62
399.268	78.62
399.492	88.62
399.717	85.62
399.941	74.62
400.165	84.62
400.389	100.62
400.613	85.62
400.837	100.62
401.062	87.62
401.286	86.62
401.51	96.62
401.734	89.62
401.958	103.62
402.182	117.62
402.406	168.62
402.63	141.62
402.854	100.62
403.078	100.62
403.302	78.62
403.526	85.62
403.75	81.62
403.974	84.62
404.198	91.62
404.422	89.62
404.645	98.62
404.869	91.62
405.093	103.62
405.317	114.62
405.541	121.62
405.765	100.62
405.988	143.62
406.212	205.62
406.436	279.62
406.66	174.62
406.883	102.62
407.107	92.62
407.331	97.62
407.555	106.62
407.778	94.62
408.002	92.62
408.226	85.62
408.449	79.62
408.673	86.62
408.896	92.62
409.12	103.62
409.344	86.62
409.567	92.62
409.791	75.62
410.014	106.62
410.238	90.62
410.461	97.62
410.685	93.62
410.908	101.62
411.132	100.62
411.355	103.62
411.578	110.62
411.802	84.62
412.025	90.62
412.249	102.62
412.472	100.62
412.695	123.62
412.919	103.62
413.142	91.62
413.365	91.62
413.589	85.62
413.812	96.62
414.035	94.62
414.258	103.62
414.482	99.62
414.705	88.62
414.928	85.62
415.151	90.62
415.374	99.62
415.597	84.62
415.821	91.62
416.044	101.62
416.267	81.62
416.49	96.62
416.713	88.62
416.936	92.62
417.159	84.62
417.382	87.62
417.605	98.62
417.828	105.62
418.051	98.62
418.274	102.62
418.497	82.62
418.72	85.62
418.943	81.62
419.166	99.62
419.389	67.62
419.611	97.62
419.834	92.62
420.057	76.62
420.28	95.62
420.503	94.62
420.726	89.62
420.948	88.62
421.171	104.62
421.394	96.62
421.617	91.62
421.839	85.62
422.062	86.62
422.285	92.62
422.507	114.62
422.73	129.62
422.953	98.62
423.175	83.62
423.398	76.62
423.621	79.62
423.843	89.62
424.066	95.62
424.288	74.62
424.511	108.62
424.733	92.62
424.956	116.62
425.178	112.62
425.401	98.62
425.623	111.62
425.846	87.62
426.068	93.62
426.291	98.62
426.513	99.62
426.735	79.62
426.958	84.62
427.18	109.62
427.402	163.62
427.625	214.62
427.847	180.62
428.069	156.62
428.292	107.62
428.514	84.62
428.736	92.62
428.958	72.62
429.181	95.62
429.403	91.62
429.625	95.62
429.847	95.62
430.069	104.62
430.292	108.62
430.514	81.62
430.736	76.62
430.958	83.62
431.18	95.62
431.402	79.62
431.624	77.62
431.846	95.62
432.068	92.62
432.29	97.62
432.512	86.62
432.734	103.62
432.956	92.62
433.178	76.62
433.4	110.62
433.622	94.62
433.844	69.62
434.066	97.62
434.287	97.62
434.509	90.62
434.731	97.62
434.953	85.62
435.175	98.62
435.397	95.62
435.618	98.62
435.84	97.62
436.062	147.62
436.284	109.62
436.505	108.62
436.727	116.62
436.949	96.62
437.17	98.62
437.392	89.62
437.614	107.62
437.835	109.62
438.057	136.62
438.278	106.62
438.5	104.62
438.721	138.62
438.943	105.62
439.165	94.62
439.386	95.62
439.608	93.62
439.829	102.62
440.05	112.62
440.272	160.62
440.493	109.62
440.715	91.62
440.936	98.62
441.158	104.62
441.379	100.62
441.6	91.62
441.822	110.62
442.043	115.62
442.264	110.62
442.486	84.62
442.707	95.62
442.928	100.62
443.149	151.62
443.371	139.62
443.592	120.62
443.813	104.62
444.034	105.62
444.255	101.62
444.476	94.62
444.698	88.62
444.919	81.62
445.14	137.62
445.361	138.62
445.582	135.62
445.803	156.62
446.024	151.62
446.245	152.62
446.466	122.62
446.687	91.62
446.908	92.62
447.129	82.62
447.35	84.62
447.571	108.62
447.792	97.62
448.013	101.62
448.234	103.62
448.455	105.62
448.675	133.62
448.896	125.62
449.117	97.62
449.338	102.62
449.559	158.62
449.779	138.62
450	102.62
450.221	87.62
450.442	92.62
450.662	95.62
450.883	94.62
451.104	131.62
451.324	105.62
451.545	99.62
451.766	85.62
451.986	64.62
452.207	77.62
452.428	109.62
452.648	98.62
452.869	119.62
453.089	114.62
453.31	115.62
453.53	81.62
453.751	102.62
453.971	109.62
454.192	119.62
454.412	94.62
454.633	82.62
454.853	88.62
455.073	86.62
455.294	92.62
455.514	90.62
455.734	88.62
455.955	90.62
456.175	84.62
456.395	85.62
456.616	92.62
456.836	83.62
457.056	88.62
457.276	94.62
457.497	85.62
457.717	98.62
457.937	84.62
458.157	96.62
458.377	81.62
458.598	104.62
458.818	183.62
459.038	205.62
459.258	138.62
459.478	84.62
459.698	92.62
459.918	89.62
460.138	84.62
460.358	102.62
460.578	87.62
460.798	87.62
461.018	80.62
461.238	80.62
461.458	88.62
461.678	84.62
461.898	89.62
462.118	84.62
462.338	75.62
462.558	86.62
462.777	83.62
462.997	86.62
463.217	86.62
463.437	69.62
463.657	79.62
463.876	97.62
464.096	93.62
464.316	88.62
464.536	94.62
464.755	105.62
464.975	110.62
465.195	202.62
465.414	197.62
465.634	105.62
465.854	82.62
466.073	91.62
466.293	87.62
466.512	88.62
466.732	90.62
466.951	84.62
467.171	95.62
467.391	102.62
467.61	124.62
467.829	119.62
468.049	209.62
468.268	297.62
468.488	127.62
468.707	93.62
468.927	88.62
469.146	88.62
469.365	99.62
469.585	97.62
469.804	104.62
470.023	107.62
470.243	110.62
470.462	98.62
470.681	123.62
470.901	106.62
471.12	91.62
471.339	97.62
471.558	94.62
471.777	103.62
471.997	161.62
472.216	367.62
472.435	793.62
472.654	243.62
472.873	111.62
473.092	89.62
473.311	93.62
473.53	78.62
473.749	75.62
473.968	95.62
474.187	114.62
474.406	102.62
474.625	99.62
474.844	88.62
475.063	92.62
475.282	95.62
475.501	84.62
475.72	90.62
475.939	81.62
476.158	89.62
476.377	86.62
476.596	87.62
476.814	93.62
477.033	104.62
477.252	95.62
477.471	97.62
477.69	83.62
477.908	94.62
478.127	91.62
478.346	94.62
478.564	94.62
478.783	103.62
479.002	106.62
479.22	100.62
479.439	107.62
479.658	105.62
479.876	102.62
480.095	104.62
480.313	112.62
480.532	109.62
480.751	151.62
480.969	341.62
481.188	1301.62
481.406	855.62
481.624	183.62
481.843	90.62
482.061	101.62
482.28	97.62
482.498	91.62
482.717	85.62
482.935	89.62
483.153	96.62
483.372	89.62
483.59	100.62
483.808	92.62
484.027	108.62
484.245	78.62
484.463	82.62
484.681	104.62
484.9	105.62
485.118	98.62
485.336	100.62
485.554	88.62
485.772	108.62
485.99	107.62
486.209	105.62
486.427	107.62
486.645	124.62
486.863	125.62
487.081	107.62
487.299	96.62
487.517	89.62
487.735	98.62
487.953	79.62
488.171	97.62
488.389	82.62
488.607	108.62
488.825	79.62
489.043	84.62
489.261	83.62
489.479	84.62
489.696	93.62
489.914	80.62
490.132	92.62
490.35	76.62
490.568	76.62
490.786	84.62
491.003	71.62
491.221	91.62
491.439	94.62
491.657	93.62
491.874	89.62
492.092	90.62
492.31	85.62
492.527	80.62
492.745	97.62
492.963	95.62
493.18	89.62
493.398	84.62
493.615	83.62
493.833	95.62
494.05	82.62
494.268	81.62
494.485	99.62
494.703	83.62
494.92	81.62
495.138	91.62
495.355	87.62
495.573	99.62
495.79	93.62
496.008	94.62
496.225	81.62
496.442	92.62
496.66	96.62
496.877	85.62
497.094	86.62
497.312	90.62
497.529	82.62
497.746	92.62
497.963	85.62
498.181	98.62
498.398	98.62
498.615	110.62
498.832	97.62
499.049	93.62
499.267	95.62
499.484	93.62
499.701	84.62
499.918	95.62
500.135	95.62
500.352	90.62
500.569	101.62
500.786	87.62
501.003	89.62
501.22	93.62
501.437	82.62
501.654	98.62
501.871	116.62
502.088	91.62
502.305	104.62
502.522	89.62
502.739	94.62
502.956	85.62
503.172	81.62
503.389	99.62
503.606	119.62
503.823	103.62
504.04	100.62
504.256	108.62
504.473	85.62
504.69	84.62
504.907	91.62
505.123	92.62
505.34	84.62
505.557	77.62
505.773	85.62
505.99	91.62
506.207	86.62
506.423	100.62
506.64	90.62
506.856	75.62
507.073	85.62
507.289	87.62
507.506	109.62
507.722	117.62
507.939	119.62
508.155	106.62
508.372	97.62
508.588	95.62
508.805	91.62
509.021	109.62
509.238	99.62
509.454	106.62
509.67	112.62
509.887	115.62
510.103	136.62
510.319	212.62
510.536	841.62
510.752	2839.62
510.968	793.62
511.184	170.62
511.401	121.62
511.617	92.62
511.833	109.62
512.049	98.62
512.265	92.62
512.481	106.62
512.698	91.62
512.914	96.62
513.13	89.62
513.346	101.62
513.562	91.62
513.778	99.62
513.994	104.62
514.21	106.62
514.426	120.62
