Data from Circ_2007_H10_HRD10591_00055.txt Node
Date: Wed Jan 03 10:22:08 EST 2024
User: Yrep
Spectrometer: HR+D1059
Trigger mode: 1
Integration Time (sec): 1.000000E-1
Scans to average: 1
Electric dark correction enabled: true
Nonlinearity correction enabled: false
Boxcar width: 0
XAxis mode: Wavelengths
Number of Pixels in Spectrum: 2048
>>>>>Begin Spectral Data<<<<<
223.165	-9.31
223.4	-9.31
223.635	-9.31
223.869	-17.31
224.104	-18.31
224.338	-11.31
224.573	-20.31
224.808	-16.31
225.042	-3.31
225.277	-8.31
225.511	-3.31
225.746	3.69
225.98	0.69
226.215	24.69
226.449	16.69
226.683	14.69
226.918	21.69
227.152	25.69
227.387	33.69
227.621	44.69
227.856	51.69
228.09	33.69
228.324	49.69
228.559	64.69
228.793	62.69
229.027	63.69
229.262	67.69
229.496	79.69
229.73	81.69
229.964	81.69
230.199	88.69
230.433	83.69
230.667	91.69
230.901	69.69
231.136	78.69
231.37	79.69
231.604	75.69
231.838	95.69
232.072	68.69
232.306	86.69
232.541	79.69
232.775	82.69
233.009	75.69
233.243	81.69
233.477	82.69
233.711	74.69
233.945	74.69
234.179	66.69
234.413	71.69
234.647	73.69
234.881	75.69
235.115	84.69
235.349	67.69
235.583	74.69
235.817	75.69
236.051	75.69
236.285	70.69
236.519	78.69
236.753	78.69
236.987	71.69
237.221	80.69
237.455	86.69
237.689	62.69
237.922	82.69
238.156	64.69
238.39	76.69
238.624	72.69
238.858	74.69
239.091	73.69
239.325	75.69
239.559	73.69
239.793	69.69
240.027	83.69
240.26	72.69
240.494	87.69
240.728	72.69
240.961	88.69
241.195	84.69
241.429	81.69
241.662	71.69
241.896	74.69
242.13	80.69
242.363	83.69
242.597	67.69
242.83	72.69
243.064	77.69
243.298	63.69
243.531	66.69
243.765	72.69
243.998	71.69
244.232	81.69
244.465	91.69
244.699	66.69
244.932	78.69
245.166	76.69
245.399	64.69
245.633	71.69
245.866	84.69
246.099	85.69
246.333	78.69
246.566	74.69
246.8	75.69
247.033	84.69
247.266	70.69
247.5	77.69
247.733	87.69
247.966	90.69
248.2	80.69
248.433	67.69
248.666	91.69
248.899	78.69
249.133	78.69
249.366	91.69
249.599	103.69
249.832	85.69
250.066	81.69
250.299	82.69
250.532	73.69
250.765	89.69
250.998	72.69
251.231	72.69
251.465	80.69
251.698	80.69
251.931	84.69
252.164	81.69
252.397	67.69
252.63	74.69
252.863	83.69
253.096	91.69
253.329	83.69
253.562	77.69
253.795	78.69
254.028	91.69
254.261	86.69
254.494	78.69
254.727	67.69
254.96	73.69
255.193	97.69
255.426	70.69
255.659	76.69
255.892	90.69
256.124	93.69
256.357	94.69
256.59	99.69
256.823	77.69
257.056	73.69
257.289	74.69
257.521	82.69
257.754	82.69
257.987	78.69
258.22	82.69
258.452	94.69
258.685	92.69
258.918	75.69
259.151	86.69
259.383	96.69
259.616	74.69
259.849	84.69
260.081	83.69
260.314	83.69
260.547	82.69
260.779	88.69
261.012	92.69
261.244	82.69
261.477	105.69
261.71	94.69
261.942	107.69
262.175	134.69
262.407	92.69
262.64	72.69
262.872	81.69
263.105	87.69
263.337	90.69
263.57	85.69
263.802	84.69
264.035	81.69
264.267	89.69
264.499	81.69
264.732	79.69
264.964	76.69
265.197	84.69
265.429	83.69
265.661	80.69
265.894	64.69
266.126	78.69
266.358	80.69
266.591	92.69
266.823	93.69
267.055	88.69
267.287	91.69
267.52	80.69
267.752	77.69
267.984	85.69
268.216	82.69
268.448	89.69
268.681	79.69
268.913	83.69
269.145	84.69
269.377	87.69
269.609	81.69
269.841	79.69
270.073	66.69
270.306	70.69
270.538	78.69
270.77	84.69
271.002	84.69
271.234	80.69
271.466	91.69
271.698	85.69
271.93	81.69
272.162	79.69
272.394	83.69
272.626	82.69
272.858	101.69
273.09	78.69
273.322	98.69
273.553	83.69
273.785	85.69
274.017	87.69
274.249	78.69
274.481	100.69
274.713	80.69
274.945	88.69
275.176	76.69
275.408	94.69
275.64	109.69
275.872	97.69
276.104	88.69
276.335	76.69
276.567	112.69
276.799	130.69
277.031	126.69
277.262	151.69
277.494	124.69
277.726	81.69
277.957	88.69
278.189	91.69
278.421	94.69
278.652	89.69
278.884	96.69
279.115	88.69
279.347	78.69
279.579	102.69
279.81	107.69
280.042	131.69
280.273	168.69
280.505	122.69
280.736	87.69
280.968	86.69
281.199	92.69
281.431	99.69
281.662	80.69
281.894	71.69
282.125	97.69
282.356	123.69
282.588	154.69
282.819	110.69
283.051	83.69
283.282	81.69
283.513	89.69
283.745	87.69
283.976	89.69
284.207	88.69
284.439	88.69
284.67	80.69
284.901	87.69
285.132	94.69
285.364	80.69
285.595	81.69
285.826	92.69
286.057	88.69
286.288	80.69
286.52	79.69
286.751	74.69
286.982	87.69
287.213	89.69
287.444	88.69
287.675	81.69
287.906	110.69
288.138	92.69
288.369	86.69
288.6	81.69
288.831	90.69
289.062	76.69
289.293	86.69
289.524	92.69
289.755	76.69
289.986	83.69
290.217	83.69
290.448	69.69
290.679	83.69
290.91	88.69
291.141	80.69
291.371	82.69
291.602	81.69
291.833	91.69
292.064	96.69
292.295	79.69
292.526	79.69
292.757	82.69
292.987	78.69
293.218	85.69
293.449	84.69
293.68	87.69
293.91	93.69
294.141	84.69
294.372	80.69
294.603	82.69
294.833	88.69
295.064	91.69
295.295	75.69
295.525	106.69
295.756	87.69
295.987	124.69
296.217	145.69
296.448	126.69
296.679	104.69
296.909	84.69
297.14	84.69
297.37	96.69
297.601	82.69
297.831	103.69
298.062	89.69
298.292	92.69
298.523	81.69
298.753	79.69
298.984	83.69
299.214	101.69
299.445	84.69
299.675	102.69
299.905	89.69
300.136	82.69
300.366	73.69
300.597	83.69
300.827	84.69
301.057	107.69
301.288	105.69
301.518	98.69
301.748	93.69
301.979	98.69
302.209	92.69
302.439	74.69
302.669	95.69
302.9	89.69
303.13	97.69
303.36	116.69
303.59	105.69
303.82	120.69
304.051	104.69
304.281	86.69
304.511	85.69
304.741	83.69
304.971	88.69
305.201	94.69
305.431	91.69
305.661	88.69
305.891	94.69
306.121	94.69
306.352	106.69
306.582	119.69
306.812	95.69
307.042	94.69
307.272	110.69
307.502	119.69
307.731	128.69
307.961	114.69
308.191	98.69
308.421	101.69
308.651	89.69
308.881	104.69
309.111	97.69
309.341	100.69
309.571	74.69
309.8	101.69
310.03	96.69
310.26	92.69
310.49	96.69
310.72	87.69
310.949	103.69
311.179	105.69
311.409	96.69
311.639	91.69
311.868	112.69
312.098	104.69
312.328	97.69
312.557	102.69
312.787	117.69
313.017	99.69
313.246	108.69
313.476	98.69
313.706	87.69
313.935	78.69
314.165	104.69
314.394	104.69
314.624	106.69
314.853	100.69
315.083	82.69
315.312	107.69
315.542	89.69
315.771	92.69
316.001	90.69
316.23	108.69
316.46	78.69
316.689	77.69
316.919	89.69
317.148	108.69
317.377	100.69
317.607	91.69
317.836	92.69
318.065	92.69
318.295	88.69
318.524	100.69
318.753	102.69
318.983	89.69
319.212	106.69
319.441	102.69
319.67	123.69
319.9	106.69
320.129	83.69
320.358	96.69
320.587	77.69
320.816	100.69
321.046	96.69
321.275	91.69
321.504	106.69
321.733	94.69
321.962	102.69
322.191	107.69
322.42	116.69
322.649	122.69
322.878	94.69
323.108	126.69
323.337	123.69
323.566	142.69
323.795	178.69
324.024	256.69
324.253	492.69
324.482	1055.69
324.71	2258.69
324.939	3155.69
325.168	1103.69
325.397	297.69
325.626	160.69
325.855	134.69
326.084	137.69
326.313	146.69
326.542	172.69
326.77	272.69
326.999	562.69
327.228	1246.69
327.457	2296.69
327.686	1874.69
327.914	538.69
328.143	368.69
328.372	403.69
328.6	258.69
328.829	138.69
329.058	146.69
329.287	174.69
329.515	135.69
329.744	164.69
329.972	280.69
330.201	550.69
330.43	792.69
330.658	378.69
330.887	208.69
331.115	163.69
331.344	104.69
331.572	108.69
331.801	110.69
332.03	97.69
332.258	114.69
332.486	101.69
332.715	103.69
332.943	105.69
333.172	107.69
333.4	101.69
333.629	125.69
333.857	169.69
334.085	277.69
334.314	497.69
334.542	948.69
334.771	929.69
334.999	281.69
335.227	136.69
335.455	111.69
335.684	108.69
335.912	78.69
336.14	105.69
336.369	102.69
336.597	103.69
336.825	99.69
337.053	86.69
337.281	90.69
337.51	94.69
337.738	103.69
337.966	89.69
338.194	85.69
338.422	100.69
338.65	109.69
338.878	99.69
339.106	88.69
339.334	83.69
339.562	107.69
339.79	70.69
340.018	101.69
340.246	77.69
340.474	107.69
340.702	103.69
340.93	80.69
341.158	99.69
341.386	110.69
341.614	94.69
341.842	93.69
342.07	95.69
342.298	86.69
342.526	88.69
342.754	89.69
342.981	80.69
343.209	82.69
343.437	107.69
343.665	78.69
343.893	103.69
344.12	89.69
344.348	90.69
344.576	84.69
344.804	83.69
345.031	88.69
345.259	91.69
345.487	96.69
345.714	85.69
345.942	89.69
346.17	90.69
346.397	95.69
346.625	90.69
346.853	88.69
347.08	109.69
347.308	90.69
347.535	91.69
347.763	90.69
347.99	96.69
348.218	108.69
348.445	107.69
348.673	112.69
348.9	103.69
349.128	90.69
349.355	93.69
349.583	96.69
349.81	78.69
350.037	99.69
350.265	88.69
350.492	92.69
350.72	94.69
350.947	103.69
351.174	118.69
351.402	99.69
351.629	98.69
351.856	103.69
352.083	87.69
352.311	104.69
352.538	110.69
352.765	116.69
352.992	110.69
353.22	109.69
353.447	98.69
353.674	92.69
353.901	96.69
354.128	89.69
354.355	90.69
354.583	110.69
354.81	113.69
355.037	91.69
355.264	90.69
355.491	82.69
355.718	89.69
355.945	94.69
356.172	82.69
356.399	92.69
356.626	79.69
356.853	96.69
357.08	101.69
357.307	92.69
357.534	96.69
357.761	83.69
357.988	111.69
358.215	92.69
358.441	83.69
358.668	93.69
358.895	91.69
359.122	99.69
359.349	82.69
359.576	91.69
359.802	103.69
360.029	134.69
360.256	125.69
360.483	104.69
360.709	104.69
360.936	99.69
361.163	90.69
361.39	94.69
361.616	100.69
361.843	87.69
362.07	90.69
362.296	91.69
362.523	88.69
362.749	98.69
362.976	95.69
363.203	89.69
363.429	88.69
363.656	92.69
363.882	94.69
364.109	93.69
364.335	92.69
364.562	96.69
364.788	103.69
365.015	105.69
365.241	92.69
365.468	111.69
365.694	105.69
365.92	100.69
366.147	88.69
366.373	87.69
366.599	82.69
366.826	96.69
367.052	101.69
367.278	69.69
367.505	77.69
367.731	93.69
367.957	91.69
368.184	96.69
368.41	99.69
368.636	111.69
368.862	114.69
369.089	105.69
369.315	96.69
369.541	98.69
369.767	91.69
369.993	91.69
370.219	88.69
370.445	84.69
370.672	93.69
370.898	79.69
371.124	81.69
371.35	78.69
371.576	91.69
371.802	93.69
372.028	90.69
372.254	80.69
372.48	96.69
372.706	86.69
372.932	94.69
373.158	87.69
373.384	84.69
373.61	70.69
373.835	81.69
374.061	75.69
374.287	92.69
374.513	85.69
374.739	103.69
374.965	94.69
375.191	76.69
375.416	82.69
375.642	87.69
375.868	82.69
376.094	83.69
376.319	81.69
376.545	83.69
376.771	82.69
376.997	83.69
377.222	84.69
377.448	84.69
377.674	97.69
377.899	92.69
378.125	89.69
378.35	94.69
378.576	100.69
378.802	90.69
379.027	90.69
379.253	78.69
379.478	83.69
379.704	84.69
379.929	79.69
380.155	96.69
380.38	91.69
380.606	110.69
380.831	94.69
381.057	98.69
381.282	97.69
381.507	83.69
381.733	87.69
381.958	89.69
382.184	101.69
382.409	101.69
382.634	94.69
382.86	82.69
383.085	92.69
383.31	96.69
383.535	88.69
383.761	89.69
383.986	107.69
384.211	94.69
384.436	91.69
384.662	92.69
384.887	95.69
385.112	111.69
385.337	113.69
385.562	104.69
385.787	91.69
386.013	110.69
386.238	114.69
386.463	98.69
386.688	96.69
386.913	102.69
387.138	111.69
387.363	102.69
387.588	89.69
387.813	115.69
388.038	94.69
388.263	94.69
388.488	107.69
388.713	90.69
388.938	94.69
389.163	95.69
389.387	88.69
389.612	86.69
389.837	95.69
390.062	98.69
390.287	91.69
390.512	79.69
390.736	80.69
390.961	91.69
391.186	86.69
391.411	99.69
391.636	104.69
391.86	100.69
392.085	93.69
392.31	101.69
392.534	89.69
392.759	87.69
392.984	74.69
393.208	92.69
393.433	90.69
393.658	96.69
393.882	81.69
394.107	82.69
394.331	78.69
394.556	75.69
394.78	74.69
395.005	76.69
395.229	82.69
395.454	97.69
395.678	81.69
395.903	89.69
396.127	79.69
396.352	92.69
396.576	89.69
396.801	83.69
397.025	84.69
397.249	86.69
397.474	90.69
397.698	78.69
397.922	92.69
398.147	91.69
398.371	91.69
398.595	80.69
398.82	79.69
399.044	68.69
399.268	79.69
399.492	92.69
399.717	85.69
399.941	81.69
400.165	101.69
400.389	90.69
400.613	88.69
400.837	75.69
401.062	88.69
401.286	81.69
401.51	97.69
401.734	91.69
401.958	103.69
402.182	143.69
402.406	177.69
402.63	136.69
402.854	88.69
403.078	95.69
403.302	86.69
403.526	85.69
403.75	87.69
403.974	89.69
404.198	87.69
404.422	84.69
404.645	85.69
404.869	83.69
405.093	107.69
405.317	123.69
405.541	127.69
405.765	114.69
405.988	128.69
406.212	174.69
406.436	261.69
406.66	174.69
406.883	108.69
407.107	100.69
407.331	106.69
407.555	97.69
407.778	90.69
408.002	74.69
408.226	71.69
408.449	99.69
408.673	82.69
408.896	92.69
409.12	106.69
409.344	91.69
409.567	84.69
409.791	96.69
410.014	89.69
410.238	101.69
410.461	95.69
410.685	79.69
410.908	99.69
411.132	107.69
411.355	100.69
411.578	91.69
411.802	82.69
412.025	94.69
412.249	92.69
412.472	109.69
412.695	131.69
412.919	108.69
413.142	99.69
413.365	79.69
413.589	88.69
413.812	100.69
414.035	89.69
414.258	84.69
414.482	85.69
414.705	91.69
414.928	97.69
415.151	86.69
415.374	94.69
415.597	84.69
415.821	82.69
416.044	81.69
416.267	79.69
416.49	79.69
416.713	84.69
416.936	90.69
417.159	91.69
417.382	90.69
417.605	107.69
417.828	103.69
418.051	107.69
418.274	87.69
418.497	82.69
418.72	97.69
418.943	82.69
419.166	80.69
419.389	95.69
419.611	83.69
419.834	95.69
420.057	98.69
420.28	90.69
420.503	91.69
420.726	90.69
420.948	88.69
421.171	109.69
421.394	95.69
421.617	75.69
421.839	79.69
422.062	99.69
422.285	99.69
422.507	106.69
422.73	110.69
422.953	89.69
423.175	79.69
423.398	82.69
423.621	89.69
423.843	95.69
424.066	89.69
424.288	87.69
424.511	83.69
424.733	101.69
424.956	99.69
425.178	101.69
425.401	91.69
425.623	99.69
425.846	94.69
426.068	92.69
426.291	95.69
426.513	106.69
426.735	86.69
426.958	104.69
427.18	96.69
427.402	157.69
427.625	232.69
427.847	212.69
428.069	196.69
428.292	133.69
428.514	88.69
428.736	82.69
428.958	81.69
429.181	83.69
429.403	80.69
429.625	78.69
429.847	97.69
430.069	104.69
430.292	99.69
430.514	95.69
430.736	85.69
430.958	77.69
431.18	88.69
431.402	94.69
431.624	92.69
431.846	78.69
432.068	75.69
432.29	80.69
432.512	92.69
432.734	87.69
432.956	92.69
433.178	104.69
433.4	97.69
433.622	106.69
433.844	99.69
434.066	86.69
434.287	89.69
434.509	106.69
434.731	96.69
434.953	98.69
435.175	75.69
435.397	96.69
435.618	85.69
435.84	108.69
436.062	143.69
436.284	137.69
436.505	110.69
436.727	105.69
436.949	90.69
437.17	82.69
437.392	89.69
437.614	103.69
437.835	98.69
438.057	143.69
438.278	109.69
438.5	114.69
438.721	147.69
438.943	102.69
439.165	88.69
439.386	81.69
439.608	92.69
439.829	114.69
440.05	149.69
440.272	194.69
440.493	116.69
440.715	79.69
440.936	83.69
441.158	109.69
441.379	86.69
441.6	102.69
441.822	89.69
442.043	103.69
442.264	99.69
442.486	105.69
442.707	90.69
442.928	123.69
443.149	170.69
443.371	153.69
443.592	119.69
443.813	114.69
444.034	121.69
444.255	87.69
444.476	88.69
444.698	79.69
444.919	75.69
445.14	144.69
445.361	132.69
445.582	139.69
445.803	178.69
446.024	175.69
446.245	178.69
446.466	114.69
446.687	110.69
446.908	97.69
447.129	89.69
447.35	86.69
447.571	91.69
447.792	84.69
448.013	94.69
448.234	124.69
448.455	113.69
448.675	124.69
448.896	122.69
449.117	112.69
449.338	108.69
449.559	148.69
449.779	162.69
450	97.69
450.221	90.69
450.442	95.69
450.662	109.69
450.883	110.69
451.104	128.69
451.324	92.69
451.545	86.69
451.766	97.69
451.986	87.69
452.207	101.69
452.428	87.69
452.648	106.69
452.869	106.69
453.089	143.69
453.31	136.69
453.53	93.69
453.751	99.69
453.971	119.69
454.192	121.69
454.412	93.69
454.633	92.69
454.853	93.69
455.073	97.69
455.294	90.69
455.514	102.69
455.734	82.69
455.955	83.69
456.175	98.69
456.395	84.69
456.616	84.69
456.836	91.69
457.056	88.69
457.276	76.69
457.497	93.69
457.717	92.69
457.937	91.69
458.157	85.69
458.377	87.69
458.598	120.69
458.818	174.69
459.038	196.69
459.258	129.69
459.478	101.69
459.698	86.69
459.918	88.69
460.138	89.69
460.358	97.69
460.578	80.69
460.798	95.69
461.018	91.69
461.238	80.69
461.458	96.69
461.678	87.69
461.898	90.69
462.118	84.69
462.338	87.69
462.558	90.69
462.777	76.69
462.997	95.69
463.217	90.69
463.437	89.69
463.657	87.69
463.876	79.69
464.096	78.69
464.316	84.69
464.536	96.69
464.755	105.69
464.975	121.69
465.195	177.69
465.414	210.69
465.634	103.69
465.854	98.69
466.073	95.69
466.293	85.69
466.512	84.69
466.732	83.69
466.951	87.69
467.171	99.69
467.391	107.69
467.61	113.69
467.829	143.69
468.049	308.69
468.268	423.69
468.488	148.69
468.707	96.69
468.927	83.69
469.146	82.69
469.365	86.69
469.585	86.69
469.804	105.69
470.023	101.69
470.243	94.69
470.462	112.69
470.681	115.69
470.901	90.69
471.12	91.69
471.339	96.69
471.558	89.69
471.777	113.69
471.997	171.69
472.216	550.69
472.435	1260.69
472.654	341.69
472.873	139.69
473.092	106.69
473.311	90.69
473.53	101.69
473.749	75.69
473.968	106.69
474.187	112.69
474.406	104.69
474.625	89.69
474.844	95.69
475.063	90.69
475.282	88.69
475.501	81.69
475.72	102.69
475.939	98.69
476.158	99.69
476.377	93.69
476.596	84.69
476.814	92.69
477.033	105.69
477.252	90.69
477.471	99.69
477.69	91.69
477.908	91.69
478.127	97.69
478.346	86.69
478.564	79.69
478.783	100.69
479.002	101.69
479.22	88.69
479.439	112.69
479.658	124.69
479.876	98.69
480.095	115.69
480.313	116.69
480.532	114.69
480.751	171.69
480.969	522.69
481.188	2093.69
481.406	1320.69
481.624	237.69
481.843	111.69
482.061	99.69
482.28	94.69
482.498	92.69
482.717	87.69
482.935	82.69
483.153	84.69
483.372	81.69
483.59	90.69
483.808	85.69
484.027	92.69
484.245	102.69
484.463	80.69
484.681	87.69
484.9	98.69
485.118	84.69
485.336	98.69
485.554	105.69
485.772	109.69
485.99	99.69
486.209	93.69
486.427	106.69
486.645	104.69
486.863	110.69
487.081	105.69
487.299	100.69
487.517	96.69
487.735	80.69
487.953	90.69
488.171	92.69
488.389	91.69
488.607	111.69
488.825	105.69
489.043	92.69
489.261	92.69
489.479	82.69
489.696	89.69
489.914	88.69
490.132	75.69
490.35	83.69
490.568	84.69
490.786	92.69
491.003	97.69
491.221	87.69
491.439	97.69
491.657	88.69
491.874	91.69
492.092	79.69
492.31	87.69
492.527	85.69
492.745	95.69
492.963	105.69
493.18	94.69
493.398	93.69
493.615	98.69
493.833	85.69
494.05	90.69
494.268	100.69
494.485	106.69
494.703	88.69
494.92	90.69
495.138	97.69
495.355	84.69
495.573	94.69
495.79	105.69
496.008	88.69
496.225	111.69
496.442	78.69
496.66	90.69
496.877	100.69
497.094	94.69
497.312	88.69
497.529	93.69
497.746	91.69
497.963	87.69
498.181	83.69
498.398	95.69
498.615	108.69
498.832	96.69
499.049	79.69
499.267	97.69
499.484	82.69
499.701	91.69
499.918	89.69
500.135	83.69
500.352	98.69
500.569	106.69
500.786	89.69
501.003	81.69
501.22	88.69
501.437	95.69
501.654	81.69
501.871	99.69
502.088	104.69
502.305	73.69
502.522	108.69
502.739	92.69
502.956	81.69
503.172	80.69
503.389	95.69
503.606	124.69
503.823	96.69
504.04	91.69
504.256	94.69
504.473	91.69
504.69	91.69
504.907	98.69
505.123	81.69
505.34	87.69
505.557	100.69
505.773	97.69
505.99	85.69
506.207	75.69
506.423	88.69
506.64	88.69
506.856	85.69
507.073	94.69
507.289	103.69
507.506	102.69
507.722	131.69
507.939	126.69
508.155	104.69
508.372	83.69
508.588	85.69
508.805	102.69
509.021	107.69
509.238	92.69
509.454	85.69
509.67	113.69
509.887	92.69
510.103	135.69
510.319	211.69
510.536	775.69
510.752	2601.69
510.968	728.69
511.184	152.69
511.401	137.69
511.617	100.69
511.833	103.69
512.049	98.69
512.265	82.69
512.481	90.69
512.698	88.69
512.914	98.69
513.13	76.69
513.346	94.69
513.562	81.69
513.778	108.69
513.994	112.69
514.21	102.69
514.426	129.69
514.642	153.69
