Data from Circ_2007_H10_HRD10591_00072.txt Node
Date: Wed Jan 03 10:22:11 EST 2024
User: Yrep
Spectrometer: HR+D1059
Trigger mode: 1
Integration Time (sec): 1.000000E-1
Scans to average: 1
Electric dark correction enabled: true
Nonlinearity correction enabled: false
Boxcar width: 0
XAxis mode: Wavelengths
Number of Pixels in Spectrum: 2048
>>>>>Begin Spectral Data<<<<<
223.165	-8.12
223.4	-8.12
223.635	-8.12
223.869	-19.12
224.104	-32.12
224.338	-16.12
224.573	-2.12
224.808	-20.12
225.042	0.88
225.277	-6.12
225.511	-14.12
225.746	-4.12
225.98	11.88
226.215	26.88
226.449	20.88
226.683	19.88
226.918	24.88
227.152	16.88
227.387	36.88
227.621	34.88
227.856	41.88
228.09	42.88
228.324	52.88
228.559	58.88
228.793	59.88
229.027	64.88
229.262	65.88
229.496	73.88
229.73	88.88
229.964	90.88
230.199	76.88
230.433	64.88
230.667	82.88
230.901	71.88
231.136	70.88
231.37	91.88
231.604	68.88
231.838	76.88
232.072	76.88
232.306	79.88
232.541	68.88
232.775	77.88
233.009	73.88
233.243	64.88
233.477	77.88
233.711	81.88
233.945	80.88
234.179	83.88
234.413	88.88
234.647	71.88
234.881	78.88
235.115	89.88
235.349	80.88
235.583	79.88
235.817	86.88
236.051	71.88
236.285	83.88
236.519	70.88
236.753	88.88
236.987	84.88
237.221	85.88
237.455	84.88
237.689	76.88
237.922	70.88
238.156	64.88
238.39	79.88
238.624	65.88
238.858	77.88
239.091	65.88
239.325	77.88
239.559	84.88
239.793	82.88
240.027	86.88
240.26	77.88
240.494	79.88
240.728	74.88
240.961	65.88
241.195	81.88
241.429	77.88
241.662	86.88
241.896	55.88
242.13	73.88
242.363	80.88
242.597	63.88
242.83	79.88
243.064	71.88
243.298	66.88
243.531	74.88
243.765	80.88
243.998	93.88
244.232	82.88
244.465	80.88
244.699	78.88
244.932	65.88
245.166	86.88
245.399	77.88
245.633	81.88
245.866	89.88
246.099	75.88
246.333	85.88
246.566	78.88
246.8	85.88
247.033	80.88
247.266	74.88
247.5	78.88
247.733	75.88
247.966	76.88
248.2	62.88
248.433	72.88
248.666	85.88
248.899	85.88
249.133	77.88
249.366	92.88
249.599	85.88
249.832	93.88
250.066	87.88
250.299	76.88
250.532	82.88
250.765	82.88
250.998	82.88
251.231	80.88
251.465	93.88
251.698	83.88
251.931	63.88
252.164	86.88
252.397	62.88
252.63	77.88
252.863	87.88
253.096	82.88
253.329	76.88
253.562	81.88
253.795	90.88
254.028	73.88
254.261	80.88
254.494	81.88
254.727	81.88
254.96	71.88
255.193	75.88
255.426	79.88
255.659	77.88
255.892	96.88
256.124	82.88
256.357	72.88
256.59	73.88
256.823	89.88
257.056	87.88
257.289	90.88
257.521	64.88
257.754	84.88
257.987	83.88
258.22	80.88
258.452	83.88
258.685	76.88
258.918	84.88
259.151	91.88
259.383	84.88
259.616	94.88
259.849	87.88
260.081	85.88
260.314	83.88
260.547	97.88
260.779	91.88
261.012	103.88
261.244	95.88
261.477	105.88
261.71	105.88
261.942	144.88
262.175	145.88
262.407	85.88
262.64	83.88
262.872	82.88
263.105	83.88
263.337	80.88
263.57	98.88
263.802	90.88
264.035	68.88
264.267	83.88
264.499	82.88
264.732	89.88
264.964	88.88
265.197	85.88
265.429	83.88
265.661	84.88
265.894	85.88
266.126	91.88
266.358	93.88
266.591	65.88
266.823	84.88
267.055	84.88
267.287	74.88
267.52	78.88
267.752	75.88
267.984	90.88
268.216	89.88
268.448	73.88
268.681	78.88
268.913	88.88
269.145	74.88
269.377	87.88
269.609	91.88
269.841	87.88
270.073	86.88
270.306	103.88
270.538	80.88
270.77	98.88
271.002	84.88
271.234	89.88
271.466	87.88
271.698	97.88
271.93	84.88
272.162	83.88
272.394	80.88
272.626	77.88
272.858	76.88
273.09	82.88
273.322	77.88
273.553	89.88
273.785	87.88
274.017	66.88
274.249	84.88
274.481	80.88
274.713	91.88
274.945	86.88
275.176	90.88
275.408	96.88
275.64	87.88
275.872	107.88
276.104	101.88
276.335	106.88
276.567	121.88
276.799	147.88
277.031	154.88
277.262	183.88
277.494	128.88
277.726	98.88
277.957	88.88
278.189	81.88
278.421	90.88
278.652	87.88
278.884	80.88
279.115	86.88
279.347	107.88
279.579	104.88
279.81	103.88
280.042	169.88
280.273	216.88
280.505	142.88
280.736	113.88
280.968	90.88
281.199	107.88
281.431	88.88
281.662	79.88
281.894	95.88
282.125	91.88
282.356	143.88
282.588	174.88
282.819	134.88
283.051	89.88
283.282	80.88
283.513	85.88
283.745	84.88
283.976	83.88
284.207	82.88
284.439	90.88
284.67	88.88
284.901	99.88
285.132	88.88
285.364	84.88
285.595	78.88
285.826	76.88
286.057	90.88
286.288	84.88
286.52	77.88
286.751	83.88
286.982	103.88
287.213	88.88
287.444	88.88
287.675	94.88
287.906	89.88
288.138	106.88
288.369	85.88
288.6	95.88
288.831	85.88
289.062	97.88
289.293	90.88
289.524	83.88
289.755	75.88
289.986	83.88
290.217	79.88
290.448	87.88
290.679	71.88
290.91	90.88
291.141	89.88
291.371	85.88
291.602	67.88
291.833	87.88
292.064	86.88
292.295	89.88
292.526	83.88
292.757	92.88
292.987	83.88
293.218	98.88
293.449	84.88
293.68	88.88
293.91	85.88
294.141	88.88
294.372	92.88
294.603	81.88
294.833	85.88
295.064	96.88
295.295	88.88
295.525	93.88
295.756	121.88
295.987	121.88
296.217	187.88
296.448	161.88
296.679	94.88
296.909	100.88
297.14	90.88
297.37	88.88
297.601	98.88
297.831	91.88
298.062	84.88
298.292	93.88
298.523	106.88
298.753	90.88
298.984	96.88
299.214	94.88
299.445	88.88
299.675	91.88
299.905	84.88
300.136	88.88
300.366	78.88
300.597	69.88
300.827	95.88
301.057	111.88
301.288	108.88
301.518	108.88
301.748	101.88
301.979	116.88
302.209	95.88
302.439	89.88
302.669	88.88
302.9	74.88
303.13	83.88
303.36	95.88
303.59	125.88
303.82	148.88
304.051	93.88
304.281	99.88
304.511	80.88
304.741	104.88
304.971	92.88
305.201	90.88
305.431	92.88
305.661	78.88
305.891	94.88
306.121	107.88
306.352	111.88
306.582	111.88
306.812	111.88
307.042	117.88
307.272	134.88
307.502	166.88
307.731	164.88
307.961	112.88
308.191	95.88
308.421	96.88
308.651	97.88
308.881	97.88
309.111	91.88
309.341	96.88
309.571	92.88
309.8	114.88
310.03	124.88
310.26	110.88
310.49	111.88
310.72	99.88
310.949	107.88
311.179	120.88
311.409	98.88
311.639	93.88
311.868	109.88
312.098	98.88
312.328	102.88
312.557	107.88
312.787	115.88
313.017	115.88
313.246	96.88
313.476	90.88
313.706	105.88
313.935	102.88
314.165	106.88
314.394	110.88
314.624	105.88
314.853	109.88
315.083	109.88
315.312	85.88
315.542	93.88
315.771	78.88
316.001	92.88
316.23	97.88
316.46	81.88
316.689	88.88
316.919	99.88
317.148	100.88
317.377	107.88
317.607	101.88
317.836	99.88
318.065	93.88
318.295	87.88
318.524	84.88
318.753	97.88
318.983	103.88
319.212	117.88
319.441	124.88
319.67	128.88
319.9	88.88
320.129	84.88
320.358	92.88
320.587	99.88
320.816	116.88
321.046	118.88
321.275	89.88
321.504	100.88
321.733	95.88
321.962	103.88
322.191	110.88
322.42	111.88
322.649	114.88
322.878	119.88
323.108	123.88
323.337	125.88
323.566	155.88
323.795	219.88
324.024	257.88
324.253	517.88
324.482	1143.88
324.71	2287.88
324.939	3162.88
325.168	1164.88
325.397	331.88
325.626	183.88
325.855	146.88
326.084	135.88
326.313	145.88
326.542	180.88
326.77	273.88
326.999	553.88
327.228	1178.88
327.457	2226.88
327.686	1779.88
327.914	585.88
328.143	481.88
328.372	572.88
328.6	329.88
328.829	197.88
329.058	197.88
329.287	208.88
329.515	172.88
329.744	212.88
329.972	382.88
330.201	756.88
330.43	1171.88
330.658	548.88
330.887	291.88
331.115	193.88
331.344	134.88
331.572	114.88
331.801	128.88
332.03	123.88
332.258	123.88
332.486	101.88
332.715	102.88
332.943	106.88
333.172	133.88
333.4	119.88
333.629	137.88
333.857	216.88
334.085	336.88
334.314	690.88
334.542	1394.88
334.771	1347.88
334.999	382.88
335.227	174.88
335.455	124.88
335.684	109.88
335.912	103.88
336.14	108.88
336.369	112.88
336.597	119.88
336.825	101.88
337.053	96.88
337.281	96.88
337.51	95.88
337.738	104.88
337.966	97.88
338.194	106.88
338.422	107.88
338.65	115.88
338.878	90.88
339.106	91.88
339.334	93.88
339.562	102.88
339.79	89.88
340.018	90.88
340.246	107.88
340.474	110.88
340.702	95.88
340.93	100.88
341.158	104.88
341.386	94.88
341.614	92.88
341.842	100.88
342.07	103.88
342.298	98.88
342.526	100.88
342.754	85.88
342.981	96.88
343.209	93.88
343.437	113.88
343.665	71.88
343.893	95.88
344.12	83.88
344.348	99.88
344.576	94.88
344.804	99.88
345.031	105.88
345.259	116.88
345.487	108.88
345.714	99.88
345.942	95.88
346.17	101.88
346.397	92.88
346.625	97.88
346.853	97.88
347.08	87.88
347.308	100.88
347.535	114.88
347.763	130.88
347.99	120.88
348.218	107.88
348.445	111.88
348.673	108.88
348.9	106.88
349.128	95.88
349.355	90.88
349.583	93.88
349.81	98.88
350.037	100.88
350.265	103.88
350.492	115.88
350.72	115.88
350.947	109.88
351.174	101.88
351.402	115.88
351.629	114.88
351.856	103.88
352.083	108.88
352.311	93.88
352.538	133.88
352.765	128.88
352.992	131.88
353.22	96.88
353.447	107.88
353.674	98.88
353.901	97.88
354.128	86.88
354.355	94.88
354.583	93.88
354.81	98.88
355.037	96.88
355.264	81.88
355.491	89.88
355.718	97.88
355.945	100.88
356.172	89.88
356.399	99.88
356.626	85.88
356.853	100.88
357.08	80.88
357.307	94.88
357.534	81.88
357.761	94.88
357.988	101.88
358.215	97.88
358.441	85.88
358.668	100.88
358.895	86.88
359.122	80.88
359.349	93.88
359.576	91.88
359.802	138.88
360.029	159.88
360.256	151.88
360.483	112.88
360.709	87.88
360.936	89.88
361.163	113.88
361.39	100.88
361.616	104.88
361.843	94.88
362.07	96.88
362.296	106.88
362.523	98.88
362.749	104.88
362.976	91.88
363.203	98.88
363.429	80.88
363.656	87.88
363.882	102.88
364.109	88.88
364.335	87.88
364.562	92.88
364.788	87.88
365.015	115.88
365.241	99.88
365.468	106.88
365.694	120.88
365.92	104.88
366.147	99.88
366.373	101.88
366.599	95.88
366.826	90.88
367.052	95.88
367.278	83.88
367.505	86.88
367.731	96.88
367.957	108.88
368.184	93.88
368.41	102.88
368.636	127.88
368.862	144.88
369.089	124.88
369.315	103.88
369.541	97.88
369.767	98.88
369.993	116.88
370.219	100.88
370.445	92.88
370.672	87.88
370.898	91.88
371.124	102.88
371.35	91.88
371.576	83.88
371.802	96.88
372.028	93.88
372.254	88.88
372.48	82.88
372.706	75.88
372.932	82.88
373.158	65.88
373.384	99.88
373.61	91.88
373.835	93.88
374.061	104.88
374.287	104.88
374.513	96.88
374.739	105.88
374.965	101.88
375.191	86.88
375.416	88.88
375.642	100.88
375.868	89.88
376.094	91.88
376.319	98.88
376.545	105.88
376.771	96.88
376.997	90.88
377.222	80.88
377.448	81.88
377.674	106.88
377.899	87.88
378.125	84.88
378.35	83.88
378.576	84.88
378.802	76.88
379.027	65.88
379.253	84.88
379.478	97.88
379.704	83.88
379.929	82.88
380.155	95.88
380.38	106.88
380.606	85.88
380.831	84.88
381.057	88.88
381.282	95.88
381.507	81.88
381.733	90.88
381.958	81.88
382.184	91.88
382.409	103.88
382.634	91.88
382.86	93.88
383.085	97.88
383.31	98.88
383.535	100.88
383.761	95.88
383.986	86.88
384.211	103.88
384.436	92.88
384.662	107.88
384.887	91.88
385.112	92.88
385.337	93.88
385.562	120.88
385.787	111.88
386.013	105.88
386.238	113.88
386.463	110.88
386.688	109.88
386.913	107.88
387.138	93.88
387.363	99.88
387.588	90.88
387.813	105.88
388.038	107.88
388.263	97.88
388.488	101.88
388.713	80.88
388.938	95.88
389.163	89.88
389.387	88.88
389.612	83.88
389.837	92.88
390.062	92.88
390.287	77.88
390.512	88.88
390.736	101.88
390.961	74.88
391.186	91.88
391.411	99.88
391.636	79.88
391.86	80.88
392.085	92.88
392.31	79.88
392.534	78.88
392.759	86.88
392.984	86.88
393.208	98.88
393.433	96.88
393.658	95.88
393.882	83.88
394.107	91.88
394.331	92.88
394.556	85.88
394.78	92.88
395.005	80.88
395.229	82.88
395.454	92.88
395.678	88.88
395.903	94.88
396.127	97.88
396.352	79.88
396.576	82.88
396.801	94.88
397.025	97.88
397.249	89.88
397.474	101.88
397.698	81.88
397.922	84.88
398.147	106.88
398.371	89.88
398.595	85.88
398.82	76.88
399.044	68.88
399.268	92.88
399.492	92.88
399.717	89.88
399.941	94.88
400.165	92.88
400.389	94.88
400.613	95.88
400.837	84.88
401.062	83.88
401.286	91.88
401.51	107.88
401.734	99.88
401.958	116.88
402.182	167.88
402.406	228.88
402.63	156.88
402.854	126.88
403.078	87.88
403.302	83.88
403.526	81.88
403.75	88.88
403.974	87.88
404.198	74.88
404.422	89.88
404.645	86.88
404.869	106.88
405.093	126.88
405.317	141.88
405.541	138.88
405.765	112.88
405.988	127.88
406.212	221.88
406.436	367.88
406.66	228.88
406.883	136.88
407.107	103.88
407.331	98.88
407.555	104.88
407.778	108.88
408.002	88.88
408.226	99.88
408.449	92.88
408.673	92.88
408.896	88.88
409.12	104.88
409.344	99.88
409.567	90.88
409.791	79.88
410.014	85.88
410.238	98.88
410.461	106.88
410.685	91.88
410.908	102.88
411.132	101.88
411.355	109.88
411.578	89.88
411.802	81.88
412.025	85.88
412.249	95.88
412.472	109.88
412.695	129.88
412.919	86.88
413.142	85.88
413.365	95.88
413.589	83.88
413.812	75.88
414.035	86.88
414.258	99.88
414.482	101.88
414.705	83.88
414.928	96.88
415.151	79.88
415.374	83.88
415.597	93.88
415.821	90.88
416.044	97.88
416.267	93.88
416.49	98.88
416.713	97.88
416.936	91.88
417.159	69.88
417.382	84.88
417.605	98.88
417.828	99.88
418.051	100.88
418.274	103.88
418.497	91.88
418.72	83.88
418.943	89.88
419.166	75.88
419.389	95.88
419.611	101.88
419.834	83.88
420.057	99.88
420.28	96.88
420.503	84.88
420.726	80.88
420.948	91.88
421.171	95.88
421.394	89.88
421.617	79.88
421.839	79.88
422.062	100.88
422.285	88.88
422.507	105.88
422.73	113.88
422.953	96.88
423.175	98.88
423.398	87.88
423.621	83.88
423.843	80.88
424.066	90.88
424.288	98.88
424.511	93.88
424.733	107.88
424.956	130.88
425.178	123.88
425.401	119.88
425.623	104.88
425.846	102.88
426.068	96.88
426.291	95.88
426.513	88.88
426.735	95.88
426.958	98.88
427.18	126.88
427.402	172.88
427.625	273.88
427.847	244.88
428.069	195.88
428.292	124.88
428.514	92.88
428.736	101.88
428.958	99.88
429.181	86.88
429.403	93.88
429.625	96.88
429.847	95.88
430.069	109.88
430.292	91.88
430.514	92.88
430.736	67.88
430.958	89.88
431.18	96.88
431.402	97.88
431.624	73.88
431.846	92.88
432.068	79.88
432.29	99.88
432.512	99.88
432.734	88.88
432.956	74.88
433.178	102.88
433.4	101.88
433.622	90.88
433.844	98.88
434.066	88.88
434.287	88.88
434.509	98.88
434.731	75.88
434.953	103.88
435.175	91.88
435.397	89.88
435.618	93.88
435.84	115.88
436.062	122.88
436.284	124.88
436.505	104.88
436.727	108.88
436.949	101.88
437.17	90.88
437.392	82.88
437.614	97.88
437.835	122.88
438.057	157.88
438.278	137.88
438.5	121.88
438.721	157.88
438.943	110.88
439.165	111.88
439.386	109.88
439.608	100.88
439.829	107.88
440.05	155.88
440.272	184.88
440.493	114.88
440.715	88.88
440.936	90.88
441.158	84.88
441.379	100.88
441.6	104.88
441.822	105.88
442.043	101.88
442.264	122.88
442.486	116.88
442.707	111.88
442.928	137.88
443.149	188.88
443.371	177.88
443.592	133.88
443.813	157.88
444.034	147.88
444.255	103.88
444.476	87.88
444.698	85.88
444.919	92.88
445.14	139.88
445.361	142.88
445.582	143.88
445.803	185.88
446.024	183.88
446.245	183.88
446.466	134.88
446.687	93.88
446.908	84.88
447.129	81.88
447.35	109.88
447.571	92.88
447.792	88.88
448.013	123.88
448.234	131.88
448.455	115.88
448.675	125.88
448.896	153.88
449.117	113.88
449.338	123.88
449.559	143.88
449.779	160.88
450	112.88
450.221	94.88
450.442	95.88
450.662	111.88
450.883	138.88
451.104	157.88
451.324	110.88
451.545	98.88
451.766	101.88
451.986	82.88
452.207	103.88
452.428	91.88
452.648	108.88
452.869	131.88
453.089	135.88
453.31	169.88
453.53	111.88
453.751	108.88
453.971	116.88
454.192	138.88
454.412	109.88
454.633	95.88
454.853	81.88
455.073	92.88
455.294	97.88
455.514	109.88
455.734	97.88
455.955	95.88
456.175	100.88
456.395	90.88
456.616	85.88
456.836	84.88
457.056	94.88
457.276	86.88
457.497	91.88
457.717	89.88
457.937	86.88
458.157	87.88
458.377	98.88
458.598	130.88
458.818	228.88
459.038	267.88
459.258	145.88
459.478	95.88
459.698	83.88
459.918	89.88
460.138	94.88
460.358	99.88
460.578	85.88
460.798	79.88
461.018	100.88
461.238	79.88
461.458	84.88
461.678	84.88
461.898	81.88
462.118	88.88
462.338	85.88
462.558	96.88
462.777	81.88
462.997	85.88
463.217	99.88
463.437	110.88
463.657	93.88
463.876	89.88
464.096	86.88
464.316	92.88
464.536	110.88
464.755	83.88
464.975	127.88
465.195	256.88
465.414	263.88
465.634	110.88
465.854	96.88
466.073	98.88
466.293	92.88
466.512	85.88
466.732	84.88
466.951	91.88
467.171	100.88
467.391	103.88
467.61	157.88
467.829	183.88
468.049	443.88
468.268	652.88
468.488	187.88
468.707	110.88
468.927	97.88
469.146	89.88
469.365	97.88
469.585	99.88
469.804	114.88
470.023	110.88
470.243	112.88
470.462	115.88
470.681	142.88
470.901	102.88
471.12	99.88
471.339	106.88
471.558	103.88
471.777	125.88
471.997	239.88
472.216	818.88
472.435	1940.88
472.654	493.88
472.873	150.88
473.092	99.88
473.311	91.88
473.53	80.88
473.749	96.88
473.968	98.88
474.187	122.88
474.406	113.88
474.625	90.88
474.844	83.88
475.063	92.88
475.282	85.88
475.501	96.88
475.72	91.88
475.939	92.88
476.158	84.88
476.377	93.88
476.596	92.88
476.814	93.88
477.033	112.88
477.252	92.88
477.471	89.88
477.69	94.88
477.908	93.88
478.127	96.88
478.346	100.88
478.564	97.88
478.783	99.88
479.002	108.88
479.22	109.88
479.439	123.88
479.658	133.88
479.876	109.88
480.095	129.88
480.313	126.88
480.532	136.88
480.751	220.88
480.969	728.88
481.188	3202.88
481.406	2004.88
481.624	329.88
481.843	128.88
482.061	93.88
482.28	96.88
482.498	80.88
482.717	99.88
482.935	101.88
483.153	92.88
483.372	74.88
483.59	84.88
483.808	82.88
484.027	96.88
484.245	73.88
484.463	96.88
484.681	101.88
484.9	89.88
485.118	95.88
485.336	93.88
485.554	92.88
485.772	88.88
485.99	85.88
486.209	103.88
486.427	105.88
486.645	130.88
486.863	144.88
487.081	117.88
487.299	93.88
487.517	95.88
487.735	92.88
487.953	89.88
488.171	93.88
488.389	81.88
488.607	103.88
488.825	93.88
489.043	83.88
489.261	93.88
489.479	95.88
489.696	105.88
489.914	101.88
490.132	104.88
490.35	86.88
490.568	101.88
490.786	93.88
491.003	103.88
491.221	97.88
491.439	85.88
491.657	101.88
491.874	99.88
492.092	96.88
492.31	108.88
492.527	109.88
492.745	89.88
492.963	84.88
493.18	89.88
493.398	102.88
493.615	98.88
493.833	110.88
494.05	74.88
494.268	81.88
494.485	86.88
494.703	86.88
494.92	89.88
495.138	74.88
495.355	76.88
495.573	90.88
495.79	86.88
496.008	80.88
496.225	72.88
496.442	89.88
496.66	99.88
496.877	91.88
497.094	95.88
497.312	79.88
497.529	78.88
497.746	76.88
497.963	75.88
498.181	84.88
498.398	99.88
498.615	116.88
498.832	103.88
499.049	90.88
499.267	86.88
499.484	81.88
499.701	83.88
499.918	99.88
500.135	92.88
500.352	92.88
500.569	81.88
500.786	91.88
501.003	101.88
501.22	85.88
501.437	91.88
501.654	106.88
501.871	124.88
502.088	94.88
502.305	92.88
502.522	84.88
502.739	80.88
502.956	78.88
503.172	100.88
503.389	104.88
503.606	126.88
503.823	121.88
504.04	111.88
504.256	96.88
504.473	107.88
504.69	94.88
504.907	93.88
505.123	103.88
505.34	77.88
505.557	89.88
505.773	100.88
505.99	74.88
506.207	77.88
506.423	99.88
506.64	93.88
506.856	93.88
507.073	97.88
507.289	89.88
507.506	90.88
507.722	133.88
507.939	145.88
508.155	109.88
508.372	105.88
508.588	109.88
508.805	107.88
509.021	97.88
509.238	98.88
509.454	90.88
509.67	106.88
509.887	117.88
510.103	141.88
510.319	259.88
510.536	1002.88
510.752	3657.88
510.968	1017.88
511.184	199.88
511.401	130.88
511.617	113.88
511.833	119.88
512.049	95.88
512.265	89.88
512.481	88.88
512.698	98.88
512.914	96.88
513.13	106.88
513.346	112.88
