Data from Circ_2007_H10_HRD10591_00086.txt Node
Date: Wed Jan 03 10:22:14 EST 2024
User: Yrep
Spectrometer: HR+D1059
Trigger mode: 1
Integration Time (sec): 1.000000E-1
Scans to average: 1
Electric dark correction enabled: true
Nonlinearity correction enabled: false
Boxcar width: 0
XAxis mode: Wavelengths
Number of Pixels in Spectrum: 2048
>>>>>Begin Spectral Data<<<<<
223.165	-20.38
223.4	-20.38
223.635	-20.38
223.869	-24.38
224.104	-19.38
224.338	-28.38
224.573	-14.38
224.808	-16.38
225.042	-8.38
225.277	-15.38
225.511	5.62
225.746	8.62
225.98	8.62
226.215	21.62
226.449	10.62
226.683	25.62
226.918	44.62
227.152	21.62
227.387	26.62
227.621	27.62
227.856	46.62
228.09	47.62
228.324	42.62
228.559	62.62
228.793	79.62
229.027	66.62
229.262	71.62
229.496	68.62
229.73	94.62
229.964	76.62
230.199	77.62
230.433	71.62
230.667	81.62
230.901	76.62
231.136	71.62
231.37	89.62
231.604	78.62
231.838	64.62
232.072	75.62
232.306	66.62
232.541	63.62
232.775	88.62
233.009	71.62
233.243	87.62
233.477	77.62
233.711	79.62
233.945	71.62
234.179	76.62
234.413	97.62
234.647	79.62
234.881	66.62
235.115	84.62
235.349	79.62
235.583	75.62
235.817	84.62
236.051	84.62
236.285	79.62
236.519	81.62
236.753	76.62
236.987	82.62
237.221	74.62
237.455	94.62
237.689	69.62
237.922	78.62
238.156	73.62
238.39	58.62
238.624	69.62
238.858	84.62
239.091	82.62
239.325	72.62
239.559	71.62
239.793	74.62
240.027	68.62
240.26	74.62
240.494	86.62
240.728	88.62
240.961	94.62
241.195	80.62
241.429	76.62
241.662	74.62
241.896	80.62
242.13	71.62
242.363	72.62
242.597	54.62
242.83	60.62
243.064	83.62
243.298	72.62
243.531	69.62
243.765	72.62
243.998	87.62
244.232	81.62
244.465	90.62
244.699	88.62
244.932	80.62
245.166	70.62
245.399	91.62
245.633	71.62
245.866	80.62
246.099	79.62
246.333	78.62
246.566	64.62
246.8	81.62
247.033	75.62
247.266	70.62
247.5	80.62
247.733	79.62
247.966	78.62
248.2	89.62
248.433	79.62
248.666	69.62
248.899	87.62
249.133	76.62
249.366	94.62
249.599	103.62
249.832	85.62
250.066	82.62
250.299	94.62
250.532	75.62
250.765	85.62
250.998	92.62
251.231	93.62
251.465	79.62
251.698	80.62
251.931	74.62
252.164	72.62
252.397	85.62
252.63	74.62
252.863	82.62
253.096	78.62
253.329	82.62
253.562	73.62
253.795	86.62
254.028	77.62
254.261	87.62
254.494	86.62
254.727	90.62
254.96	75.62
255.193	85.62
255.426	70.62
255.659	78.62
255.892	80.62
256.124	99.62
256.357	85.62
256.59	87.62
256.823	74.62
257.056	75.62
257.289	84.62
257.521	92.62
257.754	73.62
257.987	87.62
258.22	88.62
258.452	91.62
258.685	75.62
258.918	77.62
259.151	66.62
259.383	79.62
259.616	77.62
259.849	85.62
260.081	93.62
260.314	77.62
260.547	82.62
260.779	96.62
261.012	90.62
261.244	101.62
261.477	99.62
261.71	99.62
261.942	110.62
262.175	132.62
262.407	99.62
262.64	88.62
262.872	92.62
263.105	91.62
263.337	86.62
263.57	90.62
263.802	75.62
264.035	67.62
264.267	77.62
264.499	76.62
264.732	80.62
264.964	91.62
265.197	89.62
265.429	92.62
265.661	89.62
265.894	79.62
266.126	75.62
266.358	91.62
266.591	68.62
266.823	85.62
267.055	83.62
267.287	96.62
267.52	84.62
267.752	91.62
267.984	84.62
268.216	79.62
268.448	83.62
268.681	74.62
268.913	86.62
269.145	72.62
269.377	89.62
269.609	93.62
269.841	79.62
270.073	82.62
270.306	87.62
270.538	78.62
270.77	86.62
271.002	84.62
271.234	77.62
271.466	96.62
271.698	86.62
271.93	63.62
272.162	93.62
272.394	80.62
272.626	83.62
272.858	80.62
273.09	79.62
273.322	66.62
273.553	96.62
273.785	84.62
274.017	74.62
274.249	84.62
274.481	101.62
274.713	92.62
274.945	95.62
275.176	77.62
275.408	98.62
275.64	95.62
275.872	106.62
276.104	106.62
276.335	92.62
276.567	105.62
276.799	128.62
277.031	162.62
277.262	172.62
277.494	130.62
277.726	88.62
277.957	86.62
278.189	71.62
278.421	96.62
278.652	84.62
278.884	103.62
279.115	68.62
279.347	84.62
279.579	90.62
279.81	110.62
280.042	158.62
280.273	206.62
280.505	150.62
280.736	107.62
280.968	106.62
281.199	96.62
281.431	82.62
281.662	87.62
281.894	74.62
282.125	81.62
282.356	110.62
282.588	164.62
282.819	134.62
283.051	89.62
283.282	88.62
283.513	98.62
283.745	91.62
283.976	89.62
284.207	84.62
284.439	81.62
284.67	83.62
284.901	96.62
285.132	108.62
285.364	70.62
285.595	84.62
285.826	91.62
286.057	81.62
286.288	90.62
286.52	86.62
286.751	83.62
286.982	106.62
287.213	79.62
287.444	97.62
287.675	87.62
287.906	94.62
288.138	88.62
288.369	86.62
288.6	81.62
288.831	74.62
289.062	66.62
289.293	93.62
289.524	100.62
289.755	82.62
289.986	83.62
290.217	87.62
290.448	86.62
290.679	89.62
290.91	83.62
291.141	83.62
291.371	88.62
291.602	98.62
291.833	83.62
292.064	87.62
292.295	93.62
292.526	98.62
292.757	96.62
292.987	91.62
293.218	76.62
293.449	80.62
293.68	86.62
293.91	66.62
294.141	68.62
294.372	99.62
294.603	96.62
294.833	87.62
295.064	88.62
295.295	80.62
295.525	94.62
295.756	109.62
295.987	122.62
296.217	154.62
296.448	129.62
296.679	84.62
296.909	82.62
297.14	79.62
297.37	78.62
297.601	100.62
297.831	100.62
298.062	100.62
298.292	92.62
298.523	70.62
298.753	94.62
298.984	73.62
299.214	93.62
299.445	92.62
299.675	100.62
299.905	99.62
300.136	96.62
300.366	77.62
300.597	88.62
300.827	102.62
301.057	109.62
301.288	115.62
301.518	89.62
301.748	96.62
301.979	97.62
302.209	97.62
302.439	109.62
302.669	84.62
302.9	86.62
303.13	85.62
303.36	111.62
303.59	131.62
303.82	126.62
304.051	105.62
304.281	98.62
304.511	96.62
304.741	81.62
304.971	83.62
305.201	78.62
305.431	109.62
305.661	93.62
305.891	89.62
306.121	99.62
306.352	97.62
306.582	109.62
306.812	104.62
307.042	118.62
307.272	118.62
307.502	145.62
307.731	156.62
307.961	115.62
308.191	81.62
308.421	86.62
308.651	77.62
308.881	95.62
309.111	88.62
309.341	91.62
309.571	93.62
309.8	92.62
310.03	97.62
310.26	98.62
310.49	100.62
310.72	98.62
310.949	127.62
311.179	118.62
311.409	93.62
311.639	97.62
311.868	95.62
312.098	85.62
312.328	98.62
312.557	103.62
312.787	108.62
313.017	108.62
313.246	92.62
313.476	97.62
313.706	94.62
313.935	91.62
314.165	118.62
314.394	106.62
314.624	107.62
314.853	99.62
315.083	98.62
315.312	92.62
315.542	89.62
315.771	83.62
316.001	87.62
316.23	88.62
316.46	88.62
316.689	88.62
316.919	80.62
317.148	93.62
317.377	86.62
317.607	87.62
317.836	110.62
318.065	95.62
318.295	89.62
318.524	76.62
318.753	102.62
318.983	105.62
319.212	106.62
319.441	111.62
319.67	121.62
319.9	96.62
320.129	89.62
320.358	85.62
320.587	101.62
320.816	96.62
321.046	105.62
321.275	89.62
321.504	106.62
321.733	88.62
321.962	87.62
322.191	90.62
322.42	112.62
322.649	118.62
322.878	123.62
323.108	123.62
323.337	138.62
323.566	146.62
323.795	177.62
324.024	246.62
324.253	470.62
324.482	1061.62
324.71	2198.62
324.939	2965.62
325.168	1042.62
325.397	295.62
325.626	170.62
325.855	142.62
326.084	140.62
326.313	148.62
326.542	183.62
326.77	261.62
326.999	558.62
327.228	1145.62
327.457	2138.62
327.686	1699.62
327.914	513.62
328.143	404.62
328.372	486.62
328.6	295.62
328.829	177.62
329.058	190.62
329.287	172.62
329.515	147.62
329.744	198.62
329.972	343.62
330.201	670.62
330.43	995.62
330.658	503.62
330.887	240.62
331.115	166.62
331.344	129.62
331.572	118.62
331.801	126.62
332.03	126.62
332.258	108.62
332.486	90.62
332.715	99.62
332.943	100.62
333.172	107.62
333.4	121.62
333.629	157.62
333.857	195.62
334.085	317.62
334.314	604.62
334.542	1220.62
334.771	1183.62
334.999	323.62
335.227	148.62
335.455	102.62
335.684	109.62
335.912	95.62
336.14	100.62
336.369	114.62
336.597	112.62
336.825	90.62
337.053	86.62
337.281	96.62
337.51	101.62
337.738	102.62
337.966	112.62
338.194	104.62
338.422	98.62
338.65	102.62
338.878	103.62
339.106	96.62
339.334	96.62
339.562	74.62
339.79	85.62
340.018	93.62
340.246	94.62
340.474	88.62
340.702	92.62
340.93	108.62
341.158	101.62
341.386	84.62
341.614	103.62
341.842	99.62
342.07	96.62
342.298	100.62
342.526	82.62
342.754	70.62
342.981	84.62
343.209	85.62
343.437	96.62
343.665	82.62
343.893	95.62
344.12	94.62
344.348	89.62
344.576	83.62
344.804	93.62
345.031	103.62
345.259	91.62
345.487	99.62
345.714	92.62
345.942	91.62
346.17	98.62
346.397	105.62
346.625	94.62
346.853	107.62
347.08	90.62
347.308	93.62
347.535	97.62
347.763	83.62
347.99	111.62
348.218	109.62
348.445	106.62
348.673	109.62
348.9	86.62
349.128	91.62
349.355	79.62
349.583	86.62
349.81	99.62
350.037	95.62
350.265	81.62
350.492	98.62
350.72	96.62
350.947	106.62
351.174	94.62
351.402	111.62
351.629	103.62
351.856	102.62
352.083	95.62
352.311	90.62
352.538	135.62
352.765	122.62
352.992	110.62
353.22	107.62
353.447	107.62
353.674	93.62
353.901	96.62
354.128	90.62
354.355	100.62
354.583	95.62
354.81	84.62
355.037	95.62
355.264	99.62
355.491	72.62
355.718	95.62
355.945	84.62
356.172	94.62
356.399	86.62
356.626	100.62
356.853	110.62
357.08	95.62
357.307	82.62
357.534	89.62
357.761	89.62
357.988	99.62
358.215	100.62
358.441	89.62
358.668	96.62
358.895	86.62
359.122	97.62
359.349	82.62
359.576	91.62
359.802	108.62
360.029	122.62
360.256	124.62
360.483	113.62
360.709	78.62
360.936	82.62
361.163	95.62
361.39	95.62
361.616	95.62
361.843	91.62
362.07	96.62
362.296	103.62
362.523	91.62
362.749	88.62
362.976	105.62
363.203	96.62
363.429	76.62
363.656	91.62
363.882	100.62
364.109	89.62
364.335	102.62
364.562	98.62
364.788	90.62
365.015	83.62
365.241	93.62
365.468	104.62
365.694	103.62
365.92	99.62
366.147	96.62
366.373	90.62
366.599	88.62
366.826	92.62
367.052	97.62
367.278	98.62
367.505	74.62
367.731	84.62
367.957	106.62
368.184	99.62
368.41	106.62
368.636	113.62
368.862	117.62
369.089	126.62
369.315	103.62
369.541	93.62
369.767	80.62
369.993	102.62
370.219	89.62
370.445	94.62
370.672	80.62
370.898	85.62
371.124	81.62
371.35	77.62
371.576	81.62
371.802	73.62
372.028	94.62
372.254	88.62
372.48	89.62
372.706	94.62
372.932	86.62
373.158	94.62
373.384	94.62
373.61	104.62
373.835	90.62
374.061	93.62
374.287	84.62
374.513	80.62
374.739	84.62
374.965	87.62
375.191	76.62
375.416	87.62
375.642	83.62
375.868	87.62
376.094	94.62
376.319	84.62
376.545	83.62
376.771	92.62
376.997	80.62
377.222	75.62
377.448	87.62
377.674	76.62
377.899	98.62
378.125	93.62
378.35	95.62
378.576	78.62
378.802	84.62
379.027	98.62
379.253	89.62
379.478	90.62
379.704	94.62
379.929	91.62
380.155	114.62
380.38	88.62
380.606	99.62
380.831	87.62
381.057	94.62
381.282	103.62
381.507	91.62
381.733	89.62
381.958	108.62
382.184	94.62
382.409	104.62
382.634	96.62
382.86	97.62
383.085	105.62
383.31	108.62
383.535	84.62
383.761	91.62
383.986	90.62
384.211	91.62
384.436	103.62
384.662	92.62
384.887	106.62
385.112	100.62
385.337	93.62
385.562	97.62
385.787	114.62
386.013	133.62
386.238	118.62
386.463	103.62
386.688	104.62
386.913	98.62
387.138	98.62
387.363	96.62
387.588	97.62
387.813	103.62
388.038	99.62
388.263	100.62
388.488	100.62
388.713	79.62
388.938	93.62
389.163	99.62
389.387	92.62
389.612	95.62
389.837	90.62
390.062	85.62
390.287	91.62
390.512	97.62
390.736	89.62
390.961	88.62
391.186	96.62
391.411	103.62
391.636	102.62
391.86	84.62
392.085	95.62
392.31	92.62
392.534	88.62
392.759	70.62
392.984	80.62
393.208	98.62
393.433	93.62
393.658	79.62
393.882	79.62
394.107	86.62
394.331	77.62
394.556	77.62
394.78	83.62
395.005	84.62
395.229	87.62
395.454	80.62
395.678	90.62
395.903	95.62
396.127	87.62
396.352	96.62
396.576	80.62
396.801	90.62
397.025	80.62
397.249	93.62
397.474	89.62
397.698	78.62
397.922	97.62
398.147	84.62
398.371	81.62
398.595	77.62
398.82	94.62
399.044	84.62
399.268	97.62
399.492	81.62
399.717	90.62
399.941	87.62
400.165	86.62
400.389	104.62
400.613	97.62
400.837	90.62
401.062	86.62
401.286	94.62
401.51	90.62
401.734	95.62
401.958	106.62
402.182	140.62
402.406	179.62
402.63	139.62
402.854	103.62
403.078	95.62
403.302	92.62
403.526	90.62
403.75	92.62
403.974	76.62
404.198	73.62
404.422	88.62
404.645	88.62
404.869	90.62
405.093	111.62
405.317	132.62
405.541	120.62
405.765	105.62
405.988	120.62
406.212	196.62
406.436	278.62
406.66	186.62
406.883	120.62
407.107	106.62
407.331	97.62
407.555	107.62
407.778	104.62
408.002	102.62
408.226	83.62
408.449	103.62
408.673	94.62
408.896	90.62
409.12	101.62
409.344	92.62
409.567	97.62
409.791	73.62
410.014	95.62
410.238	99.62
410.461	88.62
410.685	95.62
410.908	98.62
411.132	113.62
411.355	95.62
411.578	81.62
411.802	94.62
412.025	76.62
412.249	91.62
412.472	106.62
412.695	125.62
412.919	112.62
413.142	98.62
413.365	92.62
413.589	87.62
413.812	90.62
414.035	91.62
414.258	90.62
414.482	79.62
414.705	91.62
414.928	95.62
415.151	100.62
415.374	96.62
415.597	78.62
415.821	83.62
416.044	89.62
416.267	90.62
416.49	83.62
416.713	90.62
416.936	83.62
417.159	84.62
417.382	95.62
417.605	89.62
417.828	110.62
418.051	101.62
418.274	86.62
418.497	69.62
418.72	83.62
418.943	91.62
419.166	84.62
419.389	93.62
419.611	94.62
419.834	91.62
420.057	93.62
420.28	100.62
420.503	88.62
420.726	76.62
420.948	82.62
421.171	104.62
421.394	110.62
421.617	84.62
421.839	84.62
422.062	84.62
422.285	94.62
422.507	95.62
422.73	109.62
422.953	102.62
423.175	99.62
423.398	92.62
423.621	88.62
423.843	72.62
424.066	94.62
424.288	85.62
424.511	100.62
424.733	104.62
424.956	118.62
425.178	95.62
425.401	90.62
425.623	108.62
425.846	105.62
426.068	98.62
426.291	101.62
426.513	96.62
426.735	96.62
426.958	97.62
427.18	106.62
427.402	171.62
427.625	230.62
427.847	213.62
428.069	187.62
428.292	122.62
428.514	94.62
428.736	96.62
428.958	96.62
429.181	71.62
429.403	84.62
429.625	87.62
429.847	97.62
430.069	98.62
430.292	103.62
430.514	80.62
430.736	90.62
430.958	91.62
431.18	90.62
431.402	71.62
431.624	83.62
431.846	84.62
432.068	79.62
432.29	93.62
432.512	86.62
432.734	88.62
432.956	91.62
433.178	104.62
433.4	94.62
433.622	98.62
433.844	95.62
434.066	106.62
434.287	76.62
434.509	86.62
434.731	78.62
434.953	82.62
435.175	86.62
435.397	79.62
435.618	82.62
435.84	103.62
436.062	126.62
436.284	109.62
436.505	100.62
436.727	110.62
436.949	83.62
437.17	81.62
437.392	87.62
437.614	81.62
437.835	112.62
438.057	144.62
438.278	129.62
438.5	102.62
438.721	144.62
438.943	112.62
439.165	96.62
439.386	77.62
439.608	95.62
439.829	101.62
440.05	148.62
440.272	188.62
440.493	123.62
440.715	83.62
440.936	92.62
441.158	93.62
441.379	96.62
441.6	98.62
441.822	94.62
442.043	109.62
442.264	107.62
442.486	103.62
442.707	86.62
442.928	113.62
443.149	152.62
443.371	155.62
443.592	113.62
443.813	123.62
444.034	126.62
444.255	112.62
444.476	86.62
444.698	88.62
444.919	87.62
445.14	129.62
445.361	135.62
445.582	132.62
445.803	163.62
446.024	165.62
446.245	154.62
446.466	131.62
446.687	89.62
446.908	76.62
447.129	90.62
447.35	89.62
447.571	94.62
447.792	97.62
448.013	93.62
448.234	98.62
448.455	109.62
448.675	118.62
448.896	138.62
449.117	98.62
449.338	111.62
449.559	135.62
449.779	160.62
450	91.62
450.221	88.62
450.442	95.62
450.662	81.62
450.883	121.62
451.104	123.62
451.324	100.62
451.545	96.62
451.766	92.62
451.986	88.62
452.207	95.62
452.428	88.62
452.648	109.62
452.869	116.62
453.089	142.62
453.31	145.62
453.53	95.62
453.751	89.62
453.971	111.62
454.192	123.62
454.412	117.62
454.633	83.62
454.853	96.62
455.073	83.62
455.294	87.62
455.514	103.62
455.734	104.62
455.955	91.62
456.175	86.62
456.395	95.62
456.616	85.62
456.836	91.62
457.056	83.62
457.276	72.62
457.497	82.62
457.717	76.62
457.937	89.62
458.157	81.62
458.377	98.62
458.598	127.62
458.818	184.62
459.038	204.62
459.258	140.62
459.478	84.62
459.698	79.62
459.918	90.62
460.138	84.62
460.358	81.62
460.578	86.62
460.798	98.62
461.018	93.62
461.238	74.62
461.458	74.62
461.678	81.62
461.898	88.62
462.118	80.62
462.338	92.62
462.558	95.62
462.777	89.62
462.997	98.62
463.217	103.62
463.437	82.62
463.657	76.62
463.876	87.62
464.096	78.62
464.316	88.62
464.536	92.62
464.755	92.62
464.975	122.62
465.195	208.62
465.414	223.62
465.634	108.62
465.854	91.62
466.073	90.62
466.293	100.62
466.512	86.62
466.732	79.62
466.951	88.62
467.171	76.62
467.391	95.62
467.61	121.62
467.829	167.62
468.049	379.62
468.268	552.62
468.488	174.62
468.707	102.62
468.927	87.62
469.146	95.62
469.365	82.62
469.585	100.62
469.804	126.62
470.023	108.62
470.243	105.62
470.462	111.62
470.681	142.62
470.901	98.62
471.12	102.62
471.339	95.62
471.558	100.62
471.777	124.62
471.997	217.62
472.216	731.62
472.435	1690.62
472.654	410.62
472.873	120.62
473.092	108.62
473.311	96.62
473.53	99.62
473.749	88.62
473.968	99.62
474.187	117.62
474.406	103.62
474.625	75.62
474.844	98.62
475.063	80.62
475.282	93.62
475.501	101.62
475.72	99.62
475.939	96.62
476.158	80.62
476.377	88.62
476.596	78.62
476.814	100.62
477.033	104.62
477.252	97.62
477.471	96.62
477.69	103.62
477.908	103.62
478.127	92.62
478.346	93.62
478.564	99.62
478.783	93.62
479.002	84.62
479.22	104.62
479.439	94.62
479.658	116.62
479.876	111.62
480.095	108.62
480.313	129.62
480.532	130.62
480.751	210.62
480.969	652.62
481.188	2794.62
481.406	1777.62
481.624	291.62
481.843	105.62
482.061	91.62
482.28	92.62
482.498	97.62
482.717	84.62
482.935	84.62
483.153	88.62
483.372	82.62
483.59	92.62
483.808	91.62
484.027	97.62
484.245	91.62
484.463	97.62
484.681	86.62
484.9	97.62
485.118	77.62
485.336	87.62
485.554	91.62
485.772	97.62
485.99	103.62
486.209	104.62
486.427	95.62
486.645	123.62
486.863	120.62
487.081	112.62
487.299	94.62
487.517	95.62
487.735	83.62
487.953	87.62
488.171	89.62
488.389	105.62
488.607	98.62
488.825	93.62
489.043	90.62
489.261	103.62
489.479	89.62
489.696	90.62
489.914	82.62
490.132	75.62
490.35	86.62
490.568	87.62
490.786	98.62
491.003	99.62
491.221	79.62
491.439	91.62
491.657	92.62
491.874	86.62
492.092	99.62
492.31	86.62
492.527	102.62
492.745	89.62
492.963	107.62
493.18	98.62
493.398	90.62
493.615	94.62
493.833	87.62
494.05	79.62
494.268	84.62
494.485	96.62
494.703	74.62
494.92	89.62
495.138	80.62
495.355	89.62
495.573	82.62
495.79	76.62
496.008	90.62
496.225	88.62
496.442	101.62
496.66	95.62
496.877	91.62
497.094	77.62
497.312	88.62
497.529	98.62
497.746	78.62
497.963	84.62
498.181	87.62
498.398	100.62
498.615	133.62
498.832	107.62
499.049	78.62
499.267	86.62
499.484	83.62
499.701	86.62
499.918	82.62
500.135	82.62
500.352	87.62
500.569	86.62
500.786	74.62
501.003	82.62
501.22	75.62
501.437	103.62
501.654	97.62
501.871	122.62
502.088	83.62
502.305	88.62
502.522	90.62
502.739	82.62
502.956	88.62
503.172	110.62
503.389	107.62
503.606	123.62
503.823	100.62
504.04	91.62
504.256	88.62
504.473	89.62
504.69	86.62
504.907	93.62
505.123	96.62
505.34	87.62
505.557	92.62
505.773	89.62
505.99	84.62
506.207	80.62
506.423	84.62
506.64	92.62
506.856	78.62
507.073	91.62
507.289	89.62
507.506	97.62
507.722	129.62
507.939	116.62
508.155	93.62
508.372	92.62
508.588	81.62
508.805	101.62
509.021	102.62
509.238	107.62
509.454	89.62
509.67	98.62
509.887	112.62
510.103	136.62
510.319	235.62
510.536	817.62
510.752	2904.62
510.968	813.62
511.184	170.62
511.401	121.62
511.617	105.62
511.833	96.62
512.049	102.62
512.265	97.62
512.481	88.62
512.698	99.62
512.914	92.62
513.13	92.62
513.346	109.62
513.562	92.62
513.778	81.62
513.994	84.62
514.21	104.62
514.426	115.62
514.642	184.62
