Data from Circ_2007_H10_HRD10591_00031.txt Node
Date: Wed Jan 03 10:22:03 EST 2024
User: Yrep
Spectrometer: HR+D1059
Trigger mode: 1
Integration Time (sec): 1.000000E-1
Scans to average: 1
Electric dark correction enabled: true
Nonlinearity correction enabled: false
Boxcar width: 0
XAxis mode: Wavelengths
Number of Pixels in Spectrum: 2048
>>>>>Begin Spectral Data<<<<<
223.165	-12
223.4	-12
223.635	-12
223.869	-17
224.104	-3
224.338	-19
224.573	-25
224.808	-12
225.042	-1
225.277	-8
225.511	5
225.746	1
225.98	1
226.215	5
226.449	17
226.683	17
226.918	22
227.152	29
227.387	43
227.621	38
227.856	48
228.09	47
228.324	54
228.559	51
228.793	59
229.027	72
229.262	65
229.496	77
229.73	73
229.964	88
230.199	92
230.433	80
230.667	72
230.901	83
231.136	77
231.37	71
231.604	86
231.838	86
232.072	95
232.306	80
232.541	77
232.775	84
233.009	80
233.243	86
233.477	83
233.711	85
233.945	88
234.179	72
234.413	82
234.647	78
234.881	81
235.115	91
235.349	75
235.583	76
235.817	92
236.051	74
236.285	74
236.519	89
236.753	86
236.987	82
237.221	97
237.455	87
237.689	73
237.922	88
238.156	71
238.39	80
238.624	84
238.858	76
239.091	68
239.325	85
239.559	103
239.793	75
240.027	82
240.26	67
240.494	80
240.728	71
240.961	72
241.195	75
241.429	99
241.662	71
241.896	88
242.13	69
242.363	74
242.597	89
242.83	73
243.064	92
243.298	77
243.531	88
243.765	87
243.998	95
244.232	90
244.465	88
244.699	85
244.932	82
245.166	71
245.399	84
245.633	89
245.866	86
246.099	81
246.333	77
246.566	81
246.8	88
247.033	89
247.266	83
247.5	76
247.733	83
247.966	84
248.2	88
248.433	72
248.666	94
248.899	78
249.133	94
249.366	89
249.599	97
249.832	84
250.066	91
250.299	90
250.532	86
250.765	83
250.998	62
251.231	85
251.465	85
251.698	89
251.931	78
252.164	96
252.397	82
252.63	84
252.863	87
253.096	83
253.329	72
253.562	68
253.795	97
254.028	78
254.261	83
254.494	84
254.727	76
254.96	87
255.193	72
255.426	74
255.659	70
255.892	76
256.124	91
256.357	80
256.59	74
256.823	70
257.056	79
257.289	95
257.521	88
257.754	88
257.987	83
258.22	73
258.452	87
258.685	79
258.918	77
259.151	71
259.383	91
259.616	79
259.849	78
260.081	91
260.314	78
260.547	107
260.779	75
261.012	84
261.244	94
261.477	103
261.71	100
261.942	122
262.175	121
262.407	101
262.64	80
262.872	79
263.105	83
263.337	73
263.57	87
263.802	82
264.035	93
264.267	88
264.499	89
264.732	89
264.964	92
265.197	88
265.429	81
265.661	92
265.894	85
266.126	75
266.358	86
266.591	85
266.823	95
267.055	87
267.287	91
267.52	89
267.752	89
267.984	87
268.216	83
268.448	78
268.681	81
268.913	84
269.145	87
269.377	83
269.609	94
269.841	87
270.073	79
270.306	75
270.538	78
270.77	87
271.002	92
271.234	97
271.466	88
271.698	104
271.93	94
272.162	82
272.394	100
272.626	95
272.858	80
273.09	82
273.322	96
273.553	90
273.785	85
274.017	84
274.249	100
274.481	94
274.713	90
274.945	81
275.176	99
275.408	93
275.64	104
275.872	103
276.104	99
276.335	104
276.567	98
276.799	123
277.031	123
277.262	105
277.494	100
277.726	112
277.957	85
278.189	89
278.421	86
278.652	83
278.884	81
279.115	91
279.347	82
279.579	97
279.81	103
280.042	109
280.273	118
280.505	101
280.736	103
280.968	93
281.199	84
281.431	101
281.662	85
281.894	106
282.125	104
282.356	115
282.588	147
282.819	116
283.051	88
283.282	106
283.513	87
283.745	81
283.976	87
284.207	88
284.439	86
284.67	100
284.901	91
285.132	86
285.364	97
285.595	92
285.826	78
286.057	91
286.288	99
286.52	96
286.751	85
286.982	92
287.213	93
287.444	96
287.675	99
287.906	110
288.138	96
288.369	90
288.6	83
288.831	93
289.062	91
289.293	83
289.524	99
289.755	96
289.986	92
290.217	84
290.448	97
290.679	97
290.91	89
291.141	91
291.371	91
291.602	76
291.833	89
292.064	97
292.295	83
292.526	77
292.757	94
292.987	89
293.218	85
293.449	84
293.68	91
293.91	80
294.141	93
294.372	94
294.603	91
294.833	95
295.064	88
295.295	94
295.525	90
295.756	105
295.987	117
296.217	135
296.448	142
296.679	83
296.909	99
297.14	96
297.37	92
297.601	102
297.831	87
298.062	89
298.292	96
298.523	88
298.753	63
298.984	89
299.214	98
299.445	98
299.675	104
299.905	91
300.136	103
300.366	90
300.597	96
300.827	87
301.057	106
301.288	101
301.518	91
301.748	90
301.979	97
302.209	90
302.439	104
302.669	96
302.9	84
303.13	90
303.36	109
303.59	104
303.82	118
304.051	100
304.281	98
304.511	91
304.741	95
304.971	82
305.201	93
305.431	103
305.661	85
305.891	102
306.121	92
306.352	109
306.582	112
306.812	110
307.042	108
307.272	118
307.502	107
307.731	100
307.961	96
308.191	87
308.421	93
308.651	95
308.881	101
309.111	88
309.341	101
309.571	112
309.8	112
310.03	102
310.26	102
310.49	99
310.72	109
310.949	103
311.179	116
311.409	92
311.639	95
311.868	102
312.098	102
312.328	103
312.557	101
312.787	89
313.017	100
313.246	102
313.476	98
313.706	99
313.935	93
314.165	88
314.394	103
314.624	103
314.853	105
315.083	102
315.312	96
315.542	97
315.771	93
316.001	99
316.23	111
316.46	100
316.689	88
316.919	91
317.148	97
317.377	95
317.607	83
317.836	96
318.065	100
318.295	84
318.524	80
318.753	89
318.983	102
319.212	107
319.441	118
319.67	101
319.9	85
320.129	86
320.358	92
320.587	99
320.816	111
321.046	112
321.275	101
321.504	118
321.733	104
321.962	116
322.191	105
322.42	103
322.649	113
322.878	101
323.108	127
323.337	128
323.566	152
323.795	158
324.024	198
324.253	389
324.482	830
324.71	1705
324.939	2285
325.168	824
325.397	244
325.626	167
325.855	126
326.084	124
326.313	136
326.542	147
326.77	230
326.999	473
327.228	950
327.457	1742
327.686	1407
327.914	417
328.143	262
328.372	237
328.6	191
328.829	123
329.058	136
329.287	128
329.515	129
329.744	131
329.972	172
330.201	296
330.43	397
330.658	240
330.887	157
331.115	136
331.344	114
331.572	97
331.801	111
332.03	100
332.258	99
332.486	91
332.715	114
332.943	89
333.172	116
333.4	106
333.629	122
333.857	143
334.085	177
334.314	294
334.542	474
334.771	461
334.999	185
335.227	112
335.455	113
335.684	108
335.912	107
336.14	101
336.369	105
336.597	99
336.825	106
337.053	104
337.281	100
337.51	92
337.738	96
337.966	98
338.194	94
338.422	112
338.65	91
338.878	96
339.106	81
339.334	104
339.562	107
339.79	101
340.018	99
340.246	87
340.474	102
340.702	93
340.93	91
341.158	103
341.386	110
341.614	92
341.842	103
342.07	98
342.298	87
342.526	96
342.754	92
342.981	96
343.209	89
343.437	93
343.665	93
343.893	98
344.12	97
344.348	98
344.576	95
344.804	102
345.031	97
345.259	90
345.487	98
345.714	88
345.942	99
346.17	96
346.397	103
346.625	103
346.853	86
347.08	91
347.308	94
347.535	95
347.763	89
347.99	107
348.218	113
348.445	100
348.673	96
348.9	103
349.128	101
349.355	97
349.583	100
349.81	110
350.037	107
350.265	103
350.492	97
350.72	95
350.947	112
351.174	125
351.402	110
351.629	109
351.856	92
352.083	105
352.311	107
352.538	108
352.765	104
352.992	116
353.22	102
353.447	98
353.674	111
353.901	97
354.128	106
354.355	97
354.583	107
354.81	106
355.037	102
355.264	92
355.491	102
355.718	79
355.945	100
356.172	94
356.399	101
356.626	100
356.853	86
357.08	92
357.307	95
357.534	93
357.761	105
357.988	98
358.215	101
358.441	86
358.668	95
358.895	95
359.122	99
359.349	92
359.576	115
359.802	108
360.029	113
360.256	112
360.483	87
360.709	98
360.936	97
361.163	100
361.39	104
361.616	110
361.843	84
362.07	102
362.296	105
362.523	96
362.749	100
362.976	100
363.203	93
363.429	98
363.656	110
363.882	97
364.109	96
364.335	93
364.562	100
364.788	92
365.015	96
365.241	110
365.468	111
365.694	99
365.92	104
366.147	88
366.373	105
366.599	105
366.826	88
367.052	98
367.278	107
367.505	95
367.731	103
367.957	83
368.184	101
368.41	110
368.636	103
368.862	118
369.089	99
369.315	99
369.541	93
369.767	119
369.993	99
370.219	93
370.445	87
370.672	102
370.898	81
371.124	76
371.35	83
371.576	86
371.802	92
372.028	82
372.254	112
372.48	93
372.706	85
372.932	97
373.158	83
373.384	86
373.61	110
373.835	91
374.061	96
374.287	84
374.513	90
374.739	89
374.965	98
375.191	94
375.416	83
375.642	76
375.868	97
376.094	98
376.319	94
376.545	84
376.771	94
376.997	84
377.222	87
377.448	91
377.674	84
377.899	93
378.125	104
378.35	89
378.576	109
378.802	99
379.027	81
379.253	88
379.478	79
379.704	92
379.929	98
380.155	88
380.38	96
380.606	98
380.831	124
381.057	100
381.282	91
381.507	92
381.733	88
381.958	94
382.184	93
382.409	101
382.634	104
382.86	111
383.085	112
383.31	112
383.535	100
383.761	95
383.986	102
384.211	115
384.436	118
384.662	104
384.887	104
385.112	104
385.337	86
385.562	99
385.787	104
386.013	116
386.238	114
386.463	98
386.688	108
386.913	95
387.138	111
387.363	108
387.588	100
387.813	105
388.038	115
388.263	137
388.488	112
388.713	101
388.938	102
389.163	85
389.387	95
389.612	101
389.837	97
390.062	106
390.287	89
390.512	91
390.736	97
390.961	92
391.186	93
391.411	89
391.636	97
391.86	85
392.085	85
392.31	97
392.534	106
392.759	85
392.984	100
393.208	104
393.433	93
393.658	101
393.882	90
394.107	88
394.331	104
394.556	89
394.78	100
395.005	106
395.229	100
395.454	95
395.678	95
395.903	99
396.127	101
396.352	89
396.576	80
396.801	100
397.025	94
397.249	97
397.474	98
397.698	98
397.922	100
398.147	93
398.371	88
398.595	90
398.82	91
399.044	84
399.268	83
399.492	90
399.717	93
399.941	103
400.165	93
400.389	99
400.613	88
400.837	78
401.062	88
401.286	89
401.51	101
401.734	103
401.958	104
402.182	124
402.406	173
402.63	126
402.854	92
403.078	92
403.302	89
403.526	100
403.75	109
403.974	95
404.198	95
404.422	92
404.645	99
404.869	87
405.093	89
405.317	107
405.541	110
405.765	118
405.988	120
406.212	174
406.436	230
406.66	152
406.883	104
407.107	85
407.331	94
407.555	93
407.778	108
408.002	97
408.226	86
408.449	86
408.673	88
408.896	93
409.12	96
409.344	75
409.567	96
409.791	95
410.014	83
410.238	94
410.461	92
410.685	97
410.908	101
411.132	104
411.355	98
411.578	82
411.802	97
412.025	86
412.249	103
412.472	107
412.695	105
412.919	102
413.142	98
413.365	95
413.589	97
413.812	101
414.035	111
414.258	84
414.482	91
414.705	78
414.928	97
415.151	100
415.374	87
415.597	83
415.821	102
416.044	89
416.267	94
416.49	96
416.713	94
416.936	89
417.159	92
417.382	94
417.605	96
417.828	110
418.051	99
418.274	89
418.497	95
418.72	93
418.943	85
419.166	93
419.389	80
419.611	85
419.834	99
420.057	102
420.28	99
420.503	81
420.726	88
420.948	93
421.171	87
421.394	100
421.617	92
421.839	104
422.062	79
422.285	80
422.507	95
422.73	116
422.953	99
423.175	92
423.398	104
423.621	94
423.843	89
424.066	83
424.288	93
424.511	92
424.733	98
424.956	111
425.178	95
425.401	98
425.623	100
425.846	94
426.068	95
426.291	92
426.513	95
426.735	85
426.958	87
427.18	116
427.402	143
427.625	167
427.847	143
428.069	153
428.292	113
428.514	98
428.736	80
428.958	92
429.181	80
429.403	79
429.625	96
429.847	95
430.069	92
430.292	100
430.514	86
430.736	100
430.958	94
431.18	76
431.402	93
431.624	83
431.846	88
432.068	84
432.29	89
432.512	87
432.734	78
432.956	95
433.178	108
433.4	106
433.622	100
433.844	94
434.066	100
434.287	108
434.509	87
434.731	96
434.953	97
435.175	91
435.397	93
435.618	91
435.84	100
436.062	126
436.284	130
436.505	102
436.727	109
436.949	93
437.17	106
437.392	83
437.614	100
437.835	113
438.057	128
438.278	105
438.5	101
438.721	114
438.943	101
439.165	95
439.386	92
439.608	95
439.829	89
440.05	124
440.272	160
440.493	100
440.715	93
440.936	87
441.158	102
441.379	94
441.6	98
441.822	87
442.043	96
442.264	122
442.486	93
442.707	97
442.928	104
443.149	126
443.371	129
443.592	112
443.813	119
444.034	98
444.255	89
444.476	102
444.698	93
444.919	84
445.14	137
445.361	134
445.582	132
445.803	148
446.024	133
446.245	140
446.466	115
446.687	91
446.908	87
447.129	87
447.35	86
447.571	101
447.792	103
448.013	94
448.234	98
448.455	94
448.675	119
448.896	115
449.117	108
449.338	101
449.559	130
449.779	123
450	103
450.221	103
450.442	76
450.662	90
450.883	101
451.104	126
451.324	90
451.545	77
451.766	103
451.986	100
452.207	90
452.428	85
452.648	95
452.869	116
453.089	127
453.31	120
453.53	100
453.751	91
453.971	108
454.192	105
454.412	107
454.633	88
454.853	94
455.073	97
455.294	94
455.514	112
455.734	85
455.955	80
456.175	95
456.395	80
456.616	91
456.836	93
457.056	82
457.276	87
457.497	82
457.717	78
457.937	106
458.157	95
458.377	84
458.598	100
458.818	157
459.038	184
459.258	113
459.478	90
459.698	76
459.918	89
460.138	83
460.358	83
460.578	76
460.798	101
461.018	89
461.238	98
461.458	85
461.678	100
461.898	95
462.118	90
462.338	83
462.558	89
462.777	88
462.997	76
463.217	91
463.437	98
463.657	89
463.876	99
464.096	94
464.316	94
464.536	85
464.755	90
464.975	104
465.195	179
465.414	166
465.634	96
465.854	85
466.073	85
466.293	89
466.512	82
466.732	76
466.951	92
467.171	100
467.391	106
467.61	107
467.829	114
468.049	184
468.268	242
468.488	105
468.707	95
468.927	91
469.146	75
469.365	80
469.585	93
469.804	107
470.023	109
470.243	90
470.462	105
470.681	119
470.901	96
471.12	90
471.339	81
471.558	99
471.777	99
471.997	132
472.216	318
472.435	643
472.654	213
472.873	108
473.092	105
473.311	95
473.53	92
473.749	107
473.968	101
474.187	109
474.406	98
474.625	93
474.844	82
475.063	82
475.282	84
475.501	76
475.72	104
475.939	93
476.158	100
476.377	86
476.596	92
476.814	101
477.033	93
477.252	88
477.471	97
477.69	100
477.908	97
478.127	91
478.346	92
478.564	108
478.783	108
479.002	98
479.22	92
479.439	104
479.658	104
479.876	111
480.095	96
480.313	118
480.532	99
480.751	127
480.969	314
481.188	1039
481.406	709
481.624	159
481.843	105
482.061	92
482.28	92
482.498	93
482.717	84
482.935	97
483.153	85
483.372	85
483.59	92
483.808	97
484.027	91
484.245	89
484.463	105
484.681	91
484.9	90
485.118	97
485.336	94
485.554	91
485.772	103
485.99	107
486.209	110
486.427	104
486.645	105
486.863	120
487.081	107
487.299	88
487.517	100
487.735	101
487.953	113
488.171	101
488.389	99
488.607	104
488.825	83
489.043	89
489.261	91
489.479	90
489.696	86
489.914	105
490.132	94
490.35	101
490.568	91
490.786	92
491.003	95
491.221	87
491.439	94
491.657	95
491.874	84
492.092	96
492.31	76
492.527	95
492.745	102
492.963	94
493.18	103
493.398	93
493.615	88
493.833	81
494.05	86
494.268	105
494.485	86
494.703	73
494.92	107
495.138	98
495.355	88
495.573	99
495.79	101
496.008	93
496.225	88
496.442	78
496.66	92
496.877	96
497.094	96
497.312	99
497.529	100
497.746	89
497.963	83
498.181	95
498.398	102
498.615	104
498.832	102
499.049	89
499.267	90
499.484	93
499.701	77
499.918	96
500.135	95
500.352	88
500.569	90
500.786	88
501.003	93
501.22	88
501.437	95
501.654	103
501.871	108
502.088	96
502.305	95
502.522	93
502.739	92
502.956	97
503.172	84
503.389	96
503.606	101
503.823	95
504.04	88
504.256	93
504.473	82
504.69	81
504.907	95
505.123	92
505.34	88
505.557	99
505.773	91
505.99	77
506.207	95
506.423	86
506.64	108
506.856	90
507.073	85
507.289	82
507.506	98
507.722	109
507.939	126
508.155	109
508.372	104
508.588	92
508.805	96
509.021	103
509.238	100
509.454	108
509.67	103
509.887	124
510.103	118
510.319	209
510.536	757
510.752	2425
510.968	685
511.184	149
511.401	111
511.617	109
511.833	95
512.049	104
512.265	82
512.481	99
512.698	86
512.914	93
513.13	85
513.346	98
513.562	103
513.778	112
513.994	99
514.21	114
514.426	124
514.642	135
514.858	143
515.074	164
515.29	470
515.506	1630
515.721	600
515.937	162
516.153	112
516.369	104
516.585	85
516.801	91
517.016	100
517.232	98
517.448	94
517.664	101
517.879	89
518.095	97
518.311	105
518.527	88
518.742	98
518.958	99
519.173	86
519.389	99
519.605	98
519.82	98
520.036	111
520.251	119
520.467	119
520.682	116
520.898	99
521.113	116
521.329	144
521.544	227
521.76	571
521.975	2623
522.19	1637
522.406	364
522.621	144
522.836	111
523.052	96
523.267	94
523.482	93
523.698	90
523.913	119
524.128	97
524.343	104
524.559	96
524.774	93
524.989	108
525.204	126
525.419	116
525.634	97
525.849	86
526.064	101
526.28	112
526.495	106
526.71	100
526.925	104
527.14	84
527.355	99
527.57	89
527.785	84
527.999	80
528.214	96
528.429	81
528.644	85
528.859	106
529.074	95
529.289	146
529.503	202
529.718	107
529.933	96
530.148	94
530.363	97
530.577	103
530.792	94
531.007	96
531.221	96
531.436	95
531.651	88
531.865	96
532.08	90
532.295	96
532.509	95
532.724	92
532.938	87
533.153	85
533.367	102
533.582	83
533.796	94
534.011	79
534.225	103
534.44	99
534.654	100
534.868	99
535.083	81
535.297	107
535.511	110
535.726	102
535.94	95
536.154	107
536.369	104
536.583	99
536.797	99
537.011	99
537.225	94
537.44	86
537.654	101
537.868	84
538.082	101
538.296	98
538.51	91
538.724	90
538.938	80
539.153	87
539.367	107
539.581	91
539.795	81
540.009	95
540.222	85
540.436	95
540.65	81
540.864	85
541.078	91
541.292	103
541.506	103
541.72	108
541.934	93
542.147	95
542.361	98
542.575	84
542.789	87
543.002	91
543.216	87
543.43	103
543.644	111
543.857	89
544.071	80
544.285	94
544.498	88
544.712	84
544.925	93
545.139	93
545.352	106
545.566	98
545.779	84
545.993	101
546.206	84
546.42	109
546.633	99
546.847	87
547.06	94
547.274	82
547.487	93
547.7	98
547.914	83
548.127	94
548.34	89
548.554	85
548.767	113
548.98	96
549.193	98
549.407	100
549.62	85
549.833	91
550.046	87
550.259	87
550.473	89
550.686	86
550.899	103
551.112	94
551.325	89
551.538	105
551.751	100
551.964	84
552.177	97
552.39	83
552.603	93
552.816	100
553.029	88
553.242	84
553.455	100
553.667	96
553.88	104
554.093	92
554.306	99
554.519	100
554.732	89
554.944	101
555.157	83
555.37	92
555.583	99
555.795	94
556.008	88
556.221	89
556.433	90
556.646	91
556.859	84
557.071	95
557.284	85
557.496	91
557.709	91
557.921	86
558.134	102
558.346	93
558.559	85
558.771	87
558.984	92
559.196	81
559.409	97
559.621	89
559.833	85
560.046	91
560.258	97
560.47	107
560.683	105
560.895	97
561.107	87
561.32	96
561.532	99
561.744	96
561.956	92
562.168	105
562.381	69
562.593	87
562.805	101
563.017	88
563.229	87
563.441	98
563.653	83
563.865	93
564.077	89
564.289	85
564.501	103
564.713	90
564.925	104
565.137	119
565.349	90
565.561	105
565.773	98
565.985	100
566.197	91
566.408	83
566.62	84
566.832	95
567.044	94
567.255	92
567.467	92
567.679	93
567.891	87
568.102	90
568.314	82
568.526	88
568.737	85
568.949	87
569.161	83
569.372	88
569.584	89
569.795	94
570.007	119
570.218	245
570.43	135
570.641	85
570.853	90
571.064	93
571.276	102
571.487	95
571.698	94
571.91	100
572.121	92
572.333	96
572.544	91
572.755	94
572.966	86
573.178	82
573.389	116
573.6	83
573.811	90
574.023	88
574.234	80
574.445	88
574.656	81
574.867	82
575.078	95
575.289	88
575.501	86
575.712	68
575.923	97
576.134	96
576.345	85
576.556	91
576.767	80
576.978	92
577.188	98
577.399	89
577.61	99
577.821	87
578.032	112
578.243	262
578.454	809
578.665	222
578.875	108
579.086	99
579.297	103
579.508	92
579.718	90
579.929	100
580.14	91
580.35	82
580.561	75
580.772	73
580.982	94
581.193	81
