Data from Circ_2007_H10_HRD10591_00041.txt Node
Date: Wed Jan 03 10:22:05 EST 2024
User: Yrep
Spectrometer: HR+D1059
Trigger mode: 1
Integration Time (sec): 1.000000E-1
Scans to average: 1
Electric dark correction enabled: true
Nonlinearity correction enabled: false
Boxcar width: 0
XAxis mode: Wavelengths
Number of Pixels in Spectrum: 2048
>>>>>Begin Spectral Data<<<<<
223.165	-23.38
223.4	-23.38
223.635	-23.38
223.869	-23.38
224.104	-15.38
224.338	-1.38
224.573	-15.38
224.808	-7.38
225.042	-0.38
225.277	-13.38
225.511	0.62
225.746	5.62
225.98	7.62
226.215	5.62
226.449	13.62
226.683	18.62
226.918	15.62
227.152	32.62
227.387	40.62
227.621	46.62
227.856	39.62
228.09	64.62
228.324	53.62
228.559	61.62
228.793	55.62
229.027	67.62
229.262	71.62
229.496	73.62
229.73	94.62
229.964	94.62
230.199	84.62
230.433	68.62
230.667	89.62
230.901	83.62
231.136	93.62
231.37	88.62
231.604	85.62
231.838	87.62
232.072	69.62
232.306	67.62
232.541	88.62
232.775	80.62
233.009	79.62
233.243	88.62
233.477	71.62
233.711	95.62
233.945	78.62
234.179	84.62
234.413	73.62
234.647	73.62
234.881	79.62
235.115	101.62
235.349	82.62
235.583	71.62
235.817	76.62
236.051	76.62
236.285	76.62
236.519	87.62
236.753	77.62
236.987	85.62
237.221	86.62
237.455	95.62
237.689	93.62
237.922	90.62
238.156	81.62
238.39	73.62
238.624	73.62
238.858	76.62
239.091	71.62
239.325	84.62
239.559	86.62
239.793	84.62
240.027	86.62
240.26	78.62
240.494	87.62
240.728	91.62
240.961	79.62
241.195	94.62
241.429	81.62
241.662	93.62
241.896	71.62
242.13	85.62
242.363	91.62
242.597	73.62
242.83	88.62
243.064	72.62
243.298	96.62
243.531	64.62
243.765	71.62
243.998	77.62
244.232	74.62
244.465	87.62
244.699	86.62
244.932	91.62
245.166	80.62
245.399	89.62
245.633	84.62
245.866	89.62
246.099	69.62
246.333	87.62
246.566	102.62
246.8	81.62
247.033	79.62
247.266	82.62
247.5	88.62
247.733	86.62
247.966	81.62
248.2	92.62
248.433	85.62
248.666	80.62
248.899	86.62
249.133	80.62
249.366	113.62
249.599	108.62
249.832	88.62
250.066	87.62
250.299	87.62
250.532	72.62
250.765	87.62
250.998	77.62
251.231	87.62
251.465	89.62
251.698	83.62
251.931	81.62
252.164	79.62
252.397	76.62
252.63	69.62
252.863	78.62
253.096	78.62
253.329	76.62
253.562	76.62
253.795	83.62
254.028	72.62
254.261	89.62
254.494	77.62
254.727	82.62
254.96	95.62
255.193	81.62
255.426	82.62
255.659	101.62
255.892	85.62
256.124	97.62
256.357	76.62
256.59	90.62
256.823	78.62
257.056	83.62
257.289	95.62
257.521	95.62
257.754	94.62
257.987	84.62
258.22	89.62
258.452	92.62
258.685	93.62
258.918	84.62
259.151	91.62
259.383	88.62
259.616	87.62
259.849	86.62
260.081	98.62
260.314	102.62
260.547	83.62
260.779	83.62
261.012	105.62
261.244	97.62
261.477	96.62
261.71	86.62
261.942	117.62
262.175	133.62
262.407	89.62
262.64	86.62
262.872	72.62
263.105	99.62
263.337	91.62
263.57	99.62
263.802	93.62
264.035	87.62
264.267	78.62
264.499	99.62
264.732	86.62
264.964	100.62
265.197	85.62
265.429	84.62
265.661	79.62
265.894	96.62
266.126	88.62
266.358	93.62
266.591	96.62
266.823	75.62
267.055	79.62
267.287	85.62
267.52	82.62
267.752	88.62
267.984	75.62
268.216	89.62
268.448	83.62
268.681	98.62
268.913	79.62
269.145	80.62
269.377	77.62
269.609	88.62
269.841	85.62
270.073	93.62
270.306	75.62
270.538	79.62
270.77	95.62
271.002	86.62
271.234	85.62
271.466	81.62
271.698	98.62
271.93	88.62
272.162	95.62
272.394	101.62
272.626	78.62
272.858	83.62
273.09	93.62
273.322	106.62
273.553	93.62
273.785	94.62
274.017	83.62
274.249	94.62
274.481	87.62
274.713	78.62
274.945	91.62
275.176	94.62
275.408	99.62
275.64	90.62
275.872	85.62
276.104	99.62
276.335	104.62
276.567	93.62
276.799	125.62
277.031	128.62
277.262	133.62
277.494	111.62
277.726	91.62
277.957	103.62
278.189	95.62
278.421	84.62
278.652	106.62
278.884	96.62
279.115	85.62
279.347	83.62
279.579	102.62
279.81	109.62
280.042	124.62
280.273	139.62
280.505	119.62
280.736	87.62
280.968	82.62
281.199	84.62
281.431	70.62
281.662	106.62
281.894	86.62
282.125	111.62
282.356	135.62
282.588	148.62
282.819	117.62
283.051	86.62
283.282	80.62
283.513	88.62
283.745	85.62
283.976	88.62
284.207	104.62
284.439	93.62
284.67	102.62
284.901	95.62
285.132	79.62
285.364	88.62
285.595	91.62
285.826	93.62
286.057	94.62
286.288	100.62
286.52	86.62
286.751	86.62
286.982	89.62
287.213	91.62
287.444	90.62
287.675	89.62
287.906	75.62
288.138	94.62
288.369	96.62
288.6	92.62
288.831	93.62
289.062	101.62
289.293	98.62
289.524	84.62
289.755	85.62
289.986	89.62
290.217	95.62
290.448	89.62
290.679	92.62
290.91	82.62
291.141	84.62
291.371	96.62
291.602	84.62
291.833	82.62
292.064	93.62
292.295	101.62
292.526	81.62
292.757	90.62
292.987	88.62
293.218	81.62
293.449	103.62
293.68	89.62
293.91	84.62
294.141	81.62
294.372	101.62
294.603	98.62
294.833	95.62
295.064	94.62
295.295	92.62
295.525	94.62
295.756	116.62
295.987	125.62
296.217	160.62
296.448	147.62
296.679	93.62
296.909	96.62
297.14	103.62
297.37	87.62
297.601	96.62
297.831	83.62
298.062	91.62
298.292	97.62
298.523	97.62
298.753	95.62
298.984	101.62
299.214	87.62
299.445	104.62
299.675	105.62
299.905	106.62
300.136	98.62
300.366	93.62
300.597	112.62
300.827	98.62
301.057	110.62
301.288	103.62
301.518	80.62
301.748	104.62
301.979	99.62
302.209	94.62
302.439	95.62
302.669	94.62
302.9	104.62
303.13	99.62
303.36	94.62
303.59	111.62
303.82	113.62
304.051	96.62
304.281	102.62
304.511	103.62
304.741	90.62
304.971	92.62
305.201	98.62
305.431	81.62
305.661	92.62
305.891	99.62
306.121	115.62
306.352	100.62
306.582	109.62
306.812	100.62
307.042	100.62
307.272	109.62
307.502	121.62
307.731	129.62
307.961	106.62
308.191	103.62
308.421	93.62
308.651	104.62
308.881	89.62
309.111	102.62
309.341	93.62
309.571	114.62
309.8	107.62
310.03	105.62
310.26	100.62
310.49	80.62
310.72	102.62
310.949	123.62
311.179	106.62
311.409	96.62
311.639	96.62
311.868	110.62
312.098	94.62
312.328	102.62
312.557	107.62
312.787	109.62
313.017	113.62
313.246	105.62
313.476	94.62
313.706	108.62
313.935	103.62
314.165	129.62
314.394	95.62
314.624	100.62
314.853	87.62
315.083	85.62
315.312	97.62
315.542	103.62
315.771	107.62
316.001	96.62
316.23	88.62
316.46	99.62
316.689	102.62
316.919	89.62
317.148	97.62
317.377	99.62
317.607	88.62
317.836	79.62
318.065	87.62
318.295	82.62
318.524	97.62
318.753	105.62
318.983	110.62
319.212	106.62
319.441	112.62
319.67	109.62
319.9	96.62
320.129	98.62
320.358	93.62
320.587	86.62
320.816	94.62
321.046	95.62
321.275	115.62
321.504	103.62
321.733	103.62
321.962	96.62
322.191	102.62
322.42	113.62
322.649	125.62
322.878	127.62
323.108	124.62
323.337	133.62
323.566	150.62
323.795	158.62
324.024	225.62
324.253	457.62
324.482	958.62
324.71	2035.62
324.939	2687.62
325.168	994.62
325.397	285.62
325.626	174.62
325.855	133.62
326.084	119.62
326.313	131.62
326.542	172.62
326.77	252.62
326.999	516.62
327.228	1101.62
327.457	2047.62
327.686	1640.62
327.914	466.62
328.143	319.62
328.372	340.62
328.6	231.62
328.829	141.62
329.058	143.62
329.287	165.62
329.515	137.62
329.744	150.62
329.972	233.62
330.201	411.62
330.43	599.62
330.658	307.62
330.887	208.62
331.115	143.62
331.344	103.62
331.572	107.62
331.801	119.62
332.03	115.62
332.258	110.62
332.486	100.62
332.715	97.62
332.943	107.62
333.172	100.62
333.4	105.62
333.629	127.62
333.857	171.62
334.085	233.62
334.314	398.62
334.542	703.62
334.771	697.62
334.999	218.62
335.227	145.62
335.455	109.62
335.684	106.62
335.912	103.62
336.14	106.62
336.369	97.62
336.597	95.62
336.825	94.62
337.053	102.62
337.281	100.62
337.51	102.62
337.738	99.62
337.966	104.62
338.194	113.62
338.422	95.62
338.65	95.62
338.878	111.62
339.106	87.62
339.334	95.62
339.562	107.62
339.79	95.62
340.018	93.62
340.246	86.62
340.474	106.62
340.702	100.62
340.93	80.62
341.158	101.62
341.386	94.62
341.614	106.62
341.842	115.62
342.07	96.62
342.298	101.62
342.526	100.62
342.754	85.62
342.981	99.62
343.209	109.62
343.437	88.62
343.665	100.62
343.893	86.62
344.12	94.62
344.348	103.62
344.576	91.62
344.804	78.62
345.031	111.62
345.259	96.62
345.487	93.62
345.714	84.62
345.942	103.62
346.17	87.62
346.397	88.62
346.625	91.62
346.853	97.62
347.08	101.62
347.308	91.62
347.535	93.62
347.763	116.62
347.99	100.62
348.218	102.62
348.445	115.62
348.673	107.62
348.9	104.62
349.128	111.62
349.355	100.62
349.583	96.62
349.81	94.62
350.037	96.62
350.265	104.62
350.492	101.62
350.72	89.62
350.947	110.62
351.174	107.62
351.402	123.62
351.629	112.62
351.856	110.62
352.083	102.62
352.311	107.62
352.538	125.62
352.765	133.62
352.992	123.62
353.22	125.62
353.447	104.62
353.674	89.62
353.901	100.62
354.128	107.62
354.355	105.62
354.583	93.62
354.81	107.62
355.037	95.62
355.264	102.62
355.491	96.62
355.718	107.62
355.945	103.62
356.172	90.62
356.399	92.62
356.626	77.62
356.853	85.62
357.08	85.62
357.307	92.62
357.534	99.62
357.761	98.62
357.988	101.62
358.215	88.62
358.441	93.62
358.668	95.62
358.895	101.62
359.122	95.62
359.349	85.62
359.576	89.62
359.802	115.62
360.029	136.62
360.256	123.62
360.483	124.62
360.709	97.62
360.936	104.62
361.163	105.62
361.39	103.62
361.616	103.62
361.843	100.62
362.07	93.62
362.296	97.62
362.523	101.62
362.749	89.62
362.976	100.62
363.203	96.62
363.429	95.62
363.656	124.62
363.882	91.62
364.109	84.62
364.335	89.62
364.562	87.62
364.788	85.62
365.015	84.62
365.241	107.62
365.468	118.62
365.694	120.62
365.92	94.62
366.147	107.62
366.373	88.62
366.599	93.62
366.826	107.62
367.052	97.62
367.278	94.62
367.505	96.62
367.731	103.62
367.957	112.62
368.184	94.62
368.41	117.62
368.636	129.62
368.862	119.62
369.089	123.62
369.315	86.62
369.541	89.62
369.767	90.62
369.993	103.62
370.219	99.62
370.445	94.62
370.672	89.62
370.898	81.62
371.124	99.62
371.35	81.62
371.576	87.62
371.802	98.62
372.028	102.62
372.254	94.62
372.48	79.62
372.706	87.62
372.932	82.62
373.158	95.62
373.384	101.62
373.61	93.62
373.835	82.62
374.061	73.62
374.287	104.62
374.513	103.62
374.739	97.62
374.965	87.62
375.191	93.62
375.416	88.62
375.642	84.62
375.868	92.62
376.094	83.62
376.319	79.62
376.545	99.62
376.771	102.62
376.997	97.62
377.222	101.62
377.448	83.62
377.674	94.62
377.899	84.62
378.125	106.62
378.35	98.62
378.576	94.62
378.802	100.62
379.027	95.62
379.253	80.62
379.478	101.62
379.704	88.62
379.929	81.62
380.155	95.62
380.38	95.62
380.606	86.62
380.831	90.62
381.057	107.62
381.282	91.62
381.507	109.62
381.733	89.62
381.958	99.62
382.184	103.62
382.409	101.62
382.634	106.62
382.86	95.62
383.085	113.62
383.31	106.62
383.535	101.62
383.761	105.62
383.986	102.62
384.211	106.62
384.436	105.62
384.662	90.62
384.887	101.62
385.112	103.62
385.337	112.62
385.562	93.62
385.787	113.62
386.013	120.62
386.238	123.62
386.463	108.62
386.688	120.62
386.913	106.62
387.138	126.62
387.363	113.62
387.588	91.62
387.813	107.62
388.038	95.62
388.263	114.62
388.488	105.62
388.713	104.62
388.938	99.62
389.163	100.62
389.387	105.62
389.612	109.62
389.837	84.62
390.062	94.62
390.287	89.62
390.512	101.62
390.736	103.62
390.961	97.62
391.186	90.62
391.411	92.62
391.636	96.62
391.86	93.62
392.085	88.62
392.31	91.62
392.534	87.62
392.759	103.62
392.984	88.62
393.208	85.62
393.433	98.62
393.658	95.62
393.882	97.62
394.107	80.62
394.331	82.62
394.556	94.62
394.78	98.62
395.005	95.62
395.229	89.62
395.454	90.62
395.678	89.62
395.903	107.62
396.127	103.62
396.352	93.62
396.576	97.62
396.801	101.62
397.025	84.62
397.249	84.62
397.474	93.62
397.698	93.62
397.922	92.62
398.147	97.62
398.371	104.62
398.595	87.62
398.82	100.62
399.044	83.62
399.268	72.62
399.492	85.62
399.717	94.62
399.941	99.62
400.165	83.62
400.389	84.62
400.613	93.62
400.837	95.62
401.062	100.62
401.286	94.62
401.51	103.62
401.734	93.62
401.958	99.62
402.182	131.62
402.406	169.62
402.63	132.62
402.854	93.62
403.078	92.62
403.302	91.62
403.526	100.62
403.75	95.62
403.974	92.62
404.198	92.62
404.422	89.62
404.645	73.62
404.869	93.62
405.093	113.62
405.317	112.62
405.541	115.62
405.765	117.62
405.988	131.62
406.212	176.62
406.436	255.62
406.66	167.62
406.883	110.62
407.107	101.62
407.331	99.62
407.555	99.62
407.778	110.62
408.002	95.62
408.226	84.62
408.449	98.62
408.673	92.62
408.896	79.62
409.12	100.62
409.344	96.62
409.567	93.62
409.791	100.62
410.014	99.62
410.238	101.62
410.461	89.62
410.685	92.62
410.908	85.62
411.132	104.62
411.355	103.62
411.578	100.62
411.802	97.62
412.025	91.62
412.249	101.62
412.472	98.62
412.695	114.62
412.919	91.62
413.142	79.62
413.365	86.62
413.589	91.62
413.812	94.62
414.035	99.62
414.258	100.62
414.482	97.62
414.705	98.62
414.928	100.62
415.151	80.62
415.374	104.62
415.597	88.62
415.821	88.62
416.044	101.62
416.267	94.62
416.49	96.62
416.713	84.62
416.936	106.62
417.159	96.62
417.382	96.62
417.605	95.62
417.828	90.62
418.051	103.62
418.274	102.62
418.497	91.62
418.72	99.62
418.943	69.62
419.166	79.62
419.389	107.62
419.611	80.62
419.834	99.62
420.057	94.62
420.28	94.62
420.503	98.62
420.726	93.62
420.948	91.62
421.171	107.62
421.394	93.62
421.617	97.62
421.839	87.62
422.062	86.62
422.285	86.62
422.507	101.62
422.73	97.62
422.953	92.62
423.175	97.62
423.398	92.62
423.621	87.62
423.843	81.62
424.066	94.62
424.288	108.62
424.511	97.62
424.733	96.62
424.956	124.62
425.178	110.62
425.401	107.62
425.623	118.62
425.846	97.62
426.068	89.62
426.291	81.62
426.513	97.62
426.735	99.62
426.958	115.62
427.18	116.62
427.402	155.62
427.625	229.62
427.847	205.62
428.069	182.62
428.292	110.62
428.514	95.62
428.736	110.62
428.958	99.62
429.181	83.62
429.403	84.62
429.625	91.62
429.847	93.62
430.069	120.62
430.292	101.62
430.514	91.62
430.736	99.62
430.958	89.62
431.18	104.62
431.402	89.62
431.624	83.62
431.846	96.62
432.068	100.62
432.29	91.62
432.512	96.62
432.734	89.62
432.956	98.62
433.178	110.62
433.4	104.62
433.622	95.62
433.844	82.62
434.066	89.62
434.287	103.62
434.509	89.62
434.731	100.62
434.953	104.62
435.175	98.62
435.397	90.62
435.618	88.62
435.84	111.62
436.062	127.62
436.284	130.62
436.505	110.62
436.727	88.62
436.949	99.62
437.17	80.62
437.392	72.62
437.614	92.62
437.835	127.62
438.057	143.62
438.278	117.62
438.5	120.62
438.721	126.62
438.943	108.62
439.165	91.62
439.386	81.62
439.608	94.62
439.829	93.62
440.05	145.62
440.272	184.62
440.493	116.62
440.715	96.62
440.936	93.62
441.158	101.62
441.379	94.62
441.6	94.62
441.822	101.62
442.043	114.62
442.264	129.62
442.486	120.62
442.707	110.62
442.928	125.62
443.149	162.62
443.371	159.62
443.592	122.62
443.813	140.62
444.034	118.62
444.255	104.62
444.476	110.62
444.698	92.62
444.919	111.62
445.14	136.62
445.361	132.62
445.582	136.62
445.803	172.62
446.024	167.62
446.245	161.62
446.466	132.62
446.687	105.62
446.908	80.62
447.129	90.62
447.35	109.62
447.571	87.62
447.792	91.62
448.013	108.62
448.234	109.62
448.455	109.62
448.675	137.62
448.896	136.62
449.117	102.62
449.338	113.62
449.559	146.62
449.779	150.62
450	108.62
450.221	100.62
450.442	95.62
450.662	108.62
450.883	109.62
451.104	110.62
451.324	119.62
451.545	108.62
451.766	82.62
451.986	107.62
452.207	95.62
452.428	94.62
452.648	101.62
452.869	115.62
453.089	120.62
453.31	128.62
453.53	97.62
453.751	101.62
453.971	116.62
454.192	108.62
454.412	99.62
454.633	89.62
454.853	97.62
455.073	101.62
455.294	94.62
455.514	103.62
455.734	96.62
455.955	85.62
456.175	109.62
456.395	93.62
456.616	83.62
456.836	89.62
457.056	95.62
457.276	107.62
457.497	97.62
457.717	103.62
457.937	95.62
458.157	85.62
458.377	89.62
458.598	111.62
458.818	186.62
459.038	199.62
459.258	136.62
459.478	109.62
459.698	91.62
459.918	84.62
460.138	86.62
460.358	78.62
460.578	98.62
460.798	98.62
461.018	85.62
461.238	74.62
461.458	85.62
461.678	89.62
461.898	88.62
462.118	85.62
462.338	88.62
462.558	92.62
462.777	106.62
462.997	104.62
463.217	96.62
463.437	108.62
463.657	102.62
463.876	94.62
464.096	95.62
464.316	95.62
464.536	96.62
464.755	98.62
464.975	121.62
465.195	197.62
465.414	205.62
465.634	104.62
465.854	83.62
466.073	108.62
466.293	100.62
466.512	83.62
466.732	79.62
466.951	76.62
467.171	90.62
467.391	94.62
467.61	118.62
467.829	121.62
468.049	233.62
468.268	347.62
468.488	133.62
468.707	88.62
468.927	93.62
469.146	89.62
469.365	93.62
469.585	98.62
469.804	95.62
470.023	106.62
470.243	101.62
470.462	107.62
470.681	127.62
470.901	100.62
471.12	104.62
471.339	89.62
471.558	106.62
471.777	107.62
471.997	155.62
472.216	428.62
472.435	913.62
472.654	266.62
472.873	124.62
473.092	117.62
473.311	88.62
473.53	97.62
473.749	80.62
473.968	99.62
474.187	119.62
474.406	104.62
474.625	83.62
474.844	84.62
475.063	89.62
475.282	105.62
475.501	97.62
475.72	87.62
475.939	86.62
476.158	91.62
476.377	95.62
476.596	106.62
476.814	94.62
477.033	95.62
477.252	81.62
477.471	87.62
477.69	95.62
477.908	89.62
478.127	86.62
478.346	91.62
478.564	90.62
478.783	100.62
479.002	98.62
479.22	104.62
479.439	98.62
479.658	125.62
479.876	114.62
480.095	112.62
480.313	117.62
480.532	127.62
480.751	179.62
480.969	389.62
481.188	1567.62
481.406	995.62
481.624	197.62
481.843	103.62
482.061	83.62
482.28	96.62
482.498	110.62
482.717	90.62
482.935	86.62
483.153	107.62
483.372	87.62
483.59	94.62
483.808	90.62
484.027	88.62
484.245	117.62
484.463	97.62
484.681	90.62
484.9	101.62
485.118	104.62
485.336	79.62
485.554	100.62
485.772	104.62
485.99	103.62
486.209	101.62
486.427	101.62
486.645	101.62
486.863	121.62
487.081	101.62
487.299	99.62
487.517	91.62
487.735	101.62
487.953	94.62
488.171	92.62
488.389	97.62
488.607	100.62
488.825	95.62
489.043	88.62
489.261	111.62
489.479	104.62
489.696	96.62
489.914	85.62
490.132	80.62
490.35	89.62
490.568	82.62
490.786	92.62
491.003	88.62
491.221	102.62
491.439	103.62
491.657	89.62
491.874	83.62
492.092	79.62
492.31	98.62
492.527	96.62
492.745	103.62
492.963	86.62
493.18	99.62
493.398	91.62
493.615	103.62
493.833	77.62
494.05	92.62
494.268	95.62
494.485	79.62
494.703	78.62
494.92	95.62
495.138	86.62
495.355	105.62
495.573	89.62
495.79	85.62
496.008	100.62
496.225	97.62
496.442	77.62
496.66	94.62
496.877	82.62
497.094	82.62
497.312	100.62
497.529	100.62
497.746	79.62
497.963	88.62
498.181	85.62
498.398	115.62
498.615	134.62
498.832	108.62
499.049	96.62
499.267	86.62
499.484	91.62
499.701	92.62
499.918	83.62
500.135	71.62
500.352	91.62
500.569	96.62
500.786	93.62
501.003	104.62
501.22	97.62
501.437	98.62
501.654	95.62
501.871	120.62
502.088	91.62
502.305	102.62
502.522	103.62
502.739	100.62
502.956	103.62
503.172	99.62
503.389	89.62
503.606	115.62
503.823	95.62
504.04	89.62
504.256	87.62
504.473	84.62
504.69	99.62
504.907	109.62
505.123	97.62
505.34	86.62
505.557	85.62
505.773	85.62
505.99	88.62
506.207	93.62
506.423	95.62
506.64	85.62
506.856	101.62
507.073	87.62
507.289	89.62
507.506	102.62
507.722	124.62
507.939	135.62
508.155	99.62
508.372	109.62
508.588	94.62
508.805	88.62
509.021	111.62
509.238	91.62
509.454	93.62
509.67	107.62
509.887	107.62
510.103	144.62
510.319	210.62
510.536	760.62
510.752	2673.62
510.968	756.62
511.184	179.62
511.401	106.62
511.617	120.62
511.833	104.62
512.049	91.62
512.265	104.62
512.481	80.62
512.698	107.62
512.914	104.62
