Data from Circ_2007_H10_HRD10591_00034.txt Node
Date: Wed Jan 03 10:22:04 EST 2024
User: Yrep
Spectrometer: HR+D1059
Trigger mode: 1
Integration Time (sec): 1.000000E-1
Scans to average: 1
Electric dark correction enabled: true
Nonlinearity correction enabled: false
Boxcar width: 0
XAxis mode: Wavelengths
Number of Pixels in Spectrum: 2048
>>>>>Begin Spectral Data<<<<<
223.165	-17.19
223.4	-17.19
223.635	-17.19
223.869	-23.19
224.104	-31.19
224.338	-17.19
224.573	-10.19
224.808	-0.19
225.042	-9.19
225.277	-1.19
225.511	0.81
225.746	-1.19
225.98	4.81
226.215	4.81
226.449	15.81
226.683	15.81
226.918	25.81
227.152	42.81
227.387	44.81
227.621	40.81
227.856	37.81
228.09	26.81
228.324	44.81
228.559	60.81
228.793	61.81
229.027	61.81
229.262	77.81
229.496	76.81
229.73	105.81
229.964	74.81
230.199	85.81
230.433	75.81
230.667	61.81
230.901	66.81
231.136	76.81
231.37	90.81
231.604	102.81
231.838	88.81
232.072	73.81
232.306	86.81
232.541	88.81
232.775	85.81
233.009	77.81
233.243	97.81
233.477	72.81
233.711	79.81
233.945	75.81
234.179	78.81
234.413	80.81
234.647	87.81
234.881	85.81
235.115	74.81
235.349	82.81
235.583	92.81
235.817	72.81
236.051	96.81
236.285	85.81
236.519	67.81
236.753	89.81
236.987	95.81
237.221	92.81
237.455	99.81
237.689	78.81
237.922	60.81
238.156	80.81
238.39	68.81
238.624	70.81
238.858	78.81
239.091	83.81
239.325	79.81
239.559	86.81
239.793	89.81
240.027	75.81
240.26	87.81
240.494	79.81
240.728	81.81
240.961	83.81
241.195	77.81
241.429	75.81
241.662	68.81
241.896	86.81
242.13	82.81
242.363	79.81
242.597	78.81
242.83	78.81
243.064	80.81
243.298	86.81
243.531	76.81
243.765	75.81
243.998	98.81
244.232	83.81
244.465	90.81
244.699	84.81
244.932	70.81
245.166	75.81
245.399	70.81
245.633	76.81
245.866	93.81
246.099	79.81
246.333	75.81
246.566	81.81
246.8	74.81
247.033	81.81
247.266	90.81
247.5	87.81
247.733	73.81
247.966	69.81
248.2	78.81
248.433	89.81
248.666	80.81
248.899	82.81
249.133	75.81
249.366	93.81
249.599	101.81
249.832	90.81
250.066	85.81
250.299	76.81
250.532	81.81
250.765	83.81
250.998	74.81
251.231	84.81
251.465	82.81
251.698	104.81
251.931	81.81
252.164	81.81
252.397	70.81
252.63	74.81
252.863	68.81
253.096	68.81
253.329	79.81
253.562	83.81
253.795	73.81
254.028	75.81
254.261	77.81
254.494	88.81
254.727	84.81
254.96	76.81
255.193	84.81
255.426	95.81
255.659	80.81
255.892	85.81
256.124	92.81
256.357	81.81
256.59	96.81
256.823	98.81
257.056	83.81
257.289	89.81
257.521	75.81
257.754	90.81
257.987	77.81
258.22	96.81
258.452	89.81
258.685	108.81
258.918	89.81
259.151	85.81
259.383	75.81
259.616	91.81
259.849	84.81
260.081	71.81
260.314	92.81
260.547	98.81
260.779	84.81
261.012	94.81
261.244	108.81
261.477	108.81
261.71	107.81
261.942	143.81
262.175	153.81
262.407	102.81
262.64	86.81
262.872	85.81
263.105	95.81
263.337	86.81
263.57	73.81
263.802	81.81
264.035	86.81
264.267	82.81
264.499	79.81
264.732	86.81
264.964	97.81
265.197	88.81
265.429	101.81
265.661	76.81
265.894	83.81
266.126	84.81
266.358	84.81
266.591	93.81
266.823	76.81
267.055	99.81
267.287	76.81
267.52	92.81
267.752	71.81
267.984	77.81
268.216	87.81
268.448	95.81
268.681	82.81
268.913	102.81
269.145	108.81
269.377	84.81
269.609	79.81
269.841	84.81
270.073	89.81
270.306	94.81
270.538	82.81
270.77	78.81
271.002	84.81
271.234	86.81
271.466	82.81
271.698	93.81
271.93	83.81
272.162	93.81
272.394	99.81
272.626	78.81
272.858	96.81
273.09	85.81
273.322	83.81
273.553	84.81
273.785	77.81
274.017	81.81
274.249	85.81
274.481	92.81
274.713	73.81
274.945	99.81
275.176	100.81
275.408	98.81
275.64	109.81
275.872	113.81
276.104	109.81
276.335	104.81
276.567	109.81
276.799	153.81
277.031	154.81
277.262	185.81
277.494	141.81
277.726	103.81
277.957	94.81
278.189	81.81
278.421	101.81
278.652	98.81
278.884	84.81
279.115	85.81
279.347	81.81
279.579	101.81
279.81	107.81
280.042	146.81
280.273	200.81
280.505	165.81
280.736	110.81
280.968	95.81
281.199	104.81
281.431	92.81
281.662	109.81
281.894	98.81
282.125	102.81
282.356	134.81
282.588	193.81
282.819	145.81
283.051	105.81
283.282	84.81
283.513	88.81
283.745	79.81
283.976	85.81
284.207	86.81
284.439	87.81
284.67	92.81
284.901	71.81
285.132	78.81
285.364	84.81
285.595	98.81
285.826	87.81
286.057	104.81
286.288	101.81
286.52	81.81
286.751	79.81
286.982	78.81
287.213	96.81
287.444	95.81
287.675	82.81
287.906	92.81
288.138	106.81
288.369	104.81
288.6	86.81
288.831	78.81
289.062	102.81
289.293	101.81
289.524	80.81
289.755	89.81
289.986	78.81
290.217	82.81
290.448	100.81
290.679	100.81
290.91	101.81
291.141	96.81
291.371	88.81
291.602	99.81
291.833	92.81
292.064	74.81
292.295	81.81
292.526	83.81
292.757	93.81
292.987	101.81
293.218	90.81
293.449	84.81
293.68	95.81
293.91	81.81
294.141	78.81
294.372	76.81
294.603	89.81
294.833	85.81
295.064	85.81
295.295	90.81
295.525	99.81
295.756	109.81
295.987	133.81
296.217	174.81
296.448	147.81
296.679	110.81
296.909	80.81
297.14	98.81
297.37	95.81
297.601	79.81
297.831	108.81
298.062	99.81
298.292	86.81
298.523	102.81
298.753	83.81
298.984	78.81
299.214	92.81
299.445	97.81
299.675	107.81
299.905	110.81
300.136	94.81
300.366	92.81
300.597	83.81
300.827	97.81
301.057	112.81
301.288	113.81
301.518	84.81
301.748	94.81
301.979	121.81
302.209	96.81
302.439	104.81
302.669	103.81
302.9	92.81
303.13	105.81
303.36	104.81
303.59	115.81
303.82	138.81
304.051	111.81
304.281	108.81
304.511	94.81
304.741	95.81
304.971	83.81
305.201	86.81
305.431	107.81
305.661	91.81
305.891	84.81
306.121	101.81
306.352	113.81
306.582	123.81
306.812	106.81
307.042	120.81
307.272	129.81
307.502	154.81
307.731	129.81
307.961	113.81
308.191	94.81
308.421	94.81
308.651	97.81
308.881	91.81
309.111	97.81
309.341	96.81
309.571	101.81
309.8	100.81
310.03	104.81
310.26	109.81
310.49	91.81
310.72	128.81
310.949	116.81
311.179	113.81
311.409	96.81
311.639	90.81
311.868	99.81
312.098	102.81
312.328	93.81
312.557	111.81
312.787	138.81
313.017	113.81
313.246	82.81
313.476	103.81
313.706	90.81
313.935	108.81
314.165	117.81
314.394	129.81
314.624	125.81
314.853	111.81
315.083	101.81
315.312	92.81
315.542	90.81
315.771	97.81
316.001	77.81
316.23	90.81
316.46	94.81
316.689	93.81
316.919	99.81
317.148	116.81
317.377	91.81
317.607	109.81
317.836	88.81
318.065	108.81
318.295	86.81
318.524	88.81
318.753	90.81
318.983	106.81
319.212	97.81
319.441	126.81
319.67	134.81
319.9	100.81
320.129	87.81
320.358	102.81
320.587	101.81
320.816	106.81
321.046	107.81
321.275	103.81
321.504	109.81
321.733	89.81
321.962	96.81
322.191	108.81
322.42	138.81
322.649	127.81
322.878	114.81
323.108	140.81
323.337	156.81
323.566	166.81
323.795	190.81
324.024	273.81
324.253	536.81
324.482	1162.81
324.71	2418.81
324.939	3314.81
325.168	1190.81
325.397	329.81
325.626	195.81
325.855	139.81
326.084	148.81
326.313	163.81
326.542	190.81
326.77	296.81
326.999	568.81
327.228	1266.81
327.457	2347.81
327.686	1872.81
327.914	586.81
328.143	464.81
328.372	561.81
328.6	325.81
328.829	176.81
329.058	190.81
329.287	196.81
329.515	174.81
329.744	203.81
329.972	359.81
330.201	719.81
330.43	1070.81
330.658	515.81
330.887	272.81
331.115	198.81
331.344	113.81
331.572	128.81
331.801	137.81
332.03	142.81
332.258	122.81
332.486	115.81
332.715	110.81
332.943	105.81
333.172	126.81
333.4	116.81
333.629	137.81
333.857	218.81
334.085	330.81
334.314	663.81
334.542	1319.81
334.771	1305.81
334.999	379.81
335.227	162.81
335.455	139.81
335.684	102.81
335.912	109.81
336.14	102.81
336.369	120.81
336.597	118.81
336.825	106.81
337.053	108.81
337.281	96.81
337.51	94.81
337.738	109.81
337.966	108.81
338.194	109.81
338.422	96.81
338.65	99.81
338.878	106.81
339.106	97.81
339.334	101.81
339.562	88.81
339.79	107.81
340.018	110.81
340.246	93.81
340.474	108.81
340.702	100.81
340.93	111.81
341.158	98.81
341.386	93.81
341.614	106.81
341.842	110.81
342.07	108.81
342.298	100.81
342.526	104.81
342.754	88.81
342.981	95.81
343.209	91.81
343.437	103.81
343.665	85.81
343.893	83.81
344.12	92.81
344.348	100.81
344.576	93.81
344.804	112.81
345.031	109.81
345.259	117.81
345.487	96.81
345.714	101.81
345.942	93.81
346.17	95.81
346.397	92.81
346.625	106.81
346.853	107.81
347.08	98.81
347.308	101.81
347.535	105.81
347.763	109.81
347.99	102.81
348.218	105.81
348.445	121.81
348.673	114.81
348.9	115.81
349.128	107.81
349.355	86.81
349.583	92.81
349.81	105.81
350.037	100.81
350.265	110.81
350.492	91.81
350.72	108.81
350.947	112.81
351.174	108.81
351.402	120.81
351.629	116.81
351.856	107.81
352.083	114.81
352.311	100.81
352.538	127.81
352.765	129.81
352.992	120.81
353.22	118.81
353.447	112.81
353.674	100.81
353.901	94.81
354.128	109.81
354.355	84.81
354.583	107.81
354.81	120.81
355.037	98.81
355.264	96.81
355.491	93.81
355.718	102.81
355.945	96.81
356.172	97.81
356.399	92.81
356.626	89.81
356.853	92.81
357.08	97.81
357.307	97.81
357.534	97.81
357.761	91.81
357.988	102.81
358.215	87.81
358.441	99.81
358.668	82.81
358.895	90.81
359.122	88.81
359.349	83.81
359.576	101.81
359.802	128.81
360.029	153.81
360.256	146.81
360.483	131.81
360.709	96.81
360.936	109.81
361.163	107.81
361.39	95.81
361.616	102.81
361.843	95.81
362.07	112.81
362.296	112.81
362.523	116.81
362.749	101.81
362.976	90.81
363.203	107.81
363.429	98.81
363.656	90.81
363.882	95.81
364.109	104.81
364.335	100.81
364.562	100.81
364.788	99.81
365.015	79.81
365.241	101.81
365.468	128.81
365.694	124.81
365.92	97.81
366.147	90.81
366.373	92.81
366.599	98.81
366.826	96.81
367.052	98.81
367.278	90.81
367.505	110.81
367.731	89.81
367.957	87.81
368.184	95.81
368.41	114.81
368.636	110.81
368.862	137.81
369.089	129.81
369.315	103.81
369.541	92.81
369.767	86.81
369.993	98.81
370.219	112.81
370.445	95.81
370.672	93.81
370.898	77.81
371.124	90.81
371.35	83.81
371.576	90.81
371.802	78.81
372.028	97.81
372.254	89.81
372.48	97.81
372.706	86.81
372.932	80.81
373.158	86.81
373.384	83.81
373.61	98.81
373.835	90.81
374.061	103.81
374.287	106.81
374.513	86.81
374.739	100.81
374.965	110.81
375.191	72.81
375.416	86.81
375.642	92.81
375.868	90.81
376.094	87.81
376.319	98.81
376.545	96.81
376.771	94.81
376.997	92.81
377.222	77.81
377.448	96.81
377.674	93.81
377.899	90.81
378.125	83.81
378.35	101.81
378.576	86.81
378.802	89.81
379.027	86.81
379.253	101.81
379.478	77.81
379.704	104.81
379.929	104.81
380.155	93.81
380.38	102.81
380.606	99.81
380.831	108.81
381.057	92.81
381.282	90.81
381.507	92.81
381.733	96.81
381.958	97.81
382.184	108.81
382.409	100.81
382.634	105.81
382.86	100.81
383.085	111.81
383.31	104.81
383.535	101.81
383.761	118.81
383.986	111.81
384.211	102.81
384.436	83.81
384.662	96.81
384.887	106.81
385.112	106.81
385.337	110.81
385.562	101.81
385.787	110.81
386.013	123.81
386.238	110.81
386.463	137.81
386.688	122.81
386.913	115.81
387.138	110.81
387.363	113.81
387.588	98.81
387.813	100.81
388.038	110.81
388.263	121.81
388.488	114.81
388.713	101.81
388.938	90.81
389.163	92.81
389.387	99.81
389.612	87.81
389.837	90.81
390.062	100.81
390.287	94.81
390.512	85.81
390.736	98.81
390.961	87.81
391.186	105.81
391.411	95.81
391.636	88.81
391.86	83.81
392.085	86.81
392.31	87.81
392.534	98.81
392.759	99.81
392.984	94.81
393.208	107.81
393.433	102.81
393.658	113.81
393.882	94.81
394.107	74.81
394.331	94.81
394.556	89.81
394.78	74.81
395.005	93.81
395.229	96.81
395.454	89.81
395.678	84.81
395.903	81.81
396.127	71.81
396.352	106.81
396.576	77.81
396.801	97.81
397.025	93.81
397.249	84.81
397.474	90.81
397.698	94.81
397.922	91.81
398.147	93.81
398.371	84.81
398.595	73.81
398.82	89.81
399.044	84.81
399.268	88.81
399.492	85.81
399.717	82.81
399.941	89.81
400.165	82.81
400.389	100.81
400.613	91.81
400.837	80.81
401.062	97.81
401.286	91.81
401.51	88.81
401.734	106.81
401.958	108.81
402.182	156.81
402.406	210.81
402.63	167.81
402.854	116.81
403.078	90.81
403.302	101.81
403.526	85.81
403.75	89.81
403.974	88.81
404.198	94.81
404.422	88.81
404.645	91.81
404.869	109.81
405.093	120.81
405.317	142.81
405.541	137.81
405.765	123.81
405.988	148.81
406.212	226.81
406.436	351.81
406.66	224.81
406.883	148.81
407.107	114.81
407.331	105.81
407.555	111.81
407.778	111.81
408.002	107.81
408.226	101.81
408.449	95.81
408.673	92.81
408.896	99.81
409.12	112.81
409.344	93.81
409.567	87.81
409.791	96.81
410.014	89.81
410.238	97.81
410.461	101.81
410.685	99.81
410.908	101.81
411.132	99.81
411.355	99.81
411.578	99.81
411.802	84.81
412.025	83.81
412.249	85.81
412.472	122.81
412.695	135.81
412.919	115.81
413.142	86.81
413.365	85.81
413.589	105.81
413.812	94.81
414.035	98.81
414.258	99.81
414.482	89.81
414.705	93.81
414.928	81.81
415.151	76.81
415.374	82.81
415.597	97.81
415.821	91.81
416.044	86.81
416.267	87.81
416.49	96.81
416.713	90.81
416.936	102.81
417.159	81.81
417.382	90.81
417.605	105.81
417.828	102.81
418.051	104.81
418.274	97.81
418.497	93.81
418.72	68.81
418.943	90.81
419.166	89.81
419.389	86.81
419.611	87.81
419.834	80.81
420.057	96.81
420.28	83.81
420.503	92.81
420.726	98.81
420.948	91.81
421.171	107.81
421.394	111.81
421.617	91.81
421.839	100.81
422.062	95.81
422.285	102.81
422.507	107.81
422.73	136.81
422.953	105.81
423.175	84.81
423.398	90.81
423.621	83.81
423.843	85.81
424.066	79.81
424.288	74.81
424.511	108.81
424.733	108.81
424.956	120.81
425.178	113.81
425.401	102.81
425.623	117.81
425.846	112.81
426.068	107.81
426.291	92.81
426.513	94.81
426.735	93.81
426.958	113.81
427.18	129.81
427.402	176.81
427.625	268.81
427.847	258.81
428.069	224.81
428.292	122.81
428.514	105.81
428.736	78.81
428.958	87.81
429.181	77.81
429.403	100.81
429.625	94.81
429.847	93.81
430.069	100.81
430.292	104.81
430.514	91.81
430.736	77.81
430.958	89.81
431.18	86.81
431.402	89.81
431.624	82.81
431.846	92.81
432.068	92.81
432.29	73.81
432.512	76.81
432.734	95.81
432.956	78.81
433.178	104.81
433.4	113.81
433.622	95.81
433.844	100.81
434.066	104.81
434.287	104.81
434.509	92.81
434.731	91.81
434.953	92.81
435.175	91.81
435.397	105.81
435.618	82.81
435.84	108.81
436.062	154.81
436.284	144.81
436.505	114.81
436.727	138.81
436.949	85.81
437.17	92.81
437.392	83.81
437.614	104.81
437.835	132.81
438.057	157.81
438.278	134.81
438.5	115.81
438.721	139.81
438.943	118.81
439.165	78.81
439.386	91.81
439.608	105.81
439.829	102.81
440.05	160.81
440.272	209.81
440.493	102.81
440.715	92.81
440.936	84.81
441.158	79.81
441.379	86.81
441.6	108.81
441.822	119.81
442.043	112.81
442.264	133.81
442.486	113.81
442.707	98.81
442.928	134.81
443.149	171.81
443.371	177.81
443.592	145.81
443.813	145.81
444.034	147.81
444.255	93.81
444.476	84.81
444.698	102.81
444.919	105.81
445.14	142.81
445.361	154.81
445.582	129.81
445.803	202.81
446.024	207.81
446.245	182.81
446.466	134.81
446.687	101.81
446.908	111.81
447.129	104.81
447.35	79.81
447.571	106.81
447.792	92.81
448.013	106.81
448.234	120.81
448.455	124.81
448.675	145.81
448.896	148.81
449.117	109.81
449.338	121.81
449.559	160.81
449.779	161.81
450	83.81
450.221	98.81
450.442	93.81
450.662	99.81
450.883	132.81
451.104	159.81
451.324	102.81
451.545	105.81
451.766	101.81
451.986	94.81
452.207	85.81
452.428	112.81
452.648	109.81
452.869	146.81
453.089	152.81
453.31	152.81
453.53	112.81
453.751	103.81
453.971	126.81
454.192	147.81
454.412	113.81
454.633	100.81
454.853	91.81
455.073	93.81
455.294	89.81
455.514	106.81
455.734	101.81
455.955	100.81
456.175	85.81
456.395	86.81
456.616	81.81
456.836	82.81
457.056	90.81
457.276	94.81
457.497	113.81
457.717	86.81
457.937	88.81
458.157	96.81
458.377	101.81
458.598	141.81
458.818	236.81
459.038	265.81
459.258	162.81
459.478	85.81
459.698	74.81
459.918	91.81
460.138	95.81
460.358	81.81
460.578	90.81
460.798	99.81
461.018	97.81
461.238	83.81
461.458	79.81
461.678	84.81
461.898	87.81
462.118	83.81
462.338	74.81
462.558	80.81
462.777	77.81
462.997	95.81
463.217	124.81
463.437	84.81
463.657	95.81
463.876	99.81
464.096	101.81
464.316	87.81
464.536	102.81
464.755	100.81
464.975	124.81
465.195	256.81
465.414	265.81
465.634	109.81
465.854	88.81
466.073	92.81
466.293	95.81
466.512	98.81
466.732	88.81
466.951	86.81
467.171	104.81
467.391	102.81
467.61	137.81
467.829	184.81
468.049	373.81
468.268	579.81
468.488	190.81
468.707	102.81
468.927	81.81
469.146	96.81
469.365	93.81
469.585	90.81
469.804	116.81
470.023	110.81
470.243	116.81
470.462	125.81
470.681	162.81
470.901	96.81
471.12	98.81
471.339	90.81
471.558	109.81
471.777	132.81
471.997	218.81
472.216	708.81
472.435	1695.81
472.654	442.81
472.873	122.81
473.092	101.81
473.311	97.81
473.53	94.81
473.749	79.81
473.968	112.81
474.187	124.81
474.406	114.81
474.625	92.81
474.844	79.81
475.063	94.81
475.282	90.81
475.501	91.81
475.72	93.81
475.939	82.81
476.158	89.81
476.377	99.81
476.596	101.81
476.814	103.81
477.033	100.81
477.252	113.81
477.471	86.81
477.69	88.81
477.908	98.81
478.127	89.81
478.346	80.81
478.564	105.81
478.783	110.81
479.002	107.81
479.22	98.81
479.439	120.81
479.658	125.81
479.876	117.81
480.095	101.81
480.313	123.81
480.532	153.81
480.751	210.81
480.969	657.81
481.188	2851.81
481.406	1775.81
481.624	276.81
481.843	112.81
482.061	107.81
482.28	106.81
482.498	101.81
482.717	125.81
482.935	90.81
483.153	93.81
483.372	107.81
483.59	88.81
483.808	104.81
484.027	107.81
484.245	82.81
484.463	82.81
484.681	102.81
484.9	89.81
485.118	98.81
485.336	96.81
485.554	98.81
485.772	101.81
485.99	99.81
486.209	98.81
486.427	111.81
486.645	138.81
486.863	143.81
487.081	114.81
487.299	115.81
487.517	100.81
487.735	88.81
487.953	92.81
488.171	84.81
488.389	104.81
488.607	114.81
488.825	94.81
489.043	98.81
489.261	110.81
489.479	97.81
489.696	79.81
489.914	87.81
490.132	87.81
490.35	97.81
490.568	84.81
490.786	93.81
491.003	81.81
491.221	86.81
491.439	100.81
491.657	104.81
491.874	97.81
492.092	76.81
492.31	97.81
492.527	107.81
492.745	107.81
492.963	105.81
493.18	100.81
493.398	95.81
493.615	97.81
493.833	84.81
494.05	91.81
494.268	92.81
494.485	93.81
494.703	93.81
494.92	88.81
495.138	90.81
495.355	85.81
495.573	92.81
495.79	98.81
496.008	91.81
496.225	82.81
496.442	88.81
496.66	93.81
496.877	103.81
497.094	98.81
497.312	99.81
497.529	74.81
497.746	100.81
497.963	93.81
498.181	96.81
498.398	97.81
498.615	126.81
498.832	107.81
499.049	86.81
499.267	92.81
499.484	90.81
499.701	98.81
499.918	89.81
500.135	98.81
500.352	76.81
500.569	96.81
500.786	98.81
501.003	69.81
501.22	86.81
501.437	101.81
501.654	105.81
501.871	127.81
502.088	99.81
502.305	100.81
502.522	101.81
502.739	91.81
502.956	81.81
503.172	111.81
503.389	115.81
503.606	127.81
503.823	116.81
504.04	98.81
504.256	97.81
504.473	94.81
504.69	84.81
504.907	90.81
505.123	93.81
505.34	85.81
505.557	99.81
505.773	86.81
505.99	89.81
506.207	90.81
506.423	98.81
506.64	104.81
506.856	94.81
507.073	100.81
507.289	97.81
507.506	105.81
507.722	136.81
507.939	139.81
508.155	101.81
508.372	89.81
508.588	92.81
508.805	90.81
509.021	107.81
509.238	121.81
509.454	112.81
509.67	109.81
509.887	123.81
510.103	141.81
510.319	248.81
510.536	981.81
510.752	3578.81
510.968	980.81
511.184	202.81
511.401	144.81
511.617	111.81
511.833	112.81
512.049	93.81
