Data from Circ_2007_H10_HRD10591_00076.txt Node
Date: Wed Jan 03 10:22:12 EST 2024
User: Yrep
Spectrometer: HR+D1059
Trigger mode: 1
Integration Time (sec): 1.000000E-1
Scans to average: 1
Electric dark correction enabled: true
Nonlinearity correction enabled: false
Boxcar width: 0
XAxis mode: Wavelengths
Number of Pixels in Spectrum: 2048
>>>>>Begin Spectral Data<<<<<
223.165	-18.69
223.4	-18.69
223.635	-18.69
223.869	-19.69
224.104	-15.69
224.338	-1.69
224.573	-19.69
224.808	1.31
225.042	-19.69
225.277	-13.69
225.511	-2.69
225.746	0.31
225.98	4.31
226.215	8.31
226.449	19.31
226.683	20.31
226.918	27.31
227.152	30.31
227.387	35.31
227.621	26.31
227.856	39.31
228.09	37.31
228.324	48.31
228.559	65.31
228.793	64.31
229.027	51.31
229.262	62.31
229.496	82.31
229.73	111.31
229.964	101.31
230.199	83.31
230.433	69.31
230.667	81.31
230.901	83.31
231.136	87.31
231.37	75.31
231.604	73.31
231.838	64.31
232.072	79.31
232.306	98.31
232.541	86.31
232.775	95.31
233.009	85.31
233.243	78.31
233.477	77.31
233.711	73.31
233.945	77.31
234.179	90.31
234.413	72.31
234.647	76.31
234.881	90.31
235.115	82.31
235.349	90.31
235.583	80.31
235.817	65.31
236.051	82.31
236.285	81.31
236.519	86.31
236.753	92.31
236.987	96.31
237.221	68.31
237.455	107.31
237.689	85.31
237.922	73.31
238.156	69.31
238.39	89.31
238.624	72.31
238.858	64.31
239.091	73.31
239.325	98.31
239.559	104.31
239.793	81.31
240.027	85.31
240.26	80.31
240.494	77.31
240.728	81.31
240.961	79.31
241.195	89.31
241.429	94.31
241.662	84.31
241.896	83.31
242.13	65.31
242.363	77.31
242.597	74.31
242.83	78.31
243.064	76.31
243.298	66.31
243.531	68.31
243.765	81.31
243.998	81.31
244.232	89.31
244.465	90.31
244.699	82.31
244.932	91.31
245.166	84.31
245.399	85.31
245.633	91.31
245.866	77.31
246.099	72.31
246.333	77.31
246.566	91.31
246.8	75.31
247.033	81.31
247.266	90.31
247.5	88.31
247.733	81.31
247.966	91.31
248.2	84.31
248.433	77.31
248.666	77.31
248.899	78.31
249.133	98.31
249.366	122.31
249.599	109.31
249.832	108.31
250.066	92.31
250.299	99.31
250.532	88.31
250.765	88.31
250.998	89.31
251.231	100.31
251.465	81.31
251.698	84.31
251.931	98.31
252.164	75.31
252.397	70.31
252.63	84.31
252.863	88.31
253.096	75.31
253.329	113.31
253.562	88.31
253.795	77.31
254.028	84.31
254.261	68.31
254.494	68.31
254.727	96.31
254.96	79.31
255.193	88.31
255.426	78.31
255.659	89.31
255.892	90.31
256.124	95.31
256.357	86.31
256.59	92.31
256.823	94.31
257.056	90.31
257.289	110.31
257.521	92.31
257.754	85.31
257.987	78.31
258.22	86.31
258.452	102.31
258.685	109.31
258.918	99.31
259.151	84.31
259.383	81.31
259.616	77.31
259.849	78.31
260.081	90.31
260.314	91.31
260.547	86.31
260.779	102.31
261.012	106.31
261.244	113.31
261.477	99.31
261.71	109.31
261.942	146.31
262.175	169.31
262.407	107.31
262.64	93.31
262.872	88.31
263.105	85.31
263.337	82.31
263.57	85.31
263.802	75.31
264.035	85.31
264.267	88.31
264.499	89.31
264.732	80.31
264.964	94.31
265.197	84.31
265.429	92.31
265.661	86.31
265.894	85.31
266.126	92.31
266.358	72.31
266.591	77.31
266.823	85.31
267.055	85.31
267.287	85.31
267.52	97.31
267.752	101.31
267.984	81.31
268.216	97.31
268.448	83.31
268.681	94.31
268.913	88.31
269.145	87.31
269.377	102.31
269.609	84.31
269.841	85.31
270.073	76.31
270.306	91.31
270.538	96.31
270.77	92.31
271.002	91.31
271.234	84.31
271.466	90.31
271.698	91.31
271.93	75.31
272.162	92.31
272.394	103.31
272.626	109.31
272.858	85.31
273.09	82.31
273.322	89.31
273.553	92.31
273.785	73.31
274.017	91.31
274.249	84.31
274.481	85.31
274.713	96.31
274.945	91.31
275.176	107.31
275.408	125.31
275.64	109.31
275.872	130.31
276.104	108.31
276.335	113.31
276.567	128.31
276.799	191.31
277.031	195.31
277.262	205.31
277.494	173.31
277.726	105.31
277.957	88.31
278.189	85.31
278.421	94.31
278.652	92.31
278.884	102.31
279.115	107.31
279.347	115.31
279.579	107.31
279.81	143.31
280.042	188.31
280.273	301.31
280.505	196.31
280.736	122.31
280.968	86.31
281.199	94.31
281.431	97.31
281.662	86.31
281.894	88.31
282.125	108.31
282.356	157.31
282.588	208.31
282.819	163.31
283.051	103.31
283.282	87.31
283.513	73.31
283.745	83.31
283.976	93.31
284.207	99.31
284.439	84.31
284.67	93.31
284.901	89.31
285.132	89.31
285.364	84.31
285.595	100.31
285.826	93.31
286.057	84.31
286.288	97.31
286.52	82.31
286.751	92.31
286.982	91.31
287.213	84.31
287.444	94.31
287.675	95.31
287.906	90.31
288.138	108.31
288.369	92.31
288.6	97.31
288.831	85.31
289.062	79.31
289.293	93.31
289.524	102.31
289.755	93.31
289.986	86.31
290.217	74.31
290.448	82.31
290.679	100.31
290.91	91.31
291.141	101.31
291.371	94.31
291.602	91.31
291.833	89.31
292.064	96.31
292.295	91.31
292.526	86.31
292.757	106.31
292.987	101.31
293.218	96.31
293.449	85.31
293.68	95.31
293.91	88.31
294.141	85.31
294.372	94.31
294.603	95.31
294.833	86.31
295.064	98.31
295.295	96.31
295.525	106.31
295.756	107.31
295.987	139.31
296.217	199.31
296.448	176.31
296.679	108.31
296.909	101.31
297.14	89.31
297.37	97.31
297.601	85.31
297.831	92.31
298.062	107.31
298.292	99.31
298.523	96.31
298.753	96.31
298.984	98.31
299.214	97.31
299.445	97.31
299.675	114.31
299.905	99.31
300.136	97.31
300.366	93.31
300.597	105.31
300.827	109.31
301.057	137.31
301.288	127.31
301.518	106.31
301.748	95.31
301.979	128.31
302.209	100.31
302.439	90.31
302.669	107.31
302.9	115.31
303.13	95.31
303.36	111.31
303.59	148.31
303.82	165.31
304.051	123.31
304.281	97.31
304.511	98.31
304.741	106.31
304.971	102.31
305.201	98.31
305.431	97.31
305.661	94.31
305.891	95.31
306.121	102.31
306.352	104.31
306.582	138.31
306.812	115.31
307.042	137.31
307.272	176.31
307.502	187.31
307.731	156.31
307.961	120.31
308.191	113.31
308.421	86.31
308.651	105.31
308.881	120.31
309.111	94.31
309.341	98.31
309.571	124.31
309.8	88.31
310.03	111.31
310.26	119.31
310.49	108.31
310.72	132.31
310.949	142.31
311.179	114.31
311.409	109.31
311.639	107.31
311.868	108.31
312.098	111.31
312.328	116.31
312.557	136.31
312.787	161.31
313.017	144.31
313.246	105.31
313.476	97.31
313.706	102.31
313.935	109.31
314.165	121.31
314.394	133.31
314.624	111.31
314.853	122.31
315.083	108.31
315.312	90.31
315.542	98.31
315.771	102.31
316.001	109.31
316.23	90.31
316.46	108.31
316.689	99.31
316.919	107.31
317.148	107.31
317.377	108.31
317.607	117.31
317.836	101.31
318.065	107.31
318.295	86.31
318.524	103.31
318.753	107.31
318.983	87.31
319.212	125.31
319.441	127.31
319.67	109.31
319.9	88.31
320.129	87.31
320.358	107.31
320.587	114.31
320.816	113.31
321.046	113.31
321.275	103.31
321.504	101.31
321.733	92.31
321.962	107.31
322.191	126.31
322.42	130.31
322.649	116.31
322.878	148.31
323.108	157.31
323.337	158.31
323.566	189.31
323.795	226.31
324.024	314.31
324.253	628.31
324.482	1340.31
324.71	2860.31
324.939	3919.31
325.168	1383.31
325.397	381.31
325.626	206.31
325.855	160.31
326.084	169.31
326.313	181.31
326.542	207.31
326.77	354.31
326.999	691.31
327.228	1459.31
327.457	2684.31
327.686	2156.31
327.914	700.31
328.143	614.31
328.372	778.31
328.6	438.31
328.829	236.31
329.058	250.31
329.287	252.31
329.515	224.31
329.744	291.31
329.972	516.31
330.201	1094.31
330.43	1689.31
330.658	755.31
330.887	404.31
331.115	260.31
331.344	165.31
331.572	133.31
331.801	142.31
332.03	154.31
332.258	124.31
332.486	113.31
332.715	124.31
332.943	125.31
333.172	134.31
333.4	147.31
333.629	164.31
333.857	269.31
334.085	485.31
334.314	1004.31
334.542	2011.31
334.771	1914.31
334.999	482.31
335.227	192.31
335.455	136.31
335.684	133.31
335.912	112.31
336.14	118.31
336.369	122.31
336.597	122.31
336.825	123.31
337.053	107.31
337.281	102.31
337.51	98.31
337.738	96.31
337.966	107.31
338.194	116.31
338.422	115.31
338.65	106.31
338.878	104.31
339.106	113.31
339.334	85.31
339.562	87.31
339.79	101.31
340.018	105.31
340.246	113.31
340.474	110.31
340.702	93.31
340.93	97.31
341.158	97.31
341.386	106.31
341.614	106.31
341.842	118.31
342.07	99.31
342.298	98.31
342.526	101.31
342.754	88.31
342.981	112.31
343.209	87.31
343.437	79.31
343.665	92.31
343.893	100.31
344.12	102.31
344.348	91.31
344.576	94.31
344.804	110.31
345.031	116.31
345.259	134.31
345.487	121.31
345.714	113.31
345.942	109.31
346.17	87.31
346.397	103.31
346.625	110.31
346.853	85.31
347.08	92.31
347.308	111.31
347.535	112.31
347.763	124.31
347.99	110.31
348.218	124.31
348.445	148.31
348.673	125.31
348.9	114.31
349.128	105.31
349.355	96.31
349.583	99.31
349.81	94.31
350.037	117.31
350.265	101.31
350.492	101.31
350.72	96.31
350.947	129.31
351.174	147.31
351.402	128.31
351.629	123.31
351.856	116.31
352.083	118.31
352.311	156.31
352.538	150.31
352.765	136.31
352.992	145.31
353.22	132.31
353.447	121.31
353.674	110.31
353.901	100.31
354.128	100.31
354.355	97.31
354.583	113.31
354.81	98.31
355.037	104.31
355.264	90.31
355.491	109.31
355.718	90.31
355.945	89.31
356.172	91.31
356.399	96.31
356.626	96.31
356.853	78.31
357.08	95.31
357.307	99.31
357.534	104.31
357.761	79.31
357.988	97.31
358.215	97.31
358.441	97.31
358.668	83.31
358.895	76.31
359.122	97.31
359.349	102.31
359.576	98.31
359.802	142.31
360.029	182.31
360.256	178.31
360.483	140.31
360.709	111.31
360.936	92.31
361.163	114.31
361.39	117.31
361.616	102.31
361.843	105.31
362.07	121.31
362.296	128.31
362.523	122.31
362.749	106.31
362.976	103.31
363.203	90.31
363.429	93.31
363.656	104.31
363.882	99.31
364.109	107.31
364.335	97.31
364.562	99.31
364.788	105.31
365.015	106.31
365.241	107.31
365.468	128.31
365.694	147.31
365.92	131.31
366.147	104.31
366.373	95.31
366.599	86.31
366.826	105.31
367.052	91.31
367.278	105.31
367.505	98.31
367.731	92.31
367.957	107.31
368.184	101.31
368.41	110.31
368.636	139.31
368.862	150.31
369.089	140.31
369.315	120.31
369.541	115.31
369.767	106.31
369.993	101.31
370.219	133.31
370.445	101.31
370.672	90.31
370.898	91.31
371.124	87.31
371.35	96.31
371.576	94.31
371.802	98.31
372.028	90.31
372.254	89.31
372.48	92.31
372.706	90.31
372.932	87.31
373.158	94.31
373.384	99.31
373.61	85.31
373.835	90.31
374.061	92.31
374.287	109.31
374.513	79.31
374.739	93.31
374.965	92.31
375.191	102.31
375.416	104.31
375.642	91.31
375.868	112.31
376.094	92.31
376.319	93.31
376.545	98.31
376.771	82.31
376.997	100.31
377.222	88.31
377.448	97.31
377.674	85.31
377.899	87.31
378.125	86.31
378.35	103.31
378.576	96.31
378.802	88.31
379.027	105.31
379.253	96.31
379.478	70.31
379.704	96.31
379.929	102.31
380.155	106.31
380.38	100.31
380.606	99.31
380.831	84.31
381.057	99.31
381.282	105.31
381.507	106.31
381.733	113.31
381.958	81.31
382.184	110.31
382.409	102.31
382.634	113.31
382.86	109.31
383.085	85.31
383.31	94.31
383.535	98.31
383.761	92.31
383.986	93.31
384.211	104.31
384.436	97.31
384.662	96.31
384.887	102.31
385.112	97.31
385.337	110.31
385.562	117.31
385.787	106.31
386.013	122.31
386.238	130.31
386.463	100.31
386.688	115.31
386.913	92.31
387.138	100.31
387.363	100.31
387.588	98.31
387.813	92.31
388.038	110.31
388.263	108.31
388.488	116.31
388.713	96.31
388.938	91.31
389.163	100.31
389.387	100.31
389.612	93.31
389.837	94.31
390.062	97.31
390.287	107.31
390.512	96.31
390.736	86.31
390.961	102.31
391.186	105.31
391.411	93.31
391.636	101.31
391.86	87.31
392.085	92.31
392.31	97.31
392.534	83.31
392.759	94.31
392.984	86.31
393.208	104.31
393.433	97.31
393.658	107.31
393.882	83.31
394.107	81.31
394.331	76.31
394.556	87.31
394.78	90.31
395.005	94.31
395.229	89.31
395.454	96.31
395.678	85.31
395.903	83.31
396.127	86.31
396.352	82.31
396.576	85.31
396.801	90.31
397.025	86.31
397.249	93.31
397.474	84.31
397.698	105.31
397.922	91.31
398.147	92.31
398.371	100.31
398.595	86.31
398.82	100.31
399.044	97.31
399.268	82.31
399.492	91.31
399.717	104.31
399.941	101.31
400.165	106.31
400.389	106.31
400.613	98.31
400.837	96.31
401.062	93.31
401.286	91.31
401.51	93.31
401.734	103.31
401.958	116.31
402.182	160.31
402.406	236.31
402.63	189.31
402.854	130.31
403.078	88.31
403.302	106.31
403.526	85.31
403.75	99.31
403.974	91.31
404.198	109.31
404.422	98.31
404.645	122.31
404.869	118.31
405.093	135.31
405.317	169.31
405.541	141.31
405.765	136.31
405.988	157.31
406.212	257.31
406.436	432.31
406.66	292.31
406.883	156.31
407.107	110.31
407.331	127.31
407.555	133.31
407.778	125.31
408.002	106.31
408.226	94.31
408.449	97.31
408.673	100.31
408.896	101.31
409.12	111.31
409.344	85.31
409.567	103.31
409.791	96.31
410.014	93.31
410.238	88.31
410.461	93.31
410.685	108.31
410.908	106.31
411.132	109.31
411.355	113.31
411.578	81.31
411.802	86.31
412.025	111.31
412.249	123.31
412.472	138.31
412.695	144.31
412.919	124.31
413.142	96.31
413.365	93.31
413.589	80.31
413.812	104.31
414.035	89.31
414.258	96.31
414.482	98.31
414.705	98.31
414.928	100.31
415.151	92.31
415.374	83.31
415.597	86.31
415.821	95.31
416.044	97.31
416.267	88.31
416.49	93.31
416.713	85.31
416.936	107.31
417.159	106.31
417.382	101.31
417.605	98.31
417.828	112.31
418.051	108.31
418.274	80.31
418.497	97.31
418.72	104.31
418.943	92.31
419.166	87.31
419.389	96.31
419.611	106.31
419.834	107.31
420.057	108.31
420.28	102.31
420.503	86.31
420.726	88.31
420.948	97.31
421.171	102.31
421.394	120.31
421.617	101.31
421.839	92.31
422.062	81.31
422.285	93.31
422.507	108.31
422.73	118.31
422.953	96.31
423.175	104.31
423.398	96.31
423.621	82.31
423.843	92.31
424.066	88.31
424.288	113.31
424.511	101.31
424.733	117.31
424.956	149.31
425.178	133.31
425.401	120.31
425.623	122.31
425.846	111.31
426.068	104.31
426.291	107.31
426.513	93.31
426.735	99.31
426.958	127.31
427.18	141.31
427.402	236.31
427.625	344.31
427.847	306.31
428.069	251.31
428.292	136.31
428.514	103.31
428.736	99.31
428.958	90.31
429.181	90.31
429.403	84.31
429.625	97.31
429.847	103.31
430.069	122.31
430.292	105.31
430.514	114.31
430.736	105.31
430.958	89.31
431.18	84.31
431.402	91.31
431.624	89.31
431.846	86.31
432.068	84.31
432.29	73.31
432.512	86.31
432.734	97.31
432.956	108.31
433.178	105.31
433.4	108.31
433.622	99.31
433.844	105.31
434.066	101.31
434.287	99.31
434.509	91.31
434.731	91.31
434.953	96.31
435.175	87.31
435.397	89.31
435.618	111.31
435.84	119.31
436.062	165.31
436.284	137.31
436.505	117.31
436.727	120.31
436.949	102.31
437.17	91.31
437.392	100.31
437.614	111.31
437.835	160.31
438.057	183.31
438.278	166.31
438.5	140.31
438.721	162.31
438.943	124.31
439.165	109.31
439.386	116.31
439.608	109.31
439.829	123.31
440.05	185.31
440.272	232.31
440.493	128.31
440.715	109.31
440.936	94.31
441.158	102.31
441.379	104.31
441.6	117.31
441.822	125.31
442.043	109.31
442.264	138.31
442.486	128.31
442.707	122.31
442.928	149.31
443.149	220.31
443.371	204.31
443.592	165.31
443.813	156.31
444.034	133.31
444.255	104.31
444.476	91.31
444.698	97.31
444.919	100.31
445.14	144.31
445.361	138.31
445.582	173.31
445.803	223.31
446.024	216.31
446.245	190.31
446.466	147.31
446.687	115.31
446.908	113.31
447.129	103.31
447.35	107.31
447.571	108.31
447.792	108.31
448.013	107.31
448.234	142.31
448.455	121.31
448.675	137.31
448.896	170.31
449.117	118.31
449.338	115.31
449.559	168.31
449.779	176.31
450	105.31
450.221	84.31
450.442	94.31
450.662	122.31
450.883	154.31
451.104	191.31
451.324	136.31
451.545	101.31
451.766	85.31
451.986	83.31
452.207	92.31
452.428	107.31
452.648	119.31
452.869	144.31
453.089	169.31
453.31	174.31
453.53	110.31
453.751	120.31
453.971	146.31
454.192	175.31
454.412	122.31
454.633	102.31
454.853	86.31
455.073	84.31
455.294	108.31
455.514	115.31
455.734	105.31
455.955	88.31
456.175	88.31
456.395	90.31
456.616	83.31
456.836	90.31
457.056	87.31
457.276	88.31
457.497	86.31
457.717	77.31
457.937	93.31
458.157	98.31
458.377	97.31
458.598	145.31
458.818	277.31
459.038	314.31
459.258	184.31
459.478	117.31
459.698	102.31
459.918	79.31
460.138	86.31
460.358	96.31
460.578	92.31
460.798	100.31
461.018	94.31
461.238	84.31
461.458	89.31
461.678	84.31
461.898	106.31
462.118	100.31
462.338	97.31
462.558	96.31
462.777	99.31
462.997	97.31
463.217	112.31
463.437	102.31
463.657	83.31
463.876	103.31
464.096	99.31
464.316	122.31
464.536	120.31
464.755	109.31
464.975	167.31
465.195	326.31
465.414	346.31
465.634	116.31
465.854	112.31
466.073	94.31
466.293	91.31
466.512	92.31
466.732	98.31
466.951	96.31
467.171	108.31
467.391	113.31
467.61	175.31
467.829	214.31
468.049	563.31
468.268	855.31
468.488	242.31
468.707	121.31
468.927	90.31
469.146	105.31
469.365	103.31
469.585	92.31
469.804	129.31
470.023	126.31
470.243	125.31
470.462	136.31
470.681	174.31
470.901	110.31
471.12	102.31
471.339	122.31
471.558	121.31
471.777	153.31
471.997	291.31
472.216	1096.31
472.435	2624.31
472.654	632.31
472.873	169.31
473.092	112.31
473.311	98.31
473.53	98.31
473.749	108.31
473.968	122.31
474.187	148.31
474.406	127.31
474.625	107.31
474.844	98.31
475.063	88.31
475.282	97.31
475.501	92.31
475.72	97.31
475.939	96.31
476.158	74.31
476.377	92.31
476.596	89.31
476.814	104.31
477.033	120.31
477.252	102.31
477.471	99.31
477.69	96.31
477.908	109.31
478.127	112.31
478.346	96.31
478.564	127.31
478.783	123.31
479.002	124.31
479.22	119.31
479.439	128.31
479.658	155.31
479.876	129.31
480.095	134.31
480.313	162.31
480.532	165.31
480.751	290.31
480.969	989.31
481.188	4323.31
481.406	2683.31
481.624	398.31
481.843	156.31
482.061	90.31
482.28	115.31
482.498	89.31
482.717	94.31
482.935	91.31
483.153	91.31
483.372	96.31
483.59	95.31
483.808	95.31
484.027	83.31
484.245	93.31
484.463	100.31
484.681	95.31
484.9	95.31
485.118	101.31
485.336	92.31
485.554	100.31
485.772	111.31
485.99	101.31
486.209	102.31
486.427	122.31
486.645	145.31
486.863	158.31
487.081	122.31
487.299	114.31
487.517	104.31
487.735	85.31
487.953	96.31
488.171	99.31
488.389	92.31
488.607	110.31
488.825	104.31
489.043	88.31
489.261	99.31
489.479	94.31
489.696	103.31
489.914	85.31
490.132	105.31
490.35	97.31
490.568	90.31
490.786	101.31
491.003	98.31
491.221	104.31
491.439	97.31
491.657	100.31
491.874	101.31
492.092	92.31
492.31	99.31
492.527	98.31
492.745	110.31
492.963	101.31
493.18	98.31
493.398	107.31
493.615	96.31
493.833	106.31
494.05	92.31
494.268	93.31
494.485	92.31
494.703	87.31
494.92	83.31
495.138	85.31
495.355	97.31
495.573	95.31
495.79	98.31
496.008	82.31
496.225	85.31
496.442	80.31
496.66	104.31
496.877	94.31
497.094	96.31
497.312	79.31
497.529	95.31
497.746	87.31
497.963	107.31
498.181	99.31
498.398	109.31
498.615	129.31
498.832	117.31
499.049	88.31
499.267	98.31
499.484	90.31
499.701	94.31
499.918	95.31
500.135	101.31
500.352	100.31
500.569	110.31
500.786	95.31
501.003	89.31
501.22	96.31
501.437	101.31
501.654	105.31
501.871	145.31
502.088	112.31
502.305	79.31
502.522	92.31
502.739	79.31
502.956	89.31
503.172	107.31
503.389	115.31
503.606	138.31
503.823	121.31
504.04	117.31
504.256	89.31
504.473	89.31
504.69	87.31
504.907	96.31
505.123	82.31
505.34	101.31
505.557	100.31
505.773	90.31
505.99	101.31
506.207	101.31
506.423	83.31
506.64	105.31
506.856	84.31
507.073	91.31
507.289	89.31
507.506	113.31
507.722	152.31
507.939	168.31
508.155	99.31
508.372	104.31
508.588	89.31
508.805	97.31
509.021	123.31
509.238	117.31
509.454	116.31
509.67	112.31
509.887	131.31
510.103	158.31
510.319	278.31
510.536	1133.31
510.752	4137.31
