Data from Circ_2007_H10_HRD10591_00070.txt Node
Date: Wed Jan 03 10:22:11 EST 2024
User: Yrep
Spectrometer: HR+D1059
Trigger mode: 1
Integration Time (sec): 1.000000E-1
Scans to average: 1
Electric dark correction enabled: true
Nonlinearity correction enabled: false
Boxcar width: 0
XAxis mode: Wavelengths
Number of Pixels in Spectrum: 2048
>>>>>Begin Spectral Data<<<<<
223.165	-28.75
223.4	-28.75
223.635	-28.75
223.869	-27.75
224.104	-12.75
224.338	-7.75
224.573	-12.75
224.808	-19.75
225.042	-7.75
225.277	-3.75
225.511	-0.75
225.746	1.25
225.98	-5.75
226.215	8.25
226.449	25.25
226.683	19.25
226.918	38.25
227.152	35.25
227.387	31.25
227.621	45.25
227.856	36.25
228.09	54.25
228.324	54.25
228.559	62.25
228.793	67.25
229.027	57.25
229.262	84.25
229.496	77.25
229.73	84.25
229.964	78.25
230.199	77.25
230.433	83.25
230.667	76.25
230.901	79.25
231.136	77.25
231.37	64.25
231.604	81.25
231.838	72.25
232.072	72.25
232.306	74.25
232.541	83.25
232.775	91.25
233.009	78.25
233.243	81.25
233.477	84.25
233.711	75.25
233.945	77.25
234.179	85.25
234.413	76.25
234.647	95.25
234.881	84.25
235.115	87.25
235.349	80.25
235.583	78.25
235.817	72.25
236.051	86.25
236.285	62.25
236.519	71.25
236.753	83.25
236.987	81.25
237.221	83.25
237.455	98.25
237.689	86.25
237.922	81.25
238.156	67.25
238.39	69.25
238.624	72.25
238.858	56.25
239.091	64.25
239.325	68.25
239.559	75.25
239.793	74.25
240.027	83.25
240.26	85.25
240.494	90.25
240.728	76.25
240.961	67.25
241.195	81.25
241.429	61.25
241.662	64.25
241.896	64.25
242.13	75.25
242.363	76.25
242.597	66.25
242.83	69.25
243.064	84.25
243.298	75.25
243.531	73.25
243.765	83.25
243.998	68.25
244.232	91.25
244.465	79.25
244.699	84.25
244.932	83.25
245.166	80.25
245.399	86.25
245.633	70.25
245.866	81.25
246.099	85.25
246.333	89.25
246.566	80.25
246.8	74.25
247.033	80.25
247.266	100.25
247.5	68.25
247.733	90.25
247.966	78.25
248.2	86.25
248.433	87.25
248.666	85.25
248.899	72.25
249.133	78.25
249.366	89.25
249.599	108.25
249.832	97.25
250.066	88.25
250.299	80.25
250.532	92.25
250.765	74.25
250.998	81.25
251.231	78.25
251.465	80.25
251.698	77.25
251.931	69.25
252.164	81.25
252.397	79.25
252.63	70.25
252.863	88.25
253.096	81.25
253.329	78.25
253.562	70.25
253.795	76.25
254.028	88.25
254.261	84.25
254.494	77.25
254.727	88.25
254.96	77.25
255.193	78.25
255.426	83.25
255.659	87.25
255.892	83.25
256.124	86.25
256.357	85.25
256.59	83.25
256.823	65.25
257.056	89.25
257.289	84.25
257.521	76.25
257.754	96.25
257.987	74.25
258.22	80.25
258.452	100.25
258.685	86.25
258.918	80.25
259.151	85.25
259.383	84.25
259.616	74.25
259.849	82.25
260.081	85.25
260.314	82.25
260.547	76.25
260.779	79.25
261.012	89.25
261.244	102.25
261.477	96.25
261.71	96.25
261.942	130.25
262.175	133.25
262.407	86.25
262.64	81.25
262.872	81.25
263.105	86.25
263.337	84.25
263.57	83.25
263.802	86.25
264.035	88.25
264.267	90.25
264.499	77.25
264.732	86.25
264.964	81.25
265.197	78.25
265.429	86.25
265.661	69.25
265.894	86.25
266.126	73.25
266.358	80.25
266.591	75.25
266.823	71.25
267.055	84.25
267.287	68.25
267.52	77.25
267.752	87.25
267.984	90.25
268.216	85.25
268.448	88.25
268.681	76.25
268.913	75.25
269.145	78.25
269.377	80.25
269.609	70.25
269.841	89.25
270.073	84.25
270.306	92.25
270.538	80.25
270.77	79.25
271.002	91.25
271.234	91.25
271.466	94.25
271.698	87.25
271.93	96.25
272.162	93.25
272.394	93.25
272.626	74.25
272.858	95.25
273.09	88.25
273.322	92.25
273.553	98.25
273.785	79.25
274.017	89.25
274.249	87.25
274.481	82.25
274.713	78.25
274.945	94.25
275.176	74.25
275.408	86.25
275.64	99.25
275.872	91.25
276.104	100.25
276.335	90.25
276.567	94.25
276.799	122.25
277.031	114.25
277.262	134.25
277.494	116.25
277.726	97.25
277.957	107.25
278.189	93.25
278.421	83.25
278.652	81.25
278.884	77.25
279.115	89.25
279.347	88.25
279.579	77.25
279.81	101.25
280.042	125.25
280.273	167.25
280.505	133.25
280.736	78.25
280.968	81.25
281.199	92.25
281.431	80.25
281.662	98.25
281.894	100.25
282.125	88.25
282.356	113.25
282.588	137.25
282.819	110.25
283.051	85.25
283.282	84.25
283.513	95.25
283.745	81.25
283.976	91.25
284.207	81.25
284.439	80.25
284.67	68.25
284.901	75.25
285.132	94.25
285.364	89.25
285.595	97.25
285.826	83.25
286.057	80.25
286.288	98.25
286.52	80.25
286.751	81.25
286.982	85.25
287.213	89.25
287.444	91.25
287.675	91.25
287.906	92.25
288.138	86.25
288.369	96.25
288.6	82.25
288.831	72.25
289.062	83.25
289.293	88.25
289.524	72.25
289.755	81.25
289.986	70.25
290.217	88.25
290.448	98.25
290.679	83.25
290.91	104.25
291.141	88.25
291.371	95.25
291.602	96.25
291.833	84.25
292.064	92.25
292.295	90.25
292.526	96.25
292.757	93.25
292.987	90.25
293.218	93.25
293.449	84.25
293.68	72.25
293.91	92.25
294.141	84.25
294.372	89.25
294.603	84.25
294.833	86.25
295.064	77.25
295.295	84.25
295.525	95.25
295.756	77.25
295.987	107.25
296.217	129.25
296.448	121.25
296.679	100.25
296.909	93.25
297.14	81.25
297.37	90.25
297.601	79.25
297.831	96.25
298.062	78.25
298.292	96.25
298.523	91.25
298.753	99.25
298.984	85.25
299.214	81.25
299.445	91.25
299.675	90.25
299.905	91.25
300.136	93.25
300.366	96.25
300.597	93.25
300.827	99.25
301.057	100.25
301.288	105.25
301.518	87.25
301.748	87.25
301.979	113.25
302.209	95.25
302.439	100.25
302.669	97.25
302.9	98.25
303.13	94.25
303.36	99.25
303.59	77.25
303.82	113.25
304.051	105.25
304.281	93.25
304.511	89.25
304.741	81.25
304.971	87.25
305.201	93.25
305.431	98.25
305.661	96.25
305.891	90.25
306.121	111.25
306.352	103.25
306.582	108.25
306.812	97.25
307.042	105.25
307.272	112.25
307.502	128.25
307.731	117.25
307.961	96.25
308.191	90.25
308.421	96.25
308.651	93.25
308.881	94.25
309.111	92.25
309.341	89.25
309.571	96.25
309.8	90.25
310.03	106.25
310.26	114.25
310.49	97.25
310.72	89.25
310.949	116.25
311.179	109.25
311.409	95.25
311.639	95.25
311.868	100.25
312.098	100.25
312.328	107.25
312.557	105.25
312.787	93.25
313.017	93.25
313.246	100.25
313.476	90.25
313.706	101.25
313.935	89.25
314.165	100.25
314.394	89.25
314.624	92.25
314.853	102.25
315.083	97.25
315.312	100.25
315.542	98.25
315.771	94.25
316.001	86.25
316.23	94.25
316.46	93.25
316.689	85.25
316.919	89.25
317.148	84.25
317.377	105.25
317.607	92.25
317.836	93.25
318.065	91.25
318.295	89.25
318.524	107.25
318.753	91.25
318.983	90.25
319.212	98.25
319.441	123.25
319.67	113.25
319.9	96.25
320.129	89.25
320.358	105.25
320.587	100.25
320.816	97.25
321.046	97.25
321.275	96.25
321.504	99.25
321.733	101.25
321.962	107.25
322.191	114.25
322.42	101.25
322.649	125.25
322.878	112.25
323.108	119.25
323.337	123.25
323.566	149.25
323.795	161.25
324.024	220.25
324.253	441.25
324.482	895.25
324.71	1880.25
324.939	2540.25
325.168	926.25
325.397	270.25
325.626	165.25
325.855	140.25
326.084	129.25
326.313	141.25
326.542	156.25
326.77	244.25
326.999	492.25
327.228	1019.25
327.457	1895.25
327.686	1530.25
327.914	434.25
328.143	338.25
328.372	362.25
328.6	232.25
328.829	150.25
329.058	136.25
329.287	159.25
329.515	137.25
329.744	165.25
329.972	256.25
330.201	461.25
330.43	701.25
330.658	368.25
330.887	208.25
331.115	146.25
331.344	114.25
331.572	108.25
331.801	103.25
332.03	119.25
332.258	108.25
332.486	99.25
332.715	92.25
332.943	99.25
333.172	90.25
333.4	109.25
333.629	136.25
333.857	148.25
334.085	240.25
334.314	451.25
334.542	864.25
334.771	852.25
334.999	269.25
335.227	134.25
335.455	108.25
335.684	98.25
335.912	104.25
336.14	118.25
336.369	107.25
336.597	103.25
336.825	117.25
337.053	100.25
337.281	74.25
337.51	91.25
337.738	107.25
337.966	105.25
338.194	109.25
338.422	91.25
338.65	89.25
338.878	89.25
339.106	88.25
339.334	91.25
339.562	91.25
339.79	86.25
340.018	80.25
340.246	89.25
340.474	102.25
340.702	83.25
340.93	80.25
341.158	100.25
341.386	106.25
341.614	99.25
341.842	90.25
342.07	98.25
342.298	90.25
342.526	102.25
342.754	96.25
342.981	81.25
343.209	77.25
343.437	93.25
343.665	91.25
343.893	102.25
344.12	105.25
344.348	82.25
344.576	97.25
344.804	85.25
345.031	96.25
345.259	104.25
345.487	101.25
345.714	87.25
345.942	89.25
346.17	100.25
346.397	77.25
346.625	78.25
346.853	88.25
347.08	84.25
347.308	104.25
347.535	101.25
347.763	112.25
347.99	95.25
348.218	111.25
348.445	113.25
348.673	111.25
348.9	93.25
349.128	107.25
349.355	89.25
349.583	93.25
349.81	92.25
350.037	92.25
350.265	94.25
350.492	85.25
350.72	95.25
350.947	102.25
351.174	99.25
351.402	109.25
351.629	97.25
351.856	105.25
352.083	107.25
352.311	93.25
352.538	114.25
352.765	100.25
352.992	109.25
353.22	101.25
353.447	97.25
353.674	99.25
353.901	99.25
354.128	90.25
354.355	94.25
354.583	83.25
354.81	94.25
355.037	97.25
355.264	99.25
355.491	93.25
355.718	89.25
355.945	88.25
356.172	90.25
356.399	104.25
356.626	97.25
356.853	67.25
357.08	95.25
357.307	94.25
357.534	112.25
357.761	101.25
357.988	103.25
358.215	90.25
358.441	71.25
358.668	78.25
358.895	98.25
359.122	92.25
359.349	98.25
359.576	85.25
359.802	108.25
360.029	127.25
360.256	113.25
360.483	108.25
360.709	88.25
360.936	91.25
361.163	83.25
361.39	96.25
361.616	100.25
361.843	86.25
362.07	97.25
362.296	94.25
362.523	87.25
362.749	86.25
362.976	110.25
363.203	103.25
363.429	94.25
363.656	96.25
363.882	94.25
364.109	98.25
364.335	98.25
364.562	80.25
364.788	92.25
365.015	109.25
365.241	112.25
365.468	120.25
365.694	115.25
365.92	104.25
366.147	90.25
366.373	85.25
366.599	91.25
366.826	85.25
367.052	91.25
367.278	88.25
367.505	88.25
367.731	93.25
367.957	87.25
368.184	98.25
368.41	106.25
368.636	116.25
368.862	127.25
369.089	121.25
369.315	92.25
369.541	96.25
369.767	93.25
369.993	85.25
370.219	81.25
370.445	87.25
370.672	97.25
370.898	101.25
371.124	86.25
371.35	92.25
371.576	94.25
371.802	92.25
372.028	90.25
372.254	88.25
372.48	88.25
372.706	99.25
372.932	96.25
373.158	86.25
373.384	97.25
373.61	90.25
373.835	85.25
374.061	98.25
374.287	86.25
374.513	94.25
374.739	93.25
374.965	81.25
375.191	108.25
375.416	85.25
375.642	107.25
375.868	103.25
376.094	92.25
376.319	74.25
376.545	85.25
376.771	98.25
376.997	92.25
377.222	103.25
377.448	102.25
377.674	79.25
377.899	92.25
378.125	82.25
378.35	93.25
378.576	89.25
378.802	84.25
379.027	84.25
379.253	91.25
379.478	93.25
379.704	83.25
379.929	86.25
380.155	87.25
380.38	91.25
380.606	86.25
380.831	92.25
381.057	94.25
381.282	92.25
381.507	94.25
381.733	90.25
381.958	77.25
382.184	96.25
382.409	91.25
382.634	108.25
382.86	98.25
383.085	105.25
383.31	90.25
383.535	78.25
383.761	106.25
383.986	84.25
384.211	91.25
384.436	92.25
384.662	99.25
384.887	104.25
385.112	111.25
385.337	99.25
385.562	108.25
385.787	96.25
386.013	111.25
386.238	104.25
386.463	103.25
386.688	114.25
386.913	101.25
387.138	101.25
387.363	105.25
387.588	95.25
387.813	110.25
388.038	91.25
388.263	114.25
388.488	114.25
388.713	104.25
388.938	95.25
389.163	89.25
389.387	94.25
389.612	94.25
389.837	86.25
390.062	80.25
390.287	98.25
390.512	88.25
390.736	107.25
390.961	91.25
391.186	94.25
391.411	86.25
391.636	97.25
391.86	96.25
392.085	86.25
392.31	91.25
392.534	94.25
392.759	94.25
392.984	93.25
393.208	82.25
393.433	82.25
393.658	80.25
393.882	88.25
394.107	84.25
394.331	75.25
394.556	78.25
394.78	103.25
395.005	94.25
395.229	95.25
395.454	87.25
395.678	89.25
395.903	80.25
396.127	93.25
396.352	87.25
396.576	81.25
396.801	100.25
397.025	90.25
397.249	113.25
397.474	81.25
397.698	83.25
397.922	86.25
398.147	86.25
398.371	96.25
398.595	102.25
398.82	90.25
399.044	88.25
399.268	95.25
399.492	83.25
399.717	85.25
399.941	92.25
400.165	90.25
400.389	101.25
400.613	92.25
400.837	94.25
401.062	105.25
401.286	103.25
401.51	81.25
401.734	85.25
401.958	101.25
402.182	124.25
402.406	162.25
402.63	124.25
402.854	99.25
403.078	93.25
403.302	84.25
403.526	78.25
403.75	102.25
403.974	91.25
404.198	77.25
404.422	90.25
404.645	89.25
404.869	101.25
405.093	108.25
405.317	142.25
405.541	117.25
405.765	97.25
405.988	122.25
406.212	176.25
406.436	238.25
406.66	171.25
406.883	117.25
407.107	105.25
407.331	93.25
407.555	102.25
407.778	108.25
408.002	101.25
408.226	84.25
408.449	99.25
408.673	95.25
408.896	85.25
409.12	112.25
409.344	78.25
409.567	84.25
409.791	94.25
410.014	98.25
410.238	96.25
410.461	83.25
410.685	88.25
410.908	100.25
411.132	115.25
411.355	104.25
411.578	90.25
411.802	82.25
412.025	94.25
412.249	90.25
412.472	94.25
412.695	117.25
412.919	99.25
413.142	104.25
413.365	82.25
413.589	100.25
413.812	92.25
414.035	96.25
414.258	120.25
414.482	99.25
414.705	87.25
414.928	104.25
415.151	94.25
415.374	90.25
415.597	93.25
415.821	97.25
416.044	102.25
416.267	80.25
416.49	80.25
416.713	107.25
416.936	89.25
417.159	86.25
417.382	105.25
417.605	94.25
417.828	97.25
418.051	93.25
418.274	95.25
418.497	90.25
418.72	89.25
418.943	86.25
419.166	91.25
419.389	78.25
419.611	88.25
419.834	101.25
420.057	90.25
420.28	85.25
420.503	92.25
420.726	92.25
420.948	85.25
421.171	96.25
421.394	98.25
421.617	96.25
421.839	95.25
422.062	90.25
422.285	87.25
422.507	99.25
422.73	114.25
422.953	95.25
423.175	86.25
423.398	94.25
423.621	87.25
423.843	90.25
424.066	89.25
424.288	93.25
424.511	100.25
424.733	94.25
424.956	113.25
425.178	105.25
425.401	105.25
425.623	99.25
425.846	104.25
426.068	80.25
426.291	85.25
426.513	93.25
426.735	91.25
426.958	102.25
427.18	125.25
427.402	142.25
427.625	209.25
427.847	190.25
428.069	173.25
428.292	98.25
428.514	78.25
428.736	86.25
428.958	85.25
429.181	84.25
429.403	87.25
429.625	109.25
429.847	97.25
430.069	85.25
430.292	90.25
430.514	89.25
430.736	73.25
430.958	89.25
431.18	89.25
431.402	94.25
431.624	89.25
431.846	88.25
432.068	77.25
432.29	90.25
432.512	89.25
432.734	88.25
432.956	94.25
433.178	102.25
433.4	113.25
433.622	98.25
433.844	89.25
434.066	101.25
434.287	106.25
434.509	101.25
434.731	92.25
434.953	85.25
435.175	87.25
435.397	83.25
435.618	93.25
435.84	108.25
436.062	122.25
436.284	132.25
436.505	99.25
436.727	94.25
436.949	103.25
437.17	79.25
437.392	73.25
437.614	106.25
437.835	118.25
438.057	135.25
438.278	110.25
438.5	109.25
438.721	152.25
438.943	107.25
439.165	99.25
439.386	98.25
439.608	82.25
439.829	109.25
440.05	124.25
440.272	173.25
440.493	97.25
440.715	90.25
440.936	68.25
441.158	94.25
441.379	105.25
441.6	90.25
441.822	100.25
442.043	105.25
442.264	116.25
442.486	107.25
442.707	103.25
442.928	126.25
443.149	144.25
443.371	157.25
443.592	106.25
443.813	115.25
444.034	110.25
444.255	91.25
444.476	86.25
444.698	86.25
444.919	93.25
445.14	127.25
445.361	131.25
445.582	127.25
445.803	165.25
446.024	142.25
446.245	152.25
446.466	123.25
446.687	83.25
446.908	99.25
447.129	102.25
447.35	86.25
447.571	80.25
447.792	93.25
448.013	103.25
448.234	118.25
448.455	104.25
448.675	122.25
448.896	128.25
449.117	123.25
449.338	94.25
449.559	123.25
449.779	156.25
450	102.25
450.221	84.25
450.442	89.25
450.662	105.25
450.883	108.25
451.104	116.25
451.324	94.25
451.545	74.25
451.766	98.25
451.986	90.25
452.207	79.25
452.428	95.25
452.648	104.25
452.869	112.25
453.089	121.25
453.31	124.25
453.53	80.25
453.751	102.25
453.971	114.25
454.192	118.25
454.412	99.25
454.633	99.25
454.853	78.25
455.073	86.25
455.294	88.25
455.514	91.25
455.734	80.25
455.955	94.25
456.175	75.25
456.395	67.25
456.616	99.25
456.836	89.25
457.056	94.25
457.276	94.25
457.497	71.25
457.717	101.25
457.937	89.25
458.157	84.25
458.377	88.25
458.598	119.25
458.818	150.25
459.038	180.25
459.258	125.25
459.478	88.25
459.698	94.25
459.918	90.25
460.138	100.25
460.358	78.25
460.578	81.25
460.798	89.25
461.018	74.25
461.238	81.25
461.458	75.25
461.678	87.25
461.898	84.25
462.118	90.25
462.338	94.25
462.558	85.25
462.777	81.25
462.997	84.25
463.217	93.25
463.437	85.25
463.657	73.25
463.876	91.25
464.096	105.25
464.316	95.25
464.536	92.25
464.755	94.25
464.975	120.25
465.195	173.25
465.414	192.25
465.634	103.25
465.854	80.25
466.073	102.25
466.293	86.25
466.512	85.25
466.732	81.25
466.951	73.25
467.171	96.25
467.391	100.25
467.61	118.25
467.829	148.25
468.049	290.25
468.268	413.25
468.488	140.25
468.707	97.25
468.927	83.25
469.146	95.25
469.365	92.25
469.585	85.25
469.804	98.25
470.023	100.25
470.243	88.25
470.462	107.25
470.681	104.25
470.901	106.25
471.12	87.25
471.339	97.25
471.558	104.25
471.777	107.25
471.997	183.25
472.216	500.25
472.435	1168.25
472.654	322.25
472.873	116.25
473.092	100.25
473.311	92.25
473.53	86.25
473.749	81.25
473.968	86.25
474.187	93.25
474.406	98.25
474.625	86.25
474.844	79.25
475.063	85.25
475.282	96.25
475.501	106.25
475.72	72.25
475.939	91.25
476.158	98.25
476.377	94.25
476.596	85.25
476.814	78.25
477.033	83.25
477.252	89.25
477.471	86.25
477.69	84.25
477.908	92.25
478.127	81.25
478.346	99.25
478.564	99.25
478.783	112.25
479.002	99.25
479.22	97.25
479.439	117.25
479.658	123.25
479.876	92.25
480.095	100.25
480.313	108.25
480.532	133.25
480.751	181.25
480.969	477.25
481.188	1968.25
481.406	1235.25
481.624	233.25
481.843	116.25
482.061	90.25
482.28	96.25
482.498	101.25
482.717	93.25
482.935	82.25
483.153	89.25
483.372	98.25
483.59	94.25
483.808	97.25
484.027	99.25
484.245	101.25
484.463	98.25
484.681	89.25
484.9	105.25
485.118	108.25
485.336	85.25
485.554	105.25
485.772	98.25
485.99	111.25
486.209	106.25
486.427	109.25
486.645	109.25
486.863	127.25
487.081	86.25
487.299	84.25
487.517	115.25
487.735	86.25
487.953	95.25
488.171	98.25
488.389	110.25
488.607	114.25
488.825	87.25
489.043	88.25
489.261	96.25
489.479	90.25
489.696	92.25
489.914	81.25
490.132	90.25
490.35	93.25
490.568	75.25
490.786	79.25
491.003	97.25
491.221	99.25
491.439	73.25
491.657	82.25
491.874	86.25
492.092	91.25
492.31	106.25
492.527	93.25
492.745	95.25
492.963	91.25
493.18	95.25
493.398	97.25
493.615	88.25
493.833	96.25
494.05	93.25
494.268	103.25
494.485	83.25
494.703	94.25
494.92	84.25
495.138	76.25
495.355	99.25
495.573	73.25
495.79	78.25
496.008	93.25
496.225	90.25
496.442	91.25
496.66	85.25
496.877	93.25
497.094	93.25
497.312	89.25
497.529	102.25
497.746	104.25
497.963	75.25
498.181	80.25
498.398	93.25
498.615	92.25
498.832	96.25
499.049	99.25
499.267	104.25
499.484	96.25
499.701	68.25
499.918	80.25
500.135	92.25
500.352	95.25
500.569	94.25
500.786	99.25
501.003	90.25
501.22	82.25
501.437	94.25
501.654	111.25
501.871	115.25
502.088	90.25
502.305	94.25
502.522	78.25
502.739	101.25
502.956	85.25
503.172	97.25
503.389	102.25
503.606	113.25
503.823	85.25
504.04	92.25
504.256	85.25
504.473	86.25
504.69	86.25
504.907	103.25
505.123	96.25
505.34	95.25
505.557	90.25
505.773	83.25
505.99	88.25
506.207	96.25
506.423	83.25
506.64	96.25
506.856	100.25
507.073	92.25
507.289	114.25
507.506	102.25
507.722	113.25
507.939	86.25
508.155	94.25
508.372	100.25
508.588	95.25
508.805	96.25
509.021	93.25
509.238	94.25
509.454	115.25
509.67	102.25
509.887	106.25
510.103	150.25
510.319	213.25
510.536	747.25
510.752	2512.25
510.968	710.25
511.184	153.25
511.401	121.25
511.617	106.25
511.833	85.25
512.049	93.25
512.265	97.25
512.481	94.25
512.698	92.25
512.914	95.25
513.13	94.25
513.346	99.25
513.562	81.25
513.778	95.25
513.994	92.25
514.21	98.25
514.426	112.25
514.642	140.25
