Data from Circ_2007_H10_HRD10591_00077.txt Node
Date: Wed Jan 03 10:22:12 EST 2024
User: Yrep
Spectrometer: HR+D1059
Trigger mode: 1
Integration Time (sec): 1.000000E-1
Scans to average: 1
Electric dark correction enabled: true
Nonlinearity correction enabled: false
Boxcar width: 0
XAxis mode: Wavelengths
Number of Pixels in Spectrum: 2048
>>>>>Begin Spectral Data<<<<<
223.165	-3.56
223.4	-3.56
223.635	-3.56
223.869	-34.56
224.104	-9.56
224.338	-5.56
224.573	-10.56
224.808	-8.56
225.042	-8.56
225.277	-3.56
225.511	-4.56
225.746	0.44
225.98	-15.56
226.215	10.44
226.449	18.44
226.683	16.44
226.918	23.44
227.152	35.44
227.387	44.44
227.621	40.44
227.856	44.44
228.09	50.44
228.324	55.44
228.559	57.44
228.793	55.44
229.027	65.44
229.262	78.44
229.496	76.44
229.73	91.44
229.964	96.44
230.199	78.44
230.433	67.44
230.667	77.44
230.901	79.44
231.136	71.44
231.37	86.44
231.604	74.44
231.838	71.44
232.072	84.44
232.306	66.44
232.541	86.44
232.775	84.44
233.009	89.44
233.243	84.44
233.477	67.44
233.711	81.44
233.945	80.44
234.179	88.44
234.413	90.44
234.647	78.44
234.881	84.44
235.115	88.44
235.349	82.44
235.583	83.44
235.817	69.44
236.051	61.44
236.285	89.44
236.519	81.44
236.753	80.44
236.987	68.44
237.221	81.44
237.455	79.44
237.689	76.44
237.922	87.44
238.156	88.44
238.39	82.44
238.624	72.44
238.858	74.44
239.091	81.44
239.325	76.44
239.559	88.44
239.793	83.44
240.027	80.44
240.26	77.44
240.494	90.44
240.728	81.44
240.961	100.44
241.195	73.44
241.429	79.44
241.662	69.44
241.896	78.44
242.13	67.44
242.363	67.44
242.597	89.44
242.83	83.44
243.064	52.44
243.298	83.44
243.531	86.44
243.765	91.44
243.998	81.44
244.232	82.44
244.465	90.44
244.699	82.44
244.932	73.44
245.166	68.44
245.399	87.44
245.633	66.44
245.866	74.44
246.099	84.44
246.333	86.44
246.566	74.44
246.8	80.44
247.033	87.44
247.266	82.44
247.5	82.44
247.733	75.44
247.966	82.44
248.2	79.44
248.433	76.44
248.666	78.44
248.899	81.44
249.133	78.44
249.366	112.44
249.599	98.44
249.832	88.44
250.066	90.44
250.299	85.44
250.532	84.44
250.765	92.44
250.998	82.44
251.231	70.44
251.465	72.44
251.698	88.44
251.931	82.44
252.164	77.44
252.397	73.44
252.63	85.44
252.863	95.44
253.096	87.44
253.329	75.44
253.562	84.44
253.795	81.44
254.028	70.44
254.261	73.44
254.494	73.44
254.727	73.44
254.96	90.44
255.193	77.44
255.426	80.44
255.659	82.44
255.892	84.44
256.124	93.44
256.357	82.44
256.59	83.44
256.823	67.44
257.056	77.44
257.289	88.44
257.521	67.44
257.754	81.44
257.987	83.44
258.22	96.44
258.452	83.44
258.685	96.44
258.918	87.44
259.151	80.44
259.383	83.44
259.616	81.44
259.849	74.44
260.081	83.44
260.314	74.44
260.547	77.44
260.779	84.44
261.012	92.44
261.244	97.44
261.477	96.44
261.71	103.44
261.942	128.44
262.175	145.44
262.407	95.44
262.64	82.44
262.872	90.44
263.105	82.44
263.337	87.44
263.57	98.44
263.802	92.44
264.035	94.44
264.267	91.44
264.499	90.44
264.732	80.44
264.964	72.44
265.197	83.44
265.429	87.44
265.661	78.44
265.894	88.44
266.126	67.44
266.358	86.44
266.591	73.44
266.823	91.44
267.055	84.44
267.287	92.44
267.52	86.44
267.752	82.44
267.984	85.44
268.216	78.44
268.448	84.44
268.681	76.44
268.913	86.44
269.145	92.44
269.377	75.44
269.609	86.44
269.841	94.44
270.073	87.44
270.306	82.44
270.538	77.44
270.77	80.44
271.002	76.44
271.234	92.44
271.466	90.44
271.698	84.44
271.93	83.44
272.162	91.44
272.394	90.44
272.626	85.44
272.858	79.44
273.09	84.44
273.322	77.44
273.553	101.44
273.785	88.44
274.017	84.44
274.249	86.44
274.481	95.44
274.713	89.44
274.945	92.44
275.176	87.44
275.408	93.44
275.64	102.44
275.872	100.44
276.104	86.44
276.335	90.44
276.567	89.44
276.799	122.44
277.031	149.44
277.262	144.44
277.494	117.44
277.726	84.44
277.957	85.44
278.189	73.44
278.421	88.44
278.652	91.44
278.884	82.44
279.115	83.44
279.347	88.44
279.579	86.44
279.81	116.44
280.042	136.44
280.273	191.44
280.505	132.44
280.736	98.44
280.968	86.44
281.199	91.44
281.431	88.44
281.662	77.44
281.894	86.44
282.125	97.44
282.356	135.44
282.588	161.44
282.819	127.44
283.051	84.44
283.282	105.44
283.513	80.44
283.745	79.44
283.976	84.44
284.207	94.44
284.439	80.44
284.67	94.44
284.901	81.44
285.132	90.44
285.364	84.44
285.595	86.44
285.826	94.44
286.057	90.44
286.288	86.44
286.52	89.44
286.751	77.44
286.982	82.44
287.213	82.44
287.444	94.44
287.675	97.44
287.906	80.44
288.138	90.44
288.369	93.44
288.6	105.44
288.831	90.44
289.062	89.44
289.293	76.44
289.524	88.44
289.755	91.44
289.986	82.44
290.217	86.44
290.448	84.44
290.679	72.44
290.91	88.44
291.141	80.44
291.371	85.44
291.602	83.44
291.833	88.44
292.064	86.44
292.295	86.44
292.526	98.44
292.757	98.44
292.987	88.44
293.218	90.44
293.449	74.44
293.68	102.44
293.91	95.44
294.141	86.44
294.372	85.44
294.603	71.44
294.833	73.44
295.064	95.44
295.295	99.44
295.525	106.44
295.756	99.44
295.987	126.44
296.217	153.44
296.448	142.44
296.679	98.44
296.909	86.44
297.14	84.44
297.37	93.44
297.601	78.44
297.831	81.44
298.062	89.44
298.292	85.44
298.523	94.44
298.753	90.44
298.984	95.44
299.214	94.44
299.445	104.44
299.675	100.44
299.905	90.44
300.136	72.44
300.366	102.44
300.597	89.44
300.827	104.44
301.057	102.44
301.288	102.44
301.518	103.44
301.748	93.44
301.979	91.44
302.209	91.44
302.439	92.44
302.669	87.44
302.9	80.44
303.13	93.44
303.36	95.44
303.59	126.44
303.82	122.44
304.051	98.44
304.281	99.44
304.511	75.44
304.741	98.44
304.971	86.44
305.201	73.44
305.431	81.44
305.661	89.44
305.891	84.44
306.121	86.44
306.352	115.44
306.582	112.44
306.812	103.44
307.042	107.44
307.272	123.44
307.502	153.44
307.731	164.44
307.961	104.44
308.191	106.44
308.421	87.44
308.651	94.44
308.881	97.44
309.111	108.44
309.341	106.44
309.571	118.44
309.8	101.44
310.03	118.44
310.26	107.44
310.49	96.44
310.72	108.44
310.949	104.44
311.179	101.44
311.409	80.44
311.639	89.44
311.868	103.44
312.098	103.44
312.328	99.44
312.557	112.44
312.787	109.44
313.017	117.44
313.246	109.44
313.476	86.44
313.706	90.44
313.935	104.44
314.165	87.44
314.394	99.44
314.624	93.44
314.853	110.44
315.083	111.44
315.312	96.44
315.542	97.44
315.771	90.44
316.001	91.44
316.23	88.44
316.46	92.44
316.689	104.44
316.919	98.44
317.148	109.44
317.377	87.44
317.607	111.44
317.836	89.44
318.065	95.44
318.295	80.44
318.524	75.44
318.753	78.44
318.983	82.44
319.212	111.44
319.441	113.44
319.67	112.44
319.9	100.44
320.129	100.44
320.358	94.44
320.587	97.44
320.816	106.44
321.046	111.44
321.275	96.44
321.504	90.44
321.733	97.44
321.962	111.44
322.191	117.44
322.42	120.44
322.649	122.44
322.878	123.44
323.108	122.44
323.337	151.44
323.566	133.44
323.795	165.44
324.024	238.44
324.253	434.44
324.482	929.44
324.71	1947.44
324.939	2580.44
325.168	976.44
325.397	284.44
325.626	148.44
325.855	129.44
326.084	124.44
326.313	137.44
326.542	174.44
326.77	253.44
326.999	499.44
327.228	1028.44
327.457	1847.44
327.686	1507.44
327.914	476.44
328.143	397.44
328.372	476.44
328.6	295.44
328.829	161.44
329.058	162.44
329.287	185.44
329.515	157.44
329.744	201.44
329.972	331.44
330.201	661.44
330.43	962.44
330.658	482.44
330.887	241.44
331.115	181.44
331.344	135.44
331.572	122.44
331.801	110.44
332.03	113.44
332.258	102.44
332.486	95.44
332.715	111.44
332.943	106.44
333.172	113.44
333.4	120.44
333.629	132.44
333.857	176.44
334.085	289.44
334.314	587.44
334.542	1166.44
334.771	1159.44
334.999	326.44
335.227	146.44
335.455	126.44
335.684	115.44
335.912	102.44
336.14	107.44
336.369	109.44
336.597	99.44
336.825	99.44
337.053	97.44
337.281	104.44
337.51	98.44
337.738	101.44
337.966	88.44
338.194	109.44
338.422	90.44
338.65	86.44
338.878	85.44
339.106	101.44
339.334	102.44
339.562	98.44
339.79	82.44
340.018	91.44
340.246	99.44
340.474	102.44
340.702	99.44
340.93	79.44
341.158	94.44
341.386	101.44
341.614	99.44
341.842	88.44
342.07	80.44
342.298	91.44
342.526	103.44
342.754	106.44
342.981	91.44
343.209	93.44
343.437	104.44
343.665	95.44
343.893	76.44
344.12	91.44
344.348	86.44
344.576	81.44
344.804	91.44
345.031	103.44
345.259	90.44
345.487	108.44
345.714	97.44
345.942	100.44
346.17	103.44
346.397	95.44
346.625	85.44
346.853	89.44
347.08	97.44
347.308	83.44
347.535	102.44
347.763	93.44
347.99	101.44
348.218	106.44
348.445	122.44
348.673	102.44
348.9	93.44
349.128	102.44
349.355	75.44
349.583	82.44
349.81	91.44
350.037	89.44
350.265	98.44
350.492	89.44
350.72	95.44
350.947	95.44
351.174	103.44
351.402	116.44
351.629	110.44
351.856	93.44
352.083	106.44
352.311	116.44
352.538	118.44
352.765	125.44
352.992	121.44
353.22	111.44
353.447	111.44
353.674	104.44
353.901	113.44
354.128	82.44
354.355	94.44
354.583	83.44
354.81	98.44
355.037	90.44
355.264	98.44
355.491	84.44
355.718	73.44
355.945	97.44
356.172	105.44
356.399	87.44
356.626	93.44
356.853	88.44
357.08	73.44
357.307	86.44
357.534	100.44
357.761	86.44
357.988	91.44
358.215	83.44
358.441	107.44
358.668	90.44
358.895	107.44
359.122	95.44
359.349	84.44
359.576	85.44
359.802	105.44
360.029	144.44
360.256	140.44
360.483	121.44
360.709	82.44
360.936	98.44
361.163	104.44
361.39	98.44
361.616	93.44
361.843	93.44
362.07	106.44
362.296	112.44
362.523	80.44
362.749	86.44
362.976	75.44
363.203	79.44
363.429	90.44
363.656	113.44
363.882	96.44
364.109	76.44
364.335	83.44
364.562	96.44
364.788	84.44
365.015	98.44
365.241	94.44
365.468	119.44
365.694	123.44
365.92	113.44
366.147	104.44
366.373	91.44
366.599	97.44
366.826	82.44
367.052	88.44
367.278	88.44
367.505	81.44
367.731	78.44
367.957	108.44
368.184	99.44
368.41	113.44
368.636	108.44
368.862	140.44
369.089	126.44
369.315	95.44
369.541	103.44
369.767	106.44
369.993	90.44
370.219	84.44
370.445	94.44
370.672	94.44
370.898	83.44
371.124	76.44
371.35	88.44
371.576	97.44
371.802	83.44
372.028	87.44
372.254	77.44
372.48	95.44
372.706	84.44
372.932	90.44
373.158	83.44
373.384	88.44
373.61	96.44
373.835	91.44
374.061	96.44
374.287	91.44
374.513	107.44
374.739	89.44
374.965	82.44
375.191	86.44
375.416	93.44
375.642	89.44
375.868	98.44
376.094	91.44
376.319	84.44
376.545	83.44
376.771	79.44
376.997	104.44
377.222	89.44
377.448	76.44
377.674	92.44
377.899	94.44
378.125	91.44
378.35	84.44
378.576	94.44
378.802	89.44
379.027	83.44
379.253	87.44
379.478	101.44
379.704	95.44
379.929	83.44
380.155	88.44
380.38	101.44
380.606	91.44
380.831	82.44
381.057	93.44
381.282	93.44
381.507	88.44
381.733	93.44
381.958	97.44
382.184	90.44
382.409	92.44
382.634	108.44
382.86	88.44
383.085	92.44
383.31	97.44
383.535	89.44
383.761	97.44
383.986	102.44
384.211	84.44
384.436	89.44
384.662	107.44
384.887	95.44
385.112	103.44
385.337	103.44
385.562	110.44
385.787	103.44
386.013	114.44
386.238	114.44
386.463	106.44
386.688	97.44
386.913	103.44
387.138	94.44
387.363	106.44
387.588	98.44
387.813	91.44
388.038	103.44
388.263	87.44
388.488	100.44
388.713	101.44
388.938	91.44
389.163	91.44
389.387	96.44
389.612	85.44
389.837	113.44
390.062	79.44
390.287	84.44
390.512	90.44
390.736	81.44
390.961	98.44
391.186	97.44
391.411	85.44
391.636	82.44
391.86	88.44
392.085	96.44
392.31	87.44
392.534	75.44
392.759	85.44
392.984	94.44
393.208	82.44
393.433	87.44
393.658	76.44
393.882	82.44
394.107	94.44
394.331	84.44
394.556	90.44
394.78	79.44
395.005	82.44
395.229	85.44
395.454	83.44
395.678	80.44
395.903	91.44
396.127	98.44
396.352	78.44
396.576	81.44
396.801	77.44
397.025	104.44
397.249	85.44
397.474	91.44
397.698	99.44
397.922	79.44
398.147	93.44
398.371	67.44
398.595	88.44
398.82	73.44
399.044	80.44
399.268	83.44
399.492	89.44
399.717	90.44
399.941	103.44
400.165	101.44
400.389	83.44
400.613	92.44
400.837	84.44
401.062	90.44
401.286	93.44
401.51	86.44
401.734	88.44
401.958	99.44
402.182	164.44
402.406	203.44
402.63	152.44
402.854	103.44
403.078	93.44
403.302	76.44
403.526	80.44
403.75	91.44
403.974	99.44
404.198	88.44
404.422	84.44
404.645	96.44
404.869	98.44
405.093	107.44
405.317	141.44
405.541	121.44
405.765	114.44
405.988	141.44
406.212	212.44
406.436	314.44
406.66	212.44
406.883	112.44
407.107	114.44
407.331	107.44
407.555	114.44
407.778	97.44
408.002	93.44
408.226	91.44
408.449	87.44
408.673	96.44
408.896	83.44
409.12	105.44
409.344	94.44
409.567	91.44
409.791	81.44
410.014	71.44
410.238	91.44
410.461	88.44
410.685	102.44
410.908	102.44
411.132	100.44
411.355	83.44
411.578	92.44
411.802	95.44
412.025	92.44
412.249	84.44
412.472	124.44
412.695	127.44
412.919	96.44
413.142	89.44
413.365	96.44
413.589	86.44
413.812	78.44
414.035	93.44
414.258	90.44
414.482	85.44
414.705	92.44
414.928	81.44
415.151	95.44
415.374	89.44
415.597	90.44
415.821	92.44
416.044	96.44
416.267	102.44
416.49	79.44
416.713	80.44
416.936	94.44
417.159	83.44
417.382	86.44
417.605	95.44
417.828	103.44
418.051	105.44
418.274	96.44
418.497	84.44
418.72	73.44
418.943	91.44
419.166	91.44
419.389	96.44
419.611	93.44
419.834	94.44
420.057	84.44
420.28	88.44
420.503	79.44
420.726	97.44
420.948	88.44
421.171	98.44
421.394	85.44
421.617	83.44
421.839	96.44
422.062	97.44
422.285	90.44
422.507	112.44
422.73	106.44
422.953	97.44
423.175	90.44
423.398	88.44
423.621	88.44
423.843	97.44
424.066	75.44
424.288	96.44
424.511	96.44
424.733	103.44
424.956	121.44
425.178	103.44
425.401	106.44
425.623	102.44
425.846	93.44
426.068	102.44
426.291	88.44
426.513	100.44
426.735	88.44
426.958	95.44
427.18	108.44
427.402	167.44
427.625	233.44
427.847	217.44
428.069	171.44
428.292	121.44
428.514	91.44
428.736	96.44
428.958	96.44
429.181	73.44
429.403	90.44
429.625	87.44
429.847	96.44
430.069	107.44
430.292	92.44
430.514	84.44
430.736	86.44
430.958	93.44
431.18	83.44
431.402	84.44
431.624	100.44
431.846	76.44
432.068	84.44
432.29	89.44
432.512	92.44
432.734	78.44
432.956	77.44
433.178	86.44
433.4	94.44
433.622	91.44
433.844	99.44
434.066	87.44
434.287	78.44
434.509	90.44
434.731	79.44
434.953	86.44
435.175	99.44
435.397	90.44
435.618	84.44
435.84	95.44
436.062	123.44
436.284	126.44
436.505	89.44
436.727	94.44
436.949	95.44
437.17	95.44
437.392	84.44
437.614	99.44
437.835	111.44
438.057	141.44
438.278	124.44
438.5	117.44
438.721	131.44
438.943	103.44
439.165	87.44
439.386	89.44
439.608	93.44
439.829	111.44
440.05	117.44
440.272	176.44
440.493	108.44
440.715	85.44
440.936	100.44
441.158	88.44
441.379	91.44
441.6	82.44
441.822	95.44
442.043	91.44
442.264	103.44
442.486	118.44
442.707	107.44
442.928	113.44
443.149	161.44
443.371	162.44
443.592	139.44
443.813	133.44
444.034	112.44
444.255	93.44
444.476	61.44
444.698	88.44
444.919	79.44
445.14	132.44
445.361	116.44
445.582	120.44
445.803	164.44
446.024	173.44
446.245	157.44
446.466	119.44
446.687	99.44
446.908	91.44
447.129	90.44
447.35	78.44
447.571	92.44
447.792	106.44
448.013	98.44
448.234	119.44
448.455	108.44
448.675	108.44
448.896	119.44
449.117	111.44
449.338	89.44
449.559	133.44
449.779	152.44
450	103.44
450.221	88.44
450.442	104.44
450.662	95.44
450.883	124.44
451.104	127.44
451.324	98.44
451.545	83.44
451.766	81.44
451.986	75.44
452.207	74.44
452.428	101.44
452.648	116.44
452.869	107.44
453.089	121.44
453.31	154.44
453.53	109.44
453.751	101.44
453.971	113.44
454.192	140.44
454.412	112.44
454.633	91.44
454.853	96.44
455.073	99.44
455.294	87.44
455.514	99.44
455.734	86.44
455.955	84.44
456.175	79.44
456.395	75.44
456.616	76.44
456.836	86.44
457.056	76.44
457.276	76.44
457.497	84.44
457.717	81.44
457.937	77.44
458.157	84.44
458.377	80.44
458.598	113.44
458.818	197.44
459.038	217.44
459.258	143.44
459.478	99.44
459.698	84.44
459.918	96.44
460.138	80.44
460.358	75.44
460.578	90.44
460.798	97.44
461.018	94.44
461.238	76.44
461.458	77.44
461.678	84.44
461.898	88.44
462.118	86.44
462.338	83.44
462.558	91.44
462.777	96.44
462.997	103.44
463.217	93.44
463.437	79.44
463.657	75.44
463.876	88.44
464.096	97.44
464.316	89.44
464.536	98.44
464.755	113.44
464.975	125.44
465.195	222.44
465.414	241.44
465.634	101.44
465.854	96.44
466.073	89.44
466.293	88.44
466.512	94.44
466.732	96.44
466.951	79.44
467.171	100.44
467.391	107.44
467.61	128.44
467.829	169.44
468.049	395.44
468.268	578.44
468.488	171.44
468.707	97.44
468.927	93.44
469.146	81.44
469.365	93.44
469.585	89.44
469.804	96.44
470.023	106.44
470.243	104.44
470.462	120.44
470.681	146.44
470.901	87.44
471.12	82.44
471.339	90.44
471.558	99.44
471.777	128.44
471.997	203.44
472.216	706.44
472.435	1647.44
472.654	452.44
472.873	147.44
473.092	100.44
473.311	106.44
473.53	90.44
473.749	90.44
473.968	90.44
474.187	111.44
474.406	110.44
474.625	80.44
474.844	84.44
475.063	78.44
475.282	86.44
475.501	87.44
475.72	94.44
475.939	99.44
476.158	97.44
476.377	85.44
476.596	98.44
476.814	107.44
477.033	101.44
477.252	92.44
477.471	89.44
477.69	81.44
477.908	94.44
478.127	114.44
478.346	87.44
478.564	98.44
478.783	101.44
479.002	103.44
479.22	119.44
479.439	115.44
479.658	128.44
479.876	115.44
480.095	114.44
480.313	128.44
480.532	123.44
480.751	207.44
480.969	637.44
481.188	2739.44
481.406	1711.44
481.624	273.44
481.843	115.44
482.061	91.44
482.28	102.44
482.498	99.44
482.717	102.44
482.935	87.44
483.153	89.44
483.372	78.44
483.59	93.44
483.808	98.44
484.027	99.44
484.245	83.44
484.463	80.44
484.681	96.44
484.9	91.44
485.118	81.44
485.336	78.44
485.554	72.44
485.772	104.44
485.99	107.44
486.209	104.44
486.427	108.44
486.645	110.44
486.863	142.44
487.081	109.44
487.299	81.44
487.517	91.44
487.735	99.44
487.953	93.44
488.171	99.44
488.389	99.44
488.607	98.44
488.825	84.44
489.043	94.44
489.261	98.44
489.479	87.44
489.696	91.44
489.914	85.44
490.132	92.44
490.35	87.44
490.568	82.44
490.786	102.44
491.003	93.44
491.221	87.44
491.439	90.44
491.657	79.44
491.874	85.44
492.092	84.44
492.31	92.44
492.527	97.44
492.745	93.44
492.963	99.44
493.18	90.44
493.398	89.44
493.615	100.44
493.833	95.44
494.05	83.44
494.268	94.44
494.485	93.44
494.703	78.44
494.92	84.44
495.138	84.44
495.355	85.44
495.573	106.44
495.79	86.44
496.008	93.44
496.225	82.44
496.442	80.44
496.66	79.44
496.877	97.44
497.094	86.44
497.312	88.44
497.529	105.44
497.746	95.44
497.963	88.44
498.181	91.44
498.398	98.44
498.615	107.44
498.832	100.44
499.049	87.44
499.267	93.44
499.484	93.44
499.701	87.44
499.918	79.44
500.135	88.44
500.352	96.44
500.569	82.44
500.786	81.44
501.003	97.44
501.22	91.44
501.437	96.44
501.654	106.44
501.871	120.44
502.088	99.44
502.305	91.44
502.522	95.44
502.739	89.44
502.956	104.44
503.172	82.44
503.389	95.44
503.606	126.44
503.823	100.44
504.04	86.44
504.256	81.44
504.473	82.44
504.69	92.44
504.907	78.44
505.123	83.44
505.34	78.44
505.557	98.44
505.773	94.44
505.99	82.44
506.207	93.44
506.423	94.44
506.64	73.44
506.856	86.44
507.073	81.44
507.289	88.44
507.506	104.44
507.722	134.44
507.939	139.44
508.155	99.44
508.372	84.44
508.588	93.44
508.805	101.44
509.021	103.44
509.238	98.44
509.454	95.44
509.67	105.44
509.887	110.44
510.103	123.44
510.319	240.44
510.536	900.44
510.752	3263.44
510.968	885.44
511.184	186.44
511.401	128.44
511.617	107.44
511.833	103.44
512.049	86.44
512.265	95.44
512.481	73.44
512.698	92.44
512.914	91.44
513.13	79.44
513.346	90.44
513.562	101.44
513.778	115.44
513.994	104.44
514.21	112.44
514.426	143.44
