Data from Circ_2007_H10_HRD10591_00085.txt Node
Date: Wed Jan 03 10:22:14 EST 2024
User: Yrep
Spectrometer: HR+D1059
Trigger mode: 1
Integration Time (sec): 1.000000E-1
Scans to average: 1
Electric dark correction enabled: true
Nonlinearity correction enabled: false
Boxcar width: 0
XAxis mode: Wavelengths
Number of Pixels in Spectrum: 2048
>>>>>Begin Spectral Data<<<<<
223.165	-25.5
223.4	-25.5
223.635	-25.5
223.869	-25.5
224.104	-29.5
224.338	-16.5
224.573	-5.5
224.808	-4.5
225.042	2.5
225.277	-3.5
225.511	8.5
225.746	0.5
225.98	3.5
226.215	16.5
226.449	10.5
226.683	23.5
226.918	23.5
227.152	21.5
227.387	33.5
227.621	35.5
227.856	43.5
228.09	47.5
228.324	40.5
228.559	48.5
228.793	58.5
229.027	70.5
229.262	64.5
229.496	74.5
229.73	93.5
229.964	95.5
230.199	81.5
230.433	73.5
230.667	70.5
230.901	73.5
231.136	72.5
231.37	71.5
231.604	87.5
231.838	82.5
232.072	90.5
232.306	86.5
232.541	87.5
232.775	82.5
233.009	70.5
233.243	85.5
233.477	80.5
233.711	72.5
233.945	75.5
234.179	77.5
234.413	83.5
234.647	77.5
234.881	72.5
235.115	79.5
235.349	78.5
235.583	84.5
235.817	89.5
236.051	80.5
236.285	74.5
236.519	88.5
236.753	82.5
236.987	93.5
237.221	103.5
237.455	83.5
237.689	72.5
237.922	77.5
238.156	74.5
238.39	60.5
238.624	69.5
238.858	74.5
239.091	69.5
239.325	71.5
239.559	69.5
239.793	72.5
240.027	83.5
240.26	84.5
240.494	81.5
240.728	70.5
240.961	82.5
241.195	72.5
241.429	76.5
241.662	71.5
241.896	88.5
242.13	66.5
242.363	82.5
242.597	73.5
242.83	89.5
243.064	73.5
243.298	67.5
243.531	81.5
243.765	76.5
243.998	78.5
244.232	67.5
244.465	82.5
244.699	76.5
244.932	83.5
245.166	74.5
245.399	58.5
245.633	70.5
245.866	87.5
246.099	86.5
246.333	86.5
246.566	81.5
246.8	77.5
247.033	72.5
247.266	74.5
247.5	71.5
247.733	85.5
247.966	78.5
248.2	76.5
248.433	80.5
248.666	88.5
248.899	80.5
249.133	86.5
249.366	100.5
249.599	88.5
249.832	96.5
250.066	81.5
250.299	98.5
250.532	92.5
250.765	80.5
250.998	79.5
251.231	86.5
251.465	92.5
251.698	86.5
251.931	75.5
252.164	71.5
252.397	77.5
252.63	74.5
252.863	79.5
253.096	91.5
253.329	91.5
253.562	84.5
253.795	79.5
254.028	82.5
254.261	88.5
254.494	79.5
254.727	76.5
254.96	90.5
255.193	77.5
255.426	81.5
255.659	79.5
255.892	93.5
256.124	94.5
256.357	88.5
256.59	90.5
256.823	68.5
257.056	98.5
257.289	92.5
257.521	75.5
257.754	79.5
257.987	74.5
258.22	91.5
258.452	88.5
258.685	90.5
258.918	84.5
259.151	84.5
259.383	68.5
259.616	79.5
259.849	89.5
260.081	87.5
260.314	80.5
260.547	96.5
260.779	78.5
261.012	99.5
261.244	100.5
261.477	95.5
261.71	92.5
261.942	147.5
262.175	152.5
262.407	101.5
262.64	72.5
262.872	86.5
263.105	75.5
263.337	81.5
263.57	75.5
263.802	87.5
264.035	98.5
264.267	86.5
264.499	77.5
264.732	91.5
264.964	72.5
265.197	91.5
265.429	82.5
265.661	67.5
265.894	79.5
266.126	78.5
266.358	73.5
266.591	85.5
266.823	74.5
267.055	93.5
267.287	81.5
267.52	81.5
267.752	78.5
267.984	82.5
268.216	83.5
268.448	102.5
268.681	96.5
268.913	87.5
269.145	90.5
269.377	83.5
269.609	74.5
269.841	85.5
270.073	75.5
270.306	79.5
270.538	76.5
270.77	69.5
271.002	80.5
271.234	93.5
271.466	81.5
271.698	78.5
271.93	81.5
272.162	99.5
272.394	80.5
272.626	81.5
272.858	87.5
273.09	72.5
273.322	71.5
273.553	70.5
273.785	79.5
274.017	80.5
274.249	92.5
274.481	85.5
274.713	98.5
274.945	98.5
275.176	82.5
275.408	120.5
275.64	102.5
275.872	118.5
276.104	106.5
276.335	102.5
276.567	123.5
276.799	134.5
277.031	176.5
277.262	180.5
277.494	137.5
277.726	97.5
277.957	103.5
278.189	75.5
278.421	89.5
278.652	66.5
278.884	81.5
279.115	104.5
279.347	92.5
279.579	95.5
279.81	127.5
280.042	183.5
280.273	242.5
280.505	165.5
280.736	104.5
280.968	93.5
281.199	100.5
281.431	101.5
281.662	69.5
281.894	87.5
282.125	98.5
282.356	136.5
282.588	178.5
282.819	147.5
283.051	83.5
283.282	81.5
283.513	97.5
283.745	75.5
283.976	89.5
284.207	83.5
284.439	91.5
284.67	83.5
284.901	75.5
285.132	77.5
285.364	96.5
285.595	86.5
285.826	89.5
286.057	81.5
286.288	92.5
286.52	79.5
286.751	74.5
286.982	84.5
287.213	69.5
287.444	73.5
287.675	96.5
287.906	100.5
288.138	88.5
288.369	103.5
288.6	99.5
288.831	94.5
289.062	98.5
289.293	82.5
289.524	78.5
289.755	70.5
289.986	82.5
290.217	76.5
290.448	84.5
290.679	81.5
290.91	89.5
291.141	91.5
291.371	93.5
291.602	78.5
291.833	82.5
292.064	81.5
292.295	88.5
292.526	97.5
292.757	107.5
292.987	94.5
293.218	75.5
293.449	92.5
293.68	85.5
293.91	86.5
294.141	91.5
294.372	89.5
294.603	92.5
294.833	91.5
295.064	88.5
295.295	88.5
295.525	81.5
295.756	101.5
295.987	128.5
296.217	182.5
296.448	146.5
296.679	105.5
296.909	90.5
297.14	89.5
297.37	78.5
297.601	79.5
297.831	85.5
298.062	105.5
298.292	91.5
298.523	92.5
298.753	86.5
298.984	90.5
299.214	92.5
299.445	96.5
299.675	99.5
299.905	98.5
300.136	99.5
300.366	97.5
300.597	91.5
300.827	103.5
301.057	103.5
301.288	136.5
301.518	101.5
301.748	92.5
301.979	102.5
302.209	114.5
302.439	107.5
302.669	83.5
302.9	99.5
303.13	92.5
303.36	98.5
303.59	144.5
303.82	153.5
304.051	103.5
304.281	88.5
304.511	98.5
304.741	85.5
304.971	84.5
305.201	75.5
305.431	88.5
305.661	90.5
305.891	86.5
306.121	90.5
306.352	116.5
306.582	119.5
306.812	95.5
307.042	110.5
307.272	140.5
307.502	161.5
307.731	164.5
307.961	114.5
308.191	89.5
308.421	88.5
308.651	102.5
308.881	110.5
309.111	100.5
309.341	100.5
309.571	94.5
309.8	93.5
310.03	89.5
310.26	114.5
310.49	88.5
310.72	114.5
310.949	125.5
311.179	111.5
311.409	95.5
311.639	84.5
311.868	99.5
312.098	92.5
312.328	103.5
312.557	125.5
312.787	134.5
313.017	129.5
313.246	120.5
313.476	97.5
313.706	100.5
313.935	106.5
314.165	101.5
314.394	110.5
314.624	115.5
314.853	108.5
315.083	104.5
315.312	97.5
315.542	87.5
315.771	103.5
316.001	83.5
316.23	73.5
316.46	89.5
316.689	90.5
316.919	97.5
317.148	105.5
317.377	97.5
317.607	96.5
317.836	102.5
318.065	90.5
318.295	84.5
318.524	97.5
318.753	100.5
318.983	100.5
319.212	122.5
319.441	127.5
319.67	127.5
319.9	88.5
320.129	97.5
320.358	108.5
320.587	95.5
320.816	110.5
321.046	105.5
321.275	85.5
321.504	107.5
321.733	100.5
321.962	87.5
322.191	109.5
322.42	110.5
322.649	137.5
322.878	134.5
323.108	134.5
323.337	160.5
323.566	169.5
323.795	204.5
324.024	251.5
324.253	482.5
324.482	1026.5
324.71	2033.5
324.939	2730.5
325.168	1046.5
325.397	285.5
325.626	164.5
325.855	152.5
326.084	127.5
326.313	164.5
326.542	186.5
326.77	253.5
326.999	495.5
327.228	1015.5
327.457	1898.5
327.686	1552.5
327.914	532.5
328.143	507.5
328.372	634.5
328.6	353.5
328.829	197.5
329.058	212.5
329.287	226.5
329.515	194.5
329.744	229.5
329.972	432.5
330.201	866.5
330.43	1308.5
330.658	630.5
330.887	312.5
331.115	202.5
331.344	138.5
331.572	123.5
331.801	136.5
332.03	136.5
332.258	118.5
332.486	104.5
332.715	102.5
332.943	109.5
333.172	129.5
333.4	119.5
333.629	173.5
333.857	229.5
334.085	398.5
334.314	799.5
334.542	1569.5
334.771	1511.5
334.999	400.5
335.227	168.5
335.455	123.5
335.684	108.5
335.912	115.5
336.14	103.5
336.369	109.5
336.597	128.5
336.825	106.5
337.053	106.5
337.281	98.5
337.51	92.5
337.738	116.5
337.966	110.5
338.194	103.5
338.422	111.5
338.65	92.5
338.878	110.5
339.106	98.5
339.334	94.5
339.562	89.5
339.79	86.5
340.018	83.5
340.246	108.5
340.474	135.5
340.702	96.5
340.93	97.5
341.158	97.5
341.386	110.5
341.614	98.5
341.842	94.5
342.07	98.5
342.298	89.5
342.526	95.5
342.754	90.5
342.981	90.5
343.209	96.5
343.437	100.5
343.665	77.5
343.893	93.5
344.12	100.5
344.348	91.5
344.576	89.5
344.804	88.5
345.031	92.5
345.259	111.5
345.487	106.5
345.714	97.5
345.942	95.5
346.17	96.5
346.397	96.5
346.625	101.5
346.853	104.5
347.08	100.5
347.308	107.5
347.535	117.5
347.763	115.5
347.99	98.5
348.218	124.5
348.445	128.5
348.673	131.5
348.9	109.5
349.128	102.5
349.355	88.5
349.583	81.5
349.81	107.5
350.037	107.5
350.265	101.5
350.492	92.5
350.72	112.5
350.947	108.5
351.174	110.5
351.402	122.5
351.629	111.5
351.856	112.5
352.083	103.5
352.311	128.5
352.538	134.5
352.765	127.5
352.992	125.5
353.22	119.5
353.447	94.5
353.674	99.5
353.901	102.5
354.128	88.5
354.355	99.5
354.583	98.5
354.81	88.5
355.037	105.5
355.264	92.5
355.491	89.5
355.718	91.5
355.945	92.5
356.172	85.5
356.399	91.5
356.626	89.5
356.853	87.5
357.08	87.5
357.307	96.5
357.534	92.5
357.761	88.5
357.988	91.5
358.215	99.5
358.441	103.5
358.668	97.5
358.895	79.5
359.122	81.5
359.349	87.5
359.576	105.5
359.802	135.5
360.029	158.5
360.256	159.5
360.483	132.5
360.709	82.5
360.936	114.5
361.163	106.5
361.39	112.5
361.616	90.5
361.843	98.5
362.07	90.5
362.296	119.5
362.523	90.5
362.749	109.5
362.976	103.5
363.203	95.5
363.429	94.5
363.656	102.5
363.882	99.5
364.109	97.5
364.335	94.5
364.562	97.5
364.788	111.5
365.015	106.5
365.241	120.5
365.468	134.5
365.694	118.5
365.92	106.5
366.147	103.5
366.373	97.5
366.599	83.5
366.826	98.5
367.052	81.5
367.278	99.5
367.505	107.5
367.731	104.5
367.957	97.5
368.184	107.5
368.41	106.5
368.636	128.5
368.862	154.5
369.089	120.5
369.315	114.5
369.541	106.5
369.767	93.5
369.993	99.5
370.219	84.5
370.445	83.5
370.672	86.5
370.898	78.5
371.124	105.5
371.35	92.5
371.576	84.5
371.802	81.5
372.028	81.5
372.254	103.5
372.48	76.5
372.706	77.5
372.932	82.5
373.158	83.5
373.384	64.5
373.61	94.5
373.835	100.5
374.061	90.5
374.287	104.5
374.513	84.5
374.739	88.5
374.965	83.5
375.191	104.5
375.416	83.5
375.642	79.5
375.868	84.5
376.094	86.5
376.319	97.5
376.545	78.5
376.771	91.5
376.997	91.5
377.222	82.5
377.448	88.5
377.674	105.5
377.899	91.5
378.125	82.5
378.35	64.5
378.576	94.5
378.802	83.5
379.027	84.5
379.253	95.5
379.478	96.5
379.704	90.5
379.929	96.5
380.155	95.5
380.38	91.5
380.606	81.5
380.831	84.5
381.057	98.5
381.282	84.5
381.507	102.5
381.733	92.5
381.958	91.5
382.184	97.5
382.409	115.5
382.634	121.5
382.86	104.5
383.085	101.5
383.31	97.5
383.535	102.5
383.761	102.5
383.986	95.5
384.211	93.5
384.436	91.5
384.662	97.5
384.887	98.5
385.112	103.5
385.337	121.5
385.562	107.5
385.787	103.5
386.013	117.5
386.238	115.5
386.463	114.5
386.688	116.5
386.913	106.5
387.138	79.5
387.363	107.5
387.588	114.5
387.813	110.5
388.038	113.5
388.263	123.5
388.488	114.5
388.713	97.5
388.938	111.5
389.163	95.5
389.387	94.5
389.612	97.5
389.837	87.5
390.062	86.5
390.287	88.5
390.512	87.5
390.736	82.5
390.961	80.5
391.186	91.5
391.411	89.5
391.636	83.5
391.86	100.5
392.085	87.5
392.31	93.5
392.534	85.5
392.759	95.5
392.984	90.5
393.208	85.5
393.433	91.5
393.658	85.5
393.882	75.5
394.107	95.5
394.331	83.5
394.556	81.5
394.78	100.5
395.005	71.5
395.229	87.5
395.454	95.5
395.678	77.5
395.903	93.5
396.127	91.5
396.352	101.5
396.576	78.5
396.801	92.5
397.025	91.5
397.249	97.5
397.474	100.5
397.698	91.5
397.922	78.5
398.147	89.5
398.371	78.5
398.595	91.5
398.82	92.5
399.044	80.5
399.268	90.5
399.492	86.5
399.717	99.5
399.941	79.5
400.165	89.5
400.389	83.5
400.613	80.5
400.837	88.5
401.062	87.5
401.286	82.5
401.51	90.5
401.734	95.5
401.958	122.5
402.182	166.5
402.406	230.5
402.63	178.5
402.854	131.5
403.078	105.5
403.302	90.5
403.526	92.5
403.75	105.5
403.974	99.5
404.198	82.5
404.422	95.5
404.645	93.5
404.869	88.5
405.093	115.5
405.317	141.5
405.541	136.5
405.765	123.5
405.988	154.5
406.212	249.5
406.436	383.5
406.66	243.5
406.883	140.5
407.107	108.5
407.331	106.5
407.555	114.5
407.778	114.5
408.002	101.5
408.226	98.5
408.449	88.5
408.673	92.5
408.896	105.5
409.12	91.5
409.344	80.5
409.567	84.5
409.791	105.5
410.014	95.5
410.238	96.5
410.461	89.5
410.685	104.5
410.908	99.5
411.132	114.5
411.355	103.5
411.578	87.5
411.802	88.5
412.025	93.5
412.249	98.5
412.472	106.5
412.695	124.5
412.919	108.5
413.142	92.5
413.365	70.5
413.589	90.5
413.812	90.5
414.035	82.5
414.258	92.5
414.482	89.5
414.705	98.5
414.928	81.5
415.151	82.5
415.374	90.5
415.597	84.5
415.821	90.5
416.044	106.5
416.267	82.5
416.49	98.5
416.713	87.5
416.936	90.5
417.159	79.5
417.382	99.5
417.605	115.5
417.828	113.5
418.051	97.5
418.274	87.5
418.497	97.5
418.72	83.5
418.943	91.5
419.166	81.5
419.389	86.5
419.611	90.5
419.834	86.5
420.057	100.5
420.28	84.5
420.503	99.5
420.726	67.5
420.948	110.5
421.171	89.5
421.394	97.5
421.617	96.5
421.839	99.5
422.062	79.5
422.285	91.5
422.507	96.5
422.73	92.5
422.953	92.5
423.175	95.5
423.398	80.5
423.621	79.5
423.843	97.5
424.066	99.5
424.288	87.5
424.511	86.5
424.733	91.5
424.956	107.5
425.178	110.5
425.401	113.5
425.623	102.5
425.846	100.5
426.068	102.5
426.291	97.5
426.513	101.5
426.735	102.5
426.958	108.5
427.18	102.5
427.402	188.5
427.625	291.5
427.847	233.5
428.069	188.5
428.292	124.5
428.514	90.5
428.736	79.5
428.958	89.5
429.181	92.5
429.403	95.5
429.625	90.5
429.847	105.5
430.069	107.5
430.292	92.5
430.514	68.5
430.736	82.5
430.958	69.5
431.18	78.5
431.402	78.5
431.624	83.5
431.846	85.5
432.068	87.5
432.29	92.5
432.512	94.5
432.734	95.5
432.956	93.5
433.178	98.5
433.4	88.5
433.622	92.5
433.844	79.5
434.066	110.5
434.287	98.5
434.509	92.5
434.731	89.5
434.953	95.5
435.175	80.5
435.397	92.5
435.618	108.5
435.84	104.5
436.062	144.5
436.284	123.5
436.505	100.5
436.727	84.5
436.949	92.5
437.17	88.5
437.392	106.5
437.614	103.5
437.835	132.5
438.057	165.5
438.278	145.5
438.5	122.5
438.721	139.5
438.943	101.5
439.165	85.5
439.386	88.5
439.608	90.5
439.829	111.5
440.05	152.5
440.272	203.5
440.493	122.5
440.715	109.5
440.936	97.5
441.158	97.5
441.379	93.5
441.6	111.5
441.822	109.5
442.043	95.5
442.264	127.5
442.486	126.5
442.707	102.5
442.928	114.5
443.149	191.5
443.371	169.5
443.592	138.5
443.813	134.5
444.034	113.5
444.255	102.5
444.476	98.5
444.698	86.5
444.919	85.5
445.14	138.5
445.361	131.5
445.582	148.5
445.803	194.5
446.024	177.5
446.245	178.5
446.466	131.5
446.687	103.5
446.908	101.5
447.129	100.5
447.35	85.5
447.571	97.5
447.792	110.5
448.013	112.5
448.234	133.5
448.455	126.5
448.675	141.5
448.896	156.5
449.117	100.5
449.338	122.5
449.559	136.5
449.779	154.5
450	92.5
450.221	91.5
450.442	86.5
450.662	112.5
450.883	134.5
451.104	165.5
451.324	123.5
451.545	106.5
451.766	80.5
451.986	91.5
452.207	99.5
452.428	92.5
452.648	131.5
452.869	142.5
453.089	148.5
453.31	150.5
453.53	98.5
453.751	92.5
453.971	127.5
454.192	140.5
454.412	102.5
454.633	92.5
454.853	76.5
455.073	90.5
455.294	100.5
455.514	102.5
455.734	112.5
455.955	91.5
456.175	84.5
456.395	90.5
456.616	88.5
456.836	90.5
457.056	80.5
457.276	76.5
457.497	83.5
457.717	82.5
457.937	86.5
458.157	82.5
458.377	107.5
458.598	142.5
458.818	247.5
459.038	267.5
459.258	163.5
459.478	100.5
459.698	90.5
459.918	88.5
460.138	84.5
460.358	84.5
460.578	107.5
460.798	100.5
461.018	90.5
461.238	89.5
461.458	79.5
461.678	94.5
461.898	97.5
462.118	81.5
462.338	85.5
462.558	81.5
462.777	88.5
462.997	88.5
463.217	103.5
463.437	88.5
463.657	98.5
463.876	97.5
464.096	96.5
464.316	107.5
464.536	105.5
464.755	103.5
464.975	144.5
465.195	269.5
465.414	283.5
465.634	136.5
465.854	102.5
466.073	92.5
466.293	86.5
466.512	90.5
466.732	100.5
466.951	99.5
467.171	88.5
467.391	118.5
467.61	161.5
467.829	199.5
468.049	499.5
468.268	749.5
468.488	214.5
468.707	119.5
468.927	87.5
469.146	97.5
469.365	85.5
469.585	94.5
469.804	109.5
470.023	124.5
470.243	114.5
470.462	116.5
470.681	148.5
470.901	100.5
471.12	97.5
471.339	106.5
471.558	106.5
471.777	123.5
471.997	244.5
472.216	941.5
472.435	2161.5
472.654	528.5
472.873	153.5
473.092	107.5
473.311	82.5
473.53	89.5
473.749	89.5
473.968	121.5
474.187	136.5
474.406	122.5
474.625	93.5
474.844	93.5
475.063	84.5
475.282	88.5
475.501	82.5
475.72	103.5
475.939	95.5
476.158	98.5
476.377	87.5
476.596	96.5
476.814	109.5
477.033	104.5
477.252	89.5
477.471	89.5
477.69	97.5
477.908	92.5
478.127	79.5
478.346	99.5
478.564	108.5
478.783	120.5
479.002	112.5
479.22	108.5
479.439	135.5
479.658	126.5
479.876	115.5
480.095	117.5
480.313	122.5
480.532	159.5
480.751	256.5
480.969	875.5
481.188	3678.5
481.406	2232.5
481.624	341.5
481.843	132.5
482.061	90.5
482.28	83.5
482.498	91.5
482.717	92.5
482.935	101.5
483.153	84.5
483.372	89.5
483.59	93.5
483.808	94.5
484.027	86.5
484.245	96.5
484.463	94.5
484.681	98.5
484.9	91.5
485.118	98.5
485.336	99.5
485.554	80.5
485.772	104.5
485.99	99.5
486.209	125.5
486.427	108.5
486.645	126.5
486.863	134.5
487.081	119.5
487.299	103.5
487.517	112.5
487.735	90.5
487.953	99.5
488.171	94.5
488.389	86.5
488.607	94.5
488.825	105.5
489.043	96.5
489.261	94.5
489.479	90.5
489.696	82.5
489.914	83.5
490.132	98.5
490.35	90.5
490.568	99.5
490.786	88.5
491.003	94.5
491.221	90.5
491.439	103.5
491.657	102.5
491.874	106.5
492.092	94.5
492.31	94.5
492.527	103.5
492.745	103.5
492.963	88.5
493.18	86.5
493.398	102.5
493.615	102.5
493.833	105.5
494.05	104.5
494.268	95.5
494.485	94.5
494.703	90.5
494.92	94.5
495.138	89.5
495.355	97.5
495.573	80.5
495.79	89.5
496.008	99.5
496.225	82.5
496.442	91.5
496.66	94.5
496.877	101.5
497.094	93.5
497.312	88.5
497.529	83.5
497.746	79.5
497.963	89.5
498.181	101.5
498.398	97.5
498.615	130.5
498.832	103.5
499.049	97.5
499.267	107.5
499.484	87.5
499.701	95.5
499.918	89.5
500.135	81.5
500.352	93.5
500.569	86.5
500.786	77.5
501.003	96.5
501.22	91.5
501.437	89.5
501.654	116.5
501.871	147.5
502.088	104.5
502.305	90.5
502.522	87.5
502.739	93.5
502.956	85.5
503.172	83.5
503.389	96.5
503.606	128.5
503.823	116.5
504.04	109.5
504.256	110.5
504.473	90.5
504.69	84.5
504.907	106.5
505.123	102.5
505.34	92.5
505.557	102.5
505.773	98.5
505.99	84.5
506.207	95.5
506.423	76.5
506.64	90.5
506.856	98.5
507.073	101.5
507.289	93.5
507.506	107.5
507.722	145.5
507.939	148.5
508.155	109.5
508.372	91.5
508.588	105.5
508.805	88.5
509.021	105.5
509.238	99.5
509.454	103.5
509.67	107.5
509.887	110.5
510.103	153.5
510.319	281.5
510.536	1083.5
510.752	4036.5
510.968	1070.5
511.184	202.5
511.401	146.5
511.617	113.5
511.833	113.5
512.049	108.5
512.265	96.5
512.481	80.5
512.698	102.5
512.914	103.5
513.13	99.5
513.346	101.5
513.562	97.5
513.778	97.5
513.994	114.5
514.21	106.5
514.426	152.5
514.642	215.5
514.858	182.5
515.074	246.5
515.29	871.5
515.506	3314.5
515.721	1185.5
515.937	262.5
516.153	155.5
516.369	118.5
516.585	91.5
516.801	115.5
517.016	104.5
517.232	90.5
517.448	112.5
517.664	91.5
517.879	97.5
518.095	97.5
518.311	112.5
518.527	99.5
518.742	95.5
518.958	103.5
519.173	96.5
519.389	102.5
519.605	88.5
519.82	96.5
520.036	101.5
520.251	159.5
520.467	149.5
520.682	134.5
520.898	135.5
521.113	152.5
521.329	221.5
521.544	351.5
521.76	1110.5
521.975	5484.5
522.19	3336.5
522.406	624.5
522.621	199.5
522.836	118.5
523.052	103.5
523.267	107.5
523.482	109.5
523.698	130.5
523.913	157.5
524.128	136.5
524.343	98.5
524.559	102.5
524.774	96.5
524.989	107.5
525.204	127.5
525.419	110.5
525.634	104.5
525.849	84.5
526.064	100.5
526.28	94.5
526.495	89.5
526.71	87.5
526.925	82.5
527.14	83.5
527.355	94.5
527.57	91.5
527.785	81.5
527.999	79.5
528.214	77.5
528.429	90.5
528.644	103.5
528.859	90.5
529.074	91.5
529.289	185.5
529.503	334.5
529.718	114.5
529.933	96.5
530.148	114.5
530.363	96.5
530.577	94.5
530.792	88.5
531.007	95.5
531.221	106.5
531.436	78.5
531.651	78.5
531.865	84.5
532.08	84.5
