Data from Circ_2007_H10_HRD10591_00005.txt Node
Date: Wed Jan 03 10:21:58 EST 2024
User: Yrep
Spectrometer: HR+D1059
Trigger mode: 1
Integration Time (sec): 1.000000E-1
Scans to average: 1
Electric dark correction enabled: true
Nonlinearity correction enabled: false
Boxcar width: 0
XAxis mode: Wavelengths
Number of Pixels in Spectrum: 2048
>>>>>Begin Spectral Data<<<<<
223.165	-26.44
223.4	-26.44
223.635	-26.44
223.869	-25.44
224.104	-20.44
224.338	-21.44
224.573	-8.44
224.808	-17.44
225.042	6.56
225.277	3.56
225.511	8.56
225.746	-6.44
225.98	8.56
226.215	11.56
226.449	15.56
226.683	16.56
226.918	25.56
227.152	29.56
227.387	28.56
227.621	22.56
227.856	51.56
228.09	43.56
228.324	42.56
228.559	58.56
228.793	57.56
229.027	64.56
229.262	68.56
229.496	72.56
229.73	86.56
229.964	88.56
230.199	79.56
230.433	56.56
230.667	77.56
230.901	45.56
231.136	79.56
231.37	69.56
231.604	87.56
231.838	76.56
232.072	79.56
232.306	77.56
232.541	81.56
232.775	84.56
233.009	73.56
233.243	80.56
233.477	87.56
233.711	86.56
233.945	69.56
234.179	87.56
234.413	85.56
234.647	67.56
234.881	75.56
235.115	69.56
235.349	65.56
235.583	71.56
235.817	93.56
236.051	87.56
236.285	91.56
236.519	79.56
236.753	75.56
236.987	61.56
237.221	92.56
237.455	81.56
237.689	78.56
237.922	82.56
238.156	76.56
238.39	71.56
238.624	67.56
238.858	82.56
239.091	68.56
239.325	85.56
239.559	80.56
239.793	89.56
240.027	78.56
240.26	75.56
240.494	65.56
240.728	77.56
240.961	72.56
241.195	77.56
241.429	81.56
241.662	74.56
241.896	85.56
242.13	71.56
242.363	73.56
242.597	76.56
242.83	72.56
243.064	84.56
243.298	91.56
243.531	88.56
243.765	66.56
243.998	79.56
244.232	73.56
244.465	91.56
244.699	72.56
244.932	85.56
245.166	62.56
245.399	79.56
245.633	66.56
245.866	77.56
246.099	77.56
246.333	70.56
246.566	71.56
246.8	65.56
247.033	74.56
247.266	86.56
247.5	81.56
247.733	85.56
247.966	88.56
248.2	90.56
248.433	79.56
248.666	82.56
248.899	78.56
249.133	81.56
249.366	95.56
249.599	98.56
249.832	81.56
250.066	89.56
250.299	95.56
250.532	73.56
250.765	81.56
250.998	63.56
251.231	79.56
251.465	80.56
251.698	79.56
251.931	79.56
252.164	80.56
252.397	81.56
252.63	70.56
252.863	65.56
253.096	93.56
253.329	86.56
253.562	98.56
253.795	71.56
254.028	63.56
254.261	85.56
254.494	83.56
254.727	73.56
254.96	85.56
255.193	70.56
255.426	76.56
255.659	78.56
255.892	94.56
256.124	93.56
256.357	77.56
256.59	79.56
256.823	75.56
257.056	89.56
257.289	81.56
257.521	90.56
257.754	98.56
257.987	84.56
258.22	97.56
258.452	92.56
258.685	74.56
258.918	91.56
259.151	77.56
259.383	78.56
259.616	75.56
259.849	92.56
260.081	79.56
260.314	91.56
260.547	85.56
260.779	90.56
261.012	73.56
261.244	90.56
261.477	81.56
261.71	92.56
261.942	127.56
262.175	143.56
262.407	95.56
262.64	78.56
262.872	82.56
263.105	76.56
263.337	80.56
263.57	69.56
263.802	93.56
264.035	76.56
264.267	90.56
264.499	82.56
264.732	83.56
264.964	79.56
265.197	56.56
265.429	90.56
265.661	80.56
265.894	76.56
266.126	100.56
266.358	82.56
266.591	79.56
266.823	68.56
267.055	84.56
267.287	81.56
267.52	93.56
267.752	78.56
267.984	67.56
268.216	87.56
268.448	75.56
268.681	70.56
268.913	86.56
269.145	80.56
269.377	92.56
269.609	85.56
269.841	75.56
270.073	94.56
270.306	71.56
270.538	90.56
270.77	98.56
271.002	83.56
271.234	83.56
271.466	83.56
271.698	74.56
271.93	87.56
272.162	85.56
272.394	95.56
272.626	90.56
272.858	105.56
273.09	76.56
273.322	96.56
273.553	85.56
273.785	78.56
274.017	96.56
274.249	76.56
274.481	88.56
274.713	93.56
274.945	83.56
275.176	66.56
275.408	94.56
275.64	106.56
275.872	103.56
276.104	98.56
276.335	85.56
276.567	100.56
276.799	130.56
277.031	123.56
277.262	131.56
277.494	107.56
277.726	93.56
277.957	99.56
278.189	85.56
278.421	78.56
278.652	76.56
278.884	99.56
279.115	82.56
279.347	81.56
279.579	97.56
279.81	108.56
280.042	156.56
280.273	172.56
280.505	121.56
280.736	100.56
280.968	87.56
281.199	89.56
281.431	92.56
281.662	81.56
281.894	80.56
282.125	108.56
282.356	140.56
282.588	150.56
282.819	128.56
283.051	105.56
283.282	76.56
283.513	81.56
283.745	70.56
283.976	87.56
284.207	87.56
284.439	88.56
284.67	98.56
284.901	95.56
285.132	84.56
285.364	77.56
285.595	99.56
285.826	80.56
286.057	94.56
286.288	99.56
286.52	81.56
286.751	83.56
286.982	85.56
287.213	90.56
287.444	83.56
287.675	87.56
287.906	86.56
288.138	100.56
288.369	88.56
288.6	103.56
288.831	90.56
289.062	89.56
289.293	98.56
289.524	85.56
289.755	93.56
289.986	82.56
290.217	83.56
290.448	88.56
290.679	89.56
290.91	87.56
291.141	92.56
291.371	72.56
291.602	94.56
291.833	83.56
292.064	93.56
292.295	85.56
292.526	92.56
292.757	84.56
292.987	89.56
293.218	80.56
293.449	79.56
293.68	75.56
293.91	77.56
294.141	93.56
294.372	81.56
294.603	89.56
294.833	93.56
295.064	74.56
295.295	101.56
295.525	104.56
295.756	97.56
295.987	133.56
296.217	149.56
296.448	131.56
296.679	97.56
296.909	84.56
297.14	96.56
297.37	77.56
297.601	89.56
297.831	84.56
298.062	92.56
298.292	103.56
298.523	93.56
298.753	74.56
298.984	83.56
299.214	80.56
299.445	101.56
299.675	86.56
299.905	87.56
300.136	88.56
300.366	99.56
300.597	88.56
300.827	85.56
301.057	100.56
301.288	105.56
301.518	105.56
301.748	96.56
301.979	96.56
302.209	95.56
302.439	96.56
302.669	96.56
302.9	103.56
303.13	108.56
303.36	100.56
303.59	119.56
303.82	131.56
304.051	99.56
304.281	93.56
304.511	92.56
304.741	92.56
304.971	81.56
305.201	85.56
305.431	88.56
305.661	80.56
305.891	112.56
306.121	103.56
306.352	112.56
306.582	109.56
306.812	91.56
307.042	112.56
307.272	119.56
307.502	145.56
307.731	120.56
307.961	100.56
308.191	92.56
308.421	96.56
308.651	92.56
308.881	89.56
309.111	93.56
309.341	95.56
309.571	93.56
309.8	110.56
310.03	117.56
310.26	105.56
310.49	94.56
310.72	97.56
310.949	119.56
311.179	111.56
311.409	93.56
311.639	87.56
311.868	77.56
312.098	86.56
312.328	96.56
312.557	100.56
312.787	118.56
313.017	103.56
313.246	109.56
313.476	92.56
313.706	93.56
313.935	91.56
314.165	100.56
314.394	125.56
314.624	95.56
314.853	103.56
315.083	87.56
315.312	84.56
315.542	88.56
315.771	94.56
316.001	92.56
316.23	96.56
316.46	97.56
316.689	105.56
316.919	93.56
317.148	96.56
317.377	97.56
317.607	108.56
317.836	97.56
318.065	100.56
318.295	94.56
318.524	88.56
318.753	83.56
318.983	91.56
319.212	105.56
319.441	104.56
319.67	113.56
319.9	103.56
320.129	95.56
320.358	103.56
320.587	88.56
320.816	109.56
321.046	109.56
321.275	99.56
321.504	112.56
321.733	98.56
321.962	95.56
322.191	109.56
322.42	120.56
322.649	112.56
322.878	115.56
323.108	123.56
323.337	135.56
323.566	140.56
323.795	166.56
324.024	240.56
324.253	467.56
324.482	1003.56
324.71	2071.56
324.939	2860.56
325.168	1031.56
325.397	301.56
325.626	160.56
325.855	139.56
326.084	128.56
326.313	146.56
326.542	180.56
326.77	263.56
326.999	542.56
327.228	1138.56
327.457	2075.56
327.686	1693.56
327.914	496.56
328.143	347.56
328.372	388.56
328.6	239.56
328.829	155.56
329.058	172.56
329.287	179.56
329.515	149.56
329.744	175.56
329.972	252.56
330.201	460.56
330.43	720.56
330.658	389.56
330.887	224.56
331.115	165.56
331.344	116.56
331.572	100.56
331.801	109.56
332.03	124.56
332.258	109.56
332.486	89.56
332.715	88.56
332.943	119.56
333.172	97.56
333.4	95.56
333.629	140.56
333.857	167.56
334.085	247.56
334.314	430.56
334.542	862.56
334.771	857.56
334.999	265.56
335.227	144.56
335.455	106.56
335.684	111.56
335.912	107.56
336.14	103.56
336.369	99.56
336.597	113.56
336.825	111.56
337.053	103.56
337.281	85.56
337.51	98.56
337.738	110.56
337.966	94.56
338.194	95.56
338.422	104.56
338.65	105.56
338.878	100.56
339.106	91.56
339.334	84.56
339.562	100.56
339.79	96.56
340.018	90.56
340.246	93.56
340.474	92.56
340.702	75.56
340.93	95.56
341.158	98.56
341.386	104.56
341.614	104.56
341.842	82.56
342.07	88.56
342.298	79.56
342.526	80.56
342.754	83.56
342.981	90.56
343.209	92.56
343.437	92.56
343.665	99.56
343.893	77.56
344.12	80.56
344.348	78.56
344.576	87.56
344.804	92.56
345.031	105.56
345.259	111.56
345.487	92.56
345.714	102.56
345.942	97.56
346.17	93.56
346.397	94.56
346.625	88.56
346.853	103.56
347.08	90.56
347.308	117.56
347.535	103.56
347.763	111.56
347.99	107.56
348.218	96.56
348.445	114.56
348.673	116.56
348.9	95.56
349.128	100.56
349.355	90.56
349.583	94.56
349.81	82.56
350.037	101.56
350.265	99.56
350.492	95.56
350.72	93.56
350.947	110.56
351.174	120.56
351.402	123.56
351.629	106.56
351.856	103.56
352.083	111.56
352.311	122.56
352.538	101.56
352.765	122.56
352.992	121.56
353.22	117.56
353.447	110.56
353.674	103.56
353.901	103.56
354.128	109.56
354.355	91.56
354.583	105.56
354.81	98.56
355.037	104.56
355.264	98.56
355.491	100.56
355.718	98.56
355.945	82.56
356.172	85.56
356.399	88.56
356.626	101.56
356.853	100.56
357.08	95.56
357.307	114.56
357.534	99.56
357.761	96.56
357.988	95.56
358.215	89.56
358.441	105.56
358.668	109.56
358.895	94.56
359.122	89.56
359.349	104.56
359.576	99.56
359.802	102.56
360.029	139.56
360.256	135.56
360.483	107.56
360.709	83.56
360.936	89.56
361.163	98.56
361.39	95.56
361.616	95.56
361.843	92.56
362.07	97.56
362.296	99.56
362.523	89.56
362.749	95.56
362.976	85.56
363.203	100.56
363.429	79.56
363.656	89.56
363.882	85.56
364.109	84.56
364.335	92.56
364.562	101.56
364.788	88.56
365.015	95.56
365.241	97.56
365.468	94.56
365.694	111.56
365.92	107.56
366.147	99.56
366.373	68.56
366.599	90.56
366.826	98.56
367.052	103.56
367.278	97.56
367.505	94.56
367.731	80.56
367.957	89.56
368.184	99.56
368.41	104.56
368.636	121.56
368.862	129.56
369.089	119.56
369.315	94.56
369.541	90.56
369.767	78.56
369.993	95.56
370.219	94.56
370.445	95.56
370.672	87.56
370.898	76.56
371.124	77.56
371.35	89.56
371.576	88.56
371.802	82.56
372.028	63.56
372.254	96.56
372.48	92.56
372.706	79.56
372.932	93.56
373.158	102.56
373.384	88.56
373.61	91.56
373.835	93.56
374.061	96.56
374.287	91.56
374.513	92.56
374.739	97.56
374.965	94.56
375.191	95.56
375.416	85.56
375.642	104.56
375.868	101.56
376.094	103.56
376.319	95.56
376.545	90.56
376.771	101.56
376.997	97.56
377.222	91.56
377.448	96.56
377.674	98.56
377.899	97.56
378.125	85.56
378.35	101.56
378.576	103.56
378.802	87.56
379.027	95.56
379.253	93.56
379.478	99.56
379.704	104.56
379.929	100.56
380.155	84.56
380.38	104.56
380.606	101.56
380.831	107.56
381.057	121.56
381.282	104.56
381.507	108.56
381.733	98.56
381.958	106.56
382.184	104.56
382.409	120.56
382.634	121.56
382.86	118.56
383.085	107.56
383.31	113.56
383.535	109.56
383.761	108.56
383.986	110.56
384.211	120.56
384.436	116.56
384.662	119.56
384.887	132.56
385.112	131.56
385.337	121.56
385.562	134.56
385.787	118.56
386.013	118.56
386.238	139.56
386.463	111.56
386.688	133.56
386.913	125.56
387.138	116.56
387.363	103.56
387.588	113.56
387.813	115.56
388.038	113.56
388.263	130.56
388.488	121.56
388.713	109.56
388.938	94.56
389.163	103.56
389.387	105.56
389.612	99.56
389.837	96.56
390.062	89.56
390.287	92.56
390.512	100.56
390.736	97.56
390.961	79.56
391.186	91.56
391.411	92.56
391.636	100.56
391.86	83.56
392.085	78.56
392.31	80.56
392.534	94.56
392.759	80.56
392.984	94.56
393.208	92.56
393.433	116.56
393.658	100.56
393.882	88.56
394.107	85.56
394.331	81.56
394.556	83.56
394.78	87.56
395.005	80.56
395.229	80.56
395.454	87.56
395.678	78.56
395.903	89.56
396.127	96.56
396.352	92.56
396.576	88.56
396.801	100.56
397.025	103.56
397.249	91.56
397.474	93.56
397.698	106.56
397.922	94.56
398.147	74.56
398.371	79.56
398.595	79.56
398.82	90.56
399.044	88.56
399.268	91.56
399.492	94.56
399.717	96.56
399.941	109.56
400.165	90.56
400.389	99.56
400.613	95.56
400.837	97.56
401.062	91.56
401.286	99.56
401.51	90.56
401.734	96.56
401.958	104.56
402.182	137.56
402.406	190.56
402.63	147.56
402.854	112.56
403.078	106.56
403.302	93.56
403.526	85.56
403.75	79.56
403.974	80.56
404.198	101.56
404.422	88.56
404.645	89.56
404.869	97.56
405.093	106.56
405.317	112.56
405.541	121.56
405.765	127.56
405.988	112.56
406.212	202.56
406.436	276.56
406.66	192.56
406.883	121.56
407.107	99.56
407.331	107.56
407.555	98.56
407.778	106.56
408.002	94.56
408.226	102.56
408.449	81.56
408.673	91.56
408.896	99.56
409.12	104.56
409.344	85.56
409.567	81.56
409.791	87.56
410.014	93.56
410.238	81.56
410.461	106.56
410.685	82.56
410.908	101.56
411.132	108.56
411.355	100.56
411.578	99.56
411.802	85.56
412.025	79.56
412.249	113.56
412.472	125.56
412.695	112.56
412.919	108.56
413.142	94.56
413.365	91.56
413.589	96.56
413.812	97.56
414.035	99.56
414.258	86.56
414.482	98.56
414.705	83.56
414.928	78.56
415.151	89.56
415.374	91.56
415.597	97.56
415.821	97.56
416.044	100.56
416.267	88.56
416.49	89.56
416.713	89.56
416.936	91.56
417.159	74.56
417.382	96.56
417.605	101.56
417.828	121.56
418.051	99.56
418.274	96.56
418.497	92.56
418.72	84.56
418.943	91.56
419.166	89.56
419.389	95.56
419.611	104.56
419.834	96.56
420.057	84.56
420.28	95.56
420.503	89.56
420.726	83.56
420.948	83.56
421.171	111.56
421.394	117.56
421.617	81.56
421.839	99.56
422.062	95.56
422.285	98.56
422.507	96.56
422.73	107.56
422.953	92.56
423.175	101.56
423.398	104.56
423.621	91.56
423.843	83.56
424.066	81.56
424.288	92.56
424.511	107.56
424.733	110.56
424.956	113.56
425.178	101.56
425.401	109.56
425.623	108.56
425.846	98.56
426.068	103.56
426.291	103.56
426.513	90.56
426.735	85.56
426.958	91.56
427.18	108.56
427.402	171.56
427.625	233.56
427.847	206.56
428.069	185.56
428.292	114.56
428.514	91.56
428.736	93.56
428.958	72.56
429.181	93.56
429.403	104.56
429.625	84.56
429.847	91.56
430.069	116.56
430.292	88.56
430.514	71.56
430.736	80.56
430.958	94.56
431.18	79.56
431.402	71.56
431.624	82.56
431.846	83.56
432.068	84.56
432.29	96.56
432.512	91.56
432.734	88.56
432.956	77.56
433.178	103.56
433.4	97.56
433.622	85.56
433.844	67.56
434.066	81.56
434.287	84.56
434.509	82.56
434.731	89.56
434.953	89.56
435.175	70.56
435.397	95.56
435.618	82.56
435.84	101.56
436.062	135.56
436.284	119.56
436.505	105.56
436.727	112.56
436.949	104.56
437.17	89.56
437.392	90.56
437.614	115.56
437.835	113.56
438.057	149.56
438.278	118.56
438.5	107.56
438.721	132.56
438.943	108.56
439.165	99.56
439.386	83.56
439.608	92.56
439.829	95.56
440.05	146.56
440.272	167.56
440.493	99.56
440.715	91.56
440.936	88.56
441.158	96.56
441.379	101.56
441.6	118.56
441.822	98.56
442.043	98.56
442.264	103.56
442.486	104.56
442.707	85.56
442.928	126.56
443.149	161.56
443.371	167.56
443.592	122.56
443.813	125.56
444.034	110.56
444.255	86.56
444.476	85.56
444.698	76.56
444.919	93.56
445.14	146.56
445.361	116.56
445.582	129.56
445.803	181.56
446.024	166.56
446.245	151.56
446.466	119.56
446.687	96.56
446.908	87.56
447.129	80.56
447.35	92.56
447.571	91.56
447.792	95.56
448.013	107.56
448.234	104.56
448.455	112.56
448.675	115.56
448.896	135.56
449.117	95.56
449.338	102.56
449.559	139.56
449.779	147.56
450	92.56
450.221	101.56
450.442	95.56
450.662	96.56
450.883	106.56
451.104	121.56
451.324	119.56
451.545	99.56
451.766	87.56
451.986	90.56
452.207	95.56
452.428	100.56
452.648	120.56
452.869	101.56
453.089	119.56
453.31	119.56
453.53	101.56
453.751	96.56
453.971	114.56
454.192	121.56
454.412	105.56
454.633	93.56
454.853	99.56
455.073	97.56
455.294	92.56
455.514	115.56
455.734	91.56
455.955	90.56
456.175	77.56
456.395	84.56
456.616	82.56
456.836	85.56
457.056	81.56
457.276	90.56
457.497	85.56
457.717	77.56
457.937	91.56
458.157	81.56
458.377	84.56
458.598	114.56
458.818	198.56
459.038	209.56
459.258	128.56
459.478	109.56
459.698	84.56
459.918	85.56
460.138	95.56
460.358	87.56
460.578	95.56
460.798	87.56
461.018	91.56
461.238	84.56
461.458	92.56
461.678	83.56
461.898	90.56
462.118	85.56
462.338	90.56
462.558	73.56
462.777	77.56
462.997	95.56
463.217	89.56
463.437	92.56
463.657	84.56
463.876	92.56
464.096	90.56
464.316	100.56
464.536	90.56
464.755	96.56
464.975	105.56
465.195	217.56
465.414	203.56
465.634	108.56
465.854	101.56
466.073	80.56
466.293	93.56
466.512	94.56
466.732	79.56
466.951	90.56
467.171	102.56
467.391	107.56
467.61	118.56
467.829	151.56
468.049	278.56
468.268	405.56
468.488	139.56
468.707	103.56
468.927	97.56
469.146	68.56
469.365	84.56
469.585	103.56
469.804	112.56
470.023	107.56
470.243	101.56
470.462	116.56
470.681	133.56
470.901	95.56
471.12	85.56
471.339	92.56
471.558	110.56
471.777	106.56
471.997	169.56
472.216	466.56
472.435	1102.56
472.654	313.56
472.873	124.56
473.092	94.56
473.311	95.56
473.53	81.56
473.749	82.56
473.968	112.56
474.187	122.56
474.406	109.56
474.625	81.56
474.844	97.56
475.063	85.56
475.282	92.56
475.501	90.56
475.72	84.56
475.939	85.56
476.158	78.56
476.377	91.56
476.596	99.56
476.814	96.56
477.033	98.56
477.252	86.56
477.471	90.56
477.69	89.56
477.908	71.56
478.127	97.56
478.346	94.56
478.564	90.56
478.783	105.56
479.002	115.56
479.22	84.56
479.439	104.56
479.658	110.56
479.876	102.56
480.095	108.56
480.313	115.56
480.532	119.56
480.751	174.56
480.969	461.56
481.188	1778.56
481.406	1169.56
481.624	226.56
481.843	120.56
482.061	101.56
482.28	100.56
482.498	81.56
482.717	87.56
482.935	86.56
483.153	97.56
483.372	95.56
483.59	90.56
483.808	84.56
484.027	92.56
484.245	84.56
484.463	96.56
484.681	87.56
484.9	79.56
485.118	89.56
485.336	90.56
485.554	109.56
485.772	109.56
485.99	108.56
486.209	115.56
486.427	106.56
486.645	123.56
486.863	120.56
487.081	107.56
487.299	96.56
487.517	89.56
487.735	102.56
487.953	85.56
488.171	95.56
488.389	106.56
488.607	95.56
488.825	99.56
489.043	77.56
489.261	82.56
489.479	85.56
489.696	77.56
489.914	78.56
490.132	82.56
490.35	79.56
490.568	99.56
490.786	81.56
491.003	86.56
491.221	93.56
491.439	89.56
491.657	84.56
491.874	98.56
492.092	108.56
492.31	103.56
492.527	92.56
492.745	96.56
492.963	83.56
493.18	87.56
493.398	90.56
493.615	89.56
493.833	109.56
494.05	89.56
494.268	92.56
494.485	88.56
494.703	88.56
494.92	83.56
495.138	78.56
495.355	90.56
495.573	95.56
495.79	82.56
496.008	111.56
496.225	92.56
496.442	91.56
496.66	91.56
496.877	95.56
497.094	95.56
497.312	80.56
497.529	93.56
497.746	95.56
497.963	97.56
498.181	92.56
498.398	83.56
498.615	112.56
498.832	105.56
499.049	90.56
499.267	93.56
499.484	94.56
499.701	82.56
499.918	78.56
500.135	87.56
500.352	90.56
500.569	95.56
500.786	94.56
501.003	90.56
501.22	94.56
501.437	91.56
501.654	90.56
501.871	124.56
502.088	81.56
502.305	91.56
502.522	79.56
502.739	103.56
502.956	91.56
503.172	84.56
503.389	106.56
503.606	135.56
503.823	97.56
504.04	103.56
504.256	84.56
504.473	78.56
504.69	97.56
504.907	106.56
505.123	100.56
505.34	94.56
505.557	87.56
505.773	91.56
505.99	97.56
506.207	79.56
506.423	83.56
506.64	92.56
506.856	100.56
507.073	91.56
507.289	93.56
507.506	95.56
507.722	139.56
507.939	132.56
508.155	96.56
508.372	101.56
508.588	82.56
508.805	95.56
509.021	104.56
509.238	104.56
509.454	107.56
509.67	98.56
509.887	117.56
510.103	147.56
510.319	238.56
510.536	841.56
510.752	2871.56
510.968	831.56
511.184	178.56
511.401	114.56
511.617	106.56
511.833	95.56
512.049	98.56
512.265	90.56
512.481	97.56
512.698	91.56
512.914	92.56
513.13	104.56
513.346	90.56
513.562	91.56
513.778	88.56
