Data from Circ_2007_H10_HRD10591_00067.txt Node
Date: Wed Jan 03 10:22:10 EST 2024
User: Yrep
Spectrometer: HR+D1059
Trigger mode: 1
Integration Time (sec): 1.000000E-1
Scans to average: 1
Electric dark correction enabled: true
Nonlinearity correction enabled: false
Boxcar width: 0
XAxis mode: Wavelengths
Number of Pixels in Spectrum: 2048
>>>>>Begin Spectral Data<<<<<
223.165	-25.81
223.4	-25.81
223.635	-25.81
223.869	-8.81
224.104	-29.81
224.338	-24.81
224.573	-19.81
224.808	-6.81
225.042	-2.81
225.277	0.19
225.511	3.19
225.746	3.19
225.98	6.19
226.215	6.19
226.449	8.19
226.683	23.19
226.918	26.19
227.152	42.19
227.387	27.19
227.621	37.19
227.856	41.19
228.09	41.19
228.324	50.19
228.559	62.19
228.793	59.19
229.027	72.19
229.262	72.19
229.496	70.19
229.73	96.19
229.964	97.19
230.199	73.19
230.433	86.19
230.667	88.19
230.901	85.19
231.136	94.19
231.37	78.19
231.604	84.19
231.838	94.19
232.072	101.19
232.306	89.19
232.541	83.19
232.775	95.19
233.009	83.19
233.243	95.19
233.477	80.19
233.711	84.19
233.945	84.19
234.179	73.19
234.413	75.19
234.647	77.19
234.881	83.19
235.115	78.19
235.349	76.19
235.583	79.19
235.817	94.19
236.051	79.19
236.285	85.19
236.519	80.19
236.753	70.19
236.987	86.19
237.221	101.19
237.455	104.19
237.689	83.19
237.922	85.19
238.156	80.19
238.39	84.19
238.624	80.19
238.858	71.19
239.091	80.19
239.325	79.19
239.559	79.19
239.793	95.19
240.027	64.19
240.26	76.19
240.494	89.19
240.728	79.19
240.961	74.19
241.195	75.19
241.429	81.19
241.662	71.19
241.896	89.19
242.13	85.19
242.363	83.19
242.597	80.19
242.83	77.19
243.064	81.19
243.298	89.19
243.531	88.19
243.765	67.19
243.998	90.19
244.232	87.19
244.465	89.19
244.699	97.19
244.932	92.19
245.166	82.19
245.399	70.19
245.633	75.19
245.866	76.19
246.099	83.19
246.333	78.19
246.566	85.19
246.8	78.19
247.033	77.19
247.266	68.19
247.5	76.19
247.733	76.19
247.966	86.19
248.2	91.19
248.433	79.19
248.666	79.19
248.899	85.19
249.133	90.19
249.366	99.19
249.599	101.19
249.832	85.19
250.066	85.19
250.299	87.19
250.532	89.19
250.765	88.19
250.998	74.19
251.231	89.19
251.465	87.19
251.698	86.19
251.931	73.19
252.164	100.19
252.397	83.19
252.63	87.19
252.863	86.19
253.096	89.19
253.329	93.19
253.562	84.19
253.795	63.19
254.028	84.19
254.261	94.19
254.494	72.19
254.727	91.19
254.96	85.19
255.193	89.19
255.426	84.19
255.659	88.19
255.892	105.19
256.124	103.19
256.357	106.19
256.59	94.19
256.823	79.19
257.056	89.19
257.289	76.19
257.521	80.19
257.754	88.19
257.987	79.19
258.22	94.19
258.452	96.19
258.685	96.19
258.918	92.19
259.151	94.19
259.383	82.19
259.616	94.19
259.849	95.19
260.081	89.19
260.314	91.19
260.547	79.19
260.779	83.19
261.012	97.19
261.244	99.19
261.477	120.19
261.71	108.19
261.942	145.19
262.175	132.19
262.407	97.19
262.64	91.19
262.872	93.19
263.105	95.19
263.337	93.19
263.57	80.19
263.802	83.19
264.035	93.19
264.267	89.19
264.499	85.19
264.732	84.19
264.964	101.19
265.197	79.19
265.429	88.19
265.661	88.19
265.894	86.19
266.126	90.19
266.358	71.19
266.591	92.19
266.823	68.19
267.055	95.19
267.287	98.19
267.52	72.19
267.752	88.19
267.984	85.19
268.216	92.19
268.448	87.19
268.681	102.19
268.913	85.19
269.145	84.19
269.377	94.19
269.609	80.19
269.841	87.19
270.073	68.19
270.306	73.19
270.538	91.19
270.77	93.19
271.002	89.19
271.234	95.19
271.466	87.19
271.698	97.19
271.93	102.19
272.162	109.19
272.394	89.19
272.626	86.19
272.858	92.19
273.09	83.19
273.322	103.19
273.553	94.19
273.785	86.19
274.017	85.19
274.249	97.19
274.481	91.19
274.713	97.19
274.945	104.19
275.176	105.19
275.408	111.19
275.64	111.19
275.872	108.19
276.104	115.19
276.335	111.19
276.567	111.19
276.799	131.19
277.031	157.19
277.262	173.19
277.494	125.19
277.726	107.19
277.957	97.19
278.189	92.19
278.421	96.19
278.652	97.19
278.884	92.19
279.115	91.19
279.347	86.19
279.579	100.19
279.81	120.19
280.042	144.19
280.273	205.19
280.505	151.19
280.736	116.19
280.968	88.19
281.199	95.19
281.431	91.19
281.662	91.19
281.894	99.19
282.125	95.19
282.356	145.19
282.588	183.19
282.819	143.19
283.051	100.19
283.282	81.19
283.513	91.19
283.745	85.19
283.976	81.19
284.207	96.19
284.439	89.19
284.67	86.19
284.901	109.19
285.132	102.19
285.364	89.19
285.595	95.19
285.826	99.19
286.057	88.19
286.288	90.19
286.52	84.19
286.751	88.19
286.982	96.19
287.213	93.19
287.444	95.19
287.675	93.19
287.906	103.19
288.138	88.19
288.369	92.19
288.6	105.19
288.831	90.19
289.062	86.19
289.293	86.19
289.524	96.19
289.755	91.19
289.986	94.19
290.217	101.19
290.448	92.19
290.679	94.19
290.91	93.19
291.141	90.19
291.371	94.19
291.602	93.19
291.833	106.19
292.064	108.19
292.295	83.19
292.526	95.19
292.757	101.19
292.987	99.19
293.218	96.19
293.449	92.19
293.68	108.19
293.91	98.19
294.141	90.19
294.372	94.19
294.603	91.19
294.833	94.19
295.064	107.19
295.295	103.19
295.525	104.19
295.756	103.19
295.987	112.19
296.217	182.19
296.448	162.19
296.679	111.19
296.909	102.19
297.14	105.19
297.37	95.19
297.601	104.19
297.831	88.19
298.062	87.19
298.292	92.19
298.523	98.19
298.753	89.19
298.984	87.19
299.214	90.19
299.445	103.19
299.675	107.19
299.905	108.19
300.136	111.19
300.366	91.19
300.597	96.19
300.827	84.19
301.057	124.19
301.288	138.19
301.518	102.19
301.748	105.19
301.979	117.19
302.209	111.19
302.439	105.19
302.669	93.19
302.9	87.19
303.13	114.19
303.36	103.19
303.59	121.19
303.82	143.19
304.051	111.19
304.281	104.19
304.511	95.19
304.741	107.19
304.971	100.19
305.201	101.19
305.431	91.19
305.661	101.19
305.891	98.19
306.121	106.19
306.352	99.19
306.582	106.19
306.812	109.19
307.042	113.19
307.272	125.19
307.502	143.19
307.731	144.19
307.961	120.19
308.191	97.19
308.421	87.19
308.651	99.19
308.881	101.19
309.111	102.19
309.341	97.19
309.571	97.19
309.8	101.19
310.03	107.19
310.26	96.19
310.49	109.19
310.72	109.19
310.949	121.19
311.179	115.19
311.409	101.19
311.639	108.19
311.868	100.19
312.098	92.19
312.328	110.19
312.557	115.19
312.787	132.19
313.017	111.19
313.246	111.19
313.476	95.19
313.706	89.19
313.935	99.19
314.165	108.19
314.394	112.19
314.624	106.19
314.853	104.19
315.083	117.19
315.312	91.19
315.542	99.19
315.771	85.19
316.001	94.19
316.23	106.19
316.46	105.19
316.689	107.19
316.919	111.19
317.148	112.19
317.377	94.19
317.607	97.19
317.836	100.19
318.065	95.19
318.295	85.19
318.524	92.19
318.753	97.19
318.983	91.19
319.212	120.19
319.441	117.19
319.67	119.19
319.9	96.19
320.129	94.19
320.358	94.19
320.587	110.19
320.816	126.19
321.046	127.19
321.275	100.19
321.504	99.19
321.733	100.19
321.962	96.19
322.191	118.19
322.42	108.19
322.649	105.19
322.878	138.19
323.108	131.19
323.337	126.19
323.566	160.19
323.795	189.19
324.024	245.19
324.253	496.19
324.482	1026.19
324.71	2067.19
324.939	2770.19
325.168	1027.19
325.397	293.19
325.626	174.19
325.855	149.19
326.084	154.19
326.313	157.19
326.542	183.19
326.77	258.19
326.999	520.19
327.228	1079.19
327.457	1957.19
327.686	1592.19
327.914	489.19
328.143	413.19
328.372	496.19
328.6	311.19
328.829	190.19
329.058	199.19
329.287	214.19
329.515	176.19
329.744	208.19
329.972	340.19
330.201	656.19
330.43	1023.19
330.658	496.19
330.887	267.19
331.115	199.19
331.344	115.19
331.572	115.19
331.801	139.19
332.03	139.19
332.258	120.19
332.486	117.19
332.715	111.19
332.943	92.19
333.172	124.19
333.4	110.19
333.629	157.19
333.857	196.19
334.085	339.19
334.314	642.19
334.542	1225.19
334.771	1218.19
334.999	335.19
335.227	176.19
335.455	129.19
335.684	110.19
335.912	117.19
336.14	107.19
336.369	117.19
336.597	120.19
336.825	109.19
337.053	99.19
337.281	103.19
337.51	108.19
337.738	103.19
337.966	104.19
338.194	126.19
338.422	111.19
338.65	98.19
338.878	96.19
339.106	107.19
339.334	93.19
339.562	93.19
339.79	100.19
340.018	95.19
340.246	86.19
340.474	105.19
340.702	100.19
340.93	104.19
341.158	88.19
341.386	105.19
341.614	119.19
341.842	98.19
342.07	92.19
342.298	89.19
342.526	96.19
342.754	97.19
342.981	89.19
343.209	85.19
343.437	88.19
343.665	111.19
343.893	104.19
344.12	108.19
344.348	94.19
344.576	92.19
344.804	102.19
345.031	114.19
345.259	120.19
345.487	102.19
345.714	94.19
345.942	90.19
346.17	97.19
346.397	104.19
346.625	103.19
346.853	97.19
347.08	113.19
347.308	105.19
347.535	123.19
347.763	115.19
347.99	112.19
348.218	105.19
348.445	112.19
348.673	111.19
348.9	116.19
349.128	88.19
349.355	94.19
349.583	95.19
349.81	102.19
350.037	95.19
350.265	105.19
350.492	96.19
350.72	104.19
350.947	112.19
351.174	127.19
351.402	137.19
351.629	125.19
351.856	114.19
352.083	125.19
352.311	122.19
352.538	124.19
352.765	123.19
352.992	124.19
353.22	124.19
353.447	113.19
353.674	103.19
353.901	111.19
354.128	102.19
354.355	107.19
354.583	108.19
354.81	100.19
355.037	113.19
355.264	99.19
355.491	102.19
355.718	97.19
355.945	93.19
356.172	90.19
356.399	98.19
356.626	98.19
356.853	94.19
357.08	95.19
357.307	100.19
357.534	92.19
357.761	95.19
357.988	93.19
358.215	99.19
358.441	86.19
358.668	87.19
358.895	110.19
359.122	104.19
359.349	93.19
359.576	102.19
359.802	123.19
360.029	156.19
360.256	133.19
360.483	119.19
360.709	113.19
360.936	90.19
361.163	104.19
361.39	109.19
361.616	113.19
361.843	105.19
362.07	104.19
362.296	120.19
362.523	105.19
362.749	98.19
362.976	113.19
363.203	100.19
363.429	101.19
363.656	107.19
363.882	94.19
364.109	105.19
364.335	93.19
364.562	98.19
364.788	89.19
365.015	107.19
365.241	116.19
365.468	114.19
365.694	125.19
365.92	110.19
366.147	111.19
366.373	90.19
366.599	113.19
366.826	95.19
367.052	87.19
367.278	112.19
367.505	102.19
367.731	98.19
367.957	97.19
368.184	113.19
368.41	119.19
368.636	129.19
368.862	143.19
369.089	115.19
369.315	111.19
369.541	112.19
369.767	108.19
369.993	100.19
370.219	101.19
370.445	97.19
370.672	93.19
370.898	93.19
371.124	91.19
371.35	85.19
371.576	88.19
371.802	85.19
372.028	109.19
372.254	91.19
372.48	90.19
372.706	99.19
372.932	76.19
373.158	97.19
373.384	95.19
373.61	96.19
373.835	101.19
374.061	89.19
374.287	111.19
374.513	84.19
374.739	93.19
374.965	95.19
375.191	96.19
375.416	83.19
375.642	85.19
375.868	109.19
376.094	98.19
376.319	120.19
376.545	87.19
376.771	91.19
376.997	93.19
377.222	84.19
377.448	96.19
377.674	81.19
377.899	97.19
378.125	101.19
378.35	97.19
378.576	88.19
378.802	106.19
379.027	103.19
379.253	91.19
379.478	94.19
379.704	110.19
379.929	105.19
380.155	108.19
380.38	100.19
380.606	100.19
380.831	113.19
381.057	110.19
381.282	93.19
381.507	105.19
381.733	105.19
381.958	102.19
382.184	104.19
382.409	95.19
382.634	90.19
382.86	98.19
383.085	105.19
383.31	102.19
383.535	103.19
383.761	104.19
383.986	100.19
384.211	113.19
384.436	87.19
384.662	100.19
384.887	104.19
385.112	115.19
385.337	97.19
385.562	102.19
385.787	96.19
386.013	118.19
386.238	113.19
386.463	109.19
386.688	123.19
386.913	108.19
387.138	107.19
387.363	102.19
387.588	101.19
387.813	107.19
388.038	113.19
388.263	118.19
388.488	118.19
388.713	102.19
388.938	79.19
389.163	103.19
389.387	120.19
389.612	100.19
389.837	91.19
390.062	99.19
390.287	98.19
390.512	82.19
390.736	87.19
390.961	77.19
391.186	92.19
391.411	112.19
391.636	85.19
391.86	103.19
392.085	106.19
392.31	83.19
392.534	84.19
392.759	97.19
392.984	88.19
393.208	80.19
393.433	104.19
393.658	84.19
393.882	97.19
394.107	76.19
394.331	94.19
394.556	86.19
394.78	90.19
395.005	93.19
395.229	80.19
395.454	87.19
395.678	85.19
395.903	93.19
396.127	90.19
396.352	95.19
396.576	82.19
396.801	90.19
397.025	74.19
397.249	90.19
397.474	91.19
397.698	101.19
397.922	97.19
398.147	99.19
398.371	94.19
398.595	85.19
398.82	92.19
399.044	96.19
399.268	88.19
399.492	97.19
399.717	89.19
399.941	86.19
400.165	97.19
400.389	115.19
400.613	87.19
400.837	94.19
401.062	82.19
401.286	102.19
401.51	103.19
401.734	103.19
401.958	128.19
402.182	164.19
402.406	216.19
402.63	174.19
402.854	117.19
403.078	111.19
403.302	89.19
403.526	93.19
403.75	99.19
403.974	100.19
404.198	85.19
404.422	96.19
404.645	94.19
404.869	100.19
405.093	118.19
405.317	129.19
405.541	131.19
405.765	135.19
405.988	147.19
406.212	233.19
406.436	333.19
406.66	223.19
406.883	141.19
407.107	118.19
407.331	114.19
407.555	119.19
407.778	114.19
408.002	106.19
408.226	96.19
408.449	89.19
408.673	100.19
408.896	94.19
409.12	94.19
409.344	100.19
409.567	91.19
409.791	86.19
410.014	99.19
410.238	94.19
410.461	113.19
410.685	109.19
410.908	100.19
411.132	102.19
411.355	111.19
411.578	101.19
411.802	106.19
412.025	94.19
412.249	104.19
412.472	120.19
412.695	138.19
412.919	111.19
413.142	109.19
413.365	107.19
413.589	85.19
413.812	86.19
414.035	87.19
414.258	91.19
414.482	70.19
414.705	89.19
414.928	79.19
415.151	98.19
415.374	96.19
415.597	88.19
415.821	97.19
416.044	89.19
416.267	98.19
416.49	101.19
416.713	100.19
416.936	81.19
417.159	96.19
417.382	85.19
417.605	115.19
417.828	117.19
418.051	104.19
418.274	102.19
418.497	92.19
418.72	83.19
418.943	97.19
419.166	97.19
419.389	96.19
419.611	86.19
419.834	93.19
420.057	93.19
420.28	96.19
420.503	90.19
420.726	99.19
420.948	81.19
421.171	116.19
421.394	103.19
421.617	97.19
421.839	94.19
422.062	103.19
422.285	103.19
422.507	95.19
422.73	99.19
422.953	93.19
423.175	84.19
423.398	99.19
423.621	91.19
423.843	86.19
424.066	101.19
424.288	93.19
424.511	96.19
424.733	110.19
424.956	120.19
425.178	114.19
425.401	113.19
425.623	123.19
425.846	111.19
426.068	88.19
426.291	104.19
426.513	93.19
426.735	98.19
426.958	93.19
427.18	117.19
427.402	183.19
427.625	273.19
427.847	227.19
428.069	192.19
428.292	129.19
428.514	87.19
428.736	85.19
428.958	104.19
429.181	88.19
429.403	89.19
429.625	105.19
429.847	107.19
430.069	109.19
430.292	110.19
430.514	90.19
430.736	103.19
430.958	98.19
431.18	79.19
431.402	87.19
431.624	88.19
431.846	79.19
432.068	100.19
432.29	83.19
432.512	94.19
432.734	91.19
432.956	92.19
433.178	112.19
433.4	107.19
433.622	104.19
433.844	95.19
434.066	92.19
434.287	89.19
434.509	91.19
434.731	98.19
434.953	95.19
435.175	98.19
435.397	116.19
435.618	97.19
435.84	110.19
436.062	121.19
436.284	138.19
436.505	112.19
436.727	108.19
436.949	87.19
437.17	103.19
437.392	94.19
437.614	108.19
437.835	136.19
438.057	144.19
438.278	127.19
438.5	114.19
438.721	139.19
438.943	120.19
439.165	89.19
439.386	88.19
439.608	102.19
439.829	118.19
440.05	154.19
440.272	192.19
440.493	114.19
440.715	92.19
440.936	75.19
441.158	101.19
441.379	105.19
441.6	106.19
441.822	113.19
442.043	113.19
442.264	126.19
442.486	117.19
442.707	110.19
442.928	112.19
443.149	171.19
443.371	175.19
443.592	132.19
443.813	126.19
444.034	118.19
444.255	100.19
444.476	99.19
444.698	90.19
444.919	88.19
445.14	136.19
445.361	145.19
445.582	138.19
445.803	186.19
446.024	165.19
446.245	169.19
446.466	124.19
446.687	95.19
446.908	89.19
447.129	100.19
447.35	96.19
447.571	102.19
447.792	99.19
448.013	100.19
448.234	115.19
448.455	105.19
448.675	128.19
448.896	152.19
449.117	101.19
449.338	125.19
449.559	142.19
449.779	137.19
450	86.19
450.221	95.19
450.442	85.19
450.662	95.19
450.883	128.19
451.104	139.19
451.324	107.19
451.545	102.19
451.766	92.19
451.986	95.19
452.207	88.19
452.428	95.19
452.648	121.19
452.869	128.19
453.089	128.19
453.31	156.19
453.53	108.19
453.751	99.19
453.971	115.19
454.192	131.19
454.412	101.19
454.633	100.19
454.853	103.19
455.073	86.19
455.294	97.19
455.514	112.19
455.734	86.19
455.955	81.19
456.175	87.19
456.395	86.19
456.616	104.19
456.836	95.19
457.056	81.19
457.276	95.19
457.497	81.19
457.717	98.19
457.937	81.19
458.157	82.19
458.377	91.19
458.598	136.19
458.818	216.19
459.038	239.19
459.258	141.19
459.478	116.19
459.698	91.19
459.918	90.19
460.138	110.19
460.358	88.19
460.578	89.19
460.798	100.19
461.018	107.19
461.238	84.19
461.458	77.19
461.678	84.19
461.898	103.19
462.118	96.19
462.338	98.19
462.558	92.19
462.777	101.19
462.997	97.19
463.217	121.19
463.437	89.19
463.657	99.19
463.876	101.19
464.096	100.19
464.316	94.19
464.536	123.19
464.755	115.19
464.975	144.19
465.195	245.19
465.414	249.19
465.634	119.19
465.854	102.19
466.073	93.19
466.293	97.19
466.512	75.19
466.732	71.19
466.951	94.19
467.171	109.19
467.391	115.19
467.61	147.19
467.829	177.19
468.049	396.19
468.268	586.19
468.488	191.19
468.707	93.19
468.927	97.19
469.146	106.19
469.365	93.19
469.585	109.19
469.804	108.19
470.023	131.19
470.243	111.19
470.462	113.19
470.681	144.19
470.901	104.19
471.12	93.19
471.339	113.19
471.558	105.19
471.777	128.19
471.997	237.19
472.216	742.19
472.435	1697.19
472.654	429.19
472.873	141.19
473.092	110.19
473.311	89.19
473.53	106.19
473.749	99.19
473.968	105.19
474.187	132.19
474.406	117.19
474.625	97.19
474.844	94.19
475.063	95.19
475.282	90.19
475.501	85.19
475.72	89.19
475.939	101.19
476.158	96.19
476.377	86.19
476.596	84.19
476.814	115.19
477.033	97.19
477.252	116.19
477.471	93.19
477.69	98.19
477.908	87.19
478.127	107.19
478.346	88.19
478.564	103.19
478.783	101.19
479.002	115.19
479.22	96.19
479.439	128.19
479.658	136.19
479.876	131.19
480.095	123.19
480.313	123.19
480.532	128.19
480.751	222.19
480.969	675.19
481.188	2856.19
481.406	1757.19
481.624	293.19
481.843	143.19
482.061	108.19
482.28	110.19
482.498	98.19
482.717	93.19
482.935	94.19
483.153	97.19
483.372	91.19
483.59	90.19
483.808	97.19
484.027	95.19
484.245	97.19
484.463	97.19
484.681	99.19
484.9	88.19
485.118	96.19
485.336	100.19
485.554	110.19
485.772	93.19
485.99	100.19
486.209	112.19
486.427	113.19
486.645	140.19
486.863	125.19
487.081	107.19
487.299	118.19
487.517	104.19
487.735	86.19
487.953	92.19
488.171	93.19
488.389	94.19
488.607	104.19
488.825	99.19
489.043	109.19
489.261	92.19
489.479	87.19
489.696	97.19
489.914	93.19
490.132	87.19
490.35	87.19
490.568	93.19
490.786	106.19
491.003	89.19
491.221	89.19
491.439	101.19
491.657	104.19
491.874	94.19
492.092	89.19
492.31	92.19
492.527	97.19
492.745	108.19
492.963	85.19
493.18	102.19
493.398	97.19
493.615	78.19
493.833	88.19
494.05	96.19
494.268	89.19
494.485	88.19
494.703	101.19
494.92	96.19
495.138	88.19
495.355	91.19
495.573	100.19
495.79	83.19
496.008	92.19
496.225	101.19
496.442	87.19
496.66	110.19
496.877	90.19
497.094	98.19
497.312	87.19
497.529	100.19
497.746	102.19
497.963	105.19
498.181	97.19
498.398	95.19
498.615	121.19
498.832	109.19
499.049	93.19
499.267	104.19
499.484	91.19
499.701	95.19
499.918	105.19
500.135	83.19
500.352	103.19
500.569	98.19
500.786	106.19
501.003	84.19
501.22	95.19
501.437	99.19
501.654	89.19
501.871	139.19
502.088	110.19
502.305	90.19
502.522	88.19
502.739	93.19
502.956	109.19
503.172	95.19
503.389	100.19
503.606	118.19
503.823	96.19
504.04	114.19
504.256	102.19
504.473	92.19
504.69	111.19
504.907	100.19
505.123	88.19
505.34	88.19
505.557	96.19
505.773	105.19
505.99	86.19
506.207	97.19
506.423	94.19
506.64	94.19
506.856	93.19
507.073	88.19
507.289	115.19
507.506	112.19
507.722	141.19
507.939	144.19
508.155	107.19
508.372	88.19
508.588	96.19
508.805	97.19
509.021	102.19
509.238	103.19
509.454	93.19
509.67	123.19
509.887	120.19
510.103	137.19
510.319	246.19
510.536	955.19
510.752	3463.19
510.968	943.19
511.184	197.19
511.401	135.19
