Data from Circ_2007_H10_HRD10591_00024.txt Node
Date: Wed Jan 03 10:22:02 EST 2024
User: Yrep
Spectrometer: HR+D1059
Trigger mode: 1
Integration Time (sec): 1.000000E-1
Scans to average: 1
Electric dark correction enabled: true
Nonlinearity correction enabled: false
Boxcar width: 0
XAxis mode: Wavelengths
Number of Pixels in Spectrum: 2048
>>>>>Begin Spectral Data<<<<<
223.165	-10.31
223.4	-10.31
223.635	-10.31
223.869	-17.31
224.104	-14.31
224.338	-22.31
224.573	-27.31
224.808	3.69
225.042	-32.31
225.277	-12.31
225.511	6.69
225.746	-4.31
225.98	16.69
226.215	14.69
226.449	23.69
226.683	16.69
226.918	23.69
227.152	34.69
227.387	38.69
227.621	41.69
227.856	33.69
228.09	63.69
228.324	55.69
228.559	63.69
228.793	50.69
229.027	61.69
229.262	55.69
229.496	70.69
229.73	87.69
229.964	88.69
230.199	81.69
230.433	73.69
230.667	84.69
230.901	87.69
231.136	80.69
231.37	75.69
231.604	71.69
231.838	85.69
232.072	68.69
232.306	92.69
232.541	71.69
232.775	75.69
233.009	82.69
233.243	89.69
233.477	71.69
233.711	84.69
233.945	101.69
234.179	76.69
234.413	82.69
234.647	76.69
234.881	66.69
235.115	88.69
235.349	76.69
235.583	75.69
235.817	83.69
236.051	94.69
236.285	95.69
236.519	78.69
236.753	77.69
236.987	81.69
237.221	91.69
237.455	88.69
237.689	76.69
237.922	77.69
238.156	80.69
238.39	71.69
238.624	73.69
238.858	71.69
239.091	61.69
239.325	68.69
239.559	80.69
239.793	93.69
240.027	83.69
240.26	80.69
240.494	69.69
240.728	77.69
240.961	86.69
241.195	72.69
241.429	73.69
241.662	59.69
241.896	80.69
242.13	86.69
242.363	74.69
242.597	86.69
242.83	91.69
243.064	77.69
243.298	78.69
243.531	82.69
243.765	69.69
243.998	79.69
244.232	70.69
244.465	93.69
244.699	85.69
244.932	65.69
245.166	73.69
245.399	79.69
245.633	94.69
245.866	78.69
246.099	79.69
246.333	84.69
246.566	83.69
246.8	72.69
247.033	76.69
247.266	83.69
247.5	89.69
247.733	81.69
247.966	70.69
248.2	76.69
248.433	84.69
248.666	87.69
248.899	86.69
249.133	86.69
249.366	99.69
249.599	100.69
249.832	85.69
250.066	73.69
250.299	84.69
250.532	74.69
250.765	86.69
250.998	92.69
251.231	70.69
251.465	74.69
251.698	90.69
251.931	87.69
252.164	93.69
252.397	81.69
252.63	79.69
252.863	80.69
253.096	68.69
253.329	75.69
253.562	73.69
253.795	92.69
254.028	86.69
254.261	89.69
254.494	83.69
254.727	75.69
254.96	67.69
255.193	66.69
255.426	72.69
255.659	76.69
255.892	80.69
256.124	84.69
256.357	86.69
256.59	79.69
256.823	74.69
257.056	77.69
257.289	72.69
257.521	81.69
257.754	78.69
257.987	74.69
258.22	84.69
258.452	76.69
258.685	88.69
258.918	87.69
259.151	67.69
259.383	92.69
259.616	75.69
259.849	78.69
260.081	94.69
260.314	75.69
260.547	92.69
260.779	77.69
261.012	94.69
261.244	87.69
261.477	90.69
261.71	97.69
261.942	94.69
262.175	120.69
262.407	87.69
262.64	87.69
262.872	75.69
263.105	84.69
263.337	90.69
263.57	85.69
263.802	89.69
264.035	89.69
264.267	82.69
264.499	87.69
264.732	70.69
264.964	74.69
265.197	83.69
265.429	90.69
265.661	68.69
265.894	85.69
266.126	76.69
266.358	95.69
266.591	78.69
266.823	76.69
267.055	81.69
267.287	84.69
267.52	83.69
267.752	83.69
267.984	74.69
268.216	89.69
268.448	86.69
268.681	85.69
268.913	88.69
269.145	82.69
269.377	80.69
269.609	85.69
269.841	85.69
270.073	91.69
270.306	80.69
270.538	83.69
270.77	91.69
271.002	82.69
271.234	84.69
271.466	78.69
271.698	92.69
271.93	94.69
272.162	82.69
272.394	91.69
272.626	87.69
272.858	77.69
273.09	97.69
273.322	84.69
273.553	81.69
273.785	98.69
274.017	96.69
274.249	93.69
274.481	76.69
274.713	82.69
274.945	88.69
275.176	80.69
275.408	90.69
275.64	91.69
275.872	84.69
276.104	84.69
276.335	79.69
276.567	107.69
276.799	118.69
277.031	121.69
277.262	119.69
277.494	95.69
277.726	87.69
277.957	71.69
278.189	84.69
278.421	87.69
278.652	77.69
278.884	79.69
279.115	80.69
279.347	89.69
279.579	103.69
279.81	86.69
280.042	114.69
280.273	121.69
280.505	107.69
280.736	100.69
280.968	79.69
281.199	98.69
281.431	94.69
281.662	96.69
281.894	82.69
282.125	85.69
282.356	118.69
282.588	144.69
282.819	111.69
283.051	100.69
283.282	90.69
283.513	89.69
283.745	76.69
283.976	75.69
284.207	80.69
284.439	88.69
284.67	96.69
284.901	74.69
285.132	89.69
285.364	89.69
285.595	79.69
285.826	89.69
286.057	92.69
286.288	84.69
286.52	83.69
286.751	82.69
286.982	88.69
287.213	90.69
287.444	90.69
287.675	91.69
287.906	90.69
288.138	83.69
288.369	97.69
288.6	93.69
288.831	83.69
289.062	93.69
289.293	81.69
289.524	92.69
289.755	101.69
289.986	96.69
290.217	95.69
290.448	92.69
290.679	85.69
290.91	83.69
291.141	83.69
291.371	81.69
291.602	82.69
291.833	86.69
292.064	96.69
292.295	95.69
292.526	80.69
292.757	88.69
292.987	85.69
293.218	86.69
293.449	77.69
293.68	89.69
293.91	87.69
294.141	90.69
294.372	75.69
294.603	81.69
294.833	85.69
295.064	86.69
295.295	96.69
295.525	79.69
295.756	96.69
295.987	129.69
296.217	135.69
296.448	127.69
296.679	107.69
296.909	93.69
297.14	94.69
297.37	84.69
297.601	77.69
297.831	92.69
298.062	91.69
298.292	101.69
298.523	92.69
298.753	98.69
298.984	89.69
299.214	84.69
299.445	91.69
299.675	101.69
299.905	98.69
300.136	71.69
300.366	81.69
300.597	92.69
300.827	103.69
301.057	94.69
301.288	105.69
301.518	87.69
301.748	106.69
301.979	108.69
302.209	106.69
302.439	90.69
302.669	83.69
302.9	93.69
303.13	86.69
303.36	104.69
303.59	93.69
303.82	114.69
304.051	91.69
304.281	101.69
304.511	101.69
304.741	83.69
304.971	77.69
305.201	102.69
305.431	93.69
305.661	82.69
305.891	91.69
306.121	100.69
306.352	114.69
306.582	111.69
306.812	113.69
307.042	109.69
307.272	121.69
307.502	99.69
307.731	103.69
307.961	102.69
308.191	83.69
308.421	98.69
308.651	87.69
308.881	84.69
309.111	93.69
309.341	82.69
309.571	93.69
309.8	95.69
310.03	86.69
310.26	92.69
310.49	105.69
310.72	95.69
310.949	110.69
311.179	95.69
311.409	99.69
311.639	88.69
311.868	90.69
312.098	97.69
312.328	95.69
312.557	105.69
312.787	109.69
313.017	103.69
313.246	104.69
313.476	91.69
313.706	103.69
313.935	97.69
314.165	109.69
314.394	98.69
314.624	98.69
314.853	105.69
315.083	97.69
315.312	100.69
315.542	96.69
315.771	78.69
316.001	93.69
316.23	86.69
316.46	83.69
316.689	74.69
316.919	87.69
317.148	92.69
317.377	99.69
317.607	107.69
317.836	100.69
318.065	85.69
318.295	104.69
318.524	92.69
318.753	80.69
318.983	100.69
319.212	101.69
319.441	119.69
319.67	96.69
319.9	96.69
320.129	98.69
320.358	100.69
320.587	91.69
320.816	99.69
321.046	107.69
321.275	100.69
321.504	111.69
321.733	90.69
321.962	97.69
322.191	87.69
322.42	92.69
322.649	115.69
322.878	107.69
323.108	116.69
323.337	108.69
323.566	139.69
323.795	154.69
324.024	213.69
324.253	389.69
324.482	850.69
324.71	1767.69
324.939	2394.69
325.168	882.69
325.397	253.69
325.626	147.69
325.855	119.69
326.084	119.69
326.313	122.69
326.542	166.69
326.77	226.69
326.999	477.69
327.228	983.69
327.457	1801.69
327.686	1461.69
327.914	433.69
328.143	292.69
328.372	290.69
328.6	186.69
328.829	141.69
329.058	143.69
329.287	148.69
329.515	127.69
329.744	155.69
329.972	209.69
330.201	379.69
330.43	499.69
330.658	271.69
330.887	173.69
331.115	119.69
331.344	106.69
331.572	109.69
331.801	104.69
332.03	105.69
332.258	99.69
332.486	93.69
332.715	91.69
332.943	90.69
333.172	107.69
333.4	124.69
333.629	122.69
333.857	145.69
334.085	213.69
334.314	345.69
334.542	621.69
334.771	587.69
334.999	207.69
335.227	136.69
335.455	107.69
335.684	90.69
335.912	107.69
336.14	101.69
336.369	95.69
336.597	98.69
336.825	89.69
337.053	84.69
337.281	95.69
337.51	95.69
337.738	94.69
337.966	115.69
338.194	107.69
338.422	90.69
338.65	98.69
338.878	106.69
339.106	77.69
339.334	94.69
339.562	99.69
339.79	97.69
340.018	89.69
340.246	90.69
340.474	107.69
340.702	95.69
340.93	102.69
341.158	102.69
341.386	92.69
341.614	96.69
341.842	99.69
342.07	93.69
342.298	88.69
342.526	86.69
342.754	93.69
342.981	101.69
343.209	87.69
343.437	97.69
343.665	107.69
343.893	86.69
344.12	81.69
344.348	90.69
344.576	92.69
344.804	93.69
345.031	95.69
345.259	101.69
345.487	92.69
345.714	92.69
345.942	95.69
346.17	85.69
346.397	98.69
346.625	91.69
346.853	92.69
347.08	100.69
347.308	97.69
347.535	99.69
347.763	103.69
347.99	101.69
348.218	118.69
348.445	123.69
348.673	99.69
348.9	108.69
349.128	95.69
349.355	97.69
349.583	94.69
349.81	79.69
350.037	93.69
350.265	97.69
350.492	91.69
350.72	100.69
350.947	88.69
351.174	103.69
351.402	112.69
351.629	105.69
351.856	110.69
352.083	103.69
352.311	121.69
352.538	123.69
352.765	108.69
352.992	127.69
353.22	117.69
353.447	98.69
353.674	93.69
353.901	103.69
354.128	84.69
354.355	101.69
354.583	111.69
354.81	101.69
355.037	101.69
355.264	101.69
355.491	86.69
355.718	93.69
355.945	83.69
356.172	92.69
356.399	90.69
356.626	82.69
356.853	90.69
357.08	90.69
357.307	95.69
357.534	110.69
357.761	87.69
357.988	99.69
358.215	103.69
358.441	90.69
358.668	107.69
358.895	93.69
359.122	72.69
359.349	89.69
359.576	85.69
359.802	92.69
360.029	121.69
360.256	117.69
360.483	100.69
360.709	93.69
360.936	108.69
361.163	80.69
361.39	107.69
361.616	102.69
361.843	99.69
362.07	100.69
362.296	100.69
362.523	98.69
362.749	81.69
362.976	86.69
363.203	99.69
363.429	82.69
363.656	92.69
363.882	93.69
364.109	96.69
364.335	103.69
364.562	86.69
364.788	80.69
365.015	98.69
365.241	97.69
365.468	99.69
365.694	108.69
365.92	93.69
366.147	75.69
366.373	89.69
366.599	102.69
366.826	99.69
367.052	91.69
367.278	88.69
367.505	96.69
367.731	81.69
367.957	98.69
368.184	90.69
368.41	100.69
368.636	100.69
368.862	111.69
369.089	95.69
369.315	102.69
369.541	95.69
369.767	92.69
369.993	95.69
370.219	92.69
370.445	98.69
370.672	81.69
370.898	85.69
371.124	87.69
371.35	99.69
371.576	82.69
371.802	92.69
372.028	90.69
372.254	102.69
372.48	102.69
372.706	83.69
372.932	75.69
373.158	101.69
373.384	91.69
373.61	99.69
373.835	98.69
374.061	93.69
374.287	98.69
374.513	106.69
374.739	79.69
374.965	101.69
375.191	83.69
375.416	86.69
375.642	80.69
375.868	99.69
376.094	104.69
376.319	81.69
376.545	80.69
376.771	98.69
376.997	91.69
377.222	88.69
377.448	85.69
377.674	93.69
377.899	101.69
378.125	114.69
378.35	81.69
378.576	99.69
378.802	83.69
379.027	99.69
379.253	106.69
379.478	107.69
379.704	106.69
379.929	90.69
380.155	93.69
380.38	87.69
380.606	96.69
380.831	94.69
381.057	103.69
381.282	111.69
381.507	97.69
381.733	108.69
381.958	95.69
382.184	99.69
382.409	100.69
382.634	102.69
382.86	101.69
383.085	109.69
383.31	99.69
383.535	108.69
383.761	102.69
383.986	112.69
384.211	103.69
384.436	111.69
384.662	107.69
384.887	119.69
385.112	116.69
385.337	110.69
385.562	100.69
385.787	117.69
386.013	116.69
386.238	100.69
386.463	118.69
386.688	115.69
386.913	119.69
387.138	114.69
387.363	98.69
387.588	101.69
387.813	94.69
388.038	104.69
388.263	123.69
388.488	115.69
388.713	101.69
388.938	87.69
389.163	89.69
389.387	92.69
389.612	94.69
389.837	103.69
390.062	95.69
390.287	100.69
390.512	93.69
390.736	87.69
390.961	89.69
391.186	84.69
391.411	99.69
391.636	102.69
391.86	95.69
392.085	90.69
392.31	91.69
392.534	74.69
392.759	100.69
392.984	87.69
393.208	109.69
393.433	110.69
393.658	105.69
393.882	92.69
394.107	101.69
394.331	83.69
394.556	71.69
394.78	85.69
395.005	91.69
395.229	81.69
395.454	88.69
395.678	101.69
395.903	86.69
396.127	91.69
396.352	79.69
396.576	104.69
396.801	93.69
397.025	107.69
397.249	91.69
397.474	82.69
397.698	86.69
397.922	90.69
398.147	94.69
398.371	78.69
398.595	97.69
398.82	91.69
399.044	83.69
399.268	86.69
399.492	85.69
399.717	85.69
399.941	86.69
400.165	92.69
400.389	87.69
400.613	74.69
400.837	81.69
401.062	95.69
401.286	82.69
401.51	81.69
401.734	104.69
401.958	103.69
402.182	120.69
402.406	155.69
402.63	124.69
402.854	103.69
403.078	109.69
403.302	93.69
403.526	97.69
403.75	89.69
403.974	85.69
404.198	101.69
404.422	88.69
404.645	91.69
404.869	82.69
405.093	107.69
405.317	117.69
405.541	130.69
405.765	99.69
405.988	116.69
406.212	177.69
406.436	240.69
406.66	166.69
406.883	111.69
407.107	89.69
407.331	96.69
407.555	93.69
407.778	90.69
408.002	94.69
408.226	97.69
408.449	81.69
408.673	102.69
408.896	99.69
409.12	108.69
409.344	91.69
409.567	87.69
409.791	101.69
410.014	93.69
410.238	102.69
410.461	88.69
410.685	89.69
410.908	92.69
411.132	107.69
411.355	104.69
411.578	102.69
411.802	94.69
412.025	87.69
412.249	108.69
412.472	107.69
412.695	138.69
412.919	104.69
413.142	97.69
413.365	85.69
413.589	96.69
413.812	81.69
414.035	98.69
414.258	95.69
414.482	92.69
414.705	72.69
414.928	77.69
415.151	88.69
415.374	93.69
415.597	80.69
415.821	84.69
416.044	96.69
416.267	82.69
416.49	77.69
416.713	96.69
416.936	85.69
417.159	94.69
417.382	94.69
417.605	94.69
417.828	90.69
418.051	95.69
418.274	88.69
418.497	91.69
418.72	109.69
418.943	92.69
419.166	97.69
419.389	95.69
419.611	87.69
419.834	85.69
420.057	102.69
420.28	98.69
420.503	94.69
420.726	93.69
420.948	90.69
421.171	99.69
421.394	99.69
421.617	84.69
421.839	87.69
422.062	95.69
422.285	101.69
422.507	105.69
422.73	103.69
422.953	105.69
423.175	85.69
423.398	95.69
423.621	103.69
423.843	74.69
424.066	73.69
424.288	90.69
424.511	89.69
424.733	99.69
424.956	105.69
425.178	95.69
425.401	110.69
425.623	115.69
425.846	90.69
426.068	106.69
426.291	100.69
426.513	99.69
426.735	99.69
426.958	87.69
427.18	117.69
427.402	152.69
427.625	201.69
427.847	190.69
428.069	177.69
428.292	111.69
428.514	85.69
428.736	80.69
428.958	83.69
429.181	82.69
429.403	89.69
429.625	74.69
429.847	99.69
430.069	104.69
430.292	99.69
430.514	95.69
430.736	84.69
430.958	82.69
431.18	78.69
431.402	74.69
431.624	82.69
431.846	87.69
432.068	79.69
432.29	76.69
432.512	87.69
432.734	88.69
432.956	97.69
433.178	103.69
433.4	91.69
433.622	97.69
433.844	91.69
434.066	92.69
434.287	93.69
434.509	84.69
434.731	81.69
434.953	96.69
435.175	97.69
435.397	91.69
435.618	91.69
435.84	122.69
436.062	140.69
436.284	115.69
436.505	124.69
436.727	101.69
436.949	93.69
437.17	98.69
437.392	83.69
437.614	91.69
437.835	123.69
438.057	116.69
438.278	111.69
438.5	112.69
438.721	153.69
438.943	83.69
439.165	89.69
439.386	79.69
439.608	93.69
439.829	105.69
440.05	133.69
440.272	150.69
440.493	97.69
440.715	108.69
440.936	96.69
441.158	84.69
441.379	99.69
441.6	92.69
441.822	100.69
442.043	101.69
442.264	113.69
442.486	107.69
442.707	92.69
442.928	100.69
443.149	128.69
443.371	146.69
443.592	113.69
443.813	129.69
444.034	122.69
444.255	87.69
444.476	81.69
444.698	86.69
444.919	98.69
445.14	142.69
445.361	124.69
445.582	119.69
445.803	163.69
446.024	149.69
446.245	149.69
446.466	104.69
446.687	102.69
446.908	76.69
447.129	79.69
447.35	83.69
447.571	82.69
447.792	99.69
448.013	99.69
448.234	109.69
448.455	104.69
448.675	115.69
448.896	113.69
449.117	112.69
449.338	106.69
449.559	135.69
449.779	146.69
450	103.69
450.221	87.69
450.442	90.69
450.662	95.69
450.883	113.69
451.104	111.69
451.324	109.69
451.545	92.69
451.766	80.69
451.986	98.69
452.207	95.69
452.428	84.69
452.648	106.69
452.869	129.69
453.089	100.69
453.31	123.69
453.53	94.69
453.751	92.69
453.971	98.69
454.192	113.69
454.412	98.69
454.633	78.69
454.853	85.69
455.073	94.69
455.294	106.69
455.514	105.69
455.734	89.69
455.955	90.69
456.175	67.69
456.395	84.69
456.616	71.69
456.836	80.69
457.056	86.69
457.276	83.69
457.497	80.69
457.717	80.69
457.937	85.69
458.157	79.69
458.377	92.69
458.598	111.69
458.818	163.69
459.038	177.69
459.258	129.69
459.478	86.69
459.698	94.69
459.918	84.69
460.138	81.69
460.358	90.69
460.578	81.69
460.798	87.69
461.018	85.69
461.238	90.69
461.458	85.69
461.678	83.69
461.898	85.69
462.118	86.69
462.338	82.69
462.558	97.69
462.777	88.69
462.997	85.69
463.217	101.69
463.437	82.69
463.657	70.69
463.876	91.69
464.096	90.69
464.316	96.69
464.536	85.69
464.755	92.69
464.975	111.69
465.195	185.69
465.414	188.69
465.634	99.69
465.854	86.69
466.073	85.69
466.293	73.69
466.512	77.69
466.732	92.69
466.951	64.69
467.171	93.69
467.391	109.69
467.61	105.69
467.829	142.69
468.049	223.69
468.268	301.69
468.488	121.69
468.707	90.69
468.927	101.69
469.146	87.69
469.365	76.69
469.585	91.69
469.804	90.69
470.023	90.69
470.243	90.69
470.462	100.69
470.681	130.69
470.901	103.69
471.12	92.69
471.339	86.69
471.558	97.69
471.777	101.69
471.997	152.69
472.216	397.69
472.435	784.69
472.654	242.69
472.873	119.69
473.092	95.69
473.311	75.69
473.53	81.69
473.749	87.69
473.968	105.69
474.187	124.69
474.406	114.69
474.625	86.69
474.844	98.69
475.063	98.69
475.282	98.69
475.501	83.69
475.72	88.69
475.939	83.69
476.158	78.69
476.377	101.69
476.596	91.69
476.814	102.69
477.033	94.69
477.252	92.69
477.471	90.69
477.69	105.69
477.908	88.69
478.127	89.69
478.346	94.69
478.564	102.69
478.783	102.69
479.002	93.69
479.22	94.69
479.439	107.69
479.658	111.69
479.876	102.69
480.095	85.69
480.313	113.69
480.532	105.69
480.751	145.69
480.969	359.69
481.188	1371.69
481.406	853.69
481.624	174.69
481.843	115.69
482.061	96.69
482.28	97.69
482.498	107.69
482.717	76.69
482.935	87.69
483.153	77.69
483.372	100.69
483.59	92.69
483.808	93.69
484.027	98.69
484.245	90.69
484.463	86.69
484.681	83.69
484.9	87.69
485.118	92.69
485.336	87.69
485.554	94.69
485.772	107.69
485.99	102.69
486.209	114.69
486.427	120.69
486.645	116.69
486.863	112.69
487.081	92.69
487.299	95.69
487.517	86.69
487.735	107.69
487.953	101.69
488.171	101.69
488.389	97.69
488.607	86.69
488.825	93.69
489.043	86.69
489.261	86.69
489.479	86.69
489.696	100.69
489.914	92.69
490.132	95.69
490.35	82.69
490.568	95.69
490.786	81.69
491.003	85.69
491.221	81.69
491.439	99.69
491.657	78.69
491.874	102.69
492.092	86.69
492.31	93.69
492.527	100.69
492.745	96.69
492.963	87.69
493.18	102.69
493.398	106.69
493.615	105.69
493.833	88.69
494.05	84.69
494.268	92.69
494.485	85.69
494.703	85.69
494.92	84.69
495.138	84.69
495.355	96.69
495.573	94.69
495.79	102.69
496.008	96.69
496.225	81.69
496.442	105.69
496.66	85.69
496.877	73.69
497.094	94.69
497.312	86.69
497.529	90.69
497.746	93.69
497.963	95.69
498.181	83.69
498.398	93.69
498.615	107.69
498.832	93.69
499.049	95.69
499.267	92.69
499.484	83.69
499.701	97.69
499.918	89.69
500.135	81.69
500.352	92.69
500.569	92.69
500.786	93.69
501.003	87.69
501.22	116.69
501.437	92.69
501.654	95.69
501.871	107.69
502.088	78.69
502.305	86.69
502.522	86.69
502.739	99.69
502.956	83.69
503.172	99.69
503.389	94.69
503.606	98.69
503.823	100.69
504.04	95.69
504.256	98.69
504.473	80.69
504.69	84.69
504.907	87.69
505.123	89.69
505.34	92.69
505.557	79.69
505.773	96.69
505.99	91.69
506.207	87.69
506.423	84.69
506.64	97.69
506.856	92.69
507.073	87.69
507.289	86.69
507.506	82.69
507.722	103.69
507.939	107.69
508.155	97.69
508.372	77.69
508.588	88.69
508.805	97.69
509.021	88.69
509.238	94.69
509.454	112.69
509.67	104.69
509.887	101.69
510.103	134.69
510.319	202.69
510.536	749.69
510.752	2467.69
510.968	687.69
511.184	172.69
511.401	103.69
511.617	96.69
511.833	98.69
512.049	106.69
512.265	88.69
512.481	94.69
512.698	70.69
512.914	103.69
513.13	103.69
513.346	93.69
513.562	91.69
513.778	98.69
513.994	109.69
514.21	97.69
514.426	118.69
