Data from Circ_2007_H10_HRD10591_00054.txt Node
Date: Wed Jan 03 10:22:08 EST 2024
User: Yrep
Spectrometer: HR+D1059
Trigger mode: 1
Integration Time (sec): 1.000000E-1
Scans to average: 1
Electric dark correction enabled: true
Nonlinearity correction enabled: false
Boxcar width: 0
XAxis mode: Wavelengths
Number of Pixels in Spectrum: 2048
>>>>>Begin Spectral Data<<<<<
223.165	-21.44
223.4	-21.44
223.635	-21.44
223.869	-22.44
224.104	-26.44
224.338	-19.44
224.573	-23.44
224.808	-26.44
225.042	11.56
225.277	-0.44
225.511	13.56
225.746	7.56
225.98	-0.44
226.215	15.56
226.449	19.56
226.683	17.56
226.918	21.56
227.152	33.56
227.387	25.56
227.621	41.56
227.856	41.56
228.09	38.56
228.324	44.56
228.559	49.56
228.793	58.56
229.027	63.56
229.262	82.56
229.496	70.56
229.73	64.56
229.964	71.56
230.199	77.56
230.433	79.56
230.667	76.56
230.901	80.56
231.136	68.56
231.37	71.56
231.604	67.56
231.838	77.56
232.072	79.56
232.306	95.56
232.541	84.56
232.775	75.56
233.009	69.56
233.243	81.56
233.477	85.56
233.711	83.56
233.945	85.56
234.179	85.56
234.413	82.56
234.647	87.56
234.881	82.56
235.115	96.56
235.349	81.56
235.583	75.56
235.817	75.56
236.051	67.56
236.285	95.56
236.519	84.56
236.753	80.56
236.987	68.56
237.221	80.56
237.455	84.56
237.689	61.56
237.922	79.56
238.156	75.56
238.39	85.56
238.624	71.56
238.858	82.56
239.091	72.56
239.325	82.56
239.559	81.56
239.793	84.56
240.027	76.56
240.26	87.56
240.494	84.56
240.728	72.56
240.961	75.56
241.195	72.56
241.429	75.56
241.662	81.56
241.896	61.56
242.13	83.56
242.363	90.56
242.597	76.56
242.83	77.56
243.064	82.56
243.298	88.56
243.531	76.56
243.765	80.56
243.998	74.56
244.232	90.56
244.465	81.56
244.699	77.56
244.932	80.56
245.166	85.56
245.399	87.56
245.633	82.56
245.866	84.56
246.099	72.56
246.333	78.56
246.566	70.56
246.8	73.56
247.033	74.56
247.266	94.56
247.5	84.56
247.733	73.56
247.966	77.56
248.2	72.56
248.433	67.56
248.666	94.56
248.899	84.56
249.133	83.56
249.366	100.56
249.599	100.56
249.832	79.56
250.066	72.56
250.299	81.56
250.532	72.56
250.765	85.56
250.998	79.56
251.231	78.56
251.465	82.56
251.698	78.56
251.931	88.56
252.164	88.56
252.397	93.56
252.63	68.56
252.863	90.56
253.096	80.56
253.329	76.56
253.562	83.56
253.795	91.56
254.028	78.56
254.261	85.56
254.494	75.56
254.727	79.56
254.96	90.56
255.193	80.56
255.426	76.56
255.659	66.56
255.892	84.56
256.124	71.56
256.357	82.56
256.59	84.56
256.823	83.56
257.056	69.56
257.289	84.56
257.521	85.56
257.754	91.56
257.987	64.56
258.22	75.56
258.452	87.56
258.685	99.56
258.918	86.56
259.151	90.56
259.383	73.56
259.616	78.56
259.849	85.56
260.081	90.56
260.314	76.56
260.547	79.56
260.779	78.56
261.012	95.56
261.244	80.56
261.477	81.56
261.71	96.56
261.942	101.56
262.175	120.56
262.407	92.56
262.64	96.56
262.872	74.56
263.105	97.56
263.337	100.56
263.57	89.56
263.802	103.56
264.035	77.56
264.267	80.56
264.499	91.56
264.732	79.56
264.964	94.56
265.197	80.56
265.429	78.56
265.661	65.56
265.894	83.56
266.126	87.56
266.358	74.56
266.591	87.56
266.823	98.56
267.055	72.56
267.287	91.56
267.52	79.56
267.752	83.56
267.984	85.56
268.216	76.56
268.448	78.56
268.681	80.56
268.913	85.56
269.145	96.56
269.377	82.56
269.609	90.56
269.841	76.56
270.073	97.56
270.306	83.56
270.538	82.56
270.77	99.56
271.002	78.56
271.234	91.56
271.466	84.56
271.698	82.56
271.93	86.56
272.162	84.56
272.394	88.56
272.626	89.56
272.858	87.56
273.09	81.56
273.322	86.56
273.553	76.56
273.785	104.56
274.017	83.56
274.249	91.56
274.481	82.56
274.713	79.56
274.945	76.56
275.176	90.56
275.408	82.56
275.64	82.56
275.872	88.56
276.104	94.56
276.335	84.56
276.567	110.56
276.799	111.56
277.031	111.56
277.262	122.56
277.494	92.56
277.726	93.56
277.957	93.56
278.189	81.56
278.421	74.56
278.652	90.56
278.884	92.56
279.115	88.56
279.347	76.56
279.579	99.56
279.81	97.56
280.042	114.56
280.273	156.56
280.505	119.56
280.736	92.56
280.968	78.56
281.199	72.56
281.431	72.56
281.662	84.56
281.894	90.56
282.125	85.56
282.356	129.56
282.588	140.56
282.819	124.56
283.051	85.56
283.282	82.56
283.513	84.56
283.745	85.56
283.976	69.56
284.207	94.56
284.439	91.56
284.67	94.56
284.901	75.56
285.132	96.56
285.364	84.56
285.595	68.56
285.826	85.56
286.057	94.56
286.288	72.56
286.52	89.56
286.751	78.56
286.982	84.56
287.213	84.56
287.444	98.56
287.675	76.56
287.906	74.56
288.138	84.56
288.369	84.56
288.6	77.56
288.831	85.56
289.062	74.56
289.293	91.56
289.524	89.56
289.755	71.56
289.986	74.56
290.217	88.56
290.448	89.56
290.679	83.56
290.91	89.56
291.141	78.56
291.371	91.56
291.602	83.56
291.833	75.56
292.064	98.56
292.295	75.56
292.526	83.56
292.757	83.56
292.987	94.56
293.218	92.56
293.449	84.56
293.68	88.56
293.91	76.56
294.141	75.56
294.372	93.56
294.603	82.56
294.833	98.56
295.064	83.56
295.295	96.56
295.525	73.56
295.756	92.56
295.987	115.56
296.217	139.56
296.448	127.56
296.679	95.56
296.909	86.56
297.14	95.56
297.37	85.56
297.601	93.56
297.831	87.56
298.062	82.56
298.292	90.56
298.523	83.56
298.753	74.56
298.984	109.56
299.214	86.56
299.445	90.56
299.675	78.56
299.905	101.56
300.136	84.56
300.366	82.56
300.597	83.56
300.827	100.56
301.057	85.56
301.288	112.56
301.518	91.56
301.748	86.56
301.979	109.56
302.209	93.56
302.439	95.56
302.669	92.56
302.9	69.56
303.13	103.56
303.36	86.56
303.59	89.56
303.82	109.56
304.051	94.56
304.281	92.56
304.511	93.56
304.741	87.56
304.971	85.56
305.201	82.56
305.431	94.56
305.661	94.56
305.891	85.56
306.121	101.56
306.352	99.56
306.582	103.56
306.812	104.56
307.042	107.56
307.272	114.56
307.502	122.56
307.731	107.56
307.961	81.56
308.191	81.56
308.421	92.56
308.651	91.56
308.881	92.56
309.111	111.56
309.341	90.56
309.571	82.56
309.8	102.56
310.03	97.56
310.26	97.56
310.49	74.56
310.72	90.56
310.949	107.56
311.179	92.56
311.409	96.56
311.639	96.56
311.868	91.56
312.098	101.56
312.328	110.56
312.557	99.56
312.787	114.56
313.017	122.56
313.246	106.56
313.476	83.56
313.706	87.56
313.935	89.56
314.165	100.56
314.394	112.56
314.624	101.56
314.853	102.56
315.083	100.56
315.312	106.56
315.542	93.56
315.771	87.56
316.001	80.56
316.23	100.56
316.46	87.56
316.689	80.56
316.919	102.56
317.148	100.56
317.377	108.56
317.607	94.56
317.836	83.56
318.065	88.56
318.295	84.56
318.524	89.56
318.753	97.56
318.983	97.56
319.212	100.56
319.441	117.56
319.67	115.56
319.9	97.56
320.129	84.56
320.358	91.56
320.587	91.56
320.816	92.56
321.046	94.56
321.275	105.56
321.504	109.56
321.733	95.56
321.962	73.56
322.191	105.56
322.42	111.56
322.649	121.56
322.878	106.56
323.108	116.56
323.337	118.56
323.566	141.56
323.795	161.56
324.024	220.56
324.253	435.56
324.482	933.56
324.71	2020.56
324.939	2793.56
325.168	984.56
325.397	260.56
325.626	159.56
325.855	138.56
326.084	125.56
326.313	143.56
326.542	159.56
326.77	251.56
326.999	514.56
327.228	1071.56
327.457	2039.56
327.686	1657.56
327.914	456.56
328.143	322.56
328.372	327.56
328.6	204.56
328.829	123.56
329.058	135.56
329.287	149.56
329.515	137.56
329.744	158.56
329.972	253.56
330.201	409.56
330.43	547.56
330.658	320.56
330.887	194.56
331.115	152.56
331.344	109.56
331.572	114.56
331.801	110.56
332.03	103.56
332.258	99.56
332.486	98.56
332.715	98.56
332.943	101.56
333.172	96.56
333.4	110.56
333.629	129.56
333.857	155.56
334.085	219.56
334.314	401.56
334.542	733.56
334.771	731.56
334.999	224.56
335.227	137.56
335.455	95.56
335.684	89.56
335.912	96.56
336.14	102.56
336.369	96.56
336.597	90.56
336.825	96.56
337.053	106.56
337.281	103.56
337.51	91.56
337.738	91.56
337.966	88.56
338.194	91.56
338.422	95.56
338.65	78.56
338.878	91.56
339.106	95.56
339.334	78.56
339.562	104.56
339.79	105.56
340.018	97.56
340.246	104.56
340.474	95.56
340.702	87.56
340.93	79.56
341.158	95.56
341.386	80.56
341.614	91.56
341.842	91.56
342.07	88.56
342.298	95.56
342.526	94.56
342.754	87.56
342.981	101.56
343.209	75.56
343.437	89.56
343.665	83.56
343.893	83.56
344.12	91.56
344.348	91.56
344.576	73.56
344.804	84.56
345.031	90.56
345.259	106.56
345.487	89.56
345.714	79.56
345.942	99.56
346.17	93.56
346.397	90.56
346.625	98.56
346.853	96.56
347.08	92.56
347.308	87.56
347.535	101.56
347.763	107.56
347.99	89.56
348.218	111.56
348.445	115.56
348.673	99.56
348.9	106.56
349.128	99.56
349.355	92.56
349.583	98.56
349.81	85.56
350.037	84.56
350.265	100.56
350.492	88.56
350.72	99.56
350.947	94.56
351.174	106.56
351.402	103.56
351.629	108.56
351.856	107.56
352.083	94.56
352.311	111.56
352.538	114.56
352.765	117.56
352.992	113.56
353.22	108.56
353.447	108.56
353.674	103.56
353.901	96.56
354.128	95.56
354.355	95.56
354.583	90.56
354.81	78.56
355.037	92.56
355.264	94.56
355.491	91.56
355.718	95.56
355.945	105.56
356.172	99.56
356.399	81.56
356.626	105.56
356.853	82.56
357.08	89.56
357.307	80.56
357.534	89.56
357.761	94.56
357.988	85.56
358.215	106.56
358.441	82.56
358.668	84.56
358.895	81.56
359.122	82.56
359.349	94.56
359.576	107.56
359.802	97.56
360.029	114.56
360.256	99.56
360.483	90.56
360.709	97.56
360.936	77.56
361.163	94.56
361.39	98.56
361.616	80.56
361.843	79.56
362.07	100.56
362.296	96.56
362.523	83.56
362.749	90.56
362.976	85.56
363.203	84.56
363.429	94.56
363.656	106.56
363.882	77.56
364.109	101.56
364.335	88.56
364.562	98.56
364.788	78.56
365.015	82.56
365.241	93.56
365.468	98.56
365.694	107.56
365.92	85.56
366.147	102.56
366.373	89.56
366.599	93.56
366.826	90.56
367.052	85.56
367.278	79.56
367.505	89.56
367.731	88.56
367.957	94.56
368.184	79.56
368.41	93.56
368.636	108.56
368.862	113.56
369.089	114.56
369.315	89.56
369.541	94.56
369.767	80.56
369.993	98.56
370.219	98.56
370.445	95.56
370.672	88.56
370.898	85.56
371.124	84.56
371.35	87.56
371.576	85.56
371.802	85.56
372.028	96.56
372.254	81.56
372.48	73.56
372.706	78.56
372.932	78.56
373.158	82.56
373.384	88.56
373.61	89.56
373.835	90.56
374.061	95.56
374.287	91.56
374.513	98.56
374.739	100.56
374.965	90.56
375.191	87.56
375.416	84.56
375.642	88.56
375.868	83.56
376.094	95.56
376.319	91.56
376.545	87.56
376.771	90.56
376.997	86.56
377.222	92.56
377.448	101.56
377.674	89.56
377.899	90.56
378.125	95.56
378.35	87.56
378.576	100.56
378.802	84.56
379.027	94.56
379.253	85.56
379.478	99.56
379.704	102.56
379.929	91.56
380.155	79.56
380.38	85.56
380.606	97.56
380.831	98.56
381.057	89.56
381.282	100.56
381.507	81.56
381.733	91.56
381.958	85.56
382.184	104.56
382.409	111.56
382.634	109.56
382.86	92.56
383.085	109.56
383.31	116.56
383.535	93.56
383.761	102.56
383.986	88.56
384.211	95.56
384.436	108.56
384.662	101.56
384.887	101.56
385.112	102.56
385.337	99.56
385.562	95.56
385.787	109.56
386.013	119.56
386.238	112.56
386.463	105.56
386.688	92.56
386.913	98.56
387.138	103.56
387.363	100.56
387.588	100.56
387.813	103.56
388.038	110.56
388.263	104.56
388.488	109.56
388.713	81.56
388.938	105.56
389.163	95.56
389.387	100.56
389.612	102.56
389.837	83.56
390.062	71.56
390.287	91.56
390.512	91.56
390.736	82.56
390.961	109.56
391.186	104.56
391.411	93.56
391.636	81.56
391.86	84.56
392.085	95.56
392.31	75.56
392.534	81.56
392.759	85.56
392.984	86.56
393.208	85.56
393.433	89.56
393.658	86.56
393.882	82.56
394.107	68.56
394.331	82.56
394.556	87.56
394.78	94.56
395.005	90.56
395.229	93.56
395.454	88.56
395.678	82.56
395.903	99.56
396.127	83.56
396.352	89.56
396.576	92.56
396.801	70.56
397.025	101.56
397.249	86.56
397.474	83.56
397.698	84.56
397.922	93.56
398.147	87.56
398.371	83.56
398.595	91.56
398.82	83.56
399.044	67.56
399.268	88.56
399.492	97.56
399.717	99.56
399.941	84.56
400.165	85.56
400.389	89.56
400.613	99.56
400.837	106.56
401.062	90.56
401.286	89.56
401.51	103.56
401.734	95.56
401.958	98.56
402.182	123.56
402.406	154.56
402.63	113.56
402.854	112.56
403.078	85.56
403.302	87.56
403.526	88.56
403.75	84.56
403.974	76.56
404.198	99.56
404.422	71.56
404.645	78.56
404.869	106.56
405.093	105.56
405.317	128.56
405.541	114.56
405.765	94.56
405.988	96.56
406.212	173.56
406.436	231.56
406.66	161.56
406.883	103.56
407.107	98.56
407.331	95.56
407.555	106.56
407.778	91.56
408.002	74.56
408.226	92.56
408.449	94.56
408.673	100.56
408.896	96.56
409.12	100.56
409.344	92.56
409.567	76.56
409.791	87.56
410.014	81.56
410.238	90.56
410.461	93.56
410.685	99.56
410.908	87.56
411.132	106.56
411.355	110.56
411.578	95.56
411.802	80.56
412.025	84.56
412.249	91.56
412.472	96.56
412.695	131.56
412.919	111.56
413.142	84.56
413.365	84.56
413.589	64.56
413.812	98.56
414.035	100.56
414.258	96.56
414.482	99.56
414.705	87.56
414.928	92.56
415.151	90.56
415.374	83.56
415.597	93.56
415.821	92.56
416.044	75.56
416.267	88.56
416.49	84.56
416.713	91.56
416.936	85.56
417.159	90.56
417.382	95.56
417.605	88.56
417.828	93.56
418.051	91.56
418.274	88.56
418.497	90.56
418.72	79.56
418.943	86.56
419.166	80.56
419.389	101.56
419.611	78.56
419.834	94.56
420.057	107.56
420.28	100.56
420.503	87.56
420.726	91.56
420.948	89.56
421.171	105.56
421.394	110.56
421.617	102.56
421.839	76.56
422.062	84.56
422.285	98.56
422.507	107.56
422.73	101.56
422.953	92.56
423.175	88.56
423.398	90.56
423.621	100.56
423.843	81.56
424.066	87.56
424.288	85.56
424.511	93.56
424.733	94.56
424.956	111.56
425.178	106.56
425.401	115.56
425.623	122.56
425.846	95.56
426.068	98.56
426.291	100.56
426.513	97.56
426.735	96.56
426.958	97.56
427.18	106.56
427.402	149.56
427.625	197.56
427.847	196.56
428.069	172.56
428.292	128.56
428.514	94.56
428.736	65.56
428.958	77.56
429.181	82.56
429.403	92.56
429.625	85.56
429.847	87.56
430.069	101.56
430.292	100.56
430.514	79.56
430.736	80.56
430.958	84.56
431.18	95.56
431.402	84.56
431.624	87.56
431.846	96.56
432.068	89.56
432.29	84.56
432.512	81.56
432.734	73.56
432.956	93.56
433.178	94.56
433.4	96.56
433.622	87.56
433.844	93.56
434.066	99.56
434.287	90.56
434.509	89.56
434.731	94.56
434.953	83.56
435.175	86.56
435.397	86.56
435.618	88.56
435.84	113.56
436.062	136.56
436.284	122.56
436.505	106.56
436.727	108.56
436.949	93.56
437.17	77.56
437.392	83.56
437.614	109.56
437.835	116.56
438.057	106.56
438.278	109.56
438.5	109.56
438.721	120.56
438.943	103.56
439.165	81.56
439.386	94.56
439.608	98.56
439.829	109.56
440.05	135.56
440.272	157.56
440.493	96.56
440.715	74.56
440.936	80.56
441.158	92.56
441.379	83.56
441.6	85.56
441.822	75.56
442.043	94.56
442.264	113.56
442.486	101.56
442.707	84.56
442.928	97.56
443.149	135.56
443.371	144.56
443.592	119.56
443.813	125.56
444.034	111.56
444.255	82.56
444.476	84.56
444.698	99.56
444.919	79.56
445.14	134.56
445.361	123.56
445.582	127.56
445.803	132.56
446.024	147.56
446.245	161.56
446.466	114.56
446.687	88.56
446.908	90.56
447.129	94.56
447.35	88.56
447.571	96.56
447.792	106.56
448.013	91.56
448.234	112.56
448.455	93.56
448.675	106.56
448.896	143.56
449.117	114.56
449.338	95.56
449.559	138.56
449.779	146.56
450	85.56
450.221	91.56
450.442	100.56
450.662	95.56
450.883	112.56
451.104	106.56
451.324	111.56
451.545	89.56
451.766	76.56
451.986	84.56
452.207	72.56
452.428	93.56
452.648	103.56
452.869	107.56
453.089	119.56
453.31	122.56
453.53	95.56
453.751	85.56
453.971	107.56
454.192	121.56
454.412	103.56
454.633	85.56
454.853	93.56
455.073	93.56
455.294	89.56
455.514	92.56
455.734	74.56
455.955	71.56
456.175	84.56
456.395	84.56
456.616	78.56
456.836	99.56
457.056	76.56
457.276	85.56
457.497	85.56
457.717	89.56
457.937	69.56
458.157	80.56
458.377	93.56
458.598	127.56
458.818	157.56
459.038	172.56
459.258	114.56
459.478	100.56
459.698	77.56
459.918	82.56
460.138	76.56
460.358	84.56
460.578	88.56
460.798	102.56
461.018	91.56
461.238	67.56
461.458	90.56
461.678	81.56
461.898	95.56
462.118	78.56
462.338	81.56
462.558	88.56
462.777	71.56
462.997	101.56
463.217	81.56
463.437	79.56
463.657	92.56
463.876	87.56
464.096	80.56
464.316	93.56
464.536	90.56
464.755	94.56
464.975	107.56
465.195	164.56
465.414	186.56
465.634	100.56
465.854	100.56
466.073	96.56
466.293	82.56
466.512	81.56
466.732	86.56
466.951	87.56
467.171	91.56
467.391	87.56
467.61	109.56
467.829	132.56
468.049	234.56
468.268	355.56
468.488	144.56
468.707	87.56
468.927	101.56
469.146	95.56
469.365	76.56
469.585	93.56
469.804	90.56
470.023	97.56
470.243	94.56
470.462	96.56
470.681	112.56
470.901	112.56
471.12	96.56
471.339	75.56
471.558	100.56
471.777	112.56
471.997	166.56
472.216	440.56
472.435	963.56
472.654	272.56
472.873	114.56
473.092	87.56
473.311	89.56
473.53	90.56
473.749	80.56
473.968	89.56
474.187	112.56
474.406	93.56
474.625	76.56
474.844	81.56
475.063	83.56
475.282	92.56
475.501	88.56
475.72	91.56
475.939	81.56
476.158	94.56
476.377	95.56
476.596	81.56
476.814	106.56
477.033	100.56
477.252	77.56
477.471	86.56
477.69	105.56
477.908	87.56
478.127	88.56
478.346	73.56
478.564	104.56
478.783	96.56
479.002	88.56
479.22	95.56
479.439	105.56
479.658	113.56
479.876	101.56
480.095	105.56
480.313	96.56
480.532	122.56
480.751	157.56
480.969	435.56
481.188	1618.56
481.406	1059.56
481.624	198.56
481.843	103.56
482.061	96.56
482.28	95.56
482.498	96.56
482.717	103.56
482.935	96.56
483.153	90.56
483.372	90.56
483.59	86.56
483.808	92.56
484.027	92.56
484.245	79.56
484.463	94.56
484.681	89.56
484.9	100.56
485.118	94.56
485.336	88.56
485.554	98.56
485.772	96.56
485.99	88.56
486.209	90.56
486.427	110.56
486.645	104.56
486.863	117.56
487.081	106.56
487.299	92.56
487.517	89.56
487.735	95.56
487.953	98.56
488.171	99.56
488.389	96.56
488.607	96.56
488.825	77.56
489.043	92.56
489.261	90.56
489.479	84.56
489.696	85.56
489.914	87.56
490.132	83.56
490.35	90.56
490.568	79.56
490.786	80.56
491.003	97.56
491.221	97.56
491.439	91.56
491.657	106.56
491.874	69.56
492.092	84.56
492.31	91.56
492.527	89.56
492.745	83.56
492.963	97.56
493.18	73.56
493.398	78.56
493.615	111.56
493.833	85.56
494.05	87.56
494.268	93.56
494.485	96.56
494.703	76.56
494.92	99.56
495.138	83.56
495.355	88.56
495.573	108.56
495.79	96.56
496.008	84.56
496.225	91.56
496.442	82.56
496.66	96.56
496.877	93.56
497.094	88.56
497.312	85.56
497.529	82.56
497.746	91.56
497.963	91.56
498.181	88.56
498.398	86.56
498.615	99.56
498.832	103.56
499.049	106.56
499.267	81.56
499.484	81.56
499.701	92.56
499.918	87.56
500.135	89.56
500.352	84.56
500.569	90.56
500.786	82.56
501.003	79.56
501.22	85.56
501.437	83.56
501.654	82.56
501.871	109.56
502.088	96.56
502.305	95.56
502.522	91.56
502.739	74.56
502.956	93.56
503.172	98.56
503.389	98.56
503.606	93.56
503.823	86.56
504.04	81.56
504.256	85.56
504.473	87.56
504.69	84.56
504.907	78.56
505.123	98.56
505.34	92.56
505.557	96.56
505.773	87.56
505.99	88.56
506.207	93.56
506.423	90.56
506.64	80.56
506.856	88.56
507.073	89.56
507.289	88.56
507.506	103.56
507.722	114.56
507.939	125.56
508.155	89.56
508.372	100.56
508.588	91.56
508.805	96.56
509.021	104.56
509.238	87.56
509.454	89.56
509.67	88.56
509.887	103.56
510.103	128.56
510.319	191.56
510.536	715.56
510.752	2361.56
510.968	672.56
511.184	169.56
511.401	102.56
511.617	102.56
511.833	99.56
512.049	89.56
512.265	87.56
512.481	109.56
512.698	91.56
512.914	99.56
513.13	98.56
513.346	91.56
513.562	109.56
513.778	109.56
513.994	96.56
514.21	98.56
514.426	110.56
514.642	140.56
514.858	139.56
515.074	172.56
