Data from Circ_2007_H10_HRD10591_00083.txt Node
Date: Wed Jan 03 10:22:13 EST 2024
User: Yrep
Spectrometer: HR+D1059
Trigger mode: 1
Integration Time (sec): 1.000000E-1
Scans to average: 1
Electric dark correction enabled: true
Nonlinearity correction enabled: false
Boxcar width: 0
XAxis mode: Wavelengths
Number of Pixels in Spectrum: 2048
>>>>>Begin Spectral Data<<<<<
223.165	-32.56
223.4	-32.56
223.635	-32.56
223.869	-19.56
224.104	-14.56
224.338	-19.56
224.573	-11.56
224.808	-10.56
225.042	2.44
225.277	-22.56
225.511	7.44
225.746	4.44
225.98	5.44
226.215	19.44
226.449	18.44
226.683	33.44
226.918	23.44
227.152	16.44
227.387	32.44
227.621	40.44
227.856	57.44
228.09	43.44
228.324	53.44
228.559	64.44
228.793	69.44
229.027	81.44
229.262	84.44
229.496	81.44
229.73	91.44
229.964	83.44
230.199	63.44
230.433	80.44
230.667	83.44
230.901	85.44
231.136	72.44
231.37	77.44
231.604	68.44
231.838	67.44
232.072	76.44
232.306	94.44
232.541	77.44
232.775	72.44
233.009	80.44
233.243	90.44
233.477	80.44
233.711	71.44
233.945	87.44
234.179	84.44
234.413	73.44
234.647	79.44
234.881	80.44
235.115	85.44
235.349	62.44
235.583	82.44
235.817	83.44
236.051	75.44
236.285	92.44
236.519	85.44
236.753	71.44
236.987	80.44
237.221	83.44
237.455	90.44
237.689	75.44
237.922	82.44
238.156	79.44
238.39	75.44
238.624	73.44
238.858	76.44
239.091	74.44
239.325	81.44
239.559	79.44
239.793	93.44
240.027	79.44
240.26	61.44
240.494	78.44
240.728	80.44
240.961	79.44
241.195	86.44
241.429	70.44
241.662	70.44
241.896	69.44
242.13	68.44
242.363	70.44
242.597	80.44
242.83	81.44
243.064	78.44
243.298	75.44
243.531	67.44
243.765	84.44
243.998	71.44
244.232	89.44
244.465	92.44
244.699	78.44
244.932	69.44
245.166	65.44
245.399	80.44
245.633	82.44
245.866	83.44
246.099	84.44
246.333	91.44
246.566	72.44
246.8	78.44
247.033	73.44
247.266	81.44
247.5	75.44
247.733	62.44
247.966	68.44
248.2	85.44
248.433	77.44
248.666	84.44
248.899	85.44
249.133	73.44
249.366	91.44
249.599	88.44
249.832	83.44
250.066	80.44
250.299	87.44
250.532	88.44
250.765	70.44
250.998	95.44
251.231	84.44
251.465	82.44
251.698	75.44
251.931	81.44
252.164	76.44
252.397	77.44
252.63	76.44
252.863	81.44
253.096	88.44
253.329	71.44
253.562	67.44
253.795	84.44
254.028	91.44
254.261	95.44
254.494	75.44
254.727	76.44
254.96	78.44
255.193	85.44
255.426	75.44
255.659	83.44
255.892	102.44
256.124	87.44
256.357	93.44
256.59	87.44
256.823	93.44
257.056	79.44
257.289	89.44
257.521	87.44
257.754	92.44
257.987	84.44
258.22	95.44
258.452	99.44
258.685	99.44
258.918	90.44
259.151	79.44
259.383	83.44
259.616	82.44
259.849	73.44
260.081	81.44
260.314	91.44
260.547	88.44
260.779	91.44
261.012	104.44
261.244	91.44
261.477	97.44
261.71	109.44
261.942	140.44
262.175	139.44
262.407	89.44
262.64	85.44
262.872	95.44
263.105	80.44
263.337	69.44
263.57	77.44
263.802	73.44
264.035	88.44
264.267	75.44
264.499	90.44
264.732	81.44
264.964	87.44
265.197	83.44
265.429	74.44
265.661	71.44
265.894	97.44
266.126	91.44
266.358	82.44
266.591	73.44
266.823	93.44
267.055	88.44
267.287	87.44
267.52	75.44
267.752	75.44
267.984	86.44
268.216	93.44
268.448	79.44
268.681	86.44
268.913	86.44
269.145	79.44
269.377	65.44
269.609	84.44
269.841	75.44
270.073	85.44
270.306	79.44
270.538	67.44
270.77	89.44
271.002	84.44
271.234	86.44
271.466	79.44
271.698	82.44
271.93	93.44
272.162	81.44
272.394	88.44
272.626	93.44
272.858	83.44
273.09	83.44
273.322	87.44
273.553	77.44
273.785	98.44
274.017	90.44
274.249	97.44
274.481	92.44
274.713	80.44
274.945	91.44
275.176	91.44
275.408	91.44
275.64	119.44
275.872	113.44
276.104	114.44
276.335	97.44
276.567	100.44
276.799	142.44
277.031	155.44
277.262	161.44
277.494	125.44
277.726	76.44
277.957	87.44
278.189	94.44
278.421	96.44
278.652	92.44
278.884	86.44
279.115	81.44
279.347	95.44
279.579	92.44
279.81	115.44
280.042	152.44
280.273	199.44
280.505	147.44
280.736	102.44
280.968	79.44
281.199	94.44
281.431	84.44
281.662	100.44
281.894	85.44
282.125	91.44
282.356	131.44
282.588	177.44
282.819	122.44
283.051	94.44
283.282	84.44
283.513	88.44
283.745	71.44
283.976	100.44
284.207	78.44
284.439	75.44
284.67	75.44
284.901	85.44
285.132	87.44
285.364	91.44
285.595	85.44
285.826	88.44
286.057	87.44
286.288	76.44
286.52	85.44
286.751	87.44
286.982	112.44
287.213	85.44
287.444	92.44
287.675	79.44
287.906	88.44
288.138	99.44
288.369	94.44
288.6	96.44
288.831	87.44
289.062	82.44
289.293	94.44
289.524	83.44
289.755	99.44
289.986	82.44
290.217	89.44
290.448	96.44
290.679	97.44
290.91	90.44
291.141	92.44
291.371	80.44
291.602	79.44
291.833	72.44
292.064	91.44
292.295	85.44
292.526	88.44
292.757	89.44
292.987	98.44
293.218	79.44
293.449	80.44
293.68	79.44
293.91	95.44
294.141	94.44
294.372	89.44
294.603	82.44
294.833	93.44
295.064	92.44
295.295	87.44
295.525	84.44
295.756	100.44
295.987	122.44
296.217	156.44
296.448	140.44
296.679	91.44
296.909	97.44
297.14	69.44
297.37	80.44
297.601	75.44
297.831	89.44
298.062	106.44
298.292	92.44
298.523	97.44
298.753	87.44
298.984	88.44
299.214	103.44
299.445	99.44
299.675	101.44
299.905	101.44
300.136	90.44
300.366	91.44
300.597	90.44
300.827	88.44
301.057	108.44
301.288	115.44
301.518	100.44
301.748	101.44
301.979	120.44
302.209	77.44
302.439	105.44
302.669	104.44
302.9	95.44
303.13	103.44
303.36	96.44
303.59	119.44
303.82	137.44
304.051	93.44
304.281	88.44
304.511	97.44
304.741	77.44
304.971	74.44
305.201	97.44
305.431	87.44
305.661	84.44
305.891	93.44
306.121	92.44
306.352	121.44
306.582	115.44
306.812	98.44
307.042	107.44
307.272	132.44
307.502	147.44
307.731	148.44
307.961	106.44
308.191	94.44
308.421	103.44
308.651	103.44
308.881	100.44
309.111	92.44
309.341	113.44
309.571	99.44
309.8	100.44
310.03	91.44
310.26	96.44
310.49	116.44
310.72	103.44
310.949	122.44
311.179	125.44
311.409	106.44
311.639	107.44
311.868	93.44
312.098	98.44
312.328	91.44
312.557	93.44
312.787	123.44
313.017	106.44
313.246	106.44
313.476	95.44
313.706	92.44
313.935	93.44
314.165	103.44
314.394	117.44
314.624	98.44
314.853	114.44
315.083	93.44
315.312	113.44
315.542	89.44
315.771	91.44
316.001	89.44
316.23	84.44
316.46	93.44
316.689	98.44
316.919	98.44
317.148	95.44
317.377	89.44
317.607	104.44
317.836	109.44
318.065	87.44
318.295	100.44
318.524	87.44
318.753	100.44
318.983	86.44
319.212	108.44
319.441	109.44
319.67	126.44
319.9	98.44
320.129	85.44
320.358	93.44
320.587	94.44
320.816	106.44
321.046	115.44
321.275	104.44
321.504	84.44
321.733	101.44
321.962	97.44
322.191	97.44
322.42	98.44
322.649	117.44
322.878	127.44
323.108	128.44
323.337	132.44
323.566	161.44
323.795	169.44
324.024	244.44
324.253	481.44
324.482	1051.44
324.71	2216.44
324.939	2992.44
325.168	1107.44
325.397	296.44
325.626	167.44
325.855	145.44
326.084	128.44
326.313	143.44
326.542	180.44
326.77	276.44
326.999	528.44
327.228	1113.44
327.457	2132.44
327.686	1743.44
327.914	539.44
328.143	432.44
328.372	521.44
328.6	315.44
328.829	169.44
329.058	169.44
329.287	181.44
329.515	170.44
329.744	196.44
329.972	351.44
330.201	705.44
330.43	1072.44
330.658	541.44
330.887	277.44
331.115	193.44
331.344	134.44
331.572	127.44
331.801	122.44
332.03	109.44
332.258	114.44
332.486	92.44
332.715	104.44
332.943	92.44
333.172	105.44
333.4	120.44
333.629	132.44
333.857	201.44
334.085	332.44
334.314	653.44
334.542	1240.44
334.771	1291.44
334.999	360.44
335.227	155.44
335.455	126.44
335.684	122.44
335.912	97.44
336.14	110.44
336.369	110.44
336.597	111.44
336.825	109.44
337.053	81.44
337.281	94.44
337.51	79.44
337.738	88.44
337.966	92.44
338.194	103.44
338.422	95.44
338.65	101.44
338.878	92.44
339.106	98.44
339.334	96.44
339.562	91.44
339.79	95.44
340.018	104.44
340.246	105.44
340.474	105.44
340.702	92.44
340.93	89.44
341.158	88.44
341.386	108.44
341.614	105.44
341.842	107.44
342.07	94.44
342.298	91.44
342.526	84.44
342.754	77.44
342.981	90.44
343.209	88.44
343.437	100.44
343.665	97.44
343.893	88.44
344.12	85.44
344.348	93.44
344.576	95.44
344.804	99.44
345.031	85.44
345.259	112.44
345.487	92.44
345.714	102.44
345.942	89.44
346.17	99.44
346.397	95.44
346.625	99.44
346.853	96.44
347.08	96.44
347.308	88.44
347.535	112.44
347.763	114.44
347.99	109.44
348.218	108.44
348.445	120.44
348.673	110.44
348.9	104.44
349.128	98.44
349.355	77.44
349.583	87.44
349.81	89.44
350.037	99.44
350.265	104.44
350.492	97.44
350.72	85.44
350.947	98.44
351.174	117.44
351.402	108.44
351.629	107.44
351.856	112.44
352.083	100.44
352.311	125.44
352.538	121.44
352.765	115.44
352.992	113.44
353.22	122.44
353.447	110.44
353.674	111.44
353.901	104.44
354.128	95.44
354.355	97.44
354.583	96.44
354.81	82.44
355.037	94.44
355.264	98.44
355.491	93.44
355.718	111.44
355.945	97.44
356.172	111.44
356.399	98.44
356.626	91.44
356.853	93.44
357.08	92.44
357.307	88.44
357.534	84.44
357.761	104.44
357.988	83.44
358.215	87.44
358.441	103.44
358.668	99.44
358.895	87.44
359.122	89.44
359.349	91.44
359.576	101.44
359.802	110.44
360.029	135.44
360.256	152.44
360.483	114.44
360.709	93.44
360.936	91.44
361.163	109.44
361.39	111.44
361.616	110.44
361.843	91.44
362.07	107.44
362.296	110.44
362.523	96.44
362.749	92.44
362.976	103.44
363.203	101.44
363.429	98.44
363.656	87.44
363.882	96.44
364.109	83.44
364.335	97.44
364.562	93.44
364.788	79.44
365.015	93.44
365.241	103.44
365.468	124.44
365.694	117.44
365.92	108.44
366.147	98.44
366.373	91.44
366.599	95.44
366.826	91.44
367.052	100.44
367.278	91.44
367.505	90.44
367.731	88.44
367.957	95.44
368.184	109.44
368.41	107.44
368.636	125.44
368.862	131.44
369.089	102.44
369.315	104.44
369.541	90.44
369.767	85.44
369.993	92.44
370.219	99.44
370.445	78.44
370.672	87.44
370.898	87.44
371.124	76.44
371.35	74.44
371.576	79.44
371.802	72.44
372.028	97.44
372.254	86.44
372.48	93.44
372.706	89.44
372.932	89.44
373.158	83.44
373.384	78.44
373.61	81.44
373.835	98.44
374.061	86.44
374.287	98.44
374.513	91.44
374.739	85.44
374.965	93.44
375.191	98.44
375.416	76.44
375.642	74.44
375.868	92.44
376.094	96.44
376.319	80.44
376.545	87.44
376.771	87.44
376.997	89.44
377.222	77.44
377.448	83.44
377.674	89.44
377.899	98.44
378.125	85.44
378.35	81.44
378.576	81.44
378.802	82.44
379.027	94.44
379.253	104.44
379.478	102.44
379.704	80.44
379.929	92.44
380.155	77.44
380.38	87.44
380.606	91.44
380.831	93.44
381.057	99.44
381.282	103.44
381.507	89.44
381.733	102.44
381.958	102.44
382.184	113.44
382.409	94.44
382.634	110.44
382.86	104.44
383.085	111.44
383.31	87.44
383.535	92.44
383.761	94.44
383.986	104.44
384.211	71.44
384.436	82.44
384.662	82.44
384.887	102.44
385.112	106.44
385.337	92.44
385.562	104.44
385.787	114.44
386.013	115.44
386.238	108.44
386.463	112.44
386.688	96.44
386.913	102.44
387.138	100.44
387.363	89.44
387.588	105.44
387.813	109.44
388.038	94.44
388.263	95.44
388.488	106.44
388.713	96.44
388.938	98.44
389.163	91.44
389.387	98.44
389.612	89.44
389.837	96.44
390.062	92.44
390.287	74.44
390.512	92.44
390.736	95.44
390.961	91.44
391.186	92.44
391.411	87.44
391.636	83.44
391.86	81.44
392.085	70.44
392.31	81.44
392.534	86.44
392.759	80.44
392.984	87.44
393.208	88.44
393.433	102.44
393.658	84.44
393.882	81.44
394.107	78.44
394.331	83.44
394.556	80.44
394.78	96.44
395.005	84.44
395.229	74.44
395.454	94.44
395.678	82.44
395.903	77.44
396.127	82.44
396.352	74.44
396.576	91.44
396.801	90.44
397.025	107.44
397.249	82.44
397.474	84.44
397.698	83.44
397.922	80.44
398.147	85.44
398.371	88.44
398.595	81.44
398.82	86.44
399.044	77.44
399.268	79.44
399.492	75.44
399.717	81.44
399.941	76.44
400.165	94.44
400.389	92.44
400.613	99.44
400.837	82.44
401.062	91.44
401.286	89.44
401.51	96.44
401.734	85.44
401.958	94.44
402.182	157.44
402.406	217.44
402.63	137.44
402.854	113.44
403.078	96.44
403.302	93.44
403.526	92.44
403.75	100.44
403.974	93.44
404.198	93.44
404.422	91.44
404.645	92.44
404.869	105.44
405.093	112.44
405.317	135.44
405.541	128.44
405.765	109.44
405.988	124.44
406.212	209.44
406.436	335.44
406.66	213.44
406.883	135.44
407.107	103.44
407.331	106.44
407.555	99.44
407.778	106.44
408.002	90.44
408.226	103.44
408.449	77.44
408.673	87.44
408.896	85.44
409.12	97.44
409.344	87.44
409.567	87.44
409.791	90.44
410.014	97.44
410.238	91.44
410.461	91.44
410.685	97.44
410.908	91.44
411.132	91.44
411.355	96.44
411.578	86.44
411.802	92.44
412.025	84.44
412.249	103.44
412.472	107.44
412.695	137.44
412.919	93.44
413.142	83.44
413.365	100.44
413.589	96.44
413.812	89.44
414.035	108.44
414.258	102.44
414.482	78.44
414.705	80.44
414.928	87.44
415.151	88.44
415.374	95.44
415.597	85.44
415.821	95.44
416.044	74.44
416.267	88.44
416.49	80.44
416.713	85.44
416.936	90.44
417.159	82.44
417.382	95.44
417.605	94.44
417.828	102.44
418.051	98.44
418.274	85.44
418.497	92.44
418.72	98.44
418.943	91.44
419.166	95.44
419.389	84.44
419.611	85.44
419.834	89.44
420.057	91.44
420.28	97.44
420.503	100.44
420.726	83.44
420.948	97.44
421.171	87.44
421.394	90.44
421.617	76.44
421.839	82.44
422.062	81.44
422.285	97.44
422.507	110.44
422.73	115.44
422.953	87.44
423.175	85.44
423.398	87.44
423.621	75.44
423.843	82.44
424.066	80.44
424.288	89.44
424.511	91.44
424.733	112.44
424.956	116.44
425.178	107.44
425.401	112.44
425.623	112.44
425.846	82.44
426.068	97.44
426.291	96.44
426.513	96.44
426.735	92.44
426.958	99.44
427.18	120.44
427.402	177.44
427.625	247.44
427.847	227.44
428.069	204.44
428.292	121.44
428.514	95.44
428.736	83.44
428.958	85.44
429.181	85.44
429.403	89.44
429.625	72.44
429.847	96.44
430.069	107.44
430.292	99.44
430.514	95.44
430.736	83.44
430.958	79.44
431.18	76.44
431.402	90.44
431.624	90.44
431.846	79.44
432.068	81.44
432.29	82.44
432.512	82.44
432.734	84.44
432.956	87.44
433.178	97.44
433.4	99.44
433.622	99.44
433.844	83.44
434.066	91.44
434.287	96.44
434.509	91.44
434.731	91.44
434.953	81.44
435.175	94.44
435.397	97.44
435.618	99.44
435.84	120.44
436.062	137.44
436.284	130.44
436.505	105.44
436.727	105.44
436.949	105.44
437.17	92.44
437.392	69.44
437.614	100.44
437.835	129.44
438.057	159.44
438.278	131.44
438.5	108.44
438.721	140.44
438.943	103.44
439.165	94.44
439.386	97.44
439.608	83.44
439.829	107.44
440.05	161.44
440.272	194.44
440.493	116.44
440.715	83.44
440.936	97.44
441.158	89.44
441.379	96.44
441.6	92.44
441.822	100.44
442.043	93.44
442.264	107.44
442.486	104.44
442.707	96.44
442.928	129.44
443.149	170.44
443.371	177.44
443.592	141.44
443.813	134.44
444.034	122.44
444.255	102.44
444.476	95.44
444.698	96.44
444.919	84.44
445.14	148.44
445.361	153.44
445.582	138.44
445.803	173.44
446.024	180.44
446.245	165.44
446.466	132.44
446.687	91.44
446.908	89.44
447.129	97.44
447.35	79.44
447.571	96.44
447.792	98.44
448.013	112.44
448.234	112.44
448.455	123.44
448.675	134.44
448.896	130.44
449.117	93.44
449.338	110.44
449.559	132.44
449.779	155.44
450	101.44
450.221	100.44
450.442	80.44
450.662	96.44
450.883	135.44
451.104	139.44
451.324	108.44
451.545	71.44
451.766	84.44
451.986	97.44
452.207	90.44
452.428	103.44
452.648	100.44
452.869	119.44
453.089	132.44
453.31	146.44
453.53	113.44
453.751	97.44
453.971	97.44
454.192	147.44
454.412	100.44
454.633	97.44
454.853	96.44
455.073	91.44
455.294	101.44
455.514	91.44
455.734	97.44
455.955	91.44
456.175	96.44
456.395	72.44
456.616	81.44
456.836	85.44
457.056	84.44
457.276	94.44
457.497	93.44
457.717	84.44
457.937	88.44
458.157	92.44
458.377	106.44
458.598	124.44
458.818	220.44
459.038	233.44
459.258	157.44
459.478	101.44
459.698	98.44
459.918	89.44
460.138	80.44
460.358	89.44
460.578	99.44
460.798	95.44
461.018	84.44
461.238	86.44
461.458	90.44
461.678	91.44
461.898	78.44
462.118	71.44
462.338	91.44
462.558	79.44
462.777	90.44
462.997	84.44
463.217	113.44
463.437	100.44
463.657	79.44
463.876	79.44
464.096	98.44
464.316	100.44
464.536	106.44
464.755	104.44
464.975	128.44
465.195	236.44
465.414	258.44
465.634	123.44
465.854	86.44
466.073	91.44
466.293	77.44
466.512	84.44
466.732	93.44
466.951	89.44
467.171	87.44
467.391	117.44
467.61	130.44
467.829	184.44
468.049	394.44
468.268	617.44
468.488	177.44
468.707	96.44
468.927	88.44
469.146	90.44
469.365	82.44
469.585	101.44
469.804	106.44
470.023	116.44
470.243	99.44
470.462	119.44
470.681	128.44
470.901	115.44
471.12	97.44
471.339	92.44
471.558	116.44
471.777	133.44
471.997	233.44
472.216	751.44
472.435	1760.44
472.654	457.44
472.873	143.44
473.092	100.44
473.311	97.44
473.53	83.44
473.749	97.44
473.968	98.44
474.187	112.44
474.406	107.44
474.625	87.44
474.844	89.44
475.063	90.44
475.282	86.44
475.501	80.44
475.72	93.44
475.939	80.44
476.158	85.44
476.377	95.44
476.596	104.44
476.814	103.44
477.033	110.44
477.252	98.44
477.471	91.44
477.69	88.44
477.908	92.44
478.127	84.44
478.346	99.44
478.564	98.44
478.783	111.44
479.002	110.44
479.22	111.44
479.439	107.44
479.658	147.44
479.876	122.44
480.095	113.44
480.313	132.44
480.532	139.44
480.751	227.44
480.969	705.44
481.188	2901.44
481.406	1863.44
481.624	285.44
481.843	128.44
482.061	110.44
482.28	92.44
482.498	97.44
482.717	86.44
482.935	97.44
483.153	95.44
483.372	83.44
483.59	94.44
483.808	94.44
484.027	92.44
484.245	88.44
484.463	84.44
484.681	86.44
484.9	103.44
485.118	97.44
485.336	95.44
485.554	89.44
485.772	93.44
485.99	97.44
486.209	113.44
486.427	107.44
486.645	116.44
486.863	130.44
487.081	97.44
487.299	96.44
487.517	96.44
487.735	81.44
487.953	85.44
488.171	97.44
488.389	112.44
488.607	111.44
488.825	83.44
489.043	98.44
489.261	89.44
489.479	77.44
489.696	92.44
489.914	104.44
490.132	103.44
490.35	94.44
490.568	82.44
490.786	89.44
491.003	85.44
491.221	100.44
491.439	93.44
491.657	96.44
491.874	91.44
492.092	95.44
492.31	91.44
492.527	94.44
492.745	95.44
492.963	93.44
493.18	87.44
493.398	108.44
493.615	91.44
493.833	91.44
494.05	96.44
494.268	92.44
494.485	95.44
494.703	89.44
494.92	95.44
495.138	88.44
495.355	85.44
495.573	83.44
495.79	84.44
496.008	88.44
496.225	94.44
496.442	101.44
496.66	101.44
496.877	89.44
497.094	87.44
497.312	96.44
497.529	89.44
497.746	87.44
497.963	92.44
498.181	80.44
498.398	109.44
498.615	110.44
498.832	99.44
499.049	100.44
499.267	99.44
499.484	97.44
499.701	107.44
499.918	100.44
500.135	100.44
500.352	81.44
500.569	93.44
500.786	92.44
501.003	108.44
501.22	92.44
501.437	84.44
501.654	101.44
501.871	132.44
502.088	98.44
502.305	87.44
502.522	75.44
502.739	94.44
502.956	82.44
503.172	97.44
503.389	95.44
503.606	119.44
503.823	104.44
504.04	93.44
504.256	99.44
504.473	81.44
504.69	100.44
504.907	95.44
505.123	106.44
505.34	91.44
505.557	101.44
505.773	98.44
505.99	99.44
506.207	88.44
506.423	78.44
506.64	82.44
506.856	95.44
507.073	93.44
507.289	103.44
507.506	108.44
507.722	141.44
507.939	151.44
508.155	100.44
508.372	97.44
508.588	98.44
508.805	93.44
509.021	86.44
509.238	103.44
509.454	110.44
509.67	122.44
509.887	110.44
510.103	141.44
510.319	247.44
510.536	840.44
510.752	3075.44
510.968	865.44
511.184	187.44
511.401	113.44
511.617	107.44
511.833	102.44
512.049	94.44
512.265	86.44
512.481	94.44
512.698	99.44
512.914	91.44
513.13	103.44
513.346	89.44
513.562	83.44
513.778	94.44
513.994	97.44
