Data from Circ_2007_H10_HRD10591_00038.txt Node
Date: Wed Jan 03 10:22:04 EST 2024
User: Yrep
Spectrometer: HR+D1059
Trigger mode: 1
Integration Time (sec): 1.000000E-1
Scans to average: 1
Electric dark correction enabled: true
Nonlinearity correction enabled: false
Boxcar width: 0
XAxis mode: Wavelengths
Number of Pixels in Spectrum: 2048
>>>>>Begin Spectral Data<<<<<
223.165	-22.81
223.4	-22.81
223.635	-22.81
223.869	-11.81
224.104	-28.81
224.338	-15.81
224.573	-4.81
224.808	-8.81
225.042	-16.81
225.277	-6.81
225.511	-0.81
225.746	8.19
225.98	0.19
226.215	9.19
226.449	21.19
226.683	27.19
226.918	26.19
227.152	25.19
227.387	39.19
227.621	44.19
227.856	45.19
228.09	48.19
228.324	52.19
228.559	58.19
228.793	78.19
229.027	60.19
229.262	70.19
229.496	89.19
229.73	107.19
229.964	101.19
230.199	67.19
230.433	76.19
230.667	101.19
230.901	68.19
231.136	87.19
231.37	88.19
231.604	85.19
231.838	67.19
232.072	80.19
232.306	81.19
232.541	83.19
232.775	84.19
233.009	87.19
233.243	98.19
233.477	86.19
233.711	85.19
233.945	87.19
234.179	94.19
234.413	77.19
234.647	82.19
234.881	80.19
235.115	91.19
235.349	86.19
235.583	86.19
235.817	85.19
236.051	84.19
236.285	85.19
236.519	90.19
236.753	77.19
236.987	84.19
237.221	83.19
237.455	113.19
237.689	73.19
237.922	83.19
238.156	72.19
238.39	67.19
238.624	87.19
238.858	81.19
239.091	71.19
239.325	89.19
239.559	99.19
239.793	83.19
240.027	85.19
240.26	86.19
240.494	87.19
240.728	88.19
240.961	80.19
241.195	92.19
241.429	61.19
241.662	88.19
241.896	76.19
242.13	73.19
242.363	73.19
242.597	84.19
242.83	96.19
243.064	71.19
243.298	84.19
243.531	93.19
243.765	83.19
243.998	91.19
244.232	82.19
244.465	82.19
244.699	78.19
244.932	78.19
245.166	76.19
245.399	84.19
245.633	70.19
245.866	88.19
246.099	86.19
246.333	87.19
246.566	80.19
246.8	86.19
247.033	85.19
247.266	72.19
247.5	81.19
247.733	73.19
247.966	74.19
248.2	81.19
248.433	71.19
248.666	77.19
248.899	88.19
249.133	107.19
249.366	91.19
249.599	99.19
249.832	79.19
250.066	101.19
250.299	86.19
250.532	95.19
250.765	85.19
250.998	62.19
251.231	90.19
251.465	73.19
251.698	108.19
251.931	92.19
252.164	92.19
252.397	70.19
252.63	100.19
252.863	80.19
253.096	75.19
253.329	81.19
253.562	84.19
253.795	86.19
254.028	92.19
254.261	81.19
254.494	78.19
254.727	87.19
254.96	83.19
255.193	85.19
255.426	92.19
255.659	85.19
255.892	87.19
256.124	86.19
256.357	96.19
256.59	96.19
256.823	82.19
257.056	82.19
257.289	99.19
257.521	91.19
257.754	90.19
257.987	90.19
258.22	98.19
258.452	103.19
258.685	84.19
258.918	90.19
259.151	82.19
259.383	84.19
259.616	84.19
259.849	91.19
260.081	74.19
260.314	90.19
260.547	82.19
260.779	91.19
261.012	101.19
261.244	94.19
261.477	81.19
261.71	101.19
261.942	149.19
262.175	158.19
262.407	100.19
262.64	94.19
262.872	87.19
263.105	76.19
263.337	91.19
263.57	78.19
263.802	91.19
264.035	94.19
264.267	79.19
264.499	75.19
264.732	90.19
264.964	90.19
265.197	81.19
265.429	95.19
265.661	82.19
265.894	79.19
266.126	78.19
266.358	84.19
266.591	84.19
266.823	84.19
267.055	88.19
267.287	91.19
267.52	80.19
267.752	89.19
267.984	87.19
268.216	99.19
268.448	81.19
268.681	77.19
268.913	90.19
269.145	75.19
269.377	81.19
269.609	86.19
269.841	71.19
270.073	76.19
270.306	92.19
270.538	85.19
270.77	82.19
271.002	90.19
271.234	93.19
271.466	85.19
271.698	77.19
271.93	84.19
272.162	96.19
272.394	83.19
272.626	97.19
272.858	95.19
273.09	79.19
273.322	89.19
273.553	77.19
273.785	65.19
274.017	73.19
274.249	90.19
274.481	86.19
274.713	86.19
274.945	93.19
275.176	94.19
275.408	106.19
275.64	105.19
275.872	99.19
276.104	100.19
276.335	104.19
276.567	139.19
276.799	160.19
277.031	157.19
277.262	159.19
277.494	119.19
277.726	87.19
277.957	96.19
278.189	102.19
278.421	94.19
278.652	92.19
278.884	107.19
279.115	93.19
279.347	98.19
279.579	95.19
279.81	126.19
280.042	162.19
280.273	223.19
280.505	141.19
280.736	98.19
280.968	100.19
281.199	89.19
281.431	88.19
281.662	87.19
281.894	98.19
282.125	114.19
282.356	140.19
282.588	195.19
282.819	149.19
283.051	102.19
283.282	100.19
283.513	95.19
283.745	93.19
283.976	78.19
284.207	87.19
284.439	93.19
284.67	92.19
284.901	89.19
285.132	85.19
285.364	79.19
285.595	75.19
285.826	78.19
286.057	90.19
286.288	71.19
286.52	83.19
286.751	91.19
286.982	83.19
287.213	93.19
287.444	97.19
287.675	83.19
287.906	75.19
288.138	87.19
288.369	105.19
288.6	106.19
288.831	95.19
289.062	88.19
289.293	100.19
289.524	81.19
289.755	86.19
289.986	85.19
290.217	89.19
290.448	77.19
290.679	108.19
290.91	105.19
291.141	98.19
291.371	84.19
291.602	67.19
291.833	94.19
292.064	89.19
292.295	103.19
292.526	108.19
292.757	95.19
292.987	95.19
293.218	93.19
293.449	91.19
293.68	92.19
293.91	76.19
294.141	77.19
294.372	93.19
294.603	76.19
294.833	83.19
295.064	92.19
295.295	96.19
295.525	92.19
295.756	122.19
295.987	136.19
296.217	195.19
296.448	167.19
296.679	114.19
296.909	77.19
297.14	61.19
297.37	99.19
297.601	95.19
297.831	99.19
298.062	91.19
298.292	92.19
298.523	89.19
298.753	84.19
298.984	86.19
299.214	78.19
299.445	105.19
299.675	117.19
299.905	103.19
300.136	104.19
300.366	79.19
300.597	97.19
300.827	98.19
301.057	107.19
301.288	111.19
301.518	104.19
301.748	116.19
301.979	111.19
302.209	108.19
302.439	100.19
302.669	99.19
302.9	111.19
303.13	101.19
303.36	107.19
303.59	130.19
303.82	151.19
304.051	108.19
304.281	101.19
304.511	110.19
304.741	94.19
304.971	112.19
305.201	94.19
305.431	83.19
305.661	107.19
305.891	104.19
306.121	101.19
306.352	123.19
306.582	131.19
306.812	108.19
307.042	121.19
307.272	142.19
307.502	160.19
307.731	140.19
307.961	112.19
308.191	98.19
308.421	94.19
308.651	101.19
308.881	100.19
309.111	102.19
309.341	98.19
309.571	112.19
309.8	106.19
310.03	117.19
310.26	118.19
310.49	117.19
310.72	104.19
310.949	113.19
311.179	125.19
311.409	106.19
311.639	97.19
311.868	102.19
312.098	105.19
312.328	105.19
312.557	139.19
312.787	127.19
313.017	124.19
313.246	98.19
313.476	92.19
313.706	84.19
313.935	106.19
314.165	122.19
314.394	127.19
314.624	115.19
314.853	113.19
315.083	109.19
315.312	93.19
315.542	85.19
315.771	98.19
316.001	87.19
316.23	101.19
316.46	106.19
316.689	98.19
316.919	108.19
317.148	111.19
317.377	105.19
317.607	96.19
317.836	105.19
318.065	112.19
318.295	98.19
318.524	100.19
318.753	104.19
318.983	108.19
319.212	100.19
319.441	115.19
319.67	148.19
319.9	97.19
320.129	88.19
320.358	97.19
320.587	116.19
320.816	104.19
321.046	117.19
321.275	106.19
321.504	106.19
321.733	104.19
321.962	107.19
322.191	105.19
322.42	107.19
322.649	137.19
322.878	142.19
323.108	129.19
323.337	168.19
323.566	176.19
323.795	193.19
324.024	249.19
324.253	547.19
324.482	1185.19
324.71	2465.19
324.939	3323.19
325.168	1195.19
325.397	345.19
325.626	178.19
325.855	131.19
326.084	138.19
326.313	157.19
326.542	184.19
326.77	283.19
326.999	605.19
327.228	1253.19
327.457	2320.19
327.686	1863.19
327.914	567.19
328.143	463.19
328.372	549.19
328.6	318.19
328.829	197.19
329.058	195.19
329.287	198.19
329.515	179.19
329.744	213.19
329.972	352.19
330.201	689.19
330.43	1055.19
330.658	529.19
330.887	305.19
331.115	197.19
331.344	124.19
331.572	106.19
331.801	114.19
332.03	130.19
332.258	86.19
332.486	117.19
332.715	118.19
332.943	98.19
333.172	130.19
333.4	147.19
333.629	159.19
333.857	213.19
334.085	352.19
334.314	649.19
334.542	1307.19
334.771	1282.19
334.999	351.19
335.227	178.19
335.455	125.19
335.684	118.19
335.912	112.19
336.14	116.19
336.369	98.19
336.597	123.19
336.825	113.19
337.053	94.19
337.281	101.19
337.51	84.19
337.738	108.19
337.966	101.19
338.194	112.19
338.422	102.19
338.65	105.19
338.878	98.19
339.106	92.19
339.334	92.19
339.562	86.19
339.79	110.19
340.018	105.19
340.246	97.19
340.474	125.19
340.702	111.19
340.93	90.19
341.158	90.19
341.386	90.19
341.614	107.19
341.842	101.19
342.07	105.19
342.298	109.19
342.526	87.19
342.754	104.19
342.981	97.19
343.209	101.19
343.437	106.19
343.665	86.19
343.893	99.19
344.12	97.19
344.348	99.19
344.576	113.19
344.804	111.19
345.031	115.19
345.259	116.19
345.487	106.19
345.714	96.19
345.942	97.19
346.17	116.19
346.397	96.19
346.625	106.19
346.853	100.19
347.08	108.19
347.308	112.19
347.535	100.19
347.763	102.19
347.99	109.19
348.218	97.19
348.445	106.19
348.673	121.19
348.9	95.19
349.128	99.19
349.355	95.19
349.583	100.19
349.81	95.19
350.037	96.19
350.265	95.19
350.492	93.19
350.72	109.19
350.947	105.19
351.174	126.19
351.402	152.19
351.629	121.19
351.856	102.19
352.083	122.19
352.311	137.19
352.538	136.19
352.765	126.19
352.992	123.19
353.22	120.19
353.447	116.19
353.674	110.19
353.901	73.19
354.128	97.19
354.355	102.19
354.583	88.19
354.81	97.19
355.037	96.19
355.264	94.19
355.491	92.19
355.718	87.19
355.945	89.19
356.172	88.19
356.399	94.19
356.626	87.19
356.853	113.19
357.08	92.19
357.307	108.19
357.534	97.19
357.761	95.19
357.988	87.19
358.215	87.19
358.441	97.19
358.668	78.19
358.895	99.19
359.122	93.19
359.349	97.19
359.576	87.19
359.802	124.19
360.029	152.19
360.256	157.19
360.483	131.19
360.709	91.19
360.936	91.19
361.163	101.19
361.39	104.19
361.616	97.19
361.843	110.19
362.07	113.19
362.296	110.19
362.523	122.19
362.749	109.19
362.976	111.19
363.203	98.19
363.429	86.19
363.656	92.19
363.882	90.19
364.109	96.19
364.335	98.19
364.562	99.19
364.788	119.19
365.015	105.19
365.241	117.19
365.468	128.19
365.694	133.19
365.92	112.19
366.147	108.19
366.373	79.19
366.599	104.19
366.826	81.19
367.052	103.19
367.278	99.19
367.505	77.19
367.731	109.19
367.957	99.19
368.184	125.19
368.41	115.19
368.636	117.19
368.862	150.19
369.089	132.19
369.315	108.19
369.541	100.19
369.767	94.19
369.993	98.19
370.219	96.19
370.445	100.19
370.672	87.19
370.898	84.19
371.124	97.19
371.35	93.19
371.576	82.19
371.802	85.19
372.028	95.19
372.254	105.19
372.48	99.19
372.706	84.19
372.932	85.19
373.158	90.19
373.384	97.19
373.61	76.19
373.835	83.19
374.061	86.19
374.287	94.19
374.513	97.19
374.739	85.19
374.965	85.19
375.191	85.19
375.416	88.19
375.642	92.19
375.868	100.19
376.094	103.19
376.319	92.19
376.545	106.19
376.771	98.19
376.997	101.19
377.222	92.19
377.448	99.19
377.674	98.19
377.899	101.19
378.125	103.19
378.35	106.19
378.576	91.19
378.802	94.19
379.027	89.19
379.253	104.19
379.478	88.19
379.704	90.19
379.929	96.19
380.155	90.19
380.38	96.19
380.606	100.19
380.831	101.19
381.057	105.19
381.282	105.19
381.507	99.19
381.733	93.19
381.958	102.19
382.184	96.19
382.409	94.19
382.634	106.19
382.86	88.19
383.085	117.19
383.31	105.19
383.535	113.19
383.761	102.19
383.986	104.19
384.211	102.19
384.436	119.19
384.662	117.19
384.887	112.19
385.112	117.19
385.337	107.19
385.562	99.19
385.787	113.19
386.013	128.19
386.238	129.19
386.463	112.19
386.688	125.19
386.913	116.19
387.138	123.19
387.363	114.19
387.588	108.19
387.813	108.19
388.038	95.19
388.263	124.19
388.488	116.19
388.713	102.19
388.938	85.19
389.163	101.19
389.387	103.19
389.612	112.19
389.837	99.19
390.062	89.19
390.287	97.19
390.512	87.19
390.736	91.19
390.961	92.19
391.186	98.19
391.411	87.19
391.636	97.19
391.86	89.19
392.085	81.19
392.31	76.19
392.534	78.19
392.759	92.19
392.984	89.19
393.208	84.19
393.433	99.19
393.658	85.19
393.882	89.19
394.107	95.19
394.331	82.19
394.556	85.19
394.78	87.19
395.005	90.19
395.229	86.19
395.454	100.19
395.678	87.19
395.903	95.19
396.127	104.19
396.352	100.19
396.576	89.19
396.801	93.19
397.025	98.19
397.249	96.19
397.474	93.19
397.698	87.19
397.922	79.19
398.147	87.19
398.371	91.19
398.595	91.19
398.82	85.19
399.044	87.19
399.268	92.19
399.492	78.19
399.717	75.19
399.941	87.19
400.165	94.19
400.389	93.19
400.613	96.19
400.837	103.19
401.062	89.19
401.286	102.19
401.51	94.19
401.734	103.19
401.958	116.19
402.182	156.19
402.406	222.19
402.63	176.19
402.854	125.19
403.078	101.19
403.302	86.19
403.526	91.19
403.75	106.19
403.974	98.19
404.198	97.19
404.422	92.19
404.645	94.19
404.869	94.19
405.093	118.19
405.317	144.19
405.541	147.19
405.765	121.19
405.988	149.19
406.212	247.19
406.436	370.19
406.66	235.19
406.883	141.19
407.107	95.19
407.331	100.19
407.555	101.19
407.778	106.19
408.002	87.19
408.226	105.19
408.449	100.19
408.673	86.19
408.896	89.19
409.12	112.19
409.344	95.19
409.567	96.19
409.791	79.19
410.014	99.19
410.238	86.19
410.461	104.19
410.685	110.19
410.908	101.19
411.132	95.19
411.355	103.19
411.578	99.19
411.802	95.19
412.025	105.19
412.249	108.19
412.472	102.19
412.695	126.19
412.919	123.19
413.142	93.19
413.365	91.19
413.589	90.19
413.812	88.19
414.035	91.19
414.258	98.19
414.482	88.19
414.705	93.19
414.928	100.19
415.151	74.19
415.374	85.19
415.597	84.19
415.821	94.19
416.044	86.19
416.267	91.19
416.49	94.19
416.713	90.19
416.936	83.19
417.159	87.19
417.382	95.19
417.605	102.19
417.828	99.19
418.051	97.19
418.274	101.19
418.497	73.19
418.72	87.19
418.943	95.19
419.166	85.19
419.389	96.19
419.611	99.19
419.834	100.19
420.057	88.19
420.28	92.19
420.503	108.19
420.726	79.19
420.948	91.19
421.171	99.19
421.394	104.19
421.617	95.19
421.839	87.19
422.062	83.19
422.285	93.19
422.507	114.19
422.73	114.19
422.953	103.19
423.175	90.19
423.398	90.19
423.621	88.19
423.843	90.19
424.066	94.19
424.288	92.19
424.511	97.19
424.733	112.19
424.956	127.19
425.178	107.19
425.401	117.19
425.623	117.19
425.846	113.19
426.068	101.19
426.291	101.19
426.513	77.19
426.735	98.19
426.958	88.19
427.18	117.19
427.402	190.19
427.625	282.19
427.847	253.19
428.069	216.19
428.292	119.19
428.514	82.19
428.736	90.19
428.958	94.19
429.181	98.19
429.403	92.19
429.625	80.19
429.847	102.19
430.069	118.19
430.292	97.19
430.514	103.19
430.736	86.19
430.958	86.19
431.18	92.19
431.402	91.19
431.624	74.19
431.846	70.19
432.068	83.19
432.29	82.19
432.512	90.19
432.734	92.19
432.956	95.19
433.178	105.19
433.4	106.19
433.622	106.19
433.844	105.19
434.066	94.19
434.287	102.19
434.509	96.19
434.731	96.19
434.953	103.19
435.175	89.19
435.397	84.19
435.618	104.19
435.84	123.19
436.062	148.19
436.284	125.19
436.505	109.19
436.727	111.19
436.949	100.19
437.17	98.19
437.392	88.19
437.614	102.19
437.835	148.19
438.057	158.19
438.278	148.19
438.5	118.19
438.721	148.19
438.943	105.19
439.165	93.19
439.386	93.19
439.608	100.19
439.829	115.19
440.05	163.19
440.272	213.19
440.493	128.19
440.715	104.19
440.936	100.19
441.158	101.19
441.379	80.19
441.6	111.19
441.822	109.19
442.043	113.19
442.264	143.19
442.486	125.19
442.707	100.19
442.928	137.19
443.149	190.19
443.371	188.19
443.592	159.19
443.813	143.19
444.034	149.19
444.255	114.19
444.476	93.19
444.698	93.19
444.919	94.19
445.14	130.19
445.361	147.19
445.582	143.19
445.803	197.19
446.024	191.19
446.245	184.19
446.466	141.19
446.687	100.19
446.908	94.19
447.129	97.19
447.35	96.19
447.571	94.19
447.792	101.19
448.013	103.19
448.234	129.19
448.455	124.19
448.675	129.19
448.896	142.19
449.117	121.19
449.338	124.19
449.559	145.19
449.779	169.19
450	110.19
450.221	88.19
450.442	95.19
450.662	99.19
450.883	134.19
451.104	172.19
451.324	107.19
451.545	100.19
451.766	100.19
451.986	77.19
452.207	90.19
452.428	105.19
452.648	121.19
452.869	141.19
453.089	164.19
453.31	158.19
453.53	121.19
453.751	95.19
453.971	138.19
454.192	144.19
454.412	121.19
454.633	102.19
454.853	77.19
455.073	87.19
455.294	84.19
455.514	110.19
455.734	104.19
455.955	91.19
456.175	87.19
456.395	92.19
456.616	86.19
456.836	84.19
457.056	82.19
457.276	78.19
457.497	83.19
457.717	87.19
457.937	86.19
458.157	93.19
458.377	92.19
458.598	138.19
458.818	237.19
459.038	254.19
459.258	149.19
459.478	111.19
459.698	90.19
459.918	70.19
460.138	82.19
460.358	89.19
460.578	93.19
460.798	94.19
461.018	105.19
461.238	90.19
461.458	82.19
461.678	87.19
461.898	85.19
462.118	87.19
462.338	99.19
462.558	86.19
462.777	78.19
462.997	85.19
463.217	109.19
463.437	96.19
463.657	87.19
463.876	95.19
464.096	81.19
464.316	84.19
464.536	113.19
464.755	107.19
464.975	147.19
465.195	263.19
465.414	270.19
465.634	101.19
465.854	87.19
466.073	95.19
466.293	89.19
466.512	93.19
466.732	88.19
466.951	92.19
467.171	103.19
467.391	117.19
467.61	140.19
467.829	181.19
468.049	390.19
468.268	596.19
468.488	185.19
468.707	79.19
468.927	103.19
469.146	86.19
469.365	96.19
469.585	99.19
469.804	118.19
470.023	114.19
470.243	108.19
470.462	121.19
470.681	141.19
470.901	110.19
471.12	109.19
471.339	105.19
471.558	111.19
471.777	121.19
471.997	234.19
472.216	765.19
472.435	1725.19
472.654	447.19
472.873	159.19
473.092	100.19
473.311	102.19
473.53	90.19
473.749	101.19
473.968	110.19
474.187	133.19
474.406	118.19
474.625	106.19
474.844	89.19
475.063	65.19
475.282	96.19
475.501	92.19
475.72	83.19
475.939	102.19
476.158	90.19
476.377	92.19
476.596	94.19
476.814	96.19
477.033	97.19
477.252	108.19
477.471	87.19
477.69	95.19
477.908	93.19
478.127	107.19
478.346	95.19
478.564	101.19
478.783	108.19
479.002	103.19
479.22	106.19
479.439	139.19
479.658	131.19
479.876	118.19
480.095	106.19
480.313	126.19
480.532	128.19
480.751	209.19
480.969	664.19
481.188	2873.19
481.406	1825.19
481.624	295.19
481.843	127.19
482.061	97.19
482.28	99.19
482.498	82.19
482.717	101.19
482.935	91.19
483.153	101.19
483.372	92.19
483.59	93.19
483.808	96.19
484.027	88.19
484.245	87.19
484.463	88.19
484.681	95.19
484.9	108.19
485.118	104.19
485.336	106.19
485.554	103.19
485.772	102.19
485.99	107.19
486.209	117.19
486.427	118.19
486.645	150.19
486.863	137.19
487.081	101.19
487.299	115.19
487.517	112.19
487.735	106.19
487.953	101.19
488.171	97.19
488.389	110.19
488.607	113.19
488.825	110.19
489.043	88.19
489.261	98.19
489.479	84.19
489.696	87.19
489.914	103.19
490.132	97.19
490.35	102.19
490.568	106.19
490.786	97.19
491.003	104.19
491.221	104.19
491.439	93.19
491.657	97.19
491.874	86.19
492.092	102.19
492.31	95.19
492.527	99.19
492.745	101.19
492.963	96.19
493.18	99.19
493.398	77.19
493.615	93.19
493.833	86.19
494.05	88.19
494.268	87.19
494.485	86.19
494.703	86.19
494.92	84.19
495.138	78.19
495.355	91.19
495.573	98.19
495.79	94.19
496.008	95.19
496.225	101.19
496.442	101.19
496.66	92.19
496.877	95.19
497.094	90.19
497.312	69.19
497.529	86.19
497.746	95.19
497.963	103.19
498.181	91.19
498.398	95.19
498.615	131.19
498.832	113.19
499.049	101.19
499.267	94.19
499.484	83.19
499.701	94.19
499.918	97.19
500.135	78.19
500.352	92.19
500.569	110.19
500.786	107.19
501.003	100.19
501.22	103.19
501.437	92.19
501.654	91.19
501.871	137.19
502.088	106.19
502.305	97.19
502.522	92.19
502.739	104.19
502.956	96.19
503.172	112.19
503.389	124.19
503.606	139.19
503.823	118.19
504.04	86.19
504.256	88.19
504.473	92.19
504.69	94.19
504.907	97.19
505.123	78.19
505.34	98.19
505.557	98.19
505.773	96.19
505.99	84.19
506.207	95.19
506.423	95.19
506.64	95.19
506.856	88.19
507.073	98.19
507.289	105.19
507.506	103.19
507.722	157.19
507.939	165.19
508.155	111.19
508.372	99.19
508.588	101.19
508.805	103.19
509.021	116.19
509.238	114.19
509.454	110.19
509.67	128.19
509.887	113.19
510.103	171.19
510.319	286.19
510.536	1114.19
510.752	4011.19
510.968	1055.19
511.184	200.19
511.401	137.19
511.617	122.19
