Data from Circ_2007_H10_HRD10591_00057.txt Node
Date: Wed Jan 03 10:22:08 EST 2024
User: Yrep
Spectrometer: HR+D1059
Trigger mode: 1
Integration Time (sec): 1.000000E-1
Scans to average: 1
Electric dark correction enabled: true
Nonlinearity correction enabled: false
Boxcar width: 0
XAxis mode: Wavelengths
Number of Pixels in Spectrum: 2048
>>>>>Begin Spectral Data<<<<<
223.165	-14.31
223.4	-14.31
223.635	-14.31
223.869	-19.31
224.104	-25.31
224.338	-19.31
224.573	-17.31
224.808	-16.31
225.042	-10.31
225.277	1.69
225.511	4.69
225.746	10.69
225.98	8.69
226.215	14.69
226.449	28.69
226.683	9.69
226.918	12.69
227.152	30.69
227.387	48.69
227.621	50.69
227.856	53.69
228.09	41.69
228.324	46.69
228.559	63.69
228.793	62.69
229.027	64.69
229.262	82.69
229.496	90.69
229.73	93.69
229.964	77.69
230.199	90.69
230.433	91.69
230.667	75.69
230.901	81.69
231.136	82.69
231.37	83.69
231.604	88.69
231.838	83.69
232.072	74.69
232.306	86.69
232.541	69.69
232.775	94.69
233.009	86.69
233.243	73.69
233.477	87.69
233.711	78.69
233.945	86.69
234.179	86.69
234.413	72.69
234.647	82.69
234.881	89.69
235.115	79.69
235.349	75.69
235.583	79.69
235.817	80.69
236.051	77.69
236.285	87.69
236.519	83.69
236.753	75.69
236.987	79.69
237.221	80.69
237.455	81.69
237.689	92.69
237.922	89.69
238.156	86.69
238.39	87.69
238.624	81.69
238.858	84.69
239.091	96.69
239.325	85.69
239.559	87.69
239.793	88.69
240.027	62.69
240.26	85.69
240.494	89.69
240.728	88.69
240.961	90.69
241.195	93.69
241.429	68.69
241.662	84.69
241.896	84.69
242.13	88.69
242.363	77.69
242.597	79.69
242.83	89.69
243.064	72.69
243.298	84.69
243.531	80.69
243.765	89.69
243.998	90.69
244.232	82.69
244.465	91.69
244.699	73.69
244.932	76.69
245.166	76.69
245.399	98.69
245.633	78.69
245.866	79.69
246.099	82.69
246.333	80.69
246.566	90.69
246.8	85.69
247.033	76.69
247.266	94.69
247.5	91.69
247.733	81.69
247.966	65.69
248.2	87.69
248.433	71.69
248.666	87.69
248.899	82.69
249.133	88.69
249.366	93.69
249.599	99.69
249.832	88.69
250.066	79.69
250.299	81.69
250.532	86.69
250.765	85.69
250.998	88.69
251.231	86.69
251.465	70.69
251.698	84.69
251.931	86.69
252.164	93.69
252.397	87.69
252.63	85.69
252.863	99.69
253.096	88.69
253.329	80.69
253.562	88.69
253.795	96.69
254.028	85.69
254.261	84.69
254.494	84.69
254.727	77.69
254.96	81.69
255.193	85.69
255.426	66.69
255.659	73.69
255.892	96.69
256.124	83.69
256.357	89.69
256.59	78.69
256.823	89.69
257.056	92.69
257.289	77.69
257.521	93.69
257.754	72.69
257.987	83.69
258.22	92.69
258.452	83.69
258.685	83.69
258.918	85.69
259.151	94.69
259.383	84.69
259.616	79.69
259.849	80.69
260.081	91.69
260.314	80.69
260.547	77.69
260.779	67.69
261.012	85.69
261.244	88.69
261.477	97.69
261.71	99.69
261.942	120.69
262.175	121.69
262.407	86.69
262.64	99.69
262.872	90.69
263.105	89.69
263.337	87.69
263.57	93.69
263.802	92.69
264.035	83.69
264.267	70.69
264.499	95.69
264.732	99.69
264.964	89.69
265.197	92.69
265.429	86.69
265.661	97.69
265.894	89.69
266.126	72.69
266.358	82.69
266.591	81.69
266.823	84.69
267.055	69.69
267.287	77.69
267.52	85.69
267.752	82.69
267.984	95.69
268.216	82.69
268.448	87.69
268.681	89.69
268.913	83.69
269.145	104.69
269.377	102.69
269.609	87.69
269.841	73.69
270.073	91.69
270.306	92.69
270.538	75.69
270.77	81.69
271.002	97.69
271.234	101.69
271.466	87.69
271.698	71.69
271.93	84.69
272.162	96.69
272.394	78.69
272.626	82.69
272.858	105.69
273.09	82.69
273.322	93.69
273.553	84.69
273.785	91.69
274.017	85.69
274.249	80.69
274.481	79.69
274.713	86.69
274.945	92.69
275.176	87.69
275.408	105.69
275.64	93.69
275.872	95.69
276.104	101.69
276.335	86.69
276.567	108.69
276.799	116.69
277.031	101.69
277.262	104.69
277.494	95.69
277.726	96.69
277.957	89.69
278.189	81.69
278.421	83.69
278.652	108.69
278.884	92.69
279.115	82.69
279.347	79.69
279.579	90.69
279.81	116.69
280.042	93.69
280.273	110.69
280.505	103.69
280.736	91.69
280.968	87.69
281.199	78.69
281.431	92.69
281.662	87.69
281.894	99.69
282.125	89.69
282.356	132.69
282.588	144.69
282.819	126.69
283.051	104.69
283.282	91.69
283.513	94.69
283.745	105.69
283.976	100.69
284.207	73.69
284.439	87.69
284.67	89.69
284.901	94.69
285.132	85.69
285.364	84.69
285.595	96.69
285.826	101.69
286.057	97.69
286.288	82.69
286.52	94.69
286.751	83.69
286.982	93.69
287.213	82.69
287.444	87.69
287.675	100.69
287.906	89.69
288.138	106.69
288.369	90.69
288.6	104.69
288.831	86.69
289.062	87.69
289.293	85.69
289.524	86.69
289.755	87.69
289.986	92.69
290.217	88.69
290.448	84.69
290.679	96.69
290.91	86.69
291.141	87.69
291.371	88.69
291.602	82.69
291.833	95.69
292.064	97.69
292.295	81.69
292.526	101.69
292.757	93.69
292.987	85.69
293.218	80.69
293.449	93.69
293.68	94.69
293.91	95.69
294.141	88.69
294.372	86.69
294.603	98.69
294.833	87.69
295.064	89.69
295.295	101.69
295.525	82.69
295.756	98.69
295.987	93.69
296.217	143.69
296.448	127.69
296.679	90.69
296.909	94.69
297.14	91.69
297.37	92.69
297.601	105.69
297.831	83.69
298.062	91.69
298.292	86.69
298.523	94.69
298.753	97.69
298.984	101.69
299.214	97.69
299.445	91.69
299.675	90.69
299.905	92.69
300.136	98.69
300.366	90.69
300.597	97.69
300.827	94.69
301.057	99.69
301.288	100.69
301.518	87.69
301.748	109.69
301.979	105.69
302.209	86.69
302.439	94.69
302.669	82.69
302.9	80.69
303.13	105.69
303.36	113.69
303.59	112.69
303.82	112.69
304.051	91.69
304.281	97.69
304.511	96.69
304.741	82.69
304.971	89.69
305.201	94.69
305.431	100.69
305.661	91.69
305.891	92.69
306.121	105.69
306.352	110.69
306.582	112.69
306.812	93.69
307.042	87.69
307.272	111.69
307.502	112.69
307.731	124.69
307.961	88.69
308.191	85.69
308.421	92.69
308.651	100.69
308.881	93.69
309.111	99.69
309.341	99.69
309.571	94.69
309.8	97.69
310.03	89.69
310.26	98.69
310.49	103.69
310.72	79.69
310.949	88.69
311.179	106.69
311.409	102.69
311.639	88.69
311.868	96.69
312.098	93.69
312.328	101.69
312.557	106.69
312.787	113.69
313.017	116.69
313.246	84.69
313.476	95.69
313.706	99.69
313.935	90.69
314.165	102.69
314.394	93.69
314.624	107.69
314.853	90.69
315.083	105.69
315.312	86.69
315.542	108.69
315.771	97.69
316.001	94.69
316.23	92.69
316.46	95.69
316.689	87.69
316.919	82.69
317.148	105.69
317.377	105.69
317.607	101.69
317.836	89.69
318.065	85.69
318.295	89.69
318.524	79.69
318.753	99.69
318.983	79.69
319.212	98.69
319.441	103.69
319.67	112.69
319.9	87.69
320.129	98.69
320.358	103.69
320.587	105.69
320.816	107.69
321.046	107.69
321.275	99.69
321.504	88.69
321.733	95.69
321.962	90.69
322.191	92.69
322.42	96.69
322.649	112.69
322.878	117.69
323.108	119.69
323.337	129.69
323.566	142.69
323.795	158.69
324.024	202.69
324.253	370.69
324.482	801.69
324.71	1652.69
324.939	2164.69
325.168	814.69
325.397	242.69
325.626	139.69
325.855	138.69
326.084	147.69
326.313	134.69
326.542	159.69
326.77	221.69
326.999	454.69
327.228	909.69
327.457	1654.69
327.686	1316.69
327.914	375.69
328.143	232.69
328.372	223.69
328.6	158.69
328.829	143.69
329.058	126.69
329.287	142.69
329.515	128.69
329.744	132.69
329.972	176.69
330.201	245.69
330.43	338.69
330.658	204.69
330.887	157.69
331.115	150.69
331.344	109.69
331.572	92.69
331.801	116.69
332.03	119.69
332.258	100.69
332.486	104.69
332.715	119.69
332.943	105.69
333.172	108.69
333.4	93.69
333.629	117.69
333.857	146.69
334.085	176.69
334.314	262.69
334.542	418.69
334.771	409.69
334.999	161.69
335.227	114.69
335.455	118.69
335.684	98.69
335.912	97.69
336.14	96.69
336.369	92.69
336.597	110.69
336.825	94.69
337.053	86.69
337.281	91.69
337.51	102.69
337.738	93.69
337.966	97.69
338.194	88.69
338.422	95.69
338.65	96.69
338.878	102.69
339.106	94.69
339.334	95.69
339.562	101.69
339.79	100.69
340.018	91.69
340.246	105.69
340.474	99.69
340.702	84.69
340.93	93.69
341.158	103.69
341.386	104.69
341.614	105.69
341.842	96.69
342.07	88.69
342.298	97.69
342.526	96.69
342.754	113.69
342.981	95.69
343.209	110.69
343.437	105.69
343.665	93.69
343.893	103.69
344.12	92.69
344.348	98.69
344.576	95.69
344.804	98.69
345.031	106.69
345.259	97.69
345.487	92.69
345.714	100.69
345.942	102.69
346.17	98.69
346.397	104.69
346.625	109.69
346.853	90.69
347.08	77.69
347.308	97.69
347.535	97.69
347.763	88.69
347.99	96.69
348.218	96.69
348.445	102.69
348.673	108.69
348.9	97.69
349.128	96.69
349.355	117.69
349.583	101.69
349.81	95.69
350.037	96.69
350.265	92.69
350.492	104.69
350.72	102.69
350.947	106.69
351.174	113.69
351.402	106.69
351.629	106.69
351.856	92.69
352.083	97.69
352.311	94.69
352.538	109.69
352.765	109.69
352.992	107.69
353.22	115.69
353.447	96.69
353.674	98.69
353.901	113.69
354.128	107.69
354.355	97.69
354.583	111.69
354.81	109.69
355.037	95.69
355.264	101.69
355.491	98.69
355.718	107.69
355.945	94.69
356.172	80.69
356.399	98.69
356.626	102.69
356.853	93.69
357.08	89.69
357.307	99.69
357.534	93.69
357.761	115.69
357.988	105.69
358.215	102.69
358.441	84.69
358.668	91.69
358.895	109.69
359.122	104.69
359.349	100.69
359.576	94.69
359.802	101.69
360.029	117.69
360.256	133.69
360.483	103.69
360.709	91.69
360.936	89.69
361.163	87.69
361.39	76.69
361.616	104.69
361.843	95.69
362.07	85.69
362.296	94.69
362.523	94.69
362.749	96.69
362.976	86.69
363.203	99.69
363.429	80.69
363.656	103.69
363.882	96.69
364.109	79.69
364.335	84.69
364.562	99.69
364.788	83.69
365.015	84.69
365.241	94.69
365.468	110.69
365.694	104.69
365.92	86.69
366.147	90.69
366.373	92.69
366.599	96.69
366.826	87.69
367.052	77.69
367.278	95.69
367.505	82.69
367.731	102.69
367.957	100.69
368.184	90.69
368.41	102.69
368.636	118.69
368.862	105.69
369.089	112.69
369.315	104.69
369.541	102.69
369.767	87.69
369.993	108.69
370.219	93.69
370.445	90.69
370.672	94.69
370.898	100.69
371.124	94.69
371.35	84.69
371.576	100.69
371.802	104.69
372.028	96.69
372.254	99.69
372.48	87.69
372.706	99.69
372.932	110.69
373.158	96.69
373.384	101.69
373.61	81.69
373.835	78.69
374.061	88.69
374.287	98.69
374.513	96.69
374.739	89.69
374.965	94.69
375.191	103.69
375.416	102.69
375.642	93.69
375.868	102.69
376.094	101.69
376.319	84.69
376.545	87.69
376.771	88.69
376.997	82.69
377.222	76.69
377.448	110.69
377.674	109.69
377.899	98.69
378.125	96.69
378.35	101.69
378.576	100.69
378.802	100.69
379.027	94.69
379.253	88.69
379.478	93.69
379.704	99.69
379.929	93.69
380.155	90.69
380.38	113.69
380.606	95.69
380.831	84.69
381.057	100.69
381.282	108.69
381.507	102.69
381.733	106.69
381.958	102.69
382.184	102.69
382.409	105.69
382.634	100.69
382.86	103.69
383.085	100.69
383.31	98.69
383.535	102.69
383.761	106.69
383.986	112.69
384.211	102.69
384.436	100.69
384.662	107.69
384.887	101.69
385.112	106.69
385.337	108.69
385.562	108.69
385.787	101.69
386.013	119.69
386.238	121.69
386.463	100.69
386.688	117.69
386.913	100.69
387.138	109.69
387.363	102.69
387.588	104.69
387.813	88.69
388.038	108.69
388.263	111.69
388.488	87.69
388.713	90.69
388.938	87.69
389.163	95.69
389.387	95.69
389.612	106.69
389.837	96.69
390.062	103.69
390.287	72.69
390.512	89.69
390.736	94.69
390.961	97.69
391.186	93.69
391.411	87.69
391.636	105.69
391.86	97.69
392.085	87.69
392.31	93.69
392.534	86.69
392.759	99.69
392.984	97.69
393.208	94.69
393.433	111.69
393.658	103.69
393.882	93.69
394.107	101.69
394.331	73.69
394.556	82.69
394.78	72.69
395.005	94.69
395.229	90.69
395.454	96.69
395.678	96.69
395.903	81.69
396.127	102.69
396.352	86.69
396.576	100.69
396.801	97.69
397.025	107.69
397.249	97.69
397.474	86.69
397.698	81.69
397.922	94.69
398.147	88.69
398.371	85.69
398.595	99.69
398.82	98.69
399.044	90.69
399.268	103.69
399.492	86.69
399.717	74.69
399.941	82.69
400.165	92.69
400.389	93.69
400.613	87.69
400.837	101.69
401.062	111.69
401.286	89.69
401.51	89.69
401.734	94.69
401.958	95.69
402.182	129.69
402.406	166.69
402.63	126.69
402.854	101.69
403.078	99.69
403.302	83.69
403.526	90.69
403.75	85.69
403.974	89.69
404.198	77.69
404.422	96.69
404.645	77.69
404.869	93.69
405.093	101.69
405.317	102.69
405.541	103.69
405.765	101.69
405.988	120.69
406.212	166.69
406.436	211.69
406.66	137.69
406.883	98.69
407.107	94.69
407.331	95.69
407.555	93.69
407.778	94.69
408.002	111.69
408.226	98.69
408.449	90.69
408.673	83.69
408.896	94.69
409.12	103.69
409.344	85.69
409.567	102.69
409.791	96.69
410.014	90.69
410.238	93.69
410.461	93.69
410.685	103.69
410.908	102.69
411.132	109.69
411.355	102.69
411.578	101.69
411.802	96.69
412.025	100.69
412.249	93.69
412.472	102.69
412.695	111.69
412.919	111.69
413.142	84.69
413.365	99.69
413.589	90.69
413.812	98.69
414.035	89.69
414.258	95.69
414.482	89.69
414.705	94.69
414.928	88.69
415.151	90.69
415.374	103.69
415.597	103.69
415.821	98.69
416.044	106.69
416.267	95.69
416.49	78.69
416.713	96.69
416.936	95.69
417.159	98.69
417.382	93.69
417.605	89.69
417.828	94.69
418.051	87.69
418.274	104.69
418.497	94.69
418.72	92.69
418.943	92.69
419.166	86.69
419.389	74.69
419.611	88.69
419.834	97.69
420.057	100.69
420.28	92.69
420.503	90.69
420.726	101.69
420.948	98.69
421.171	102.69
421.394	101.69
421.617	93.69
421.839	94.69
422.062	105.69
422.285	99.69
422.507	93.69
422.73	108.69
422.953	100.69
423.175	90.69
423.398	89.69
423.621	94.69
423.843	90.69
424.066	92.69
424.288	102.69
424.511	97.69
424.733	94.69
424.956	96.69
425.178	91.69
425.401	104.69
425.623	100.69
425.846	84.69
426.068	100.69
426.291	90.69
426.513	90.69
426.735	97.69
426.958	92.69
427.18	113.69
427.402	117.69
427.625	159.69
427.847	163.69
428.069	132.69
428.292	108.69
428.514	104.69
428.736	85.69
428.958	93.69
429.181	83.69
429.403	103.69
429.625	81.69
429.847	95.69
430.069	102.69
430.292	93.69
430.514	93.69
430.736	89.69
430.958	91.69
431.18	89.69
431.402	77.69
431.624	88.69
431.846	88.69
432.068	96.69
432.29	89.69
432.512	99.69
432.734	79.69
432.956	92.69
433.178	99.69
433.4	84.69
433.622	94.69
433.844	94.69
434.066	95.69
434.287	84.69
434.509	91.69
434.731	96.69
434.953	97.69
435.175	85.69
435.397	91.69
435.618	86.69
435.84	98.69
436.062	118.69
436.284	118.69
436.505	110.69
436.727	109.69
436.949	88.69
437.17	96.69
437.392	85.69
437.614	100.69
437.835	108.69
438.057	110.69
438.278	102.69
438.5	109.69
438.721	118.69
438.943	113.69
439.165	100.69
439.386	80.69
439.608	89.69
439.829	97.69
440.05	118.69
440.272	150.69
440.493	96.69
440.715	87.69
440.936	92.69
441.158	96.69
441.379	101.69
441.6	85.69
441.822	101.69
442.043	96.69
442.264	98.69
442.486	107.69
442.707	88.69
442.928	94.69
443.149	116.69
443.371	119.69
443.592	110.69
443.813	117.69
444.034	108.69
444.255	84.69
444.476	83.69
444.698	100.69
444.919	94.69
445.14	138.69
445.361	136.69
445.582	113.69
445.803	127.69
446.024	148.69
446.245	130.69
446.466	90.69
446.687	99.69
446.908	74.69
447.129	72.69
447.35	96.69
447.571	102.69
447.792	104.69
448.013	87.69
448.234	98.69
448.455	100.69
448.675	109.69
448.896	115.69
449.117	97.69
449.338	102.69
449.559	113.69
449.779	134.69
450	88.69
450.221	98.69
450.442	80.69
450.662	97.69
450.883	108.69
451.104	108.69
451.324	101.69
451.545	87.69
451.766	87.69
451.986	93.69
452.207	89.69
452.428	101.69
452.648	107.69
452.869	107.69
453.089	106.69
453.31	117.69
453.53	84.69
453.751	108.69
453.971	96.69
454.192	119.69
454.412	99.69
454.633	80.69
454.853	104.69
455.073	88.69
455.294	87.69
455.514	98.69
455.734	97.69
455.955	96.69
456.175	93.69
456.395	90.69
456.616	86.69
456.836	90.69
457.056	91.69
457.276	81.69
457.497	83.69
457.717	86.69
457.937	95.69
458.157	98.69
458.377	87.69
458.598	106.69
458.818	142.69
459.038	145.69
459.258	129.69
459.478	98.69
459.698	92.69
459.918	78.69
460.138	79.69
460.358	87.69
460.578	103.69
460.798	87.69
461.018	102.69
461.238	85.69
461.458	86.69
461.678	94.69
461.898	100.69
462.118	93.69
462.338	94.69
462.558	89.69
462.777	97.69
462.997	98.69
463.217	89.69
463.437	77.69
463.657	86.69
463.876	92.69
464.096	99.69
464.316	93.69
464.536	85.69
464.755	80.69
464.975	112.69
465.195	169.69
465.414	151.69
465.634	105.69
465.854	89.69
466.073	83.69
466.293	101.69
466.512	73.69
466.732	101.69
466.951	97.69
467.171	94.69
467.391	101.69
467.61	122.69
467.829	136.69
468.049	198.69
468.268	243.69
468.488	124.69
468.707	111.69
468.927	90.69
469.146	99.69
469.365	98.69
469.585	82.69
469.804	105.69
470.023	117.69
470.243	105.69
470.462	101.69
470.681	121.69
470.901	99.69
471.12	79.69
471.339	84.69
471.558	93.69
471.777	107.69
471.997	116.69
472.216	305.69
472.435	600.69
472.654	199.69
472.873	101.69
473.092	93.69
473.311	84.69
473.53	87.69
473.749	106.69
473.968	102.69
474.187	104.69
474.406	94.69
474.625	93.69
474.844	79.69
475.063	97.69
475.282	89.69
475.501	96.69
475.72	92.69
475.939	90.69
476.158	90.69
476.377	105.69
476.596	96.69
476.814	108.69
477.033	100.69
477.252	92.69
477.471	104.69
477.69	94.69
477.908	91.69
478.127	89.69
478.346	73.69
478.564	80.69
478.783	85.69
479.002	95.69
479.22	93.69
479.439	114.69
479.658	111.69
479.876	94.69
480.095	95.69
480.313	106.69
480.532	106.69
480.751	152.69
480.969	302.69
481.188	958.69
481.406	616.69
481.624	154.69
481.843	104.69
482.061	85.69
482.28	90.69
482.498	90.69
482.717	81.69
482.935	92.69
483.153	92.69
483.372	85.69
483.59	103.69
483.808	89.69
484.027	93.69
484.245	99.69
484.463	100.69
484.681	103.69
484.9	98.69
485.118	78.69
485.336	89.69
485.554	104.69
485.772	108.69
485.99	99.69
486.209	101.69
486.427	97.69
486.645	112.69
486.863	106.69
487.081	96.69
487.299	103.69
487.517	110.69
487.735	81.69
487.953	96.69
488.171	109.69
488.389	100.69
488.607	90.69
488.825	86.69
489.043	89.69
489.261	92.69
489.479	103.69
489.696	88.69
489.914	82.69
490.132	91.69
490.35	99.69
490.568	92.69
490.786	83.69
491.003	99.69
491.221	100.69
491.439	106.69
491.657	81.69
491.874	93.69
492.092	92.69
492.31	108.69
492.527	82.69
492.745	89.69
492.963	95.69
493.18	111.69
493.398	99.69
493.615	92.69
493.833	86.69
494.05	101.69
494.268	110.69
494.485	81.69
494.703	92.69
494.92	87.69
495.138	95.69
495.355	84.69
495.573	94.69
495.79	90.69
496.008	81.69
496.225	99.69
496.442	93.69
496.66	97.69
496.877	88.69
497.094	105.69
497.312	104.69
497.529	96.69
497.746	90.69
497.963	110.69
498.181	94.69
498.398	106.69
498.615	102.69
498.832	98.69
499.049	89.69
499.267	104.69
499.484	92.69
499.701	95.69
499.918	98.69
500.135	94.69
500.352	85.69
500.569	90.69
500.786	101.69
501.003	87.69
501.22	96.69
501.437	84.69
501.654	99.69
501.871	115.69
502.088	101.69
502.305	111.69
502.522	91.69
502.739	90.69
502.956	94.69
503.172	96.69
503.389	90.69
503.606	98.69
503.823	90.69
504.04	98.69
504.256	102.69
504.473	80.69
504.69	90.69
504.907	94.69
505.123	100.69
505.34	108.69
505.557	87.69
505.773	82.69
505.99	86.69
506.207	93.69
506.423	94.69
506.64	102.69
506.856	96.69
507.073	104.69
507.289	93.69
507.506	100.69
507.722	107.69
507.939	100.69
508.155	90.69
508.372	94.69
508.588	94.69
508.805	101.69
509.021	96.69
509.238	109.69
509.454	89.69
509.67	112.69
509.887	105.69
510.103	126.69
510.319	220.69
510.536	694.69
510.752	2248.69
510.968	651.69
511.184	163.69
511.401	115.69
511.617	99.69
511.833	82.69
512.049	105.69
512.265	110.69
512.481	100.69
512.698	101.69
512.914	95.69
513.13	92.69
513.346	102.69
513.562	94.69
513.778	95.69
