Data from Circ_2007_H10_HRD10591_00095.txt Node
Date: Wed Jan 03 10:22:16 EST 2024
User: Yrep
Spectrometer: HR+D1059
Trigger mode: 1
Integration Time (sec): 1.000000E-1
Scans to average: 1
Electric dark correction enabled: true
Nonlinearity correction enabled: false
Boxcar width: 0
XAxis mode: Wavelengths
Number of Pixels in Spectrum: 2048
>>>>>Begin Spectral Data<<<<<
223.165	-22.44
223.4	-22.44
223.635	-22.44
223.869	-10.44
224.104	-15.44
224.338	-17.44
224.573	-6.44
224.808	-6.44
225.042	2.56
225.277	-8.44
225.511	-8.44
225.746	2.56
225.98	0.56
226.215	-2.44
226.449	5.56
226.683	17.56
226.918	25.56
227.152	43.56
227.387	37.56
227.621	34.56
227.856	59.56
228.09	52.56
228.324	57.56
228.559	74.56
228.793	57.56
229.027	69.56
229.262	68.56
229.496	73.56
229.73	109.56
229.964	103.56
230.199	68.56
230.433	63.56
230.667	63.56
230.901	87.56
231.136	106.56
231.37	80.56
231.604	87.56
231.838	101.56
232.072	76.56
232.306	86.56
232.541	73.56
232.775	71.56
233.009	84.56
233.243	83.56
233.477	86.56
233.711	66.56
233.945	79.56
234.179	79.56
234.413	73.56
234.647	74.56
234.881	70.56
235.115	85.56
235.349	73.56
235.583	72.56
235.817	71.56
236.051	87.56
236.285	87.56
236.519	80.56
236.753	83.56
236.987	80.56
237.221	85.56
237.455	89.56
237.689	85.56
237.922	75.56
238.156	82.56
238.39	81.56
238.624	85.56
238.858	84.56
239.091	65.56
239.325	84.56
239.559	86.56
239.793	83.56
240.027	81.56
240.26	83.56
240.494	80.56
240.728	74.56
240.961	80.56
241.195	87.56
241.429	84.56
241.662	78.56
241.896	81.56
242.13	82.56
242.363	82.56
242.597	82.56
242.83	68.56
243.064	55.56
243.298	71.56
243.531	86.56
243.765	88.56
243.998	67.56
244.232	82.56
244.465	100.56
244.699	91.56
244.932	84.56
245.166	71.56
245.399	77.56
245.633	89.56
245.866	78.56
246.099	83.56
246.333	75.56
246.566	85.56
246.8	83.56
247.033	87.56
247.266	71.56
247.5	74.56
247.733	73.56
247.966	88.56
248.2	85.56
248.433	91.56
248.666	91.56
248.899	87.56
249.133	85.56
249.366	113.56
249.599	102.56
249.832	76.56
250.066	95.56
250.299	87.56
250.532	87.56
250.765	91.56
250.998	91.56
251.231	79.56
251.465	91.56
251.698	89.56
251.931	94.56
252.164	87.56
252.397	95.56
252.63	81.56
252.863	85.56
253.096	81.56
253.329	86.56
253.562	91.56
253.795	98.56
254.028	88.56
254.261	98.56
254.494	82.56
254.727	87.56
254.96	69.56
255.193	68.56
255.426	84.56
255.659	77.56
255.892	92.56
256.124	103.56
256.357	77.56
256.59	81.56
256.823	73.56
257.056	84.56
257.289	79.56
257.521	102.56
257.754	77.56
257.987	82.56
258.22	97.56
258.452	98.56
258.685	87.56
258.918	104.56
259.151	87.56
259.383	77.56
259.616	85.56
259.849	100.56
260.081	95.56
260.314	95.56
260.547	90.56
260.779	94.56
261.012	102.56
261.244	106.56
261.477	100.56
261.71	117.56
261.942	145.56
262.175	139.56
262.407	103.56
262.64	86.56
262.872	77.56
263.105	85.56
263.337	87.56
263.57	96.56
263.802	90.56
264.035	75.56
264.267	69.56
264.499	91.56
264.732	96.56
264.964	85.56
265.197	77.56
265.429	80.56
265.661	97.56
265.894	95.56
266.126	92.56
266.358	84.56
266.591	72.56
266.823	70.56
267.055	94.56
267.287	84.56
267.52	85.56
267.752	77.56
267.984	95.56
268.216	81.56
268.448	88.56
268.681	85.56
268.913	99.56
269.145	82.56
269.377	108.56
269.609	97.56
269.841	82.56
270.073	99.56
270.306	103.56
270.538	80.56
270.77	76.56
271.002	74.56
271.234	95.56
271.466	90.56
271.698	88.56
271.93	91.56
272.162	90.56
272.394	98.56
272.626	91.56
272.858	82.56
273.09	95.56
273.322	96.56
273.553	91.56
273.785	100.56
274.017	98.56
274.249	91.56
274.481	79.56
274.713	86.56
274.945	90.56
275.176	91.56
275.408	93.56
275.64	101.56
275.872	122.56
276.104	114.56
276.335	97.56
276.567	121.56
276.799	135.56
277.031	177.56
277.262	176.56
277.494	142.56
277.726	107.56
277.957	85.56
278.189	93.56
278.421	93.56
278.652	97.56
278.884	106.56
279.115	78.56
279.347	96.56
279.579	88.56
279.81	123.56
280.042	187.56
280.273	245.56
280.505	176.56
280.736	112.56
280.968	98.56
281.199	95.56
281.431	98.56
281.662	89.56
281.894	84.56
282.125	110.56
282.356	134.56
282.588	193.56
282.819	135.56
283.051	93.56
283.282	87.56
283.513	87.56
283.745	81.56
283.976	90.56
284.207	100.56
284.439	86.56
284.67	94.56
284.901	96.56
285.132	81.56
285.364	73.56
285.595	90.56
285.826	91.56
286.057	78.56
286.288	97.56
286.52	95.56
286.751	86.56
286.982	85.56
287.213	77.56
287.444	101.56
287.675	111.56
287.906	108.56
288.138	92.56
288.369	90.56
288.6	106.56
288.831	99.56
289.062	82.56
289.293	98.56
289.524	109.56
289.755	95.56
289.986	86.56
290.217	81.56
290.448	95.56
290.679	91.56
290.91	84.56
291.141	89.56
291.371	78.56
291.602	94.56
291.833	99.56
292.064	86.56
292.295	87.56
292.526	87.56
292.757	84.56
292.987	99.56
293.218	100.56
293.449	84.56
293.68	80.56
293.91	85.56
294.141	81.56
294.372	114.56
294.603	100.56
294.833	90.56
295.064	96.56
295.295	81.56
295.525	92.56
295.756	107.56
295.987	119.56
296.217	194.56
296.448	166.56
296.679	92.56
296.909	104.56
297.14	103.56
297.37	105.56
297.601	95.56
297.831	95.56
298.062	100.56
298.292	93.56
298.523	106.56
298.753	82.56
298.984	86.56
299.214	86.56
299.445	97.56
299.675	89.56
299.905	97.56
300.136	96.56
300.366	89.56
300.597	100.56
300.827	94.56
301.057	122.56
301.288	114.56
301.518	94.56
301.748	106.56
301.979	102.56
302.209	115.56
302.439	110.56
302.669	100.56
302.9	102.56
303.13	101.56
303.36	105.56
303.59	131.56
303.82	156.56
304.051	115.56
304.281	113.56
304.511	89.56
304.741	86.56
304.971	105.56
305.201	92.56
305.431	93.56
305.661	90.56
305.891	92.56
306.121	102.56
306.352	122.56
306.582	126.56
306.812	114.56
307.042	125.56
307.272	145.56
307.502	168.56
307.731	166.56
307.961	108.56
308.191	108.56
308.421	101.56
308.651	97.56
308.881	78.56
309.111	94.56
309.341	97.56
309.571	102.56
309.8	117.56
310.03	106.56
310.26	114.56
310.49	101.56
310.72	115.56
310.949	122.56
311.179	127.56
311.409	115.56
311.639	98.56
311.868	94.56
312.098	102.56
312.328	99.56
312.557	110.56
312.787	125.56
313.017	113.56
313.246	93.56
313.476	99.56
313.706	117.56
313.935	107.56
314.165	109.56
314.394	123.56
314.624	117.56
314.853	107.56
315.083	110.56
315.312	98.56
315.542	97.56
315.771	99.56
316.001	89.56
316.23	93.56
316.46	89.56
316.689	90.56
316.919	105.56
317.148	104.56
317.377	103.56
317.607	106.56
317.836	100.56
318.065	95.56
318.295	102.56
318.524	107.56
318.753	84.56
318.983	84.56
319.212	109.56
319.441	130.56
319.67	115.56
319.9	99.56
320.129	93.56
320.358	99.56
320.587	99.56
320.816	115.56
321.046	125.56
321.275	115.56
321.504	91.56
321.733	101.56
321.962	115.56
322.191	111.56
322.42	101.56
322.649	119.56
322.878	132.56
323.108	141.56
323.337	141.56
323.566	160.56
323.795	196.56
324.024	273.56
324.253	518.56
324.482	1113.56
324.71	2355.56
324.939	3180.56
325.168	1171.56
325.397	326.56
325.626	181.56
325.855	145.56
326.084	149.56
326.313	153.56
326.542	193.56
326.77	299.56
326.999	567.56
327.228	1191.56
327.457	2213.56
327.686	1813.56
327.914	606.56
328.143	521.56
328.372	661.56
328.6	398.56
328.829	192.56
329.058	202.56
329.287	209.56
329.515	195.56
329.744	237.56
329.972	416.56
330.201	897.56
330.43	1371.56
330.658	631.56
330.887	315.56
331.115	215.56
331.344	128.56
331.572	136.56
331.801	131.56
332.03	135.56
332.258	126.56
332.486	115.56
332.715	89.56
332.943	117.56
333.172	106.56
333.4	132.56
333.629	161.56
333.857	237.56
334.085	410.56
334.314	795.56
334.542	1676.56
334.771	1633.56
334.999	448.56
335.227	187.56
335.455	135.56
335.684	110.56
335.912	112.56
336.14	102.56
336.369	99.56
336.597	123.56
336.825	124.56
337.053	108.56
337.281	93.56
337.51	95.56
337.738	92.56
337.966	108.56
338.194	119.56
338.422	94.56
338.65	98.56
338.878	99.56
339.106	86.56
339.334	99.56
339.562	95.56
339.79	91.56
340.018	87.56
340.246	112.56
340.474	100.56
340.702	101.56
340.93	109.56
341.158	97.56
341.386	111.56
341.614	107.56
341.842	103.56
342.07	99.56
342.298	105.56
342.526	95.56
342.754	92.56
342.981	101.56
343.209	94.56
343.437	98.56
343.665	92.56
343.893	74.56
344.12	93.56
344.348	90.56
344.576	96.56
344.804	103.56
345.031	109.56
345.259	108.56
345.487	117.56
345.714	100.56
345.942	101.56
346.17	107.56
346.397	93.56
346.625	104.56
346.853	103.56
347.08	116.56
347.308	114.56
347.535	106.56
347.763	112.56
347.99	102.56
348.218	112.56
348.445	129.56
348.673	110.56
348.9	120.56
349.128	97.56
349.355	101.56
349.583	101.56
349.81	107.56
350.037	101.56
350.265	89.56
350.492	117.56
350.72	95.56
350.947	107.56
351.174	120.56
351.402	124.56
351.629	116.56
351.856	115.56
352.083	101.56
352.311	121.56
352.538	142.56
352.765	138.56
352.992	123.56
353.22	122.56
353.447	128.56
353.674	111.56
353.901	106.56
354.128	88.56
354.355	97.56
354.583	102.56
354.81	92.56
355.037	92.56
355.264	115.56
355.491	106.56
355.718	97.56
355.945	104.56
356.172	103.56
356.399	92.56
356.626	90.56
356.853	105.56
357.08	89.56
357.307	96.56
357.534	91.56
357.761	103.56
357.988	96.56
358.215	86.56
358.441	98.56
358.668	88.56
358.895	98.56
359.122	85.56
359.349	102.56
359.576	110.56
359.802	125.56
360.029	164.56
360.256	138.56
360.483	121.56
360.709	103.56
360.936	101.56
361.163	101.56
361.39	115.56
361.616	123.56
361.843	79.56
362.07	102.56
362.296	118.56
362.523	93.56
362.749	111.56
362.976	103.56
363.203	106.56
363.429	95.56
363.656	101.56
363.882	92.56
364.109	101.56
364.335	114.56
364.562	103.56
364.788	106.56
365.015	104.56
365.241	110.56
365.468	124.56
365.694	130.56
365.92	112.56
366.147	86.56
366.373	99.56
366.599	95.56
366.826	86.56
367.052	96.56
367.278	106.56
367.505	99.56
367.731	99.56
367.957	104.56
368.184	99.56
368.41	120.56
368.636	144.56
368.862	146.56
369.089	130.56
369.315	110.56
369.541	102.56
369.767	104.56
369.993	119.56
370.219	117.56
370.445	108.56
370.672	69.56
370.898	89.56
371.124	106.56
371.35	109.56
371.576	91.56
371.802	87.56
372.028	86.56
372.254	84.56
372.48	94.56
372.706	91.56
372.932	107.56
373.158	111.56
373.384	91.56
373.61	102.56
373.835	94.56
374.061	106.56
374.287	86.56
374.513	82.56
374.739	90.56
374.965	93.56
375.191	96.56
375.416	91.56
375.642	80.56
375.868	85.56
376.094	105.56
376.319	101.56
376.545	98.56
376.771	91.56
376.997	107.56
377.222	93.56
377.448	92.56
377.674	90.56
377.899	88.56
378.125	87.56
378.35	84.56
378.576	90.56
378.802	94.56
379.027	99.56
379.253	86.56
379.478	93.56
379.704	93.56
379.929	89.56
380.155	105.56
380.38	94.56
380.606	113.56
380.831	96.56
381.057	88.56
381.282	92.56
381.507	97.56
381.733	102.56
381.958	89.56
382.184	102.56
382.409	113.56
382.634	111.56
382.86	107.56
383.085	86.56
383.31	101.56
383.535	95.56
383.761	96.56
383.986	91.56
384.211	94.56
384.436	86.56
384.662	109.56
384.887	116.56
385.112	114.56
385.337	99.56
385.562	101.56
385.787	101.56
386.013	113.56
386.238	122.56
386.463	113.56
386.688	118.56
386.913	109.56
387.138	89.56
387.363	90.56
387.588	101.56
387.813	103.56
388.038	105.56
388.263	93.56
388.488	96.56
388.713	98.56
388.938	101.56
389.163	94.56
389.387	102.56
389.612	101.56
389.837	93.56
390.062	93.56
390.287	92.56
390.512	93.56
390.736	95.56
390.961	76.56
391.186	109.56
391.411	79.56
391.636	84.56
391.86	87.56
392.085	78.56
392.31	98.56
392.534	80.56
392.759	89.56
392.984	104.56
393.208	105.56
393.433	92.56
393.658	84.56
393.882	96.56
394.107	94.56
394.331	86.56
394.556	91.56
394.78	89.56
395.005	97.56
395.229	86.56
395.454	77.56
395.678	86.56
395.903	87.56
396.127	83.56
396.352	73.56
396.576	83.56
396.801	89.56
397.025	87.56
397.249	78.56
397.474	81.56
397.698	94.56
397.922	94.56
398.147	87.56
398.371	80.56
398.595	84.56
398.82	97.56
399.044	88.56
399.268	85.56
399.492	86.56
399.717	93.56
399.941	91.56
400.165	106.56
400.389	113.56
400.613	82.56
400.837	87.56
401.062	85.56
401.286	101.56
401.51	103.56
401.734	107.56
401.958	117.56
402.182	157.56
402.406	223.56
402.63	165.56
402.854	113.56
403.078	109.56
403.302	88.56
403.526	90.56
403.75	86.56
403.974	87.56
404.198	93.56
404.422	98.56
404.645	111.56
404.869	98.56
405.093	114.56
405.317	152.56
405.541	153.56
405.765	139.56
405.988	137.56
406.212	226.56
406.436	357.56
406.66	243.56
406.883	125.56
407.107	97.56
407.331	110.56
407.555	107.56
407.778	112.56
408.002	105.56
408.226	100.56
408.449	85.56
408.673	108.56
408.896	95.56
409.12	97.56
409.344	87.56
409.567	93.56
409.791	97.56
410.014	101.56
410.238	86.56
410.461	90.56
410.685	105.56
410.908	109.56
411.132	122.56
411.355	106.56
411.578	105.56
411.802	86.56
412.025	85.56
412.249	92.56
412.472	117.56
412.695	136.56
412.919	113.56
413.142	104.56
413.365	86.56
413.589	96.56
413.812	97.56
414.035	100.56
414.258	97.56
414.482	95.56
414.705	92.56
414.928	96.56
415.151	99.56
415.374	98.56
415.597	90.56
415.821	94.56
416.044	76.56
416.267	98.56
416.49	83.56
416.713	84.56
416.936	82.56
417.159	99.56
417.382	97.56
417.605	91.56
417.828	111.56
418.051	114.56
418.274	93.56
418.497	73.56
418.72	94.56
418.943	83.56
419.166	92.56
419.389	89.56
419.611	99.56
419.834	93.56
420.057	84.56
420.28	90.56
420.503	88.56
420.726	82.56
420.948	87.56
421.171	106.56
421.394	91.56
421.617	99.56
421.839	92.56
422.062	83.56
422.285	98.56
422.507	107.56
422.73	109.56
422.953	100.56
423.175	82.56
423.398	95.56
423.621	103.56
423.843	86.56
424.066	83.56
424.288	81.56
424.511	85.56
424.733	87.56
424.956	123.56
425.178	119.56
425.401	101.56
425.623	121.56
425.846	114.56
426.068	101.56
426.291	102.56
426.513	89.56
426.735	97.56
426.958	115.56
427.18	126.56
427.402	196.56
427.625	279.56
427.847	245.56
428.069	221.56
428.292	119.56
428.514	99.56
428.736	84.56
428.958	88.56
429.181	85.56
429.403	83.56
429.625	94.56
429.847	96.56
430.069	108.56
430.292	98.56
430.514	89.56
430.736	85.56
430.958	93.56
431.18	81.56
431.402	99.56
431.624	89.56
431.846	93.56
432.068	91.56
432.29	85.56
432.512	85.56
432.734	98.56
432.956	99.56
433.178	87.56
433.4	105.56
433.622	81.56
433.844	96.56
434.066	76.56
434.287	101.56
434.509	105.56
434.731	97.56
434.953	95.56
435.175	102.56
435.397	89.56
435.618	108.56
435.84	113.56
436.062	127.56
436.284	125.56
436.505	108.56
436.727	106.56
436.949	84.56
437.17	83.56
437.392	100.56
437.614	106.56
437.835	133.56
438.057	162.56
438.278	137.56
438.5	121.56
438.721	137.56
438.943	104.56
439.165	88.56
439.386	92.56
439.608	112.56
439.829	106.56
440.05	155.56
440.272	197.56
440.493	116.56
440.715	104.56
440.936	96.56
441.158	93.56
441.379	100.56
441.6	105.56
441.822	109.56
442.043	109.56
442.264	119.56
442.486	124.56
442.707	104.56
442.928	138.56
443.149	188.56
443.371	187.56
443.592	139.56
443.813	133.56
444.034	141.56
444.255	100.56
444.476	82.56
444.698	92.56
444.919	81.56
445.14	139.56
445.361	129.56
445.582	149.56
445.803	201.56
446.024	192.56
446.245	178.56
446.466	131.56
446.687	106.56
446.908	98.56
447.129	86.56
447.35	91.56
447.571	104.56
447.792	102.56
448.013	106.56
448.234	144.56
448.455	114.56
448.675	118.56
448.896	129.56
449.117	103.56
449.338	112.56
449.559	139.56
449.779	152.56
450	105.56
450.221	108.56
450.442	106.56
450.662	114.56
450.883	121.56
451.104	142.56
451.324	111.56
451.545	83.56
451.766	89.56
451.986	96.56
452.207	101.56
452.428	93.56
452.648	102.56
452.869	150.56
453.089	150.56
453.31	149.56
453.53	109.56
453.751	107.56
453.971	122.56
454.192	155.56
454.412	117.56
454.633	95.56
454.853	87.56
455.073	95.56
455.294	93.56
455.514	117.56
455.734	96.56
455.955	90.56
456.175	94.56
456.395	86.56
456.616	92.56
456.836	77.56
457.056	69.56
457.276	94.56
457.497	85.56
457.717	81.56
457.937	77.56
458.157	96.56
458.377	97.56
458.598	120.56
458.818	237.56
459.038	265.56
459.258	173.56
459.478	103.56
459.698	94.56
459.918	91.56
460.138	84.56
460.358	114.56
460.578	91.56
460.798	75.56
461.018	95.56
461.238	86.56
461.458	90.56
461.678	82.56
461.898	79.56
462.118	90.56
462.338	92.56
462.558	93.56
462.777	89.56
462.997	101.56
463.217	110.56
463.437	84.56
463.657	107.56
463.876	99.56
464.096	90.56
464.316	99.56
464.536	86.56
464.755	107.56
464.975	123.56
465.195	268.56
465.414	274.56
465.634	133.56
465.854	89.56
466.073	101.56
466.293	79.56
466.512	101.56
466.732	93.56
466.951	97.56
467.171	103.56
467.391	114.56
467.61	143.56
467.829	195.56
468.049	492.56
468.268	749.56
468.488	221.56
468.707	99.56
468.927	84.56
469.146	77.56
469.365	93.56
469.585	87.56
469.804	112.56
470.023	107.56
470.243	118.56
470.462	118.56
470.681	142.56
470.901	89.56
471.12	105.56
471.339	112.56
471.558	112.56
471.777	131.56
471.997	267.56
472.216	934.56
472.435	2260.56
472.654	553.56
472.873	170.56
473.092	103.56
473.311	99.56
473.53	80.56
473.749	87.56
473.968	99.56
474.187	122.56
474.406	109.56
474.625	104.56
474.844	93.56
475.063	98.56
475.282	94.56
475.501	93.56
475.72	84.56
475.939	87.56
476.158	97.56
476.377	84.56
476.596	95.56
476.814	115.56
477.033	112.56
477.252	99.56
477.471	98.56
477.69	91.56
477.908	96.56
478.127	87.56
478.346	109.56
478.564	107.56
478.783	123.56
479.002	110.56
479.22	103.56
479.439	114.56
479.658	148.56
479.876	119.56
480.095	122.56
480.313	126.56
480.532	158.56
480.751	244.56
480.969	851.56
481.188	3751.56
481.406	2373.56
481.624	351.56
481.843	148.56
482.061	115.56
482.28	94.56
482.498	98.56
482.717	86.56
482.935	103.56
483.153	103.56
483.372	87.56
483.59	88.56
483.808	104.56
484.027	103.56
484.245	95.56
484.463	105.56
484.681	87.56
484.9	97.56
485.118	87.56
485.336	95.56
485.554	102.56
485.772	98.56
485.99	97.56
486.209	102.56
486.427	99.56
486.645	118.56
486.863	129.56
487.081	121.56
487.299	95.56
487.517	85.56
487.735	101.56
487.953	98.56
488.171	106.56
488.389	117.56
488.607	119.56
488.825	87.56
489.043	93.56
489.261	94.56
489.479	103.56
489.696	82.56
489.914	93.56
490.132	95.56
490.35	97.56
490.568	87.56
490.786	88.56
491.003	79.56
491.221	95.56
491.439	99.56
491.657	110.56
491.874	115.56
492.092	83.56
492.31	85.56
492.527	105.56
492.745	104.56
492.963	104.56
493.18	95.56
493.398	93.56
493.615	100.56
493.833	110.56
494.05	83.56
494.268	94.56
494.485	100.56
494.703	81.56
494.92	96.56
495.138	87.56
495.355	87.56
495.573	89.56
495.79	96.56
496.008	84.56
496.225	87.56
496.442	87.56
496.66	92.56
496.877	92.56
497.094	99.56
497.312	97.56
497.529	92.56
497.746	90.56
497.963	95.56
498.181	87.56
498.398	102.56
498.615	121.56
498.832	121.56
499.049	94.56
499.267	98.56
499.484	91.56
499.701	81.56
499.918	81.56
500.135	90.56
500.352	88.56
500.569	104.56
500.786	91.56
501.003	91.56
501.22	99.56
501.437	94.56
501.654	98.56
501.871	124.56
502.088	93.56
502.305	101.56
502.522	95.56
502.739	97.56
502.956	93.56
503.172	103.56
503.389	106.56
503.606	142.56
503.823	127.56
504.04	104.56
504.256	100.56
504.473	87.56
504.69	85.56
504.907	99.56
505.123	102.56
505.34	86.56
505.557	85.56
505.773	93.56
505.99	95.56
506.207	92.56
506.423	86.56
506.64	93.56
506.856	88.56
507.073	112.56
507.289	87.56
507.506	105.56
507.722	127.56
507.939	151.56
508.155	118.56
508.372	92.56
508.588	97.56
508.805	94.56
509.021	86.56
509.238	105.56
509.454	109.56
509.67	109.56
509.887	119.56
510.103	146.56
510.319	240.56
510.536	965.56
510.752	3469.56
510.968	939.56
511.184	185.56
511.401	127.56
511.617	102.56
511.833	116.56
