Data from Circ_2007_H10_HRD10591_00003.txt Node
Date: Wed Jan 03 10:21:57 EST 2024
User: Yrep
Spectrometer: HR+D1059
Trigger mode: 1
Integration Time (sec): 1.000000E-1
Scans to average: 1
Electric dark correction enabled: true
Nonlinearity correction enabled: false
Boxcar width: 0
XAxis mode: Wavelengths
Number of Pixels in Spectrum: 2048
>>>>>Begin Spectral Data<<<<<
223.165	-15.56
223.4	-15.56
223.635	-15.56
223.869	-14.56
224.104	-6.56
224.338	-20.56
224.573	-17.56
224.808	-13.56
225.042	2.44
225.277	-8.56
225.511	10.44
225.746	-7.56
225.98	1.44
226.215	28.44
226.449	15.44
226.683	19.44
226.918	13.44
227.152	13.44
227.387	31.44
227.621	42.44
227.856	49.44
228.09	36.44
228.324	54.44
228.559	65.44
228.793	55.44
229.027	77.44
229.262	90.44
229.496	75.44
229.73	76.44
229.964	94.44
230.199	68.44
230.433	78.44
230.667	92.44
230.901	89.44
231.136	89.44
231.37	88.44
231.604	93.44
231.838	77.44
232.072	84.44
232.306	91.44
232.541	68.44
232.775	84.44
233.009	84.44
233.243	82.44
233.477	91.44
233.711	87.44
233.945	74.44
234.179	83.44
234.413	83.44
234.647	79.44
234.881	82.44
235.115	92.44
235.349	88.44
235.583	75.44
235.817	85.44
236.051	81.44
236.285	88.44
236.519	74.44
236.753	91.44
236.987	88.44
237.221	80.44
237.455	90.44
237.689	84.44
237.922	84.44
238.156	88.44
238.39	86.44
238.624	62.44
238.858	95.44
239.091	85.44
239.325	108.44
239.559	88.44
239.793	77.44
240.027	75.44
240.26	81.44
240.494	73.44
240.728	81.44
240.961	81.44
241.195	81.44
241.429	83.44
241.662	80.44
241.896	98.44
242.13	71.44
242.363	97.44
242.597	75.44
242.83	74.44
243.064	83.44
243.298	72.44
243.531	83.44
243.765	71.44
243.998	91.44
244.232	88.44
244.465	80.44
244.699	78.44
244.932	77.44
245.166	84.44
245.399	94.44
245.633	77.44
245.866	90.44
246.099	87.44
246.333	82.44
246.566	83.44
246.8	88.44
247.033	83.44
247.266	77.44
247.5	84.44
247.733	86.44
247.966	88.44
248.2	80.44
248.433	81.44
248.666	84.44
248.899	94.44
249.133	85.44
249.366	110.44
249.599	95.44
249.832	85.44
250.066	93.44
250.299	77.44
250.532	94.44
250.765	79.44
250.998	92.44
251.231	87.44
251.465	82.44
251.698	94.44
251.931	86.44
252.164	89.44
252.397	75.44
252.63	100.44
252.863	81.44
253.096	89.44
253.329	85.44
253.562	87.44
253.795	90.44
254.028	94.44
254.261	96.44
254.494	96.44
254.727	94.44
254.96	96.44
255.193	95.44
255.426	83.44
255.659	68.44
255.892	84.44
256.124	82.44
256.357	81.44
256.59	81.44
256.823	82.44
257.056	85.44
257.289	77.44
257.521	89.44
257.754	63.44
257.987	89.44
258.22	96.44
258.452	101.44
258.685	84.44
258.918	96.44
259.151	89.44
259.383	88.44
259.616	87.44
259.849	80.44
260.081	86.44
260.314	90.44
260.547	98.44
260.779	84.44
261.012	96.44
261.244	75.44
261.477	99.44
261.71	97.44
261.942	116.44
262.175	125.44
262.407	91.44
262.64	90.44
262.872	94.44
263.105	82.44
263.337	77.44
263.57	89.44
263.802	95.44
264.035	73.44
264.267	89.44
264.499	95.44
264.732	80.44
264.964	91.44
265.197	67.44
265.429	90.44
265.661	91.44
265.894	87.44
266.126	90.44
266.358	89.44
266.591	86.44
266.823	84.44
267.055	79.44
267.287	88.44
267.52	96.44
267.752	85.44
267.984	80.44
268.216	83.44
268.448	78.44
268.681	93.44
268.913	88.44
269.145	82.44
269.377	95.44
269.609	87.44
269.841	76.44
270.073	84.44
270.306	95.44
270.538	97.44
270.77	99.44
271.002	85.44
271.234	101.44
271.466	98.44
271.698	102.44
271.93	94.44
272.162	95.44
272.394	98.44
272.626	84.44
272.858	95.44
273.09	77.44
273.322	90.44
273.553	89.44
273.785	90.44
274.017	105.44
274.249	91.44
274.481	83.44
274.713	84.44
274.945	84.44
275.176	85.44
275.408	84.44
275.64	101.44
275.872	99.44
276.104	96.44
276.335	90.44
276.567	105.44
276.799	117.44
277.031	110.44
277.262	126.44
277.494	101.44
277.726	87.44
277.957	102.44
278.189	87.44
278.421	88.44
278.652	88.44
278.884	78.44
279.115	84.44
279.347	93.44
279.579	93.44
279.81	98.44
280.042	104.44
280.273	126.44
280.505	113.44
280.736	90.44
280.968	94.44
281.199	97.44
281.431	97.44
281.662	99.44
281.894	102.44
282.125	110.44
282.356	119.44
282.588	146.44
282.819	107.44
283.051	91.44
283.282	93.44
283.513	104.44
283.745	90.44
283.976	98.44
284.207	77.44
284.439	104.44
284.67	94.44
284.901	90.44
285.132	96.44
285.364	91.44
285.595	103.44
285.826	82.44
286.057	100.44
286.288	90.44
286.52	83.44
286.751	82.44
286.982	97.44
287.213	93.44
287.444	90.44
287.675	93.44
287.906	84.44
288.138	91.44
288.369	98.44
288.6	90.44
288.831	87.44
289.062	91.44
289.293	95.44
289.524	83.44
289.755	91.44
289.986	86.44
290.217	86.44
290.448	80.44
290.679	91.44
290.91	90.44
291.141	69.44
291.371	90.44
291.602	99.44
291.833	77.44
292.064	106.44
292.295	104.44
292.526	103.44
292.757	88.44
292.987	89.44
293.218	89.44
293.449	81.44
293.68	78.44
293.91	88.44
294.141	91.44
294.372	86.44
294.603	88.44
294.833	88.44
295.064	87.44
295.295	98.44
295.525	97.44
295.756	105.44
295.987	130.44
296.217	141.44
296.448	135.44
296.679	93.44
296.909	98.44
297.14	87.44
297.37	97.44
297.601	98.44
297.831	106.44
298.062	83.44
298.292	89.44
298.523	93.44
298.753	96.44
298.984	97.44
299.214	94.44
299.445	94.44
299.675	98.44
299.905	94.44
300.136	91.44
300.366	90.44
300.597	92.44
300.827	88.44
301.057	95.44
301.288	125.44
301.518	87.44
301.748	97.44
301.979	117.44
302.209	94.44
302.439	90.44
302.669	92.44
302.9	88.44
303.13	103.44
303.36	101.44
303.59	103.44
303.82	112.44
304.051	97.44
304.281	101.44
304.511	94.44
304.741	96.44
304.971	81.44
305.201	101.44
305.431	88.44
305.661	96.44
305.891	95.44
306.121	90.44
306.352	105.44
306.582	107.44
306.812	91.44
307.042	112.44
307.272	95.44
307.502	96.44
307.731	116.44
307.961	106.44
308.191	87.44
308.421	74.44
308.651	81.44
308.881	97.44
309.111	105.44
309.341	91.44
309.571	95.44
309.8	97.44
310.03	99.44
310.26	117.44
310.49	100.44
310.72	109.44
310.949	126.44
311.179	111.44
311.409	127.44
311.639	92.44
311.868	105.44
312.098	92.44
312.328	104.44
312.557	106.44
312.787	105.44
313.017	106.44
313.246	92.44
313.476	84.44
313.706	92.44
313.935	94.44
314.165	101.44
314.394	104.44
314.624	110.44
314.853	104.44
315.083	96.44
315.312	101.44
315.542	97.44
315.771	88.44
316.001	92.44
316.23	101.44
316.46	92.44
316.689	93.44
316.919	99.44
317.148	92.44
317.377	97.44
317.607	100.44
317.836	89.44
318.065	84.44
318.295	93.44
318.524	92.44
318.753	86.44
318.983	87.44
319.212	101.44
319.441	119.44
319.67	117.44
319.9	94.44
320.129	95.44
320.358	96.44
320.587	109.44
320.816	99.44
321.046	130.44
321.275	106.44
321.504	82.44
321.733	102.44
321.962	113.44
322.191	111.44
322.42	98.44
322.649	110.44
322.878	105.44
323.108	116.44
323.337	127.44
323.566	147.44
323.795	145.44
324.024	212.44
324.253	401.44
324.482	848.44
324.71	1722.44
324.939	2371.44
325.168	903.44
325.397	254.44
325.626	149.44
325.855	139.44
326.084	126.44
326.313	127.44
326.542	147.44
326.77	247.44
326.999	465.44
327.228	948.44
327.457	1768.44
327.686	1478.44
327.914	414.44
328.143	256.44
328.372	265.44
328.6	205.44
328.829	126.44
329.058	141.44
329.287	152.44
329.515	121.44
329.744	141.44
329.972	165.44
330.201	278.44
330.43	423.44
330.658	244.44
330.887	191.44
331.115	148.44
331.344	102.44
331.572	120.44
331.801	109.44
332.03	117.44
332.258	115.44
332.486	98.44
332.715	101.44
332.943	107.44
333.172	104.44
333.4	119.44
333.629	123.44
333.857	135.44
334.085	177.44
334.314	275.44
334.542	460.44
334.771	482.44
334.999	173.44
335.227	108.44
335.455	106.44
335.684	103.44
335.912	107.44
336.14	101.44
336.369	111.44
336.597	104.44
336.825	88.44
337.053	99.44
337.281	101.44
337.51	85.44
337.738	81.44
337.966	97.44
338.194	108.44
338.422	93.44
338.65	95.44
338.878	99.44
339.106	104.44
339.334	94.44
339.562	95.44
339.79	89.44
340.018	87.44
340.246	93.44
340.474	106.44
340.702	96.44
340.93	92.44
341.158	91.44
341.386	105.44
341.614	97.44
341.842	100.44
342.07	86.44
342.298	104.44
342.526	99.44
342.754	102.44
342.981	75.44
343.209	96.44
343.437	92.44
343.665	91.44
343.893	89.44
344.12	101.44
344.348	100.44
344.576	105.44
344.804	110.44
345.031	95.44
345.259	110.44
345.487	82.44
345.714	91.44
345.942	91.44
346.17	96.44
346.397	107.44
346.625	108.44
346.853	108.44
347.08	101.44
347.308	108.44
347.535	104.44
347.763	91.44
347.99	105.44
348.218	101.44
348.445	120.44
348.673	106.44
348.9	100.44
349.128	95.44
349.355	101.44
349.583	94.44
349.81	98.44
350.037	96.44
350.265	90.44
350.492	88.44
350.72	116.44
350.947	112.44
351.174	114.44
351.402	99.44
351.629	103.44
351.856	94.44
352.083	96.44
352.311	113.44
352.538	131.44
352.765	109.44
352.992	136.44
353.22	116.44
353.447	112.44
353.674	103.44
353.901	87.44
354.128	91.44
354.355	99.44
354.583	106.44
354.81	93.44
355.037	101.44
355.264	91.44
355.491	101.44
355.718	94.44
355.945	90.44
356.172	97.44
356.399	98.44
356.626	108.44
356.853	96.44
357.08	104.44
357.307	93.44
357.534	102.44
357.761	118.44
357.988	102.44
358.215	104.44
358.441	105.44
358.668	115.44
358.895	88.44
359.122	110.44
359.349	109.44
359.576	105.44
359.802	104.44
360.029	123.44
360.256	134.44
360.483	119.44
360.709	91.44
360.936	93.44
361.163	93.44
361.39	101.44
361.616	97.44
361.843	87.44
362.07	97.44
362.296	117.44
362.523	105.44
362.749	101.44
362.976	94.44
363.203	97.44
363.429	89.44
363.656	89.44
363.882	87.44
364.109	78.44
364.335	93.44
364.562	94.44
364.788	108.44
365.015	87.44
365.241	88.44
365.468	106.44
365.694	95.44
365.92	105.44
366.147	89.44
366.373	84.44
366.599	84.44
366.826	79.44
367.052	75.44
367.278	102.44
367.505	99.44
367.731	92.44
367.957	96.44
368.184	90.44
368.41	99.44
368.636	120.44
368.862	110.44
369.089	107.44
369.315	98.44
369.541	94.44
369.767	90.44
369.993	104.44
370.219	98.44
370.445	99.44
370.672	102.44
370.898	96.44
371.124	78.44
371.35	100.44
371.576	93.44
371.802	98.44
372.028	75.44
372.254	95.44
372.48	91.44
372.706	101.44
372.932	93.44
373.158	102.44
373.384	90.44
373.61	102.44
373.835	91.44
374.061	92.44
374.287	101.44
374.513	106.44
374.739	90.44
374.965	90.44
375.191	95.44
375.416	93.44
375.642	98.44
375.868	99.44
376.094	100.44
376.319	93.44
376.545	108.44
376.771	92.44
376.997	98.44
377.222	108.44
377.448	96.44
377.674	91.44
377.899	107.44
378.125	99.44
378.35	95.44
378.576	92.44
378.802	91.44
379.027	109.44
379.253	118.44
379.478	98.44
379.704	99.44
379.929	95.44
380.155	91.44
380.38	109.44
380.606	105.44
380.831	101.44
381.057	101.44
381.282	114.44
381.507	111.44
381.733	120.44
381.958	114.44
382.184	109.44
382.409	129.44
382.634	118.44
382.86	112.44
383.085	134.44
383.31	110.44
383.535	115.44
383.761	120.44
383.986	105.44
384.211	100.44
384.436	123.44
384.662	134.44
384.887	130.44
385.112	129.44
385.337	139.44
385.562	132.44
385.787	127.44
386.013	128.44
386.238	141.44
386.463	118.44
386.688	133.44
386.913	127.44
387.138	141.44
387.363	118.44
387.588	104.44
387.813	115.44
388.038	141.44
388.263	139.44
388.488	156.44
388.713	109.44
388.938	110.44
389.163	103.44
389.387	110.44
389.612	106.44
389.837	101.44
390.062	80.44
390.287	91.44
390.512	94.44
390.736	77.44
390.961	107.44
391.186	110.44
391.411	93.44
391.636	97.44
391.86	84.44
392.085	94.44
392.31	86.44
392.534	87.44
392.759	106.44
392.984	102.44
393.208	107.44
393.433	111.44
393.658	106.44
393.882	89.44
394.107	88.44
394.331	100.44
394.556	87.44
394.78	95.44
395.005	87.44
395.229	105.44
395.454	98.44
395.678	83.44
395.903	81.44
396.127	96.44
396.352	96.44
396.576	101.44
396.801	86.44
397.025	101.44
397.249	93.44
397.474	89.44
397.698	88.44
397.922	98.44
398.147	90.44
398.371	95.44
398.595	97.44
398.82	86.44
399.044	95.44
399.268	94.44
399.492	102.44
399.717	98.44
399.941	101.44
400.165	106.44
400.389	98.44
400.613	91.44
400.837	96.44
401.062	98.44
401.286	87.44
401.51	111.44
401.734	99.44
401.958	106.44
402.182	117.44
402.406	152.44
402.63	133.44
402.854	104.44
403.078	103.44
403.302	89.44
403.526	85.44
403.75	103.44
403.974	80.44
404.198	81.44
404.422	89.44
404.645	85.44
404.869	87.44
405.093	106.44
405.317	115.44
405.541	106.44
405.765	111.44
405.988	135.44
406.212	200.44
406.436	234.44
406.66	163.44
406.883	117.44
407.107	99.44
407.331	96.44
407.555	114.44
407.778	114.44
408.002	105.44
408.226	100.44
408.449	89.44
408.673	88.44
408.896	103.44
409.12	103.44
409.344	87.44
409.567	97.44
409.791	83.44
410.014	93.44
410.238	91.44
410.461	99.44
410.685	103.44
410.908	110.44
411.132	106.44
411.355	94.44
411.578	82.44
411.802	83.44
412.025	85.44
412.249	94.44
412.472	100.44
412.695	119.44
412.919	103.44
413.142	103.44
413.365	106.44
413.589	89.44
413.812	101.44
414.035	92.44
414.258	95.44
414.482	94.44
414.705	90.44
414.928	87.44
415.151	99.44
415.374	100.44
415.597	90.44
415.821	88.44
416.044	95.44
416.267	95.44
416.49	89.44
416.713	101.44
416.936	90.44
417.159	86.44
417.382	94.44
417.605	90.44
417.828	102.44
418.051	96.44
418.274	104.44
418.497	101.44
418.72	94.44
418.943	97.44
419.166	89.44
419.389	97.44
419.611	91.44
419.834	95.44
420.057	99.44
420.28	103.44
420.503	86.44
420.726	92.44
420.948	95.44
421.171	103.44
421.394	92.44
421.617	88.44
421.839	99.44
422.062	94.44
422.285	109.44
422.507	103.44
422.73	113.44
422.953	109.44
423.175	95.44
423.398	101.44
423.621	97.44
423.843	99.44
424.066	99.44
424.288	106.44
424.511	97.44
424.733	97.44
424.956	106.44
425.178	95.44
425.401	106.44
425.623	96.44
425.846	99.44
426.068	90.44
426.291	97.44
426.513	82.44
426.735	99.44
426.958	97.44
427.18	105.44
427.402	152.44
427.625	171.44
427.847	186.44
428.069	155.44
428.292	97.44
428.514	96.44
428.736	106.44
428.958	94.44
429.181	88.44
429.403	87.44
429.625	97.44
429.847	96.44
430.069	98.44
430.292	108.44
430.514	86.44
430.736	104.44
430.958	94.44
431.18	104.44
431.402	72.44
431.624	93.44
431.846	89.44
432.068	95.44
432.29	93.44
432.512	91.44
432.734	81.44
432.956	102.44
433.178	93.44
433.4	107.44
433.622	104.44
433.844	93.44
434.066	85.44
434.287	106.44
434.509	104.44
434.731	100.44
434.953	91.44
435.175	90.44
435.397	96.44
435.618	91.44
435.84	106.44
436.062	129.44
436.284	125.44
436.505	106.44
436.727	119.44
436.949	91.44
437.17	90.44
437.392	95.44
437.614	102.44
437.835	125.44
438.057	130.44
438.278	119.44
438.5	116.44
438.721	134.44
438.943	107.44
439.165	95.44
439.386	96.44
439.608	97.44
439.829	102.44
440.05	134.44
440.272	156.44
440.493	102.44
440.715	98.44
440.936	90.44
441.158	114.44
441.379	96.44
441.6	97.44
441.822	108.44
442.043	98.44
442.264	122.44
442.486	95.44
442.707	104.44
442.928	110.44
443.149	142.44
443.371	144.44
443.592	130.44
443.813	131.44
444.034	142.44
444.255	98.44
444.476	98.44
444.698	96.44
444.919	96.44
445.14	137.44
445.361	138.44
445.582	122.44
445.803	155.44
446.024	132.44
446.245	134.44
446.466	122.44
446.687	107.44
446.908	99.44
447.129	91.44
447.35	117.44
447.571	103.44
447.792	90.44
448.013	110.44
448.234	117.44
448.455	115.44
448.675	129.44
448.896	136.44
449.117	106.44
449.338	104.44
449.559	131.44
449.779	139.44
450	100.44
450.221	103.44
450.442	103.44
450.662	114.44
450.883	121.44
451.104	135.44
451.324	115.44
451.545	94.44
451.766	92.44
451.986	110.44
452.207	109.44
452.428	105.44
452.648	105.44
452.869	119.44
453.089	128.44
453.31	141.44
453.53	95.44
453.751	98.44
453.971	103.44
454.192	114.44
454.412	96.44
454.633	84.44
454.853	93.44
455.073	97.44
455.294	100.44
455.514	107.44
455.734	91.44
455.955	90.44
456.175	93.44
456.395	84.44
456.616	80.44
456.836	94.44
457.056	91.44
457.276	92.44
457.497	94.44
457.717	90.44
457.937	88.44
458.157	106.44
458.377	100.44
458.598	118.44
458.818	176.44
459.038	180.44
459.258	127.44
459.478	85.44
459.698	86.44
459.918	89.44
460.138	85.44
460.358	91.44
460.578	90.44
460.798	109.44
461.018	92.44
461.238	86.44
461.458	88.44
461.678	100.44
461.898	98.44
462.118	99.44
462.338	98.44
462.558	88.44
462.777	95.44
462.997	105.44
463.217	98.44
463.437	96.44
463.657	94.44
463.876	98.44
464.096	93.44
464.316	90.44
464.536	99.44
464.755	96.44
464.975	103.44
465.195	147.44
465.414	190.44
465.634	107.44
465.854	109.44
466.073	103.44
466.293	95.44
466.512	92.44
466.732	87.44
466.951	78.44
467.171	105.44
467.391	96.44
467.61	118.44
467.829	145.44
468.049	202.44
468.268	234.44
468.488	112.44
468.707	88.44
468.927	94.44
469.146	93.44
469.365	81.44
469.585	109.44
469.804	99.44
470.023	102.44
470.243	111.44
470.462	117.44
470.681	123.44
470.901	79.44
471.12	96.44
471.339	94.44
471.558	92.44
471.777	98.44
471.997	144.44
472.216	302.44
472.435	608.44
472.654	207.44
472.873	110.44
473.092	106.44
473.311	92.44
473.53	87.44
473.749	85.44
473.968	99.44
474.187	106.44
474.406	98.44
474.625	76.44
474.844	97.44
475.063	91.44
475.282	93.44
475.501	87.44
475.72	100.44
475.939	80.44
476.158	95.44
476.377	95.44
476.596	98.44
476.814	104.44
477.033	99.44
477.252	113.44
477.471	103.44
477.69	112.44
477.908	94.44
478.127	93.44
478.346	98.44
478.564	109.44
478.783	106.44
479.002	107.44
479.22	86.44
479.439	114.44
479.658	106.44
479.876	105.44
480.095	113.44
480.313	114.44
480.532	110.44
480.751	150.44
480.969	283.44
481.188	995.44
481.406	673.44
481.624	177.44
481.843	100.44
482.061	96.44
482.28	103.44
482.498	116.44
482.717	92.44
482.935	98.44
483.153	93.44
483.372	101.44
483.59	91.44
483.808	101.44
484.027	93.44
484.245	99.44
484.463	97.44
484.681	94.44
484.9	102.44
485.118	97.44
485.336	105.44
485.554	104.44
485.772	111.44
485.99	122.44
486.209	115.44
486.427	118.44
486.645	130.44
486.863	111.44
487.081	104.44
487.299	109.44
487.517	106.44
487.735	89.44
487.953	106.44
488.171	109.44
488.389	89.44
488.607	109.44
488.825	96.44
489.043	95.44
489.261	101.44
489.479	104.44
489.696	95.44
489.914	101.44
490.132	93.44
490.35	94.44
490.568	96.44
490.786	94.44
491.003	110.44
491.221	89.44
491.439	99.44
491.657	97.44
491.874	94.44
492.092	107.44
492.31	113.44
492.527	121.44
492.745	97.44
492.963	104.44
493.18	99.44
493.398	110.44
493.615	103.44
493.833	104.44
494.05	85.44
494.268	103.44
494.485	92.44
494.703	83.44
494.92	89.44
495.138	111.44
495.355	94.44
495.573	106.44
495.79	89.44
496.008	102.44
496.225	79.44
496.442	105.44
496.66	116.44
496.877	104.44
497.094	99.44
497.312	91.44
497.529	90.44
497.746	94.44
497.963	90.44
498.181	103.44
498.398	106.44
498.615	97.44
498.832	116.44
499.049	115.44
499.267	96.44
499.484	94.44
499.701	98.44
499.918	98.44
500.135	96.44
500.352	105.44
500.569	91.44
500.786	88.44
501.003	98.44
501.22	95.44
501.437	87.44
501.654	119.44
501.871	114.44
502.088	105.44
502.305	97.44
502.522	83.44
502.739	81.44
502.956	73.44
503.172	87.44
503.389	109.44
503.606	115.44
503.823	110.44
504.04	120.44
504.256	96.44
504.473	106.44
504.69	98.44
504.907	114.44
505.123	107.44
505.34	106.44
505.557	97.44
505.773	95.44
505.99	89.44
506.207	100.44
506.423	107.44
506.64	95.44
506.856	99.44
507.073	104.44
507.289	111.44
507.506	102.44
507.722	112.44
507.939	111.44
508.155	110.44
508.372	94.44
508.588	97.44
508.805	101.44
509.021	91.44
509.238	98.44
509.454	110.44
509.67	97.44
509.887	116.44
510.103	141.44
510.319	206.44
510.536	736.44
510.752	2371.44
510.968	668.44
511.184	165.44
511.401	117.44
511.617	105.44
511.833	106.44
512.049	100.44
512.265	101.44
512.481	102.44
