Data from Circ_2007_H10_HRD10591_00009.txt Node
Date: Wed Jan 03 10:21:59 EST 2024
User: Yrep
Spectrometer: HR+D1059
Trigger mode: 1
Integration Time (sec): 1.000000E-1
Scans to average: 1
Electric dark correction enabled: true
Nonlinearity correction enabled: false
Boxcar width: 0
XAxis mode: Wavelengths
Number of Pixels in Spectrum: 2048
>>>>>Begin Spectral Data<<<<<
223.165	-16
223.4	-16
223.635	-16
223.869	-2
224.104	-14
224.338	-16
224.573	-17
224.808	-11
225.042	-7
225.277	-19
225.511	-11
225.746	2
225.98	6
226.215	4
226.449	22
226.683	23
226.918	26
227.152	30
227.387	23
227.621	28
227.856	37
228.09	49
228.324	49
228.559	53
228.793	49
229.027	55
229.262	68
229.496	73
229.73	89
229.964	90
230.199	73
230.433	73
230.667	67
230.901	79
231.136	77
231.37	60
231.604	81
231.838	83
232.072	78
232.306	84
232.541	66
232.775	63
233.009	80
233.243	77
233.477	79
233.711	77
233.945	67
234.179	86
234.413	81
234.647	74
234.881	66
235.115	69
235.349	97
235.583	80
235.817	80
236.051	69
236.285	87
236.519	70
236.753	84
236.987	72
237.221	92
237.455	81
237.689	70
237.922	81
238.156	67
238.39	70
238.624	81
238.858	66
239.091	64
239.325	65
239.559	74
239.793	74
240.027	77
240.26	79
240.494	74
240.728	62
240.961	70
241.195	86
241.429	78
241.662	82
241.896	76
242.13	70
242.363	80
242.597	72
242.83	74
243.064	76
243.298	74
243.531	72
243.765	72
243.998	71
244.232	77
244.465	77
244.699	66
244.932	65
245.166	76
245.399	67
245.633	70
245.866	77
246.099	80
246.333	74
246.566	74
246.8	91
247.033	72
247.266	72
247.5	82
247.733	85
247.966	85
248.2	85
248.433	86
248.666	72
248.899	77
249.133	85
249.366	93
249.599	117
249.832	87
250.066	83
250.299	83
250.532	90
250.765	87
250.998	82
251.231	69
251.465	69
251.698	69
251.931	77
252.164	81
252.397	77
252.63	76
252.863	68
253.096	76
253.329	76
253.562	77
253.795	81
254.028	93
254.261	73
254.494	73
254.727	73
254.96	74
255.193	84
255.426	74
255.659	60
255.892	67
256.124	76
256.357	75
256.59	85
256.823	74
257.056	84
257.289	80
257.521	75
257.754	64
257.987	87
258.22	98
258.452	82
258.685	75
258.918	82
259.151	73
259.383	80
259.616	87
259.849	86
260.081	78
260.314	68
260.547	77
260.779	86
261.012	88
261.244	85
261.477	83
261.71	90
261.942	122
262.175	137
262.407	101
262.64	86
262.872	82
263.105	72
263.337	83
263.57	92
263.802	93
264.035	87
264.267	75
264.499	87
264.732	82
264.964	79
265.197	86
265.429	90
265.661	83
265.894	72
266.126	80
266.358	79
266.591	89
266.823	71
267.055	70
267.287	80
267.52	81
267.752	92
267.984	76
268.216	87
268.448	96
268.681	88
268.913	83
269.145	89
269.377	83
269.609	82
269.841	82
270.073	85
270.306	88
270.538	98
270.77	97
271.002	80
271.234	82
271.466	81
271.698	87
271.93	86
272.162	103
272.394	81
272.626	83
272.858	87
273.09	73
273.322	78
273.553	78
273.785	86
274.017	62
274.249	96
274.481	94
274.713	83
274.945	85
275.176	87
275.408	96
275.64	97
275.872	115
276.104	90
276.335	94
276.567	106
276.799	126
277.031	126
277.262	138
277.494	109
277.726	83
277.957	88
278.189	82
278.421	96
278.652	98
278.884	88
279.115	72
279.347	93
279.579	92
279.81	102
280.042	143
280.273	169
280.505	121
280.736	101
280.968	93
281.199	82
281.431	66
281.662	80
281.894	97
282.125	84
282.356	124
282.588	158
282.819	122
283.051	87
283.282	97
283.513	81
283.745	77
283.976	81
284.207	83
284.439	81
284.67	93
284.901	73
285.132	83
285.364	80
285.595	80
285.826	86
286.057	88
286.288	94
286.52	81
286.751	96
286.982	77
287.213	73
287.444	72
287.675	86
287.906	103
288.138	102
288.369	81
288.6	90
288.831	87
289.062	91
289.293	95
289.524	93
289.755	88
289.986	86
290.217	82
290.448	90
290.679	86
290.91	88
291.141	79
291.371	83
291.602	89
291.833	74
292.064	82
292.295	90
292.526	68
292.757	92
292.987	75
293.218	83
293.449	95
293.68	106
293.91	89
294.141	74
294.372	87
294.603	106
294.833	91
295.064	81
295.295	86
295.525	91
295.756	102
295.987	127
296.217	158
296.448	140
296.679	99
296.909	82
297.14	96
297.37	76
297.601	83
297.831	80
298.062	89
298.292	73
298.523	100
298.753	83
298.984	82
299.214	96
299.445	81
299.675	88
299.905	96
300.136	91
300.366	102
300.597	86
300.827	87
301.057	93
301.288	107
301.518	98
301.748	98
301.979	102
302.209	93
302.439	85
302.669	92
302.9	94
303.13	86
303.36	92
303.59	114
303.82	118
304.051	106
304.281	97
304.511	84
304.741	83
304.971	74
305.201	91
305.431	76
305.661	86
305.891	91
306.121	94
306.352	121
306.582	110
306.812	98
307.042	92
307.272	125
307.502	117
307.731	117
307.961	109
308.191	92
308.421	91
308.651	88
308.881	88
309.111	90
309.341	111
309.571	97
309.8	101
310.03	99
310.26	103
310.49	92
310.72	111
310.949	103
311.179	97
311.409	90
311.639	89
311.868	100
312.098	110
312.328	90
312.557	102
312.787	113
313.017	104
313.246	90
313.476	90
313.706	97
313.935	106
314.165	106
314.394	122
314.624	106
314.853	101
315.083	107
315.312	104
315.542	82
315.771	86
316.001	94
316.23	114
316.46	77
316.689	100
316.919	89
317.148	108
317.377	95
317.607	113
317.836	104
318.065	93
318.295	79
318.524	90
318.753	96
318.983	91
319.212	103
319.441	98
319.67	122
319.9	86
320.129	85
320.358	88
320.587	104
320.816	87
321.046	103
321.275	103
321.504	87
321.733	99
321.962	96
322.191	97
322.42	106
322.649	124
322.878	115
323.108	126
323.337	131
323.566	148
323.795	177
324.024	232
324.253	446
324.482	977
324.71	2037
324.939	2688
325.168	996
325.397	293
325.626	162
325.855	133
326.084	130
326.313	107
326.542	168
326.77	270
326.999	520
327.228	1066
327.457	1982
327.686	1582
327.914	490
328.143	347
328.372	410
328.6	234
328.829	151
329.058	179
329.287	177
329.515	158
329.744	189
329.972	265
330.201	521
330.43	766
330.658	392
330.887	226
331.115	167
331.344	105
331.572	105
331.801	109
332.03	117
332.258	105
332.486	98
332.715	106
332.943	96
333.172	118
333.4	105
333.629	133
333.857	159
334.085	273
334.314	471
334.542	945
334.771	895
334.999	278
335.227	132
335.455	122
335.684	106
335.912	108
336.14	106
336.369	82
336.597	106
336.825	99
337.053	89
337.281	88
337.51	96
337.738	97
337.966	110
338.194	101
338.422	95
338.65	103
338.878	110
339.106	89
339.334	98
339.562	87
339.79	82
340.018	85
340.246	88
340.474	85
340.702	88
340.93	75
341.158	101
341.386	87
341.614	95
341.842	90
342.07	96
342.298	92
342.526	97
342.754	93
342.981	89
343.209	90
343.437	95
343.665	94
343.893	85
344.12	75
344.348	83
344.576	86
344.804	95
345.031	108
345.259	106
345.487	95
345.714	87
345.942	99
346.17	89
346.397	90
346.625	87
346.853	104
347.08	96
347.308	96
347.535	99
347.763	110
347.99	105
348.218	110
348.445	110
348.673	110
348.9	94
349.128	89
349.355	97
349.583	90
349.81	81
350.037	101
350.265	80
350.492	86
350.72	96
350.947	102
351.174	115
351.402	134
351.629	105
351.856	94
352.083	99
352.311	107
352.538	119
352.765	125
352.992	125
353.22	107
353.447	105
353.674	110
353.901	83
354.128	103
354.355	90
354.583	92
354.81	94
355.037	92
355.264	92
355.491	91
355.718	92
355.945	103
356.172	98
356.399	98
356.626	104
356.853	90
357.08	97
357.307	94
357.534	90
357.761	92
357.988	100
358.215	107
358.441	97
358.668	89
358.895	101
359.122	95
359.349	89
359.576	110
359.802	104
360.029	130
360.256	139
360.483	98
360.709	91
360.936	92
361.163	99
361.39	88
361.616	94
361.843	83
362.07	102
362.296	123
362.523	96
362.749	103
362.976	104
363.203	102
363.429	94
363.656	94
363.882	82
364.109	95
364.335	103
364.562	97
364.788	91
365.015	103
365.241	114
365.468	114
365.694	120
365.92	110
366.147	90
366.373	92
366.599	91
366.826	97
367.052	89
367.278	90
367.505	93
367.731	107
367.957	91
368.184	101
368.41	100
368.636	106
368.862	138
369.089	115
369.315	93
369.541	89
369.767	80
369.993	92
370.219	87
370.445	90
370.672	84
370.898	90
371.124	83
371.35	87
371.576	95
371.802	91
372.028	88
372.254	91
372.48	96
372.706	81
372.932	75
373.158	86
373.384	78
373.61	103
373.835	69
374.061	93
374.287	91
374.513	83
374.739	95
374.965	97
375.191	87
375.416	83
375.642	92
375.868	78
376.094	81
376.319	97
376.545	85
376.771	87
376.997	88
377.222	90
377.448	98
377.674	94
377.899	95
378.125	76
378.35	79
378.576	89
378.802	93
379.027	91
379.253	91
379.478	92
379.704	88
379.929	102
380.155	96
380.38	94
380.606	99
380.831	90
381.057	103
381.282	106
381.507	102
381.733	109
381.958	97
382.184	108
382.409	106
382.634	109
382.86	92
383.085	96
383.31	92
383.535	102
383.761	114
383.986	93
384.211	104
384.436	109
384.662	95
384.887	103
385.112	108
385.337	102
385.562	118
385.787	106
386.013	125
386.238	140
386.463	117
386.688	123
386.913	111
387.138	119
387.363	112
387.588	99
387.813	106
388.038	108
388.263	115
388.488	128
388.713	101
388.938	89
389.163	96
389.387	83
389.612	81
389.837	94
390.062	92
390.287	94
390.512	98
390.736	95
390.961	87
391.186	88
391.411	87
391.636	87
391.86	82
392.085	86
392.31	69
392.534	85
392.759	83
392.984	84
393.208	100
393.433	111
393.658	81
393.882	78
394.107	90
394.331	90
394.556	81
394.78	79
395.005	83
395.229	97
395.454	84
395.678	79
395.903	90
396.127	84
396.352	93
396.576	86
396.801	83
397.025	75
397.249	74
397.474	82
397.698	82
397.922	79
398.147	80
398.371	69
398.595	89
398.82	90
399.044	78
399.268	83
399.492	86
399.717	88
399.941	89
400.165	99
400.389	73
400.613	89
400.837	90
401.062	99
401.286	94
401.51	96
401.734	97
401.958	106
402.182	158
402.406	201
402.63	132
402.854	94
403.078	90
403.302	85
403.526	98
403.75	81
403.974	76
404.198	77
404.422	82
404.645	91
404.869	105
405.093	93
405.317	135
405.541	121
405.765	115
405.988	125
406.212	200
406.436	293
406.66	173
406.883	104
407.107	94
407.331	99
407.555	112
407.778	98
408.002	102
408.226	101
408.449	88
408.673	81
408.896	90
409.12	95
409.344	95
409.567	94
409.791	95
410.014	91
410.238	91
410.461	92
410.685	99
410.908	91
411.132	102
411.355	92
411.578	92
411.802	95
412.025	92
412.249	86
412.472	92
412.695	112
412.919	98
413.142	100
413.365	87
413.589	100
413.812	83
414.035	85
414.258	72
414.482	90
414.705	81
414.928	96
415.151	92
415.374	79
415.597	88
415.821	75
416.044	109
416.267	95
416.49	71
416.713	84
416.936	95
417.159	81
417.382	73
417.605	101
417.828	110
418.051	100
418.274	85
418.497	86
418.72	90
418.943	87
419.166	81
419.389	87
419.611	92
419.834	98
420.057	97
420.28	93
420.503	77
420.726	94
420.948	81
421.171	89
421.394	78
421.617	86
421.839	90
422.062	75
422.285	93
422.507	98
422.73	108
422.953	108
423.175	85
423.398	83
423.621	73
423.843	82
424.066	88
424.288	83
424.511	79
424.733	92
424.956	106
425.178	98
425.401	107
425.623	98
425.846	93
426.068	80
426.291	92
426.513	103
426.735	99
426.958	92
427.18	124
427.402	159
427.625	222
427.847	214
428.069	182
428.292	101
428.514	95
428.736	94
428.958	73
429.181	78
429.403	85
429.625	101
429.847	82
430.069	101
430.292	99
430.514	83
430.736	99
430.958	88
431.18	88
431.402	93
431.624	76
431.846	82
432.068	96
432.29	87
432.512	92
432.734	87
432.956	82
433.178	91
433.4	104
433.622	90
433.844	91
434.066	97
434.287	91
434.509	98
434.731	77
434.953	76
435.175	82
435.397	87
435.618	86
435.84	104
436.062	128
436.284	129
436.505	99
436.727	114
436.949	87
437.17	100
437.392	86
437.614	97
437.835	119
438.057	137
438.278	118
438.5	90
438.721	126
438.943	92
439.165	95
439.386	93
439.608	73
439.829	103
440.05	149
440.272	192
440.493	109
440.715	92
440.936	82
441.158	89
441.379	82
441.6	104
441.822	101
442.043	93
442.264	117
442.486	106
442.707	81
442.928	115
443.149	156
443.371	160
443.592	124
443.813	116
444.034	118
444.255	88
444.476	88
444.698	79
444.919	94
445.14	136
445.361	121
445.582	130
445.803	176
446.024	158
446.245	159
446.466	114
446.687	87
446.908	90
447.129	99
447.35	80
447.571	95
447.792	96
448.013	98
448.234	120
448.455	101
448.675	113
448.896	127
449.117	90
449.338	119
449.559	141
449.779	149
450	88
450.221	94
450.442	93
450.662	104
450.883	117
451.104	130
451.324	106
451.545	95
451.766	90
451.986	80
452.207	93
452.428	90
452.648	91
452.869	121
453.089	140
453.31	127
453.53	104
453.751	92
453.971	113
454.192	138
454.412	92
454.633	89
454.853	73
455.073	86
455.294	88
455.514	111
455.734	100
455.955	84
456.175	75
456.395	86
456.616	83
456.836	97
457.056	83
457.276	81
457.497	65
457.717	101
457.937	83
458.157	97
458.377	105
458.598	117
458.818	178
459.038	220
459.258	153
459.478	107
459.698	95
459.918	90
460.138	79
460.358	89
460.578	95
460.798	87
461.018	92
461.238	89
461.458	94
461.678	80
461.898	80
462.118	80
462.338	62
462.558	85
462.777	82
462.997	89
463.217	87
463.437	84
463.657	95
463.876	91
464.096	78
464.316	90
464.536	78
464.755	92
464.975	126
465.195	221
465.414	230
465.634	102
465.854	75
466.073	79
466.293	80
466.512	83
466.732	109
466.951	88
467.171	101
467.391	90
467.61	119
467.829	143
468.049	280
468.268	422
468.488	137
468.707	87
468.927	76
469.146	73
469.365	75
469.585	94
469.804	103
470.023	117
470.243	107
470.462	112
470.681	140
470.901	102
471.12	91
471.339	98
471.558	96
471.777	106
471.997	179
472.216	517
472.435	1173
472.654	326
472.873	139
473.092	97
473.311	89
473.53	88
473.749	84
473.968	96
474.187	120
474.406	101
474.625	92
474.844	81
475.063	78
475.282	82
475.501	87
475.72	90
475.939	90
476.158	79
476.377	93
476.596	86
476.814	97
477.033	98
477.252	88
477.471	76
477.69	88
477.908	83
478.127	88
478.346	80
478.564	92
478.783	101
479.002	95
479.22	113
479.439	135
479.658	136
479.876	113
480.095	110
480.313	114
480.532	118
480.751	161
480.969	504
481.188	1984
481.406	1269
481.624	216
481.843	110
482.061	83
482.28	98
482.498	89
482.717	94
482.935	89
483.153	95
483.372	79
483.59	87
483.808	89
484.027	94
484.245	89
484.463	91
484.681	84
484.9	84
485.118	86
485.336	97
485.554	81
485.772	97
485.99	105
486.209	98
486.427	108
486.645	95
486.863	113
487.081	93
487.299	97
487.517	107
487.735	87
487.953	83
488.171	88
488.389	97
488.607	111
488.825	108
489.043	86
489.261	77
489.479	83
489.696	85
489.914	94
490.132	93
490.35	94
490.568	71
490.786	84
491.003	81
491.221	83
491.439	103
491.657	84
491.874	83
492.092	99
492.31	88
492.527	81
492.745	83
492.963	68
493.18	77
493.398	81
493.615	96
493.833	97
494.05	81
494.268	86
494.485	68
494.703	96
494.92	95
495.138	98
495.355	101
495.573	72
495.79	84
496.008	97
496.225	90
496.442	93
496.66	87
496.877	81
497.094	96
497.312	92
497.529	83
497.746	76
497.963	89
498.181	83
498.398	78
498.615	107
498.832	103
499.049	81
499.267	95
499.484	93
499.701	84
499.918	97
500.135	69
500.352	93
500.569	88
500.786	87
501.003	79
501.22	99
501.437	88
501.654	102
501.871	113
502.088	88
502.305	86
502.522	89
502.739	87
502.956	74
503.172	97
503.389	102
503.606	112
503.823	105
504.04	110
504.256	88
504.473	78
504.69	81
504.907	89
505.123	84
505.34	87
505.557	94
505.773	88
505.99	97
506.207	91
506.423	94
506.64	92
506.856	91
507.073	90
507.289	87
507.506	98
507.722	121
507.939	145
508.155	79
508.372	87
508.588	101
508.805	104
509.021	81
509.238	101
509.454	95
509.67	107
509.887	112
510.103	122
510.319	235
510.536	869
510.752	3132
510.968	841
511.184	161
511.401	109
511.617	101
511.833	94
512.049	93
512.265	78
512.481	92
512.698	83
512.914	87
513.13	92
513.346	89
513.562	94
513.778	82
513.994	81
514.21	107
514.426	136
514.642	157
514.858	132
515.074	214
515.29	646
515.506	2425
515.721	884
515.937	205
516.153	125
516.369	96
516.585	103
516.801	99
517.016	77
517.232	89
517.448	93
517.664	99
517.879	101
518.095	85
518.311	91
518.527	97
518.742	89
518.958	82
519.173	87
519.389	94
519.605	90
519.82	97
520.036	95
520.251	146
520.467	149
520.682	118
520.898	113
521.113	136
521.329	153
521.544	261
521.76	839
521.975	3902
522.19	2401
522.406	478
522.621	147
522.836	117
523.052	104
523.267	90
523.482	92
523.698	102
523.913	146
524.128	113
524.343	86
524.559	99
524.774	103
524.989	87
525.204	118
525.419	102
525.634	105
525.849	93
526.064	93
526.28	84
526.495	89
526.71	79
526.925	93
527.14	98
527.355	91
527.57	99
527.785	93
527.999	88
528.214	87
528.429	86
528.644	86
528.859	101
529.074	93
529.289	151
529.503	244
529.718	110
529.933	85
530.148	95
530.363	92
530.577	84
530.792	88
531.007	105
531.221	91
531.436	94
531.651	80
531.865	94
532.08	84
532.295	102
532.509	86
532.724	81
532.938	97
533.153	91
533.367	81
533.582	85
533.796	88
534.011	94
534.225	94
534.44	88
534.654	84
534.868	78
535.083	89
535.297	89
535.511	96
535.726	106
535.94	103
536.154	87
536.369	83
536.583	83
536.797	79
537.011	93
537.225	82
537.44	84
537.654	88
537.868	100
538.082	93
538.296	92
538.51	83
538.724	74
538.938	80
539.153	97
539.367	102
539.581	103
539.795	95
540.009	96
540.222	90
540.436	102
540.65	88
540.864	97
541.078	85
541.292	98
541.506	89
541.72	89
541.934	92
542.147	81
542.361	97
542.575	85
542.789	84
543.002	83
543.216	95
543.43	98
543.644	78
543.857	90
544.071	89
544.285	82
544.498	92
544.712	80
544.925	75
545.139	86
545.352	83
545.566	69
545.779	84
545.993	87
546.206	81
546.42	82
546.633	88
546.847	82
547.06	79
547.274	98
547.487	90
547.7	72
547.914	82
548.127	88
548.34	86
548.554	83
548.767	76
548.98	87
549.193	72
549.407	85
549.62	81
549.833	82
550.046	87
550.259	83
550.473	85
550.686	78
550.899	85
551.112	81
551.325	81
551.538	92
551.751	92
551.964	81
552.177	86
552.39	79
552.603	82
552.816	83
553.029	93
553.242	97
553.455	99
553.667	124
553.88	111
554.093	87
554.306	106
554.519	88
554.732	101
554.944	98
555.157	89
555.37	84
555.583	89
555.795	81
556.008	75
556.221	83
556.433	93
556.646	104
556.859	92
557.071	91
557.284	87
557.496	82
557.709	94
557.921	82
558.134	80
558.346	86
558.559	89
558.771	83
558.984	89
559.196	70
559.409	87
559.621	91
559.833	81
560.046	80
560.258	79
560.47	96
560.683	103
560.895	73
561.107	92
561.32	74
561.532	82
561.744	91
561.956	77
562.168	75
562.381	97
562.593	85
562.805	91
563.017	98
563.229	83
563.441	83
563.653	86
563.865	92
564.077	85
564.289	106
564.501	75
564.713	89
564.925	102
565.137	112
565.349	93
565.561	78
565.773	82
565.985	86
566.197	81
566.408	87
566.62	84
566.832	90
567.044	93
567.255	77
567.467	93
567.679	90
567.891	92
568.102	71
568.314	84
568.526	87
568.737	80
568.949	97
569.161	81
569.372	83
569.584	74
569.795	88
570.007	124
570.218	283
570.43	149
570.641	87
570.853	89
571.064	86
571.276	81
571.487	81
571.698	85
571.91	90
572.121	77
572.333	65
572.544	91
572.755	78
572.966	79
573.178	86
573.389	88
573.6	99
573.811	86
574.023	87
574.234	79
574.445	81
574.656	81
574.867	81
575.078	66
575.289	82
575.501	106
575.712	92
575.923	71
576.134	84
576.345	88
576.556	86
576.767	95
576.978	88
577.188	83
577.399	94
577.61	101
577.821	96
578.032	113
578.243	303
578.454	997
578.665	265
578.875	109
579.086	92
579.297	83
579.508	90
579.718	99
579.929	74
580.14	96
580.35	82
580.561	95
580.772	97
580.982	81
581.193	80
581.403	73
581.614	72
581.825	77
582.035	91
582.246	95
582.456	93
582.667	82
582.877	88
583.087	89
