Data from Circ_2007_H10_HRD10591_00082.txt Node
Date: Wed Jan 03 10:22:13 EST 2024
User: Yrep
Spectrometer: HR+D1059
Trigger mode: 1
Integration Time (sec): 1.000000E-1
Scans to average: 1
Electric dark correction enabled: true
Nonlinearity correction enabled: false
Boxcar width: 0
XAxis mode: Wavelengths
Number of Pixels in Spectrum: 2048
>>>>>Begin Spectral Data<<<<<
223.165	-19.06
223.4	-19.06
223.635	-19.06
223.869	-19.06
224.104	-25.06
224.338	-17.06
224.573	-17.06
224.808	-7.06
225.042	-10.06
225.277	-2.06
225.511	3.94
225.746	8.94
225.98	12.94
226.215	9.94
226.449	15.94
226.683	13.94
226.918	21.94
227.152	28.94
227.387	35.94
227.621	52.94
227.856	39.94
228.09	46.94
228.324	44.94
228.559	62.94
228.793	58.94
229.027	68.94
229.262	88.94
229.496	82.94
229.73	99.94
229.964	99.94
230.199	84.94
230.433	71.94
230.667	65.94
230.901	83.94
231.136	77.94
231.37	93.94
231.604	79.94
231.838	70.94
232.072	82.94
232.306	76.94
232.541	70.94
232.775	75.94
233.009	74.94
233.243	82.94
233.477	81.94
233.711	85.94
233.945	84.94
234.179	81.94
234.413	98.94
234.647	79.94
234.881	82.94
235.115	90.94
235.349	79.94
235.583	80.94
235.817	86.94
236.051	68.94
236.285	82.94
236.519	83.94
236.753	74.94
236.987	84.94
237.221	84.94
237.455	86.94
237.689	82.94
237.922	95.94
238.156	78.94
238.39	69.94
238.624	76.94
238.858	69.94
239.091	76.94
239.325	88.94
239.559	83.94
239.793	93.94
240.027	73.94
240.26	65.94
240.494	66.94
240.728	72.94
240.961	94.94
241.195	78.94
241.429	79.94
241.662	83.94
241.896	81.94
242.13	63.94
242.363	72.94
242.597	72.94
242.83	77.94
243.064	78.94
243.298	80.94
243.531	71.94
243.765	95.94
243.998	87.94
244.232	78.94
244.465	72.94
244.699	74.94
244.932	90.94
245.166	84.94
245.399	95.94
245.633	94.94
245.866	69.94
246.099	91.94
246.333	80.94
246.566	84.94
246.8	86.94
247.033	83.94
247.266	72.94
247.5	84.94
247.733	78.94
247.966	79.94
248.2	87.94
248.433	68.94
248.666	80.94
248.899	95.94
249.133	88.94
249.366	107.94
249.599	106.94
249.832	83.94
250.066	88.94
250.299	90.94
250.532	86.94
250.765	83.94
250.998	80.94
251.231	72.94
251.465	92.94
251.698	79.94
251.931	88.94
252.164	84.94
252.397	75.94
252.63	82.94
252.863	79.94
253.096	83.94
253.329	86.94
253.562	76.94
253.795	98.94
254.028	100.94
254.261	78.94
254.494	92.94
254.727	87.94
254.96	78.94
255.193	71.94
255.426	87.94
255.659	78.94
255.892	99.94
256.124	99.94
256.357	108.94
256.59	95.94
256.823	77.94
257.056	92.94
257.289	94.94
257.521	91.94
257.754	85.94
257.987	102.94
258.22	86.94
258.452	77.94
258.685	79.94
258.918	82.94
259.151	75.94
259.383	77.94
259.616	85.94
259.849	84.94
260.081	82.94
260.314	84.94
260.547	79.94
260.779	101.94
261.012	113.94
261.244	113.94
261.477	110.94
261.71	99.94
261.942	140.94
262.175	140.94
262.407	99.94
262.64	72.94
262.872	85.94
263.105	92.94
263.337	94.94
263.57	96.94
263.802	89.94
264.035	97.94
264.267	73.94
264.499	91.94
264.732	82.94
264.964	75.94
265.197	92.94
265.429	76.94
265.661	70.94
265.894	76.94
266.126	87.94
266.358	82.94
266.591	80.94
266.823	83.94
267.055	103.94
267.287	96.94
267.52	88.94
267.752	104.94
267.984	87.94
268.216	91.94
268.448	79.94
268.681	94.94
268.913	81.94
269.145	84.94
269.377	94.94
269.609	86.94
269.841	72.94
270.073	80.94
270.306	82.94
270.538	99.94
270.77	72.94
271.002	84.94
271.234	89.94
271.466	95.94
271.698	101.94
271.93	83.94
272.162	94.94
272.394	89.94
272.626	86.94
272.858	78.94
273.09	88.94
273.322	90.94
273.553	90.94
273.785	99.94
274.017	89.94
274.249	88.94
274.481	93.94
274.713	89.94
274.945	92.94
275.176	88.94
275.408	98.94
275.64	102.94
275.872	120.94
276.104	106.94
276.335	101.94
276.567	138.94
276.799	145.94
277.031	142.94
277.262	159.94
277.494	118.94
277.726	105.94
277.957	110.94
278.189	93.94
278.421	94.94
278.652	82.94
278.884	78.94
279.115	90.94
279.347	93.94
279.579	96.94
279.81	122.94
280.042	143.94
280.273	199.94
280.505	151.94
280.736	107.94
280.968	103.94
281.199	89.94
281.431	85.94
281.662	94.94
281.894	98.94
282.125	94.94
282.356	136.94
282.588	158.94
282.819	131.94
283.051	80.94
283.282	94.94
283.513	87.94
283.745	87.94
283.976	82.94
284.207	92.94
284.439	106.94
284.67	90.94
284.901	97.94
285.132	96.94
285.364	97.94
285.595	90.94
285.826	93.94
286.057	83.94
286.288	81.94
286.52	90.94
286.751	100.94
286.982	88.94
287.213	82.94
287.444	87.94
287.675	97.94
287.906	102.94
288.138	83.94
288.369	84.94
288.6	88.94
288.831	106.94
289.062	87.94
289.293	92.94
289.524	86.94
289.755	88.94
289.986	84.94
290.217	101.94
290.448	93.94
290.679	81.94
290.91	79.94
291.141	93.94
291.371	101.94
291.602	88.94
291.833	83.94
292.064	98.94
292.295	87.94
292.526	94.94
292.757	86.94
292.987	81.94
293.218	98.94
293.449	100.94
293.68	87.94
293.91	91.94
294.141	87.94
294.372	78.94
294.603	100.94
294.833	93.94
295.064	97.94
295.295	88.94
295.525	91.94
295.756	113.94
295.987	123.94
296.217	164.94
296.448	141.94
296.679	97.94
296.909	92.94
297.14	104.94
297.37	97.94
297.601	99.94
297.831	107.94
298.062	84.94
298.292	86.94
298.523	97.94
298.753	86.94
298.984	93.94
299.214	90.94
299.445	97.94
299.675	91.94
299.905	107.94
300.136	98.94
300.366	101.94
300.597	93.94
300.827	99.94
301.057	93.94
301.288	127.94
301.518	110.94
301.748	90.94
301.979	115.94
302.209	95.94
302.439	116.94
302.669	102.94
302.9	84.94
303.13	99.94
303.36	103.94
303.59	113.94
303.82	125.94
304.051	101.94
304.281	103.94
304.511	100.94
304.741	87.94
304.971	97.94
305.201	94.94
305.431	97.94
305.661	111.94
305.891	88.94
306.121	99.94
306.352	114.94
306.582	104.94
306.812	115.94
307.042	111.94
307.272	135.94
307.502	143.94
307.731	162.94
307.961	114.94
308.191	100.94
308.421	104.94
308.651	102.94
308.881	100.94
309.111	93.94
309.341	93.94
309.571	111.94
309.8	102.94
310.03	93.94
310.26	107.94
310.49	92.94
310.72	93.94
310.949	111.94
311.179	119.94
311.409	96.94
311.639	85.94
311.868	108.94
312.098	95.94
312.328	100.94
312.557	103.94
312.787	115.94
313.017	124.94
313.246	106.94
313.476	119.94
313.706	98.94
313.935	115.94
314.165	101.94
314.394	109.94
314.624	111.94
314.853	112.94
315.083	93.94
315.312	92.94
315.542	99.94
315.771	98.94
316.001	102.94
316.23	94.94
316.46	77.94
316.689	94.94
316.919	89.94
317.148	110.94
317.377	115.94
317.607	103.94
317.836	94.94
318.065	107.94
318.295	85.94
318.524	93.94
318.753	94.94
318.983	101.94
319.212	103.94
319.441	114.94
319.67	117.94
319.9	96.94
320.129	90.94
320.358	93.94
320.587	84.94
320.816	115.94
321.046	104.94
321.275	115.94
321.504	97.94
321.733	103.94
321.962	109.94
322.191	102.94
322.42	102.94
322.649	115.94
322.878	130.94
323.108	134.94
323.337	151.94
323.566	159.94
323.795	200.94
324.024	244.94
324.253	477.94
324.482	1063.94
324.71	2247.94
324.939	2998.94
325.168	1064.94
325.397	278.94
325.626	178.94
325.855	162.94
326.084	153.94
326.313	132.94
326.542	178.94
326.77	275.94
326.999	556.94
327.228	1193.94
327.457	2183.94
327.686	1775.94
327.914	540.94
328.143	414.94
328.372	495.94
328.6	289.94
328.829	162.94
329.058	166.94
329.287	199.94
329.515	186.94
329.744	218.94
329.972	338.94
330.201	660.94
330.43	992.94
330.658	493.94
330.887	247.94
331.115	168.94
331.344	111.94
331.572	128.94
331.801	131.94
332.03	118.94
332.258	114.94
332.486	98.94
332.715	108.94
332.943	112.94
333.172	115.94
333.4	126.94
333.629	154.94
333.857	193.94
334.085	340.94
334.314	652.94
334.542	1223.94
334.771	1207.94
334.999	339.94
335.227	150.94
335.455	112.94
335.684	123.94
335.912	126.94
336.14	96.94
336.369	117.94
336.597	120.94
336.825	105.94
337.053	97.94
337.281	100.94
337.51	97.94
337.738	100.94
337.966	85.94
338.194	103.94
338.422	97.94
338.65	123.94
338.878	90.94
339.106	82.94
339.334	95.94
339.562	99.94
339.79	107.94
340.018	107.94
340.246	114.94
340.474	109.94
340.702	87.94
340.93	86.94
341.158	97.94
341.386	111.94
341.614	123.94
341.842	95.94
342.07	89.94
342.298	91.94
342.526	104.94
342.754	85.94
342.981	84.94
343.209	106.94
343.437	106.94
343.665	96.94
343.893	90.94
344.12	97.94
344.348	85.94
344.576	99.94
344.804	106.94
345.031	118.94
345.259	115.94
345.487	100.94
345.714	86.94
345.942	98.94
346.17	92.94
346.397	90.94
346.625	96.94
346.853	99.94
347.08	86.94
347.308	97.94
347.535	85.94
347.763	108.94
347.99	104.94
348.218	85.94
348.445	103.94
348.673	116.94
348.9	98.94
349.128	110.94
349.355	107.94
349.583	93.94
349.81	102.94
350.037	88.94
350.265	100.94
350.492	99.94
350.72	104.94
350.947	112.94
351.174	131.94
351.402	140.94
351.629	114.94
351.856	118.94
352.083	108.94
352.311	121.94
352.538	123.94
352.765	126.94
352.992	111.94
353.22	102.94
353.447	108.94
353.674	98.94
353.901	85.94
354.128	101.94
354.355	100.94
354.583	100.94
354.81	96.94
355.037	95.94
355.264	100.94
355.491	96.94
355.718	77.94
355.945	81.94
356.172	89.94
356.399	84.94
356.626	110.94
356.853	86.94
357.08	96.94
357.307	99.94
357.534	108.94
357.761	98.94
357.988	87.94
358.215	115.94
358.441	101.94
358.668	96.94
358.895	105.94
359.122	102.94
359.349	100.94
359.576	101.94
359.802	91.94
360.029	142.94
360.256	130.94
360.483	122.94
360.709	85.94
360.936	92.94
361.163	110.94
361.39	103.94
361.616	99.94
361.843	95.94
362.07	100.94
362.296	114.94
362.523	110.94
362.749	98.94
362.976	100.94
363.203	101.94
363.429	101.94
363.656	101.94
363.882	88.94
364.109	97.94
364.335	86.94
364.562	90.94
364.788	94.94
365.015	108.94
365.241	103.94
365.468	115.94
365.694	104.94
365.92	97.94
366.147	109.94
366.373	88.94
366.599	113.94
366.826	104.94
367.052	93.94
367.278	97.94
367.505	99.94
367.731	93.94
367.957	92.94
368.184	111.94
368.41	125.94
368.636	115.94
368.862	132.94
369.089	125.94
369.315	93.94
369.541	98.94
369.767	85.94
369.993	98.94
370.219	92.94
370.445	106.94
370.672	87.94
370.898	109.94
371.124	87.94
371.35	91.94
371.576	85.94
371.802	81.94
372.028	84.94
372.254	89.94
372.48	87.94
372.706	97.94
372.932	80.94
373.158	92.94
373.384	94.94
373.61	94.94
373.835	89.94
374.061	104.94
374.287	99.94
374.513	87.94
374.739	82.94
374.965	96.94
375.191	94.94
375.416	92.94
375.642	85.94
375.868	89.94
376.094	87.94
376.319	80.94
376.545	102.94
376.771	86.94
376.997	88.94
377.222	88.94
377.448	108.94
377.674	92.94
377.899	85.94
378.125	101.94
378.35	97.94
378.576	103.94
378.802	88.94
379.027	88.94
379.253	102.94
379.478	97.94
379.704	84.94
379.929	99.94
380.155	101.94
380.38	99.94
380.606	102.94
380.831	96.94
381.057	98.94
381.282	83.94
381.507	92.94
381.733	112.94
381.958	96.94
382.184	94.94
382.409	109.94
382.634	99.94
382.86	88.94
383.085	99.94
383.31	88.94
383.535	95.94
383.761	89.94
383.986	98.94
384.211	91.94
384.436	108.94
384.662	107.94
384.887	106.94
385.112	105.94
385.337	90.94
385.562	100.94
385.787	97.94
386.013	106.94
386.238	115.94
386.463	108.94
386.688	112.94
386.913	93.94
387.138	108.94
387.363	101.94
387.588	96.94
387.813	72.94
388.038	110.94
388.263	107.94
388.488	103.94
388.713	76.94
388.938	104.94
389.163	100.94
389.387	102.94
389.612	96.94
389.837	90.94
390.062	84.94
390.287	74.94
390.512	88.94
390.736	96.94
390.961	95.94
391.186	110.94
391.411	95.94
391.636	92.94
391.86	87.94
392.085	95.94
392.31	86.94
392.534	84.94
392.759	98.94
392.984	94.94
393.208	100.94
393.433	106.94
393.658	81.94
393.882	94.94
394.107	93.94
394.331	81.94
394.556	91.94
394.78	100.94
395.005	78.94
395.229	80.94
395.454	88.94
395.678	92.94
395.903	99.94
396.127	109.94
396.352	86.94
396.576	93.94
396.801	84.94
397.025	88.94
397.249	83.94
397.474	91.94
397.698	96.94
397.922	86.94
398.147	91.94
398.371	87.94
398.595	85.94
398.82	98.94
399.044	91.94
399.268	77.94
399.492	80.94
399.717	85.94
399.941	94.94
400.165	96.94
400.389	81.94
400.613	78.94
400.837	84.94
401.062	88.94
401.286	102.94
401.51	98.94
401.734	89.94
401.958	101.94
402.182	148.94
402.406	190.94
402.63	117.94
402.854	122.94
403.078	104.94
403.302	87.94
403.526	81.94
403.75	103.94
403.974	90.94
404.198	95.94
404.422	96.94
404.645	93.94
404.869	116.94
405.093	108.94
405.317	144.94
405.541	140.94
405.765	124.94
405.988	123.94
406.212	207.94
406.436	296.94
406.66	200.94
406.883	107.94
407.107	85.94
407.331	98.94
407.555	116.94
407.778	117.94
408.002	91.94
408.226	100.94
408.449	94.94
408.673	101.94
408.896	109.94
409.12	102.94
409.344	100.94
409.567	74.94
409.791	79.94
410.014	101.94
410.238	92.94
410.461	106.94
410.685	81.94
410.908	87.94
411.132	123.94
411.355	106.94
411.578	101.94
411.802	98.94
412.025	99.94
412.249	112.94
412.472	129.94
412.695	138.94
412.919	104.94
413.142	95.94
413.365	89.94
413.589	91.94
413.812	97.94
414.035	88.94
414.258	100.94
414.482	90.94
414.705	107.94
414.928	99.94
415.151	94.94
415.374	92.94
415.597	83.94
415.821	91.94
416.044	103.94
416.267	101.94
416.49	86.94
416.713	96.94
416.936	90.94
417.159	95.94
417.382	97.94
417.605	107.94
417.828	98.94
418.051	101.94
418.274	93.94
418.497	87.94
418.72	87.94
418.943	78.94
419.166	81.94
419.389	84.94
419.611	89.94
419.834	93.94
420.057	82.94
420.28	98.94
420.503	84.94
420.726	96.94
420.948	103.94
421.171	104.94
421.394	106.94
421.617	98.94
421.839	103.94
422.062	102.94
422.285	109.94
422.507	114.94
422.73	98.94
422.953	93.94
423.175	91.94
423.398	94.94
423.621	84.94
423.843	86.94
424.066	93.94
424.288	105.94
424.511	94.94
424.733	107.94
424.956	126.94
425.178	125.94
425.401	109.94
425.623	119.94
425.846	97.94
426.068	104.94
426.291	108.94
426.513	94.94
426.735	107.94
426.958	107.94
427.18	119.94
427.402	164.94
427.625	236.94
427.847	241.94
428.069	223.94
428.292	133.94
428.514	101.94
428.736	100.94
428.958	110.94
429.181	96.94
429.403	102.94
429.625	93.94
429.847	119.94
430.069	111.94
430.292	101.94
430.514	97.94
430.736	90.94
430.958	99.94
431.18	88.94
431.402	82.94
431.624	87.94
431.846	83.94
432.068	89.94
432.29	91.94
432.512	96.94
432.734	87.94
432.956	106.94
433.178	109.94
433.4	99.94
433.622	88.94
433.844	100.94
434.066	91.94
434.287	94.94
434.509	105.94
434.731	96.94
434.953	92.94
435.175	108.94
435.397	86.94
435.618	102.94
435.84	109.94
436.062	151.94
436.284	143.94
436.505	124.94
436.727	116.94
436.949	106.94
437.17	101.94
437.392	91.94
437.614	103.94
437.835	128.94
438.057	157.94
438.278	151.94
438.5	107.94
438.721	154.94
438.943	110.94
439.165	94.94
439.386	108.94
439.608	99.94
439.829	95.94
440.05	146.94
440.272	187.94
440.493	111.94
440.715	98.94
440.936	102.94
441.158	96.94
441.379	86.94
441.6	88.94
441.822	100.94
442.043	106.94
442.264	118.94
442.486	114.94
442.707	101.94
442.928	130.94
443.149	171.94
443.371	157.94
443.592	139.94
443.813	137.94
444.034	113.94
444.255	104.94
444.476	88.94
444.698	82.94
444.919	97.94
445.14	163.94
445.361	150.94
445.582	148.94
445.803	189.94
446.024	191.94
446.245	174.94
446.466	156.94
446.687	115.94
446.908	85.94
447.129	98.94
447.35	91.94
447.571	110.94
447.792	110.94
448.013	105.94
448.234	119.94
448.455	122.94
448.675	144.94
448.896	148.94
449.117	118.94
449.338	118.94
449.559	144.94
449.779	157.94
450	115.94
450.221	97.94
450.442	99.94
450.662	109.94
450.883	113.94
451.104	133.94
451.324	111.94
451.545	93.94
451.766	77.94
451.986	92.94
452.207	84.94
452.428	90.94
452.648	117.94
452.869	123.94
453.089	126.94
453.31	130.94
453.53	111.94
453.751	104.94
453.971	123.94
454.192	121.94
454.412	95.94
454.633	87.94
454.853	90.94
455.073	103.94
455.294	99.94
455.514	111.94
455.734	89.94
455.955	88.94
456.175	94.94
456.395	88.94
456.616	84.94
456.836	96.94
457.056	86.94
457.276	86.94
457.497	82.94
457.717	102.94
457.937	96.94
458.157	105.94
458.377	106.94
458.598	116.94
458.818	191.94
459.038	231.94
459.258	152.94
459.478	101.94
459.698	95.94
459.918	85.94
460.138	98.94
460.358	94.94
460.578	93.94
460.798	97.94
461.018	107.94
461.238	81.94
461.458	99.94
461.678	85.94
461.898	92.94
462.118	87.94
462.338	96.94
462.558	92.94
462.777	103.94
462.997	106.94
463.217	98.94
463.437	91.94
463.657	90.94
463.876	99.94
464.096	116.94
464.316	106.94
464.536	96.94
464.755	113.94
464.975	124.94
465.195	218.94
465.414	234.94
465.634	114.94
465.854	93.94
466.073	109.94
466.293	102.94
466.512	91.94
466.732	70.94
466.951	87.94
467.171	110.94
467.391	97.94
467.61	123.94
467.829	174.94
468.049	354.94
468.268	544.94
468.488	175.94
468.707	106.94
468.927	88.94
469.146	90.94
469.365	87.94
469.585	97.94
469.804	111.94
470.023	110.94
470.243	108.94
470.462	120.94
470.681	126.94
470.901	101.94
471.12	95.94
471.339	92.94
471.558	102.94
471.777	148.94
471.997	219.94
472.216	720.94
472.435	1599.94
472.654	442.94
472.873	151.94
473.092	108.94
473.311	98.94
473.53	100.94
473.749	82.94
473.968	106.94
474.187	117.94
474.406	111.94
474.625	101.94
474.844	81.94
475.063	102.94
475.282	99.94
475.501	95.94
475.72	90.94
475.939	84.94
476.158	89.94
476.377	85.94
476.596	100.94
476.814	85.94
477.033	99.94
477.252	103.94
477.471	105.94
477.69	100.94
477.908	94.94
478.127	101.94
478.346	112.94
478.564	96.94
478.783	101.94
479.002	112.94
479.22	100.94
479.439	121.94
479.658	116.94
479.876	113.94
480.095	107.94
480.313	128.94
480.532	140.94
480.751	219.94
480.969	664.94
481.188	2749.94
481.406	1722.94
481.624	287.94
481.843	126.94
482.061	84.94
482.28	97.94
482.498	93.94
482.717	99.94
482.935	95.94
483.153	86.94
483.372	109.94
483.59	93.94
483.808	106.94
484.027	87.94
484.245	106.94
484.463	96.94
484.681	99.94
484.9	87.94
485.118	93.94
485.336	102.94
485.554	101.94
485.772	110.94
485.99	111.94
486.209	116.94
486.427	125.94
486.645	123.94
486.863	122.94
487.081	120.94
487.299	112.94
487.517	101.94
487.735	101.94
487.953	103.94
488.171	108.94
488.389	103.94
488.607	119.94
488.825	96.94
489.043	92.94
489.261	104.94
489.479	88.94
489.696	102.94
489.914	98.94
490.132	92.94
490.35	97.94
490.568	74.94
490.786	87.94
491.003	83.94
491.221	96.94
491.439	100.94
491.657	101.94
491.874	107.94
492.092	92.94
492.31	107.94
492.527	95.94
492.745	99.94
492.963	108.94
493.18	99.94
493.398	96.94
493.615	107.94
493.833	108.94
494.05	94.94
494.268	90.94
494.485	88.94
494.703	96.94
494.92	91.94
495.138	101.94
495.355	91.94
495.573	95.94
495.79	85.94
496.008	78.94
496.225	92.94
496.442	97.94
496.66	92.94
496.877	87.94
497.094	107.94
497.312	96.94
497.529	101.94
497.746	95.94
497.963	84.94
498.181	99.94
498.398	102.94
498.615	112.94
498.832	116.94
499.049	111.94
499.267	103.94
499.484	107.94
499.701	80.94
499.918	100.94
500.135	99.94
500.352	97.94
500.569	100.94
500.786	108.94
501.003	102.94
501.22	97.94
501.437	96.94
501.654	105.94
501.871	124.94
502.088	94.94
502.305	102.94
502.522	93.94
502.739	95.94
502.956	84.94
503.172	96.94
503.389	113.94
503.606	123.94
503.823	106.94
504.04	97.94
504.256	99.94
504.473	98.94
504.69	97.94
504.907	99.94
505.123	96.94
505.34	73.94
505.557	87.94
505.773	97.94
505.99	92.94
506.207	92.94
506.423	108.94
506.64	99.94
506.856	100.94
507.073	86.94
507.289	96.94
507.506	104.94
507.722	130.94
507.939	142.94
508.155	96.94
508.372	92.94
508.588	101.94
508.805	98.94
509.021	98.94
509.238	115.94
509.454	115.94
509.67	100.94
509.887	130.94
510.103	143.94
510.319	207.94
510.536	794.94
510.752	2813.94
510.968	815.94
511.184	173.94
511.401	130.94
511.617	116.94
511.833	123.94
512.049	103.94
