Data from Circ_2007_H10_HRD10591_00033.txt Node
Date: Wed Jan 03 10:22:03 EST 2024
User: Yrep
Spectrometer: HR+D1059
Trigger mode: 1
Integration Time (sec): 1.000000E-1
Scans to average: 1
Electric dark correction enabled: true
Nonlinearity correction enabled: false
Boxcar width: 0
XAxis mode: Wavelengths
Number of Pixels in Spectrum: 2048
>>>>>Begin Spectral Data<<<<<
223.165	-18.25
223.4	-18.25
223.635	-18.25
223.869	-18.25
224.104	-25.25
224.338	-28.25
224.573	-12.25
224.808	-17.25
225.042	-2.25
225.277	-9.25
225.511	-5.25
225.746	8.75
225.98	-5.25
226.215	28.75
226.449	35.75
226.683	7.75
226.918	23.75
227.152	36.75
227.387	29.75
227.621	58.75
227.856	35.75
228.09	45.75
228.324	47.75
228.559	64.75
228.793	49.75
229.027	75.75
229.262	68.75
229.496	78.75
229.73	88.75
229.964	89.75
230.199	79.75
230.433	62.75
230.667	87.75
230.901	85.75
231.136	81.75
231.37	76.75
231.604	84.75
231.838	74.75
232.072	86.75
232.306	91.75
232.541	82.75
232.775	77.75
233.009	85.75
233.243	77.75
233.477	78.75
233.711	96.75
233.945	76.75
234.179	97.75
234.413	82.75
234.647	78.75
234.881	76.75
235.115	78.75
235.349	81.75
235.583	80.75
235.817	84.75
236.051	84.75
236.285	75.75
236.519	79.75
236.753	89.75
236.987	78.75
237.221	99.75
237.455	97.75
237.689	86.75
237.922	78.75
238.156	69.75
238.39	59.75
238.624	77.75
238.858	76.75
239.091	77.75
239.325	81.75
239.559	79.75
239.793	90.75
240.027	82.75
240.26	78.75
240.494	82.75
240.728	86.75
240.961	74.75
241.195	80.75
241.429	73.75
241.662	88.75
241.896	80.75
242.13	78.75
242.363	77.75
242.597	80.75
242.83	78.75
243.064	65.75
243.298	67.75
243.531	67.75
243.765	85.75
243.998	102.75
244.232	85.75
244.465	75.75
244.699	88.75
244.932	75.75
245.166	72.75
245.399	69.75
245.633	72.75
245.866	96.75
246.099	79.75
246.333	84.75
246.566	72.75
246.8	71.75
247.033	84.75
247.266	99.75
247.5	72.75
247.733	82.75
247.966	82.75
248.2	73.75
248.433	81.75
248.666	76.75
248.899	72.75
249.133	105.75
249.366	108.75
249.599	103.75
249.832	96.75
250.066	78.75
250.299	86.75
250.532	94.75
250.765	90.75
250.998	90.75
251.231	86.75
251.465	77.75
251.698	91.75
251.931	81.75
252.164	80.75
252.397	92.75
252.63	81.75
252.863	69.75
253.096	71.75
253.329	92.75
253.562	83.75
253.795	84.75
254.028	84.75
254.261	68.75
254.494	84.75
254.727	76.75
254.96	82.75
255.193	91.75
255.426	83.75
255.659	73.75
255.892	83.75
256.124	107.75
256.357	77.75
256.59	79.75
256.823	89.75
257.056	79.75
257.289	105.75
257.521	80.75
257.754	89.75
257.987	90.75
258.22	86.75
258.452	87.75
258.685	80.75
258.918	77.75
259.151	79.75
259.383	93.75
259.616	80.75
259.849	76.75
260.081	81.75
260.314	74.75
260.547	92.75
260.779	94.75
261.012	114.75
261.244	110.75
261.477	100.75
261.71	114.75
261.942	136.75
262.175	154.75
262.407	108.75
262.64	68.75
262.872	77.75
263.105	91.75
263.337	89.75
263.57	92.75
263.802	70.75
264.035	85.75
264.267	79.75
264.499	69.75
264.732	81.75
264.964	76.75
265.197	90.75
265.429	89.75
265.661	81.75
265.894	87.75
266.126	92.75
266.358	83.75
266.591	86.75
266.823	79.75
267.055	80.75
267.287	79.75
267.52	88.75
267.752	81.75
267.984	82.75
268.216	95.75
268.448	96.75
268.681	92.75
268.913	93.75
269.145	100.75
269.377	96.75
269.609	89.75
269.841	85.75
270.073	95.75
270.306	85.75
270.538	88.75
270.77	85.75
271.002	93.75
271.234	84.75
271.466	84.75
271.698	94.75
271.93	91.75
272.162	83.75
272.394	78.75
272.626	92.75
272.858	78.75
273.09	77.75
273.322	85.75
273.553	76.75
273.785	83.75
274.017	76.75
274.249	86.75
274.481	90.75
274.713	74.75
274.945	90.75
275.176	104.75
275.408	99.75
275.64	97.75
275.872	117.75
276.104	126.75
276.335	94.75
276.567	124.75
276.799	136.75
277.031	182.75
277.262	153.75
277.494	128.75
277.726	102.75
277.957	86.75
278.189	91.75
278.421	81.75
278.652	88.75
278.884	99.75
279.115	93.75
279.347	87.75
279.579	82.75
279.81	112.75
280.042	173.75
280.273	233.75
280.505	150.75
280.736	111.75
280.968	85.75
281.199	89.75
281.431	84.75
281.662	85.75
281.894	104.75
282.125	123.75
282.356	134.75
282.588	200.75
282.819	158.75
283.051	97.75
283.282	97.75
283.513	109.75
283.745	86.75
283.976	93.75
284.207	92.75
284.439	91.75
284.67	81.75
284.901	86.75
285.132	93.75
285.364	81.75
285.595	89.75
285.826	87.75
286.057	88.75
286.288	89.75
286.52	102.75
286.751	70.75
286.982	90.75
287.213	91.75
287.444	86.75
287.675	104.75
287.906	85.75
288.138	104.75
288.369	92.75
288.6	106.75
288.831	110.75
289.062	73.75
289.293	91.75
289.524	92.75
289.755	89.75
289.986	78.75
290.217	100.75
290.448	93.75
290.679	93.75
290.91	93.75
291.141	110.75
291.371	100.75
291.602	84.75
291.833	103.75
292.064	85.75
292.295	93.75
292.526	80.75
292.757	87.75
292.987	77.75
293.218	85.75
293.449	77.75
293.68	89.75
293.91	89.75
294.141	90.75
294.372	98.75
294.603	89.75
294.833	84.75
295.064	88.75
295.295	83.75
295.525	100.75
295.756	108.75
295.987	150.75
296.217	174.75
296.448	173.75
296.679	76.75
296.909	105.75
297.14	95.75
297.37	95.75
297.601	97.75
297.831	81.75
298.062	92.75
298.292	90.75
298.523	106.75
298.753	80.75
298.984	88.75
299.214	101.75
299.445	99.75
299.675	104.75
299.905	103.75
300.136	99.75
300.366	97.75
300.597	105.75
300.827	99.75
301.057	107.75
301.288	118.75
301.518	93.75
301.748	103.75
301.979	112.75
302.209	104.75
302.439	93.75
302.669	92.75
302.9	97.75
303.13	86.75
303.36	99.75
303.59	121.75
303.82	136.75
304.051	104.75
304.281	85.75
304.511	106.75
304.741	93.75
304.971	96.75
305.201	90.75
305.431	83.75
305.661	88.75
305.891	85.75
306.121	101.75
306.352	106.75
306.582	102.75
306.812	107.75
307.042	108.75
307.272	139.75
307.502	163.75
307.731	134.75
307.961	123.75
308.191	104.75
308.421	100.75
308.651	100.75
308.881	90.75
309.111	103.75
309.341	107.75
309.571	107.75
309.8	116.75
310.03	119.75
310.26	93.75
310.49	106.75
310.72	122.75
310.949	118.75
311.179	117.75
311.409	102.75
311.639	102.75
311.868	114.75
312.098	93.75
312.328	94.75
312.557	114.75
312.787	140.75
313.017	117.75
313.246	104.75
313.476	97.75
313.706	108.75
313.935	100.75
314.165	113.75
314.394	120.75
314.624	105.75
314.853	112.75
315.083	98.75
315.312	105.75
315.542	98.75
315.771	107.75
316.001	89.75
316.23	100.75
316.46	92.75
316.689	75.75
316.919	114.75
317.148	95.75
317.377	107.75
317.607	101.75
317.836	99.75
318.065	86.75
318.295	84.75
318.524	102.75
318.753	97.75
318.983	107.75
319.212	113.75
319.441	122.75
319.67	136.75
319.9	104.75
320.129	86.75
320.358	95.75
320.587	104.75
320.816	118.75
321.046	120.75
321.275	104.75
321.504	101.75
321.733	104.75
321.962	105.75
322.191	100.75
322.42	123.75
322.649	113.75
322.878	124.75
323.108	136.75
323.337	160.75
323.566	161.75
323.795	191.75
324.024	266.75
324.253	516.75
324.482	1111.75
324.71	2287.75
324.939	3096.75
325.168	1133.75
325.397	312.75
325.626	182.75
325.855	142.75
326.084	133.75
326.313	140.75
326.542	179.75
326.77	285.75
326.999	540.75
327.228	1129.75
327.457	2165.75
327.686	1781.75
327.914	551.75
328.143	466.75
328.372	532.75
328.6	342.75
328.829	186.75
329.058	214.75
329.287	212.75
329.515	169.75
329.744	218.75
329.972	352.75
330.201	744.75
330.43	1116.75
330.658	529.75
330.887	299.75
331.115	203.75
331.344	114.75
331.572	127.75
331.801	130.75
332.03	133.75
332.258	126.75
332.486	107.75
332.715	120.75
332.943	117.75
333.172	122.75
333.4	123.75
333.629	158.75
333.857	212.75
334.085	341.75
334.314	671.75
334.542	1328.75
334.771	1346.75
334.999	364.75
335.227	168.75
335.455	121.75
335.684	114.75
335.912	99.75
336.14	101.75
336.369	100.75
336.597	105.75
336.825	102.75
337.053	101.75
337.281	103.75
337.51	97.75
337.738	96.75
337.966	97.75
338.194	114.75
338.422	122.75
338.65	116.75
338.878	90.75
339.106	102.75
339.334	101.75
339.562	96.75
339.79	93.75
340.018	100.75
340.246	87.75
340.474	111.75
340.702	89.75
340.93	92.75
341.158	116.75
341.386	114.75
341.614	107.75
341.842	106.75
342.07	106.75
342.298	89.75
342.526	100.75
342.754	87.75
342.981	101.75
343.209	92.75
343.437	96.75
343.665	82.75
343.893	94.75
344.12	86.75
344.348	85.75
344.576	84.75
344.804	103.75
345.031	113.75
345.259	118.75
345.487	108.75
345.714	105.75
345.942	89.75
346.17	96.75
346.397	105.75
346.625	114.75
346.853	97.75
347.08	83.75
347.308	96.75
347.535	112.75
347.763	118.75
347.99	102.75
348.218	103.75
348.445	124.75
348.673	105.75
348.9	95.75
349.128	91.75
349.355	78.75
349.583	82.75
349.81	93.75
350.037	103.75
350.265	101.75
350.492	75.75
350.72	102.75
350.947	110.75
351.174	130.75
351.402	134.75
351.629	116.75
351.856	109.75
352.083	125.75
352.311	121.75
352.538	132.75
352.765	127.75
352.992	115.75
353.22	115.75
353.447	118.75
353.674	120.75
353.901	98.75
354.128	89.75
354.355	95.75
354.583	105.75
354.81	95.75
355.037	98.75
355.264	90.75
355.491	92.75
355.718	86.75
355.945	94.75
356.172	93.75
356.399	105.75
356.626	108.75
356.853	99.75
357.08	91.75
357.307	106.75
357.534	93.75
357.761	92.75
357.988	104.75
358.215	101.75
358.441	110.75
358.668	110.75
358.895	105.75
359.122	99.75
359.349	90.75
359.576	114.75
359.802	102.75
360.029	176.75
360.256	159.75
360.483	146.75
360.709	110.75
360.936	97.75
361.163	112.75
361.39	110.75
361.616	109.75
361.843	100.75
362.07	90.75
362.296	95.75
362.523	93.75
362.749	104.75
362.976	97.75
363.203	103.75
363.429	101.75
363.656	105.75
363.882	93.75
364.109	91.75
364.335	101.75
364.562	106.75
364.788	98.75
365.015	113.75
365.241	106.75
365.468	129.75
365.694	118.75
365.92	101.75
366.147	94.75
366.373	84.75
366.599	92.75
366.826	100.75
367.052	91.75
367.278	113.75
367.505	85.75
367.731	79.75
367.957	97.75
368.184	84.75
368.41	112.75
368.636	133.75
368.862	140.75
369.089	125.75
369.315	107.75
369.541	91.75
369.767	94.75
369.993	100.75
370.219	96.75
370.445	91.75
370.672	87.75
370.898	85.75
371.124	90.75
371.35	83.75
371.576	81.75
371.802	86.75
372.028	81.75
372.254	88.75
372.48	88.75
372.706	91.75
372.932	91.75
373.158	83.75
373.384	93.75
373.61	85.75
373.835	105.75
374.061	96.75
374.287	106.75
374.513	96.75
374.739	108.75
374.965	86.75
375.191	90.75
375.416	87.75
375.642	86.75
375.868	98.75
376.094	90.75
376.319	91.75
376.545	96.75
376.771	92.75
376.997	106.75
377.222	82.75
377.448	86.75
377.674	92.75
377.899	83.75
378.125	89.75
378.35	107.75
378.576	86.75
378.802	97.75
379.027	85.75
379.253	85.75
379.478	86.75
379.704	86.75
379.929	95.75
380.155	106.75
380.38	106.75
380.606	120.75
380.831	94.75
381.057	99.75
381.282	99.75
381.507	95.75
381.733	93.75
381.958	113.75
382.184	87.75
382.409	106.75
382.634	109.75
382.86	97.75
383.085	91.75
383.31	105.75
383.535	105.75
383.761	104.75
383.986	113.75
384.211	104.75
384.436	110.75
384.662	93.75
384.887	109.75
385.112	103.75
385.337	105.75
385.562	115.75
385.787	114.75
386.013	117.75
386.238	113.75
386.463	115.75
386.688	115.75
386.913	104.75
387.138	100.75
387.363	94.75
387.588	100.75
387.813	84.75
388.038	109.75
388.263	108.75
388.488	122.75
388.713	101.75
388.938	92.75
389.163	101.75
389.387	79.75
389.612	95.75
389.837	93.75
390.062	91.75
390.287	87.75
390.512	95.75
390.736	84.75
390.961	90.75
391.186	90.75
391.411	88.75
391.636	83.75
391.86	84.75
392.085	82.75
392.31	88.75
392.534	88.75
392.759	101.75
392.984	85.75
393.208	84.75
393.433	92.75
393.658	94.75
393.882	96.75
394.107	79.75
394.331	84.75
394.556	71.75
394.78	86.75
395.005	101.75
395.229	102.75
395.454	82.75
395.678	78.75
395.903	108.75
396.127	86.75
396.352	96.75
396.576	87.75
396.801	97.75
397.025	106.75
397.249	81.75
397.474	93.75
397.698	83.75
397.922	84.75
398.147	96.75
398.371	85.75
398.595	85.75
398.82	81.75
399.044	81.75
399.268	81.75
399.492	91.75
399.717	95.75
399.941	91.75
400.165	97.75
400.389	90.75
400.613	93.75
400.837	102.75
401.062	92.75
401.286	84.75
401.51	97.75
401.734	108.75
401.958	113.75
402.182	152.75
402.406	218.75
402.63	169.75
402.854	106.75
403.078	98.75
403.302	81.75
403.526	96.75
403.75	98.75
403.974	92.75
404.198	94.75
404.422	86.75
404.645	105.75
404.869	113.75
405.093	111.75
405.317	144.75
405.541	137.75
405.765	109.75
405.988	137.75
406.212	235.75
406.436	356.75
406.66	235.75
406.883	130.75
407.107	94.75
407.331	121.75
407.555	114.75
407.778	110.75
408.002	95.75
408.226	98.75
408.449	82.75
408.673	107.75
408.896	93.75
409.12	108.75
409.344	100.75
409.567	99.75
409.791	106.75
410.014	86.75
410.238	77.75
410.461	99.75
410.685	91.75
410.908	105.75
411.132	106.75
411.355	104.75
411.578	72.75
411.802	90.75
412.025	99.75
412.249	75.75
412.472	109.75
412.695	134.75
412.919	108.75
413.142	95.75
413.365	94.75
413.589	87.75
413.812	105.75
414.035	98.75
414.258	89.75
414.482	83.75
414.705	100.75
414.928	82.75
415.151	87.75
415.374	100.75
415.597	86.75
415.821	93.75
416.044	89.75
416.267	77.75
416.49	89.75
416.713	97.75
416.936	93.75
417.159	87.75
417.382	104.75
417.605	113.75
417.828	107.75
418.051	117.75
418.274	91.75
418.497	95.75
418.72	86.75
418.943	113.75
419.166	91.75
419.389	94.75
419.611	92.75
419.834	96.75
420.057	89.75
420.28	110.75
420.503	74.75
420.726	92.75
420.948	99.75
421.171	94.75
421.394	101.75
421.617	92.75
421.839	92.75
422.062	83.75
422.285	94.75
422.507	117.75
422.73	93.75
422.953	97.75
423.175	91.75
423.398	84.75
423.621	92.75
423.843	77.75
424.066	92.75
424.288	91.75
424.511	95.75
424.733	101.75
424.956	122.75
425.178	116.75
425.401	115.75
425.623	114.75
425.846	84.75
426.068	108.75
426.291	100.75
426.513	93.75
426.735	88.75
426.958	100.75
427.18	130.75
427.402	168.75
427.625	266.75
427.847	242.75
428.069	216.75
428.292	127.75
428.514	101.75
428.736	97.75
428.958	92.75
429.181	88.75
429.403	87.75
429.625	87.75
429.847	116.75
430.069	125.75
430.292	105.75
430.514	80.75
430.736	88.75
430.958	91.75
431.18	80.75
431.402	66.75
431.624	86.75
431.846	89.75
432.068	93.75
432.29	92.75
432.512	97.75
432.734	98.75
432.956	95.75
433.178	105.75
433.4	113.75
433.622	92.75
433.844	89.75
434.066	85.75
434.287	93.75
434.509	96.75
434.731	109.75
434.953	86.75
435.175	78.75
435.397	82.75
435.618	97.75
435.84	97.75
436.062	154.75
436.284	137.75
436.505	110.75
436.727	112.75
436.949	100.75
437.17	79.75
437.392	87.75
437.614	115.75
437.835	152.75
438.057	162.75
438.278	128.75
438.5	109.75
438.721	152.75
438.943	105.75
439.165	95.75
439.386	87.75
439.608	106.75
439.829	116.75
440.05	154.75
440.272	207.75
440.493	100.75
440.715	95.75
440.936	96.75
441.158	89.75
441.379	86.75
441.6	99.75
441.822	107.75
442.043	92.75
442.264	129.75
442.486	112.75
442.707	109.75
442.928	119.75
443.149	182.75
443.371	186.75
443.592	136.75
443.813	115.75
444.034	126.75
444.255	94.75
444.476	82.75
444.698	95.75
444.919	84.75
445.14	130.75
445.361	137.75
445.582	150.75
445.803	193.75
446.024	181.75
446.245	194.75
446.466	128.75
446.687	104.75
446.908	89.75
447.129	97.75
447.35	93.75
447.571	102.75
447.792	100.75
448.013	103.75
448.234	121.75
448.455	118.75
448.675	129.75
448.896	145.75
449.117	122.75
449.338	128.75
449.559	147.75
449.779	172.75
450	116.75
450.221	96.75
450.442	94.75
450.662	107.75
450.883	140.75
451.104	160.75
451.324	119.75
451.545	92.75
451.766	87.75
451.986	106.75
452.207	92.75
452.428	106.75
452.648	105.75
452.869	131.75
453.089	140.75
453.31	144.75
453.53	107.75
453.751	120.75
453.971	121.75
454.192	143.75
454.412	96.75
454.633	88.75
454.853	87.75
455.073	97.75
455.294	90.75
455.514	127.75
455.734	96.75
455.955	88.75
456.175	85.75
456.395	97.75
456.616	86.75
456.836	94.75
457.056	89.75
457.276	92.75
457.497	89.75
457.717	94.75
457.937	86.75
458.157	100.75
458.377	97.75
458.598	142.75
458.818	241.75
459.038	275.75
459.258	188.75
459.478	102.75
459.698	98.75
459.918	92.75
460.138	87.75
460.358	96.75
460.578	83.75
460.798	97.75
461.018	95.75
461.238	84.75
461.458	79.75
461.678	90.75
461.898	97.75
462.118	84.75
462.338	93.75
462.558	76.75
462.777	80.75
462.997	91.75
463.217	101.75
463.437	85.75
463.657	84.75
463.876	83.75
464.096	105.75
464.316	98.75
464.536	90.75
464.755	104.75
464.975	128.75
465.195	264.75
465.414	290.75
465.634	113.75
465.854	102.75
466.073	102.75
466.293	84.75
466.512	84.75
466.732	76.75
466.951	95.75
467.171	102.75
467.391	105.75
467.61	136.75
467.829	172.75
468.049	388.75
468.268	597.75
468.488	172.75
468.707	96.75
468.927	89.75
469.146	86.75
469.365	96.75
469.585	82.75
469.804	107.75
470.023	126.75
470.243	113.75
470.462	123.75
470.681	140.75
470.901	94.75
471.12	101.75
471.339	113.75
471.558	119.75
471.777	132.75
471.997	214.75
472.216	733.75
472.435	1740.75
472.654	450.75
472.873	139.75
473.092	109.75
473.311	85.75
473.53	96.75
473.749	86.75
473.968	103.75
474.187	129.75
474.406	119.75
474.625	106.75
474.844	90.75
475.063	85.75
475.282	82.75
475.501	90.75
475.72	92.75
475.939	93.75
476.158	84.75
476.377	92.75
476.596	92.75
476.814	96.75
477.033	110.75
477.252	99.75
477.471	100.75
477.69	107.75
477.908	98.75
478.127	95.75
478.346	97.75
478.564	83.75
478.783	106.75
479.002	100.75
479.22	84.75
479.439	124.75
479.658	150.75
479.876	117.75
480.095	112.75
480.313	122.75
480.532	139.75
480.751	227.75
480.969	652.75
481.188	2851.75
481.406	1854.75
481.624	293.75
481.843	139.75
482.061	104.75
482.28	124.75
482.498	92.75
482.717	73.75
482.935	91.75
483.153	94.75
483.372	102.75
483.59	91.75
483.808	84.75
484.027	89.75
484.245	102.75
484.463	88.75
484.681	107.75
484.9	88.75
485.118	86.75
485.336	87.75
485.554	91.75
485.772	97.75
485.99	110.75
486.209	109.75
486.427	107.75
486.645	130.75
486.863	130.75
487.081	115.75
487.299	120.75
487.517	93.75
487.735	86.75
487.953	90.75
488.171	101.75
488.389	98.75
488.607	102.75
488.825	108.75
489.043	109.75
489.261	92.75
489.479	95.75
489.696	93.75
489.914	115.75
490.132	95.75
490.35	102.75
490.568	78.75
490.786	89.75
491.003	86.75
491.221	80.75
491.439	97.75
491.657	98.75
491.874	94.75
492.092	91.75
492.31	92.75
492.527	98.75
492.745	100.75
492.963	98.75
493.18	97.75
493.398	89.75
493.615	90.75
493.833	87.75
494.05	80.75
494.268	86.75
494.485	107.75
494.703	85.75
494.92	99.75
495.138	96.75
495.355	83.75
495.573	85.75
495.79	91.75
496.008	88.75
496.225	102.75
496.442	89.75
496.66	97.75
496.877	95.75
497.094	104.75
497.312	100.75
497.529	89.75
497.746	89.75
497.963	97.75
498.181	102.75
498.398	108.75
498.615	135.75
498.832	106.75
499.049	85.75
499.267	98.75
499.484	94.75
499.701	86.75
499.918	92.75
500.135	106.75
500.352	106.75
500.569	93.75
500.786	99.75
501.003	88.75
501.22	80.75
501.437	92.75
501.654	83.75
501.871	140.75
502.088	96.75
502.305	99.75
502.522	80.75
502.739	91.75
502.956	92.75
503.172	95.75
503.389	99.75
503.606	140.75
503.823	125.75
504.04	109.75
504.256	90.75
504.473	102.75
504.69	105.75
504.907	117.75
505.123	90.75
505.34	94.75
505.557	84.75
505.773	101.75
505.99	96.75
506.207	100.75
506.423	103.75
506.64	84.75
506.856	88.75
507.073	102.75
507.289	86.75
507.506	116.75
507.722	129.75
507.939	140.75
508.155	100.75
508.372	94.75
508.588	92.75
508.805	121.75
509.021	102.75
509.238	106.75
509.454	87.75
509.67	109.75
509.887	116.75
510.103	155.75
510.319	278.75
510.536	1001.75
510.752	3580.75
510.968	1000.75
511.184	214.75
511.401	137.75
511.617	112.75
511.833	114.75
512.049	112.75
