Data from Circ_2007_H10_HRD10591_00043.txt Node
Date: Wed Jan 03 10:22:05 EST 2024
User: Yrep
Spectrometer: HR+D1059
Trigger mode: 1
Integration Time (sec): 1.000000E-1
Scans to average: 1
Electric dark correction enabled: true
Nonlinearity correction enabled: false
Boxcar width: 0
XAxis mode: Wavelengths
Number of Pixels in Spectrum: 2048
>>>>>Begin Spectral Data<<<<<
223.165	-15.81
223.4	-15.81
223.635	-15.81
223.869	-18.81
224.104	-19.81
224.338	-26.81
224.573	-19.81
224.808	-14.81
225.042	-4.81
225.277	-4.81
225.511	-3.81
225.746	9.19
225.98	2.19
226.215	11.19
226.449	19.19
226.683	22.19
226.918	33.19
227.152	32.19
227.387	31.19
227.621	29.19
227.856	18.19
228.09	43.19
228.324	45.19
228.559	58.19
228.793	52.19
229.027	63.19
229.262	51.19
229.496	67.19
229.73	93.19
229.964	81.19
230.199	72.19
230.433	70.19
230.667	68.19
230.901	73.19
231.136	69.19
231.37	91.19
231.604	91.19
231.838	70.19
232.072	72.19
232.306	81.19
232.541	81.19
232.775	84.19
233.009	77.19
233.243	81.19
233.477	77.19
233.711	62.19
233.945	74.19
234.179	77.19
234.413	96.19
234.647	73.19
234.881	65.19
235.115	74.19
235.349	96.19
235.583	68.19
235.817	58.19
236.051	73.19
236.285	81.19
236.519	80.19
236.753	72.19
236.987	92.19
237.221	72.19
237.455	79.19
237.689	66.19
237.922	68.19
238.156	81.19
238.39	72.19
238.624	71.19
238.858	65.19
239.091	90.19
239.325	62.19
239.559	68.19
239.793	80.19
240.027	85.19
240.26	80.19
240.494	72.19
240.728	88.19
240.961	72.19
241.195	75.19
241.429	69.19
241.662	85.19
241.896	59.19
242.13	67.19
242.363	73.19
242.597	68.19
242.83	79.19
243.064	82.19
243.298	76.19
243.531	86.19
243.765	79.19
243.998	87.19
244.232	76.19
244.465	93.19
244.699	68.19
244.932	63.19
245.166	72.19
245.399	78.19
245.633	92.19
245.866	88.19
246.099	77.19
246.333	82.19
246.566	74.19
246.8	73.19
247.033	61.19
247.266	78.19
247.5	66.19
247.733	71.19
247.966	85.19
248.2	83.19
248.433	76.19
248.666	68.19
248.899	84.19
249.133	89.19
249.366	111.19
249.599	91.19
249.832	88.19
250.066	94.19
250.299	72.19
250.532	94.19
250.765	66.19
250.998	90.19
251.231	88.19
251.465	76.19
251.698	84.19
251.931	104.19
252.164	75.19
252.397	67.19
252.63	74.19
252.863	80.19
253.096	65.19
253.329	94.19
253.562	72.19
253.795	92.19
254.028	84.19
254.261	76.19
254.494	83.19
254.727	76.19
254.96	80.19
255.193	68.19
255.426	87.19
255.659	84.19
255.892	79.19
256.124	96.19
256.357	91.19
256.59	85.19
256.823	68.19
257.056	83.19
257.289	90.19
257.521	80.19
257.754	92.19
257.987	85.19
258.22	69.19
258.452	88.19
258.685	65.19
258.918	74.19
259.151	66.19
259.383	75.19
259.616	81.19
259.849	84.19
260.081	82.19
260.314	75.19
260.547	81.19
260.779	90.19
261.012	90.19
261.244	95.19
261.477	96.19
261.71	101.19
261.942	109.19
262.175	123.19
262.407	60.19
262.64	77.19
262.872	84.19
263.105	71.19
263.337	87.19
263.57	89.19
263.802	83.19
264.035	75.19
264.267	63.19
264.499	65.19
264.732	76.19
264.964	75.19
265.197	72.19
265.429	88.19
265.661	69.19
265.894	74.19
266.126	92.19
266.358	86.19
266.591	89.19
266.823	81.19
267.055	78.19
267.287	76.19
267.52	85.19
267.752	69.19
267.984	85.19
268.216	79.19
268.448	83.19
268.681	79.19
268.913	79.19
269.145	92.19
269.377	79.19
269.609	95.19
269.841	83.19
270.073	89.19
270.306	83.19
270.538	91.19
270.77	91.19
271.002	74.19
271.234	83.19
271.466	83.19
271.698	94.19
271.93	87.19
272.162	95.19
272.394	80.19
272.626	87.19
272.858	82.19
273.09	80.19
273.322	85.19
273.553	84.19
273.785	81.19
274.017	78.19
274.249	84.19
274.481	75.19
274.713	69.19
274.945	82.19
275.176	83.19
275.408	83.19
275.64	112.19
275.872	104.19
276.104	112.19
276.335	101.19
276.567	95.19
276.799	118.19
277.031	116.19
277.262	149.19
277.494	113.19
277.726	99.19
277.957	85.19
278.189	86.19
278.421	79.19
278.652	73.19
278.884	69.19
279.115	95.19
279.347	67.19
279.579	88.19
279.81	95.19
280.042	142.19
280.273	161.19
280.505	119.19
280.736	109.19
280.968	82.19
281.199	71.19
281.431	72.19
281.662	78.19
281.894	98.19
282.125	114.19
282.356	110.19
282.588	144.19
282.819	111.19
283.051	92.19
283.282	98.19
283.513	104.19
283.745	85.19
283.976	85.19
284.207	103.19
284.439	85.19
284.67	78.19
284.901	85.19
285.132	88.19
285.364	100.19
285.595	91.19
285.826	108.19
286.057	94.19
286.288	82.19
286.52	87.19
286.751	78.19
286.982	89.19
287.213	74.19
287.444	75.19
287.675	107.19
287.906	72.19
288.138	93.19
288.369	114.19
288.6	97.19
288.831	75.19
289.062	96.19
289.293	89.19
289.524	84.19
289.755	79.19
289.986	87.19
290.217	84.19
290.448	91.19
290.679	99.19
290.91	73.19
291.141	85.19
291.371	74.19
291.602	94.19
291.833	96.19
292.064	77.19
292.295	73.19
292.526	90.19
292.757	80.19
292.987	98.19
293.218	85.19
293.449	98.19
293.68	76.19
293.91	84.19
294.141	86.19
294.372	80.19
294.603	90.19
294.833	87.19
295.064	97.19
295.295	85.19
295.525	81.19
295.756	97.19
295.987	124.19
296.217	149.19
296.448	111.19
296.679	76.19
296.909	79.19
297.14	90.19
297.37	82.19
297.601	93.19
297.831	92.19
298.062	93.19
298.292	95.19
298.523	76.19
298.753	98.19
298.984	78.19
299.214	84.19
299.445	99.19
299.675	95.19
299.905	89.19
300.136	98.19
300.366	98.19
300.597	81.19
300.827	81.19
301.057	107.19
301.288	107.19
301.518	83.19
301.748	90.19
301.979	101.19
302.209	99.19
302.439	108.19
302.669	89.19
302.9	93.19
303.13	112.19
303.36	90.19
303.59	124.19
303.82	120.19
304.051	98.19
304.281	104.19
304.511	91.19
304.741	89.19
304.971	84.19
305.201	91.19
305.431	79.19
305.661	88.19
305.891	95.19
306.121	85.19
306.352	87.19
306.582	107.19
306.812	95.19
307.042	103.19
307.272	125.19
307.502	135.19
307.731	119.19
307.961	109.19
308.191	114.19
308.421	91.19
308.651	86.19
308.881	93.19
309.111	92.19
309.341	91.19
309.571	94.19
309.8	107.19
310.03	100.19
310.26	101.19
310.49	104.19
310.72	104.19
310.949	94.19
311.179	107.19
311.409	101.19
311.639	105.19
311.868	101.19
312.098	102.19
312.328	95.19
312.557	103.19
312.787	109.19
313.017	99.19
313.246	89.19
313.476	87.19
313.706	108.19
313.935	96.19
314.165	106.19
314.394	120.19
314.624	111.19
314.853	110.19
315.083	98.19
315.312	96.19
315.542	97.19
315.771	96.19
316.001	99.19
316.23	90.19
316.46	106.19
316.689	99.19
316.919	87.19
317.148	112.19
317.377	103.19
317.607	84.19
317.836	100.19
318.065	80.19
318.295	81.19
318.524	77.19
318.753	83.19
318.983	92.19
319.212	108.19
319.441	103.19
319.67	120.19
319.9	100.19
320.129	103.19
320.358	89.19
320.587	93.19
320.816	95.19
321.046	95.19
321.275	92.19
321.504	103.19
321.733	96.19
321.962	96.19
322.191	116.19
322.42	108.19
322.649	128.19
322.878	125.19
323.108	125.19
323.337	127.19
323.566	143.19
323.795	176.19
324.024	216.19
324.253	458.19
324.482	991.19
324.71	2075.19
324.939	2753.19
325.168	979.19
325.397	259.19
325.626	171.19
325.855	135.19
326.084	144.19
326.313	157.19
326.542	148.19
326.77	268.19
326.999	534.19
327.228	1109.19
327.457	2024.19
327.686	1629.19
327.914	495.19
328.143	357.19
328.372	419.19
328.6	261.19
328.829	155.19
329.058	159.19
329.287	147.19
329.515	142.19
329.744	182.19
329.972	292.19
330.201	571.19
330.43	793.19
330.658	388.19
330.887	201.19
331.115	147.19
331.344	123.19
331.572	111.19
331.801	107.19
332.03	108.19
332.258	109.19
332.486	103.19
332.715	106.19
332.943	93.19
333.172	108.19
333.4	111.19
333.629	123.19
333.857	170.19
334.085	293.19
334.314	548.19
334.542	1023.19
334.771	936.19
334.999	278.19
335.227	140.19
335.455	115.19
335.684	99.19
335.912	101.19
336.14	96.19
336.369	108.19
336.597	115.19
336.825	99.19
337.053	98.19
337.281	88.19
337.51	86.19
337.738	91.19
337.966	88.19
338.194	99.19
338.422	94.19
338.65	91.19
338.878	86.19
339.106	97.19
339.334	95.19
339.562	93.19
339.79	80.19
340.018	88.19
340.246	96.19
340.474	98.19
340.702	92.19
340.93	88.19
341.158	93.19
341.386	87.19
341.614	111.19
341.842	108.19
342.07	84.19
342.298	106.19
342.526	83.19
342.754	91.19
342.981	88.19
343.209	100.19
343.437	105.19
343.665	92.19
343.893	98.19
344.12	93.19
344.348	88.19
344.576	98.19
344.804	96.19
345.031	87.19
345.259	98.19
345.487	92.19
345.714	104.19
345.942	85.19
346.17	96.19
346.397	100.19
346.625	88.19
346.853	96.19
347.08	88.19
347.308	97.19
347.535	105.19
347.763	104.19
347.99	101.19
348.218	108.19
348.445	100.19
348.673	112.19
348.9	101.19
349.128	95.19
349.355	82.19
349.583	82.19
349.81	81.19
350.037	96.19
350.265	94.19
350.492	87.19
350.72	79.19
350.947	106.19
351.174	107.19
351.402	116.19
351.629	98.19
351.856	112.19
352.083	107.19
352.311	106.19
352.538	106.19
352.765	110.19
352.992	129.19
353.22	103.19
353.447	104.19
353.674	108.19
353.901	100.19
354.128	87.19
354.355	100.19
354.583	100.19
354.81	92.19
355.037	90.19
355.264	100.19
355.491	96.19
355.718	96.19
355.945	88.19
356.172	78.19
356.399	96.19
356.626	102.19
356.853	94.19
357.08	91.19
357.307	88.19
357.534	81.19
357.761	96.19
357.988	97.19
358.215	85.19
358.441	92.19
358.668	86.19
358.895	93.19
359.122	101.19
359.349	96.19
359.576	82.19
359.802	115.19
360.029	112.19
360.256	125.19
360.483	108.19
360.709	92.19
360.936	97.19
361.163	96.19
361.39	108.19
361.616	106.19
361.843	76.19
362.07	106.19
362.296	98.19
362.523	70.19
362.749	91.19
362.976	89.19
363.203	107.19
363.429	93.19
363.656	103.19
363.882	95.19
364.109	101.19
364.335	113.19
364.562	101.19
364.788	89.19
365.015	96.19
365.241	111.19
365.468	96.19
365.694	104.19
365.92	107.19
366.147	90.19
366.373	78.19
366.599	88.19
366.826	78.19
367.052	84.19
367.278	87.19
367.505	79.19
367.731	95.19
367.957	98.19
368.184	98.19
368.41	106.19
368.636	114.19
368.862	123.19
369.089	103.19
369.315	95.19
369.541	89.19
369.767	94.19
369.993	110.19
370.219	91.19
370.445	94.19
370.672	103.19
370.898	94.19
371.124	82.19
371.35	75.19
371.576	99.19
371.802	85.19
372.028	96.19
372.254	84.19
372.48	86.19
372.706	104.19
372.932	80.19
373.158	89.19
373.384	79.19
373.61	80.19
373.835	84.19
374.061	85.19
374.287	90.19
374.513	82.19
374.739	92.19
374.965	88.19
375.191	103.19
375.416	88.19
375.642	95.19
375.868	99.19
376.094	98.19
376.319	81.19
376.545	73.19
376.771	84.19
376.997	88.19
377.222	94.19
377.448	88.19
377.674	101.19
377.899	91.19
378.125	93.19
378.35	77.19
378.576	84.19
378.802	95.19
379.027	102.19
379.253	99.19
379.478	85.19
379.704	88.19
379.929	101.19
380.155	106.19
380.38	94.19
380.606	88.19
380.831	90.19
381.057	81.19
381.282	90.19
381.507	95.19
381.733	105.19
381.958	95.19
382.184	95.19
382.409	95.19
382.634	98.19
382.86	99.19
383.085	90.19
383.31	96.19
383.535	99.19
383.761	105.19
383.986	98.19
384.211	88.19
384.436	82.19
384.662	101.19
384.887	100.19
385.112	104.19
385.337	104.19
385.562	105.19
385.787	88.19
386.013	106.19
386.238	122.19
386.463	96.19
386.688	113.19
386.913	92.19
387.138	100.19
387.363	95.19
387.588	109.19
387.813	96.19
388.038	104.19
388.263	120.19
388.488	117.19
388.713	88.19
388.938	94.19
389.163	95.19
389.387	100.19
389.612	98.19
389.837	93.19
390.062	86.19
390.287	92.19
390.512	88.19
390.736	91.19
390.961	79.19
391.186	101.19
391.411	87.19
391.636	88.19
391.86	83.19
392.085	85.19
392.31	98.19
392.534	84.19
392.759	88.19
392.984	81.19
393.208	75.19
393.433	101.19
393.658	103.19
393.882	87.19
394.107	77.19
394.331	78.19
394.556	90.19
394.78	84.19
395.005	91.19
395.229	81.19
395.454	98.19
395.678	99.19
395.903	76.19
396.127	86.19
396.352	84.19
396.576	92.19
396.801	87.19
397.025	76.19
397.249	79.19
397.474	91.19
397.698	85.19
397.922	94.19
398.147	84.19
398.371	81.19
398.595	94.19
398.82	96.19
399.044	89.19
399.268	86.19
399.492	88.19
399.717	91.19
399.941	93.19
400.165	96.19
400.389	85.19
400.613	89.19
400.837	84.19
401.062	84.19
401.286	100.19
401.51	96.19
401.734	100.19
401.958	107.19
402.182	146.19
402.406	168.19
402.63	145.19
402.854	92.19
403.078	90.19
403.302	88.19
403.526	96.19
403.75	95.19
403.974	98.19
404.198	98.19
404.422	84.19
404.645	88.19
404.869	102.19
405.093	88.19
405.317	146.19
405.541	137.19
405.765	108.19
405.988	128.19
406.212	189.19
406.436	266.19
406.66	157.19
406.883	119.19
407.107	104.19
407.331	106.19
407.555	111.19
407.778	91.19
408.002	101.19
408.226	98.19
408.449	81.19
408.673	82.19
408.896	84.19
409.12	92.19
409.344	80.19
409.567	78.19
409.791	95.19
410.014	99.19
410.238	97.19
410.461	90.19
410.685	93.19
410.908	94.19
411.132	101.19
411.355	107.19
411.578	100.19
411.802	79.19
412.025	87.19
412.249	80.19
412.472	99.19
412.695	126.19
412.919	105.19
413.142	87.19
413.365	88.19
413.589	77.19
413.812	77.19
414.035	84.19
414.258	84.19
414.482	99.19
414.705	89.19
414.928	88.19
415.151	82.19
415.374	93.19
415.597	95.19
415.821	87.19
416.044	94.19
416.267	83.19
416.49	76.19
416.713	83.19
416.936	96.19
417.159	102.19
417.382	90.19
417.605	83.19
417.828	84.19
418.051	82.19
418.274	87.19
418.497	83.19
418.72	91.19
418.943	79.19
419.166	86.19
419.389	83.19
419.611	81.19
419.834	91.19
420.057	85.19
420.28	106.19
420.503	93.19
420.726	96.19
420.948	87.19
421.171	93.19
421.394	91.19
421.617	87.19
421.839	86.19
422.062	112.19
422.285	89.19
422.507	84.19
422.73	113.19
422.953	91.19
423.175	84.19
423.398	88.19
423.621	95.19
423.843	84.19
424.066	76.19
424.288	83.19
424.511	92.19
424.733	105.19
424.956	124.19
425.178	103.19
425.401	106.19
425.623	108.19
425.846	103.19
426.068	87.19
426.291	99.19
426.513	97.19
426.735	93.19
426.958	104.19
427.18	121.19
427.402	162.19
427.625	208.19
427.847	207.19
428.069	193.19
428.292	109.19
428.514	95.19
428.736	72.19
428.958	91.19
429.181	89.19
429.403	88.19
429.625	85.19
429.847	87.19
430.069	100.19
430.292	96.19
430.514	90.19
430.736	95.19
430.958	84.19
431.18	73.19
431.402	83.19
431.624	90.19
431.846	84.19
432.068	84.19
432.29	89.19
432.512	82.19
432.734	84.19
432.956	84.19
433.178	83.19
433.4	106.19
433.622	97.19
433.844	83.19
434.066	94.19
434.287	103.19
434.509	92.19
434.731	85.19
434.953	79.19
435.175	90.19
435.397	84.19
435.618	78.19
435.84	104.19
436.062	140.19
436.284	120.19
436.505	98.19
436.727	93.19
436.949	96.19
437.17	93.19
437.392	77.19
437.614	93.19
437.835	104.19
438.057	131.19
438.278	138.19
438.5	101.19
438.721	120.19
438.943	96.19
439.165	94.19
439.386	87.19
439.608	94.19
439.829	101.19
440.05	151.19
440.272	168.19
440.493	119.19
440.715	84.19
440.936	80.19
441.158	94.19
441.379	83.19
441.6	91.19
441.822	99.19
442.043	103.19
442.264	98.19
442.486	113.19
442.707	104.19
442.928	122.19
443.149	137.19
443.371	163.19
443.592	116.19
443.813	124.19
444.034	113.19
444.255	94.19
444.476	83.19
444.698	99.19
444.919	76.19
445.14	127.19
445.361	129.19
445.582	132.19
445.803	153.19
446.024	153.19
446.245	163.19
446.466	128.19
446.687	90.19
446.908	83.19
447.129	97.19
447.35	83.19
447.571	81.19
447.792	91.19
448.013	89.19
448.234	93.19
448.455	106.19
448.675	122.19
448.896	144.19
449.117	100.19
449.338	108.19
449.559	149.19
449.779	144.19
450	115.19
450.221	84.19
450.442	98.19
450.662	113.19
450.883	122.19
451.104	116.19
451.324	104.19
451.545	85.19
451.766	81.19
451.986	88.19
452.207	94.19
452.428	91.19
452.648	110.19
452.869	102.19
453.089	112.19
453.31	131.19
453.53	103.19
453.751	96.19
453.971	112.19
454.192	103.19
454.412	92.19
454.633	84.19
454.853	94.19
455.073	84.19
455.294	90.19
455.514	96.19
455.734	99.19
455.955	79.19
456.175	86.19
456.395	81.19
456.616	95.19
456.836	73.19
457.056	75.19
457.276	89.19
457.497	83.19
457.717	79.19
457.937	88.19
458.157	84.19
458.377	84.19
458.598	113.19
458.818	168.19
459.038	203.19
459.258	135.19
459.478	88.19
459.698	97.19
459.918	81.19
460.138	87.19
460.358	92.19
460.578	97.19
460.798	83.19
461.018	90.19
461.238	89.19
461.458	81.19
461.678	74.19
461.898	88.19
462.118	84.19
462.338	75.19
462.558	93.19
462.777	83.19
462.997	85.19
463.217	78.19
463.437	91.19
463.657	79.19
463.876	96.19
464.096	90.19
464.316	84.19
464.536	121.19
464.755	104.19
464.975	111.19
465.195	206.19
465.414	195.19
465.634	83.19
465.854	100.19
466.073	92.19
466.293	79.19
466.512	92.19
466.732	87.19
466.951	92.19
467.171	85.19
467.391	101.19
467.61	105.19
467.829	140.19
468.049	315.19
468.268	439.19
468.488	157.19
468.707	83.19
468.927	89.19
469.146	107.19
469.365	75.19
469.585	104.19
469.804	105.19
470.023	115.19
470.243	112.19
470.462	109.19
470.681	130.19
470.901	101.19
471.12	95.19
471.339	83.19
471.558	105.19
471.777	117.19
471.997	194.19
472.216	605.19
472.435	1330.19
472.654	345.19
472.873	136.19
473.092	93.19
473.311	88.19
473.53	79.19
473.749	93.19
473.968	104.19
474.187	111.19
474.406	108.19
474.625	82.19
474.844	85.19
475.063	87.19
475.282	81.19
475.501	80.19
475.72	90.19
475.939	71.19
476.158	79.19
476.377	84.19
476.596	96.19
476.814	85.19
477.033	83.19
477.252	94.19
477.471	95.19
477.69	98.19
477.908	90.19
478.127	97.19
478.346	84.19
478.564	77.19
478.783	84.19
479.002	91.19
479.22	107.19
479.439	111.19
479.658	106.19
479.876	102.19
480.095	89.19
480.313	98.19
480.532	127.19
480.751	213.19
480.969	580.19
481.188	2231.19
481.406	1390.19
481.624	238.19
481.843	109.19
482.061	83.19
482.28	93.19
482.498	87.19
482.717	91.19
482.935	89.19
483.153	89.19
483.372	82.19
483.59	84.19
483.808	95.19
484.027	98.19
484.245	86.19
484.463	72.19
484.681	98.19
484.9	91.19
485.118	91.19
485.336	105.19
485.554	100.19
485.772	105.19
485.99	93.19
486.209	100.19
486.427	110.19
486.645	104.19
486.863	117.19
487.081	110.19
487.299	98.19
487.517	103.19
487.735	75.19
487.953	85.19
488.171	77.19
488.389	83.19
488.607	89.19
488.825	89.19
489.043	89.19
489.261	85.19
489.479	84.19
489.696	85.19
489.914	88.19
490.132	92.19
490.35	94.19
490.568	87.19
490.786	91.19
491.003	82.19
491.221	84.19
491.439	92.19
491.657	95.19
491.874	101.19
492.092	92.19
492.31	81.19
492.527	101.19
492.745	109.19
492.963	102.19
493.18	90.19
493.398	90.19
493.615	89.19
493.833	102.19
494.05	94.19
494.268	81.19
494.485	96.19
494.703	84.19
494.92	92.19
495.138	96.19
495.355	86.19
495.573	88.19
495.79	95.19
496.008	89.19
496.225	85.19
496.442	98.19
496.66	98.19
496.877	86.19
497.094	89.19
497.312	83.19
497.529	82.19
497.746	91.19
497.963	93.19
498.181	104.19
498.398	94.19
498.615	112.19
498.832	102.19
499.049	93.19
499.267	92.19
499.484	81.19
499.701	81.19
499.918	84.19
500.135	85.19
500.352	81.19
500.569	90.19
500.786	91.19
501.003	79.19
501.22	77.19
501.437	96.19
501.654	100.19
501.871	106.19
502.088	89.19
502.305	82.19
502.522	99.19
502.739	85.19
502.956	91.19
503.172	88.19
503.389	105.19
503.606	108.19
503.823	104.19
504.04	101.19
504.256	92.19
504.473	91.19
504.69	75.19
504.907	88.19
505.123	83.19
505.34	90.19
505.557	91.19
505.773	86.19
505.99	87.19
506.207	81.19
506.423	89.19
506.64	83.19
506.856	93.19
507.073	89.19
507.289	90.19
507.506	98.19
507.722	123.19
507.939	122.19
508.155	115.19
508.372	101.19
508.588	87.19
508.805	83.19
509.021	100.19
509.238	91.19
509.454	101.19
509.67	100.19
509.887	107.19
510.103	117.19
510.319	223.19
510.536	807.19
510.752	2672.19
510.968	757.19
511.184	181.19
511.401	107.19
511.617	104.19
511.833	94.19
512.049	94.19
512.265	93.19
512.481	92.19
512.698	95.19
512.914	95.19
513.13	84.19
513.346	90.19
513.562	91.19
513.778	90.19
513.994	98.19
514.21	107.19
514.426	119.19
