Data from Circ_2007_H10_HRD10591_00060.txt Node
Date: Wed Jan 03 10:22:09 EST 2024
User: Yrep
Spectrometer: HR+D1059
Trigger mode: 1
Integration Time (sec): 1.000000E-1
Scans to average: 1
Electric dark correction enabled: true
Nonlinearity correction enabled: false
Boxcar width: 0
XAxis mode: Wavelengths
Number of Pixels in Spectrum: 2048
>>>>>Begin Spectral Data<<<<<
223.165	-1.12
223.4	-1.12
223.635	-1.12
223.869	-0.12
224.104	-31.12
224.338	-20.12
224.573	-23.12
224.808	-7.12
225.042	-1.12
225.277	9.88
225.511	-0.12
225.746	8.88
225.98	7.88
226.215	-5.12
226.449	7.88
226.683	16.88
226.918	22.88
227.152	14.88
227.387	45.88
227.621	37.88
227.856	40.88
228.09	55.88
228.324	60.88
228.559	49.88
228.793	70.88
229.027	72.88
229.262	58.88
229.496	82.88
229.73	90.88
229.964	93.88
230.199	68.88
230.433	74.88
230.667	67.88
230.901	97.88
231.136	80.88
231.37	77.88
231.604	85.88
231.838	77.88
232.072	78.88
232.306	72.88
232.541	85.88
232.775	74.88
233.009	84.88
233.243	81.88
233.477	76.88
233.711	69.88
233.945	106.88
234.179	75.88
234.413	81.88
234.647	71.88
234.881	88.88
235.115	81.88
235.349	69.88
235.583	79.88
235.817	75.88
236.051	80.88
236.285	78.88
236.519	66.88
236.753	79.88
236.987	77.88
237.221	72.88
237.455	83.88
237.689	75.88
237.922	71.88
238.156	86.88
238.39	77.88
238.624	80.88
238.858	65.88
239.091	77.88
239.325	89.88
239.559	79.88
239.793	67.88
240.027	91.88
240.26	83.88
240.494	77.88
240.728	74.88
240.961	78.88
241.195	85.88
241.429	69.88
241.662	81.88
241.896	86.88
242.13	75.88
242.363	74.88
242.597	75.88
242.83	77.88
243.064	74.88
243.298	74.88
243.531	72.88
243.765	83.88
243.998	90.88
244.232	84.88
244.465	86.88
244.699	67.88
244.932	73.88
245.166	79.88
245.399	78.88
245.633	77.88
245.866	90.88
246.099	82.88
246.333	87.88
246.566	77.88
246.8	87.88
247.033	67.88
247.266	69.88
247.5	74.88
247.733	85.88
247.966	79.88
248.2	82.88
248.433	77.88
248.666	70.88
248.899	76.88
249.133	95.88
249.366	96.88
249.599	112.88
249.832	95.88
250.066	85.88
250.299	81.88
250.532	91.88
250.765	71.88
250.998	72.88
251.231	84.88
251.465	74.88
251.698	81.88
251.931	72.88
252.164	90.88
252.397	77.88
252.63	78.88
252.863	64.88
253.096	77.88
253.329	66.88
253.562	75.88
253.795	70.88
254.028	86.88
254.261	85.88
254.494	83.88
254.727	79.88
254.96	80.88
255.193	78.88
255.426	81.88
255.659	86.88
255.892	84.88
256.124	108.88
256.357	96.88
256.59	77.88
256.823	69.88
257.056	73.88
257.289	79.88
257.521	74.88
257.754	73.88
257.987	82.88
258.22	68.88
258.452	84.88
258.685	80.88
258.918	90.88
259.151	87.88
259.383	81.88
259.616	89.88
259.849	85.88
260.081	76.88
260.314	73.88
260.547	86.88
260.779	77.88
261.012	101.88
261.244	83.88
261.477	93.88
261.71	99.88
261.942	114.88
262.175	134.88
262.407	91.88
262.64	87.88
262.872	75.88
263.105	75.88
263.337	68.88
263.57	96.88
263.802	94.88
264.035	82.88
264.267	78.88
264.499	73.88
264.732	88.88
264.964	76.88
265.197	76.88
265.429	80.88
265.661	86.88
265.894	87.88
266.126	97.88
266.358	93.88
266.591	77.88
266.823	85.88
267.055	85.88
267.287	89.88
267.52	95.88
267.752	84.88
267.984	77.88
268.216	76.88
268.448	79.88
268.681	85.88
268.913	101.88
269.145	81.88
269.377	78.88
269.609	71.88
269.841	82.88
270.073	84.88
270.306	88.88
270.538	97.88
270.77	60.88
271.002	88.88
271.234	85.88
271.466	88.88
271.698	80.88
271.93	79.88
272.162	94.88
272.394	89.88
272.626	95.88
272.858	93.88
273.09	80.88
273.322	73.88
273.553	85.88
273.785	83.88
274.017	85.88
274.249	91.88
274.481	95.88
274.713	85.88
274.945	78.88
275.176	100.88
275.408	86.88
275.64	87.88
275.872	97.88
276.104	100.88
276.335	90.88
276.567	105.88
276.799	137.88
277.031	113.88
277.262	141.88
277.494	111.88
277.726	91.88
277.957	76.88
278.189	95.88
278.421	76.88
278.652	88.88
278.884	94.88
279.115	79.88
279.347	80.88
279.579	87.88
279.81	101.88
280.042	119.88
280.273	180.88
280.505	123.88
280.736	86.88
280.968	77.88
281.199	83.88
281.431	85.88
281.662	85.88
281.894	103.88
282.125	91.88
282.356	132.88
282.588	137.88
282.819	127.88
283.051	89.88
283.282	80.88
283.513	95.88
283.745	86.88
283.976	89.88
284.207	94.88
284.439	85.88
284.67	84.88
284.901	71.88
285.132	92.88
285.364	100.88
285.595	88.88
285.826	98.88
286.057	89.88
286.288	81.88
286.52	97.88
286.751	79.88
286.982	79.88
287.213	96.88
287.444	93.88
287.675	86.88
287.906	81.88
288.138	99.88
288.369	95.88
288.6	82.88
288.831	78.88
289.062	98.88
289.293	83.88
289.524	76.88
289.755	88.88
289.986	90.88
290.217	89.88
290.448	86.88
290.679	86.88
290.91	85.88
291.141	86.88
291.371	86.88
291.602	99.88
291.833	90.88
292.064	92.88
292.295	101.88
292.526	85.88
292.757	88.88
292.987	73.88
293.218	84.88
293.449	80.88
293.68	85.88
293.91	89.88
294.141	101.88
294.372	85.88
294.603	96.88
294.833	71.88
295.064	85.88
295.295	80.88
295.525	76.88
295.756	107.88
295.987	115.88
296.217	141.88
296.448	132.88
296.679	108.88
296.909	96.88
297.14	90.88
297.37	96.88
297.601	88.88
297.831	90.88
298.062	93.88
298.292	84.88
298.523	87.88
298.753	95.88
298.984	85.88
299.214	85.88
299.445	79.88
299.675	94.88
299.905	109.88
300.136	89.88
300.366	75.88
300.597	85.88
300.827	94.88
301.057	98.88
301.288	92.88
301.518	95.88
301.748	90.88
301.979	107.88
302.209	91.88
302.439	99.88
302.669	88.88
302.9	90.88
303.13	98.88
303.36	110.88
303.59	114.88
303.82	115.88
304.051	98.88
304.281	95.88
304.511	81.88
304.741	81.88
304.971	89.88
305.201	89.88
305.431	98.88
305.661	89.88
305.891	94.88
306.121	87.88
306.352	115.88
306.582	109.88
306.812	106.88
307.042	103.88
307.272	105.88
307.502	126.88
307.731	130.88
307.961	96.88
308.191	106.88
308.421	97.88
308.651	82.88
308.881	84.88
309.111	83.88
309.341	94.88
309.571	93.88
309.8	89.88
310.03	108.88
310.26	105.88
310.49	87.88
310.72	82.88
310.949	108.88
311.179	96.88
311.409	89.88
311.639	100.88
311.868	95.88
312.098	108.88
312.328	107.88
312.557	103.88
312.787	105.88
313.017	96.88
313.246	94.88
313.476	95.88
313.706	96.88
313.935	107.88
314.165	111.88
314.394	114.88
314.624	103.88
314.853	96.88
315.083	90.88
315.312	91.88
315.542	91.88
315.771	96.88
316.001	85.88
316.23	82.88
316.46	81.88
316.689	84.88
316.919	97.88
317.148	99.88
317.377	88.88
317.607	108.88
317.836	90.88
318.065	89.88
318.295	83.88
318.524	88.88
318.753	93.88
318.983	106.88
319.212	87.88
319.441	110.88
319.67	110.88
319.9	91.88
320.129	80.88
320.358	88.88
320.587	102.88
320.816	113.88
321.046	87.88
321.275	94.88
321.504	95.88
321.733	86.88
321.962	94.88
322.191	100.88
322.42	97.88
322.649	113.88
322.878	109.88
323.108	123.88
323.337	130.88
323.566	142.88
323.795	158.88
324.024	226.88
324.253	448.88
324.482	925.88
324.71	1965.88
324.939	2687.88
325.168	956.88
325.397	275.88
325.626	159.88
325.855	139.88
326.084	127.88
326.313	146.88
326.542	156.88
326.77	241.88
326.999	504.88
327.228	1087.88
327.457	2053.88
327.686	1617.88
327.914	454.88
328.143	299.88
328.372	359.88
328.6	224.88
328.829	145.88
329.058	152.88
329.287	153.88
329.515	143.88
329.744	159.88
329.972	247.88
330.201	481.88
330.43	707.88
330.658	372.88
330.887	196.88
331.115	164.88
331.344	111.88
331.572	119.88
331.801	108.88
332.03	109.88
332.258	103.88
332.486	104.88
332.715	107.88
332.943	101.88
333.172	109.88
333.4	109.88
333.629	121.88
333.857	159.88
334.085	239.88
334.314	452.88
334.542	879.88
334.771	859.88
334.999	254.88
335.227	143.88
335.455	113.88
335.684	92.88
335.912	102.88
336.14	107.88
336.369	100.88
336.597	124.88
336.825	102.88
337.053	87.88
337.281	89.88
337.51	93.88
337.738	93.88
337.966	89.88
338.194	98.88
338.422	95.88
338.65	89.88
338.878	95.88
339.106	89.88
339.334	90.88
339.562	100.88
339.79	89.88
340.018	94.88
340.246	86.88
340.474	96.88
340.702	93.88
340.93	90.88
341.158	92.88
341.386	108.88
341.614	86.88
341.842	97.88
342.07	93.88
342.298	96.88
342.526	88.88
342.754	90.88
342.981	82.88
343.209	83.88
343.437	101.88
343.665	93.88
343.893	92.88
344.12	95.88
344.348	88.88
344.576	87.88
344.804	87.88
345.031	94.88
345.259	89.88
345.487	95.88
345.714	101.88
345.942	92.88
346.17	87.88
346.397	91.88
346.625	110.88
346.853	90.88
347.08	101.88
347.308	102.88
347.535	104.88
347.763	97.88
347.99	93.88
348.218	99.88
348.445	107.88
348.673	102.88
348.9	98.88
349.128	88.88
349.355	92.88
349.583	88.88
349.81	89.88
350.037	104.88
350.265	89.88
350.492	76.88
350.72	95.88
350.947	109.88
351.174	100.88
351.402	114.88
351.629	95.88
351.856	97.88
352.083	108.88
352.311	99.88
352.538	105.88
352.765	100.88
352.992	124.88
353.22	109.88
353.447	93.88
353.674	115.88
353.901	96.88
354.128	93.88
354.355	91.88
354.583	96.88
354.81	105.88
355.037	85.88
355.264	99.88
355.491	100.88
355.718	84.88
355.945	88.88
356.172	92.88
356.399	101.88
356.626	85.88
356.853	88.88
357.08	100.88
357.307	84.88
357.534	81.88
357.761	87.88
357.988	87.88
358.215	99.88
358.441	98.88
358.668	107.88
358.895	93.88
359.122	81.88
359.349	93.88
359.576	102.88
359.802	103.88
360.029	115.88
360.256	130.88
360.483	100.88
360.709	87.88
360.936	85.88
361.163	103.88
361.39	93.88
361.616	99.88
361.843	85.88
362.07	91.88
362.296	90.88
362.523	77.88
362.749	98.88
362.976	91.88
363.203	110.88
363.429	81.88
363.656	95.88
363.882	85.88
364.109	79.88
364.335	85.88
364.562	97.88
364.788	90.88
365.015	97.88
365.241	103.88
365.468	107.88
365.694	108.88
365.92	101.88
366.147	93.88
366.373	91.88
366.599	87.88
366.826	90.88
367.052	85.88
367.278	90.88
367.505	95.88
367.731	89.88
367.957	89.88
368.184	85.88
368.41	98.88
368.636	122.88
368.862	111.88
369.089	96.88
369.315	96.88
369.541	102.88
369.767	89.88
369.993	95.88
370.219	102.88
370.445	82.88
370.672	98.88
370.898	78.88
371.124	83.88
371.35	96.88
371.576	91.88
371.802	95.88
372.028	92.88
372.254	77.88
372.48	85.88
372.706	82.88
372.932	87.88
373.158	82.88
373.384	95.88
373.61	87.88
373.835	83.88
374.061	89.88
374.287	104.88
374.513	84.88
374.739	92.88
374.965	84.88
375.191	88.88
375.416	85.88
375.642	78.88
375.868	84.88
376.094	99.88
376.319	75.88
376.545	99.88
376.771	97.88
376.997	79.88
377.222	100.88
377.448	93.88
377.674	95.88
377.899	85.88
378.125	94.88
378.35	112.88
378.576	103.88
378.802	95.88
379.027	81.88
379.253	84.88
379.478	91.88
379.704	87.88
379.929	91.88
380.155	94.88
380.38	85.88
380.606	97.88
380.831	95.88
381.057	101.88
381.282	89.88
381.507	89.88
381.733	101.88
381.958	81.88
382.184	92.88
382.409	97.88
382.634	96.88
382.86	96.88
383.085	106.88
383.31	100.88
383.535	93.88
383.761	99.88
383.986	101.88
384.211	93.88
384.436	94.88
384.662	107.88
384.887	98.88
385.112	92.88
385.337	100.88
385.562	97.88
385.787	100.88
386.013	116.88
386.238	106.88
386.463	83.88
386.688	106.88
386.913	104.88
387.138	98.88
387.363	104.88
387.588	95.88
387.813	114.88
388.038	105.88
388.263	93.88
388.488	99.88
388.713	100.88
388.938	102.88
389.163	90.88
389.387	98.88
389.612	89.88
389.837	78.88
390.062	95.88
390.287	90.88
390.512	95.88
390.736	90.88
390.961	90.88
391.186	88.88
391.411	92.88
391.636	95.88
391.86	83.88
392.085	90.88
392.31	87.88
392.534	85.88
392.759	91.88
392.984	96.88
393.208	95.88
393.433	88.88
393.658	98.88
393.882	93.88
394.107	85.88
394.331	88.88
394.556	87.88
394.78	94.88
395.005	98.88
395.229	71.88
395.454	89.88
395.678	84.88
395.903	90.88
396.127	100.88
396.352	94.88
396.576	67.88
396.801	78.88
397.025	93.88
397.249	77.88
397.474	93.88
397.698	90.88
397.922	90.88
398.147	98.88
398.371	92.88
398.595	75.88
398.82	94.88
399.044	90.88
399.268	80.88
399.492	71.88
399.717	72.88
399.941	91.88
400.165	92.88
400.389	97.88
400.613	98.88
400.837	72.88
401.062	82.88
401.286	83.88
401.51	95.88
401.734	101.88
401.958	88.88
402.182	122.88
402.406	161.88
402.63	121.88
402.854	103.88
403.078	87.88
403.302	85.88
403.526	74.88
403.75	81.88
403.974	88.88
404.198	75.88
404.422	98.88
404.645	85.88
404.869	89.88
405.093	112.88
405.317	129.88
405.541	133.88
405.765	131.88
405.988	117.88
406.212	173.88
406.436	250.88
406.66	172.88
406.883	110.88
407.107	95.88
407.331	94.88
407.555	99.88
407.778	101.88
408.002	93.88
408.226	98.88
408.449	90.88
408.673	90.88
408.896	86.88
409.12	97.88
409.344	93.88
409.567	87.88
409.791	94.88
410.014	90.88
410.238	85.88
410.461	82.88
410.685	91.88
410.908	107.88
411.132	122.88
411.355	109.88
411.578	98.88
411.802	77.88
412.025	89.88
412.249	97.88
412.472	110.88
412.695	131.88
412.919	114.88
413.142	91.88
413.365	88.88
413.589	94.88
413.812	95.88
414.035	102.88
414.258	99.88
414.482	88.88
414.705	105.88
414.928	98.88
415.151	77.88
415.374	79.88
415.597	99.88
415.821	88.88
416.044	82.88
416.267	84.88
416.49	93.88
416.713	87.88
416.936	81.88
417.159	87.88
417.382	97.88
417.605	109.88
417.828	113.88
418.051	98.88
418.274	86.88
418.497	92.88
418.72	92.88
418.943	78.88
419.166	76.88
419.389	95.88
419.611	100.88
419.834	89.88
420.057	74.88
420.28	87.88
420.503	89.88
420.726	92.88
420.948	94.88
421.171	95.88
421.394	105.88
421.617	92.88
421.839	83.88
422.062	82.88
422.285	94.88
422.507	107.88
422.73	109.88
422.953	94.88
423.175	93.88
423.398	75.88
423.621	93.88
423.843	89.88
424.066	83.88
424.288	87.88
424.511	98.88
424.733	96.88
424.956	110.88
425.178	90.88
425.401	114.88
425.623	112.88
425.846	87.88
426.068	83.88
426.291	95.88
426.513	97.88
426.735	89.88
426.958	84.88
427.18	109.88
427.402	159.88
427.625	222.88
427.847	190.88
428.069	186.88
428.292	107.88
428.514	82.88
428.736	78.88
428.958	88.88
429.181	93.88
429.403	86.88
429.625	87.88
429.847	100.88
430.069	109.88
430.292	109.88
430.514	100.88
430.736	74.88
430.958	73.88
431.18	69.88
431.402	96.88
431.624	78.88
431.846	88.88
432.068	91.88
432.29	84.88
432.512	91.88
432.734	89.88
432.956	87.88
433.178	106.88
433.4	104.88
433.622	100.88
433.844	94.88
434.066	87.88
434.287	75.88
434.509	96.88
434.731	90.88
434.953	85.88
435.175	90.88
435.397	97.88
435.618	83.88
435.84	94.88
436.062	130.88
436.284	124.88
436.505	117.88
436.727	108.88
436.949	85.88
437.17	81.88
437.392	99.88
437.614	101.88
437.835	101.88
438.057	140.88
438.278	127.88
438.5	119.88
438.721	139.88
438.943	107.88
439.165	84.88
439.386	87.88
439.608	98.88
439.829	94.88
440.05	131.88
440.272	171.88
440.493	108.88
440.715	100.88
440.936	93.88
441.158	82.88
441.379	101.88
441.6	96.88
441.822	101.88
442.043	93.88
442.264	113.88
442.486	119.88
442.707	90.88
442.928	108.88
443.149	144.88
443.371	130.88
443.592	107.88
443.813	128.88
444.034	120.88
444.255	99.88
444.476	103.88
444.698	91.88
444.919	94.88
445.14	138.88
445.361	137.88
445.582	133.88
445.803	169.88
446.024	159.88
446.245	135.88
446.466	119.88
446.687	91.88
446.908	85.88
447.129	74.88
447.35	85.88
447.571	65.88
447.792	103.88
448.013	92.88
448.234	116.88
448.455	98.88
448.675	123.88
448.896	139.88
449.117	107.88
449.338	100.88
449.559	146.88
449.779	159.88
450	96.88
450.221	83.88
450.442	84.88
450.662	109.88
450.883	103.88
451.104	92.88
451.324	99.88
451.545	92.88
451.766	87.88
451.986	105.88
452.207	82.88
452.428	85.88
452.648	98.88
452.869	114.88
453.089	110.88
453.31	122.88
453.53	78.88
453.751	90.88
453.971	89.88
454.192	123.88
454.412	107.88
454.633	79.88
454.853	95.88
455.073	93.88
455.294	93.88
455.514	109.88
455.734	95.88
455.955	103.88
456.175	88.88
456.395	78.88
456.616	76.88
456.836	72.88
457.056	83.88
457.276	83.88
457.497	72.88
457.717	90.88
457.937	79.88
458.157	78.88
458.377	94.88
458.598	109.88
458.818	143.88
459.038	203.88
459.258	140.88
459.478	92.88
459.698	93.88
459.918	88.88
460.138	78.88
460.358	83.88
460.578	78.88
460.798	84.88
461.018	79.88
461.238	82.88
461.458	85.88
461.678	88.88
461.898	69.88
462.118	90.88
462.338	78.88
462.558	91.88
462.777	93.88
462.997	85.88
463.217	94.88
463.437	89.88
463.657	88.88
463.876	86.88
464.096	83.88
464.316	93.88
464.536	87.88
464.755	80.88
464.975	119.88
465.195	183.88
465.414	181.88
465.634	103.88
465.854	90.88
466.073	67.88
466.293	77.88
466.512	76.88
466.732	92.88
466.951	102.88
467.171	89.88
467.391	91.88
467.61	116.88
467.829	146.88
468.049	271.88
468.268	395.88
468.488	131.88
468.707	101.88
468.927	67.88
469.146	89.88
469.365	98.88
469.585	93.88
469.804	91.88
470.023	103.88
470.243	96.88
470.462	105.88
470.681	121.88
470.901	94.88
471.12	103.88
471.339	93.88
471.558	86.88
471.777	102.88
471.997	167.88
472.216	506.88
472.435	1076.88
472.654	307.88
472.873	109.88
473.092	106.88
473.311	84.88
473.53	80.88
473.749	93.88
473.968	94.88
474.187	117.88
474.406	112.88
474.625	88.88
474.844	74.88
475.063	98.88
475.282	91.88
475.501	89.88
475.72	86.88
475.939	68.88
476.158	80.88
476.377	92.88
476.596	89.88
476.814	90.88
477.033	115.88
477.252	94.88
477.471	85.88
477.69	97.88
477.908	90.88
478.127	95.88
478.346	95.88
478.564	91.88
478.783	106.88
479.002	99.88
479.22	89.88
479.439	102.88
479.658	124.88
479.876	125.88
480.095	120.88
480.313	114.88
480.532	133.88
480.751	188.88
480.969	480.88
481.188	1906.88
481.406	1206.88
481.624	225.88
481.843	119.88
482.061	100.88
482.28	104.88
482.498	101.88
482.717	98.88
482.935	102.88
483.153	81.88
483.372	91.88
483.59	78.88
483.808	85.88
484.027	96.88
484.245	81.88
484.463	87.88
484.681	107.88
484.9	101.88
485.118	101.88
485.336	91.88
485.554	88.88
485.772	91.88
485.99	97.88
486.209	106.88
486.427	101.88
486.645	110.88
486.863	101.88
487.081	105.88
487.299	87.88
487.517	101.88
487.735	78.88
487.953	93.88
488.171	98.88
488.389	96.88
488.607	92.88
488.825	83.88
489.043	101.88
489.261	82.88
489.479	96.88
489.696	91.88
489.914	86.88
490.132	92.88
490.35	97.88
490.568	79.88
490.786	85.88
491.003	83.88
491.221	88.88
491.439	96.88
491.657	80.88
491.874	92.88
492.092	111.88
492.31	91.88
492.527	98.88
492.745	93.88
492.963	100.88
493.18	81.88
493.398	76.88
493.615	79.88
493.833	98.88
494.05	103.88
494.268	90.88
494.485	82.88
494.703	84.88
494.92	98.88
495.138	87.88
495.355	75.88
495.573	80.88
495.79	83.88
496.008	81.88
496.225	82.88
496.442	95.88
496.66	87.88
496.877	85.88
497.094	86.88
497.312	77.88
497.529	80.88
497.746	103.88
497.963	81.88
498.181	72.88
498.398	84.88
498.615	110.88
498.832	94.88
499.049	94.88
499.267	87.88
499.484	95.88
499.701	88.88
499.918	86.88
500.135	82.88
500.352	96.88
500.569	96.88
500.786	90.88
501.003	80.88
501.22	83.88
501.437	81.88
501.654	90.88
501.871	124.88
502.088	99.88
502.305	94.88
502.522	102.88
502.739	81.88
502.956	95.88
503.172	89.88
503.389	98.88
503.606	104.88
503.823	98.88
504.04	99.88
504.256	83.88
504.473	97.88
504.69	93.88
504.907	100.88
505.123	96.88
505.34	89.88
505.557	79.88
505.773	90.88
505.99	85.88
506.207	81.88
506.423	93.88
506.64	100.88
506.856	107.88
507.073	79.88
507.289	85.88
507.506	88.88
507.722	116.88
507.939	120.88
508.155	94.88
508.372	89.88
508.588	101.88
508.805	85.88
509.021	99.88
509.238	102.88
509.454	94.88
509.67	96.88
509.887	105.88
510.103	143.88
510.319	215.88
510.536	753.88
510.752	2441.88
510.968	697.88
511.184	161.88
511.401	121.88
511.617	97.88
511.833	102.88
512.049	88.88
512.265	89.88
512.481	95.88
512.698	84.88
512.914	97.88
513.13	93.88
513.346	97.88
513.562	84.88
513.778	108.88
513.994	96.88
514.21	117.88
514.426	125.88
514.642	152.88
514.858	140.88
