Data from Circ_2007_H10_HRD10591_00075.txt Node
Date: Wed Jan 03 10:22:12 EST 2024
User: Yrep
Spectrometer: HR+D1059
Trigger mode: 1
Integration Time (sec): 1.000000E-1
Scans to average: 1
Electric dark correction enabled: true
Nonlinearity correction enabled: false
Boxcar width: 0
XAxis mode: Wavelengths
Number of Pixels in Spectrum: 2048
>>>>>Begin Spectral Data<<<<<
223.165	-2.62
223.4	-2.62
223.635	-2.62
223.869	-10.62
224.104	-27.62
224.338	-7.62
224.573	-22.62
224.808	-2.62
225.042	-6.62
225.277	0.38
225.511	-11.62
225.746	0.38
225.98	-5.62
226.215	21.38
226.449	7.38
226.683	8.38
226.918	28.38
227.152	31.38
227.387	34.38
227.621	52.38
227.856	43.38
228.09	40.38
228.324	49.38
228.559	57.38
228.793	68.38
229.027	58.38
229.262	84.38
229.496	71.38
229.73	95.38
229.964	100.38
230.199	70.38
230.433	76.38
230.667	74.38
230.901	83.38
231.136	75.38
231.37	81.38
231.604	82.38
231.838	73.38
232.072	68.38
232.306	64.38
232.541	76.38
232.775	78.38
233.009	77.38
233.243	90.38
233.477	83.38
233.711	76.38
233.945	79.38
234.179	94.38
234.413	77.38
234.647	82.38
234.881	74.38
235.115	79.38
235.349	73.38
235.583	79.38
235.817	69.38
236.051	76.38
236.285	65.38
236.519	89.38
236.753	87.38
236.987	83.38
237.221	91.38
237.455	95.38
237.689	92.38
237.922	82.38
238.156	84.38
238.39	92.38
238.624	88.38
238.858	66.38
239.091	71.38
239.325	71.38
239.559	83.38
239.793	86.38
240.027	77.38
240.26	85.38
240.494	75.38
240.728	77.38
240.961	92.38
241.195	77.38
241.429	86.38
241.662	75.38
241.896	69.38
242.13	65.38
242.363	90.38
242.597	74.38
242.83	78.38
243.064	82.38
243.298	77.38
243.531	76.38
243.765	71.38
243.998	84.38
244.232	78.38
244.465	86.38
244.699	89.38
244.932	81.38
245.166	74.38
245.399	76.38
245.633	90.38
245.866	76.38
246.099	78.38
246.333	75.38
246.566	76.38
246.8	76.38
247.033	79.38
247.266	75.38
247.5	94.38
247.733	76.38
247.966	84.38
248.2	80.38
248.433	84.38
248.666	76.38
248.899	70.38
249.133	79.38
249.366	96.38
249.599	110.38
249.832	85.38
250.066	94.38
250.299	76.38
250.532	89.38
250.765	88.38
250.998	83.38
251.231	92.38
251.465	80.38
251.698	72.38
251.931	88.38
252.164	78.38
252.397	61.38
252.63	85.38
252.863	82.38
253.096	84.38
253.329	80.38
253.562	93.38
253.795	107.38
254.028	75.38
254.261	86.38
254.494	77.38
254.727	85.38
254.96	93.38
255.193	85.38
255.426	84.38
255.659	82.38
255.892	82.38
256.124	93.38
256.357	75.38
256.59	89.38
256.823	78.38
257.056	89.38
257.289	83.38
257.521	77.38
257.754	84.38
257.987	67.38
258.22	76.38
258.452	97.38
258.685	101.38
258.918	81.38
259.151	89.38
259.383	84.38
259.616	82.38
259.849	89.38
260.081	88.38
260.314	89.38
260.547	83.38
260.779	85.38
261.012	100.38
261.244	94.38
261.477	96.38
261.71	102.38
261.942	134.38
262.175	156.38
262.407	98.38
262.64	81.38
262.872	85.38
263.105	69.38
263.337	94.38
263.57	91.38
263.802	80.38
264.035	69.38
264.267	75.38
264.499	78.38
264.732	86.38
264.964	99.38
265.197	80.38
265.429	66.38
265.661	84.38
265.894	68.38
266.126	84.38
266.358	87.38
266.591	99.38
266.823	86.38
267.055	84.38
267.287	88.38
267.52	77.38
267.752	93.38
267.984	78.38
268.216	83.38
268.448	94.38
268.681	89.38
268.913	87.38
269.145	82.38
269.377	87.38
269.609	83.38
269.841	71.38
270.073	80.38
270.306	80.38
270.538	99.38
270.77	68.38
271.002	86.38
271.234	86.38
271.466	94.38
271.698	91.38
271.93	86.38
272.162	90.38
272.394	107.38
272.626	100.38
272.858	75.38
273.09	81.38
273.322	84.38
273.553	88.38
273.785	93.38
274.017	86.38
274.249	78.38
274.481	75.38
274.713	76.38
274.945	86.38
275.176	89.38
275.408	112.38
275.64	106.38
275.872	91.38
276.104	86.38
276.335	100.38
276.567	120.38
276.799	140.38
277.031	159.38
277.262	165.38
277.494	126.38
277.726	102.38
277.957	94.38
278.189	110.38
278.421	99.38
278.652	97.38
278.884	95.38
279.115	99.38
279.347	82.38
279.579	96.38
279.81	130.38
280.042	169.38
280.273	200.38
280.505	165.38
280.736	114.38
280.968	111.38
281.199	92.38
281.431	98.38
281.662	99.38
281.894	101.38
282.125	97.38
282.356	149.38
282.588	166.38
282.819	131.38
283.051	96.38
283.282	101.38
283.513	93.38
283.745	95.38
283.976	84.38
284.207	88.38
284.439	87.38
284.67	103.38
284.901	84.38
285.132	86.38
285.364	92.38
285.595	96.38
285.826	83.38
286.057	89.38
286.288	91.38
286.52	75.38
286.751	90.38
286.982	90.38
287.213	88.38
287.444	100.38
287.675	108.38
287.906	82.38
288.138	95.38
288.369	100.38
288.6	92.38
288.831	89.38
289.062	79.38
289.293	90.38
289.524	85.38
289.755	83.38
289.986	76.38
290.217	84.38
290.448	76.38
290.679	85.38
290.91	91.38
291.141	95.38
291.371	91.38
291.602	95.38
291.833	84.38
292.064	94.38
292.295	90.38
292.526	87.38
292.757	88.38
292.987	84.38
293.218	102.38
293.449	81.38
293.68	94.38
293.91	90.38
294.141	102.38
294.372	97.38
294.603	84.38
294.833	98.38
295.064	92.38
295.295	93.38
295.525	77.38
295.756	98.38
295.987	125.38
296.217	180.38
296.448	154.38
296.679	92.38
296.909	98.38
297.14	74.38
297.37	82.38
297.601	86.38
297.831	86.38
298.062	96.38
298.292	93.38
298.523	90.38
298.753	88.38
298.984	88.38
299.214	101.38
299.445	93.38
299.675	101.38
299.905	88.38
300.136	105.38
300.366	89.38
300.597	93.38
300.827	88.38
301.057	114.38
301.288	121.38
301.518	106.38
301.748	100.38
301.979	104.38
302.209	105.38
302.439	97.38
302.669	85.38
302.9	69.38
303.13	96.38
303.36	97.38
303.59	144.38
303.82	133.38
304.051	112.38
304.281	91.38
304.511	101.38
304.741	83.38
304.971	87.38
305.201	91.38
305.431	83.38
305.661	92.38
305.891	109.38
306.121	101.38
306.352	107.38
306.582	116.38
306.812	101.38
307.042	112.38
307.272	142.38
307.502	145.38
307.731	150.38
307.961	134.38
308.191	82.38
308.421	85.38
308.651	97.38
308.881	112.38
309.111	96.38
309.341	103.38
309.571	109.38
309.8	91.38
310.03	115.38
310.26	105.38
310.49	99.38
310.72	111.38
310.949	127.38
311.179	110.38
311.409	103.38
311.639	86.38
311.868	94.38
312.098	109.38
312.328	102.38
312.557	104.38
312.787	123.38
313.017	115.38
313.246	111.38
313.476	95.38
313.706	94.38
313.935	97.38
314.165	95.38
314.394	120.38
314.624	91.38
314.853	104.38
315.083	97.38
315.312	100.38
315.542	86.38
315.771	78.38
316.001	80.38
316.23	84.38
316.46	95.38
316.689	99.38
316.919	96.38
317.148	106.38
317.377	91.38
317.607	101.38
317.836	89.38
318.065	98.38
318.295	92.38
318.524	80.38
318.753	106.38
318.983	95.38
319.212	104.38
319.441	117.38
319.67	101.38
319.9	93.38
320.129	105.38
320.358	98.38
320.587	79.38
320.816	111.38
321.046	107.38
321.275	114.38
321.504	93.38
321.733	108.38
321.962	114.38
322.191	111.38
322.42	115.38
322.649	124.38
322.878	122.38
323.108	124.38
323.337	164.38
323.566	163.38
323.795	187.38
324.024	260.38
324.253	504.38
324.482	1057.38
324.71	2280.38
324.939	3023.38
325.168	1110.38
325.397	306.38
325.626	172.38
325.855	160.38
326.084	146.38
326.313	149.38
326.542	188.38
326.77	282.38
326.999	564.38
327.228	1175.38
327.457	2124.38
327.686	1764.38
327.914	551.38
328.143	436.38
328.372	533.38
328.6	324.38
328.829	180.38
329.058	188.38
329.287	210.38
329.515	169.38
329.744	212.38
329.972	346.38
330.201	702.38
330.43	1085.38
330.658	528.38
330.887	299.38
331.115	184.38
331.344	132.38
331.572	113.38
331.801	124.38
332.03	128.38
332.258	117.38
332.486	99.38
332.715	115.38
332.943	109.38
333.172	109.38
333.4	124.38
333.629	156.38
333.857	200.38
334.085	318.38
334.314	626.38
334.542	1260.38
334.771	1265.38
334.999	369.38
335.227	165.38
335.455	115.38
335.684	124.38
335.912	109.38
336.14	111.38
336.369	113.38
336.597	127.38
336.825	113.38
337.053	100.38
337.281	98.38
337.51	109.38
337.738	95.38
337.966	97.38
338.194	114.38
338.422	106.38
338.65	100.38
338.878	103.38
339.106	98.38
339.334	98.38
339.562	102.38
339.79	101.38
340.018	105.38
340.246	100.38
340.474	97.38
340.702	85.38
340.93	90.38
341.158	89.38
341.386	92.38
341.614	111.38
341.842	90.38
342.07	96.38
342.298	90.38
342.526	84.38
342.754	100.38
342.981	92.38
343.209	87.38
343.437	95.38
343.665	86.38
343.893	83.38
344.12	97.38
344.348	93.38
344.576	82.38
344.804	94.38
345.031	91.38
345.259	107.38
345.487	106.38
345.714	88.38
345.942	108.38
346.17	108.38
346.397	97.38
346.625	93.38
346.853	91.38
347.08	100.38
347.308	101.38
347.535	123.38
347.763	125.38
347.99	126.38
348.218	123.38
348.445	117.38
348.673	114.38
348.9	105.38
349.128	108.38
349.355	88.38
349.583	96.38
349.81	88.38
350.037	113.38
350.265	103.38
350.492	94.38
350.72	101.38
350.947	106.38
351.174	126.38
351.402	124.38
351.629	122.38
351.856	106.38
352.083	106.38
352.311	137.38
352.538	111.38
352.765	125.38
352.992	112.38
353.22	107.38
353.447	125.38
353.674	119.38
353.901	98.38
354.128	94.38
354.355	92.38
354.583	112.38
354.81	94.38
355.037	122.38
355.264	86.38
355.491	92.38
355.718	107.38
355.945	86.38
356.172	85.38
356.399	86.38
356.626	106.38
356.853	98.38
357.08	103.38
357.307	91.38
357.534	89.38
357.761	94.38
357.988	85.38
358.215	85.38
358.441	91.38
358.668	102.38
358.895	84.38
359.122	97.38
359.349	100.38
359.576	106.38
359.802	120.38
360.029	142.38
360.256	150.38
360.483	118.38
360.709	100.38
360.936	84.38
361.163	102.38
361.39	100.38
361.616	101.38
361.843	107.38
362.07	104.38
362.296	105.38
362.523	93.38
362.749	99.38
362.976	90.38
363.203	95.38
363.429	97.38
363.656	98.38
363.882	89.38
364.109	94.38
364.335	106.38
364.562	92.38
364.788	86.38
365.015	107.38
365.241	114.38
365.468	133.38
365.694	111.38
365.92	99.38
366.147	93.38
366.373	86.38
366.599	88.38
366.826	92.38
367.052	98.38
367.278	99.38
367.505	98.38
367.731	106.38
367.957	95.38
368.184	88.38
368.41	117.38
368.636	136.38
368.862	136.38
369.089	124.38
369.315	100.38
369.541	104.38
369.767	97.38
369.993	94.38
370.219	101.38
370.445	85.38
370.672	96.38
370.898	86.38
371.124	82.38
371.35	93.38
371.576	99.38
371.802	83.38
372.028	91.38
372.254	96.38
372.48	81.38
372.706	77.38
372.932	91.38
373.158	80.38
373.384	95.38
373.61	96.38
373.835	96.38
374.061	79.38
374.287	100.38
374.513	85.38
374.739	96.38
374.965	90.38
375.191	85.38
375.416	93.38
375.642	94.38
375.868	101.38
376.094	94.38
376.319	86.38
376.545	76.38
376.771	80.38
376.997	92.38
377.222	90.38
377.448	100.38
377.674	99.38
377.899	87.38
378.125	89.38
378.35	88.38
378.576	80.38
378.802	91.38
379.027	101.38
379.253	104.38
379.478	108.38
379.704	96.38
379.929	102.38
380.155	92.38
380.38	88.38
380.606	91.38
380.831	111.38
381.057	97.38
381.282	99.38
381.507	85.38
381.733	95.38
381.958	101.38
382.184	98.38
382.409	98.38
382.634	102.38
382.86	110.38
383.085	104.38
383.31	93.38
383.535	115.38
383.761	89.38
383.986	100.38
384.211	102.38
384.436	96.38
384.662	89.38
384.887	87.38
385.112	105.38
385.337	120.38
385.562	121.38
385.787	100.38
386.013	104.38
386.238	106.38
386.463	114.38
386.688	108.38
386.913	93.38
387.138	103.38
387.363	96.38
387.588	104.38
387.813	85.38
388.038	99.38
388.263	113.38
388.488	96.38
388.713	109.38
388.938	96.38
389.163	85.38
389.387	86.38
389.612	93.38
389.837	96.38
390.062	94.38
390.287	91.38
390.512	95.38
390.736	99.38
390.961	89.38
391.186	91.38
391.411	96.38
391.636	88.38
391.86	93.38
392.085	91.38
392.31	92.38
392.534	83.38
392.759	94.38
392.984	73.38
393.208	80.38
393.433	86.38
393.658	89.38
393.882	82.38
394.107	90.38
394.331	90.38
394.556	81.38
394.78	88.38
395.005	86.38
395.229	83.38
395.454	77.38
395.678	92.38
395.903	70.38
396.127	97.38
396.352	84.38
396.576	77.38
396.801	87.38
397.025	90.38
397.249	97.38
397.474	87.38
397.698	85.38
397.922	96.38
398.147	81.38
398.371	98.38
398.595	81.38
398.82	79.38
399.044	95.38
399.268	97.38
399.492	90.38
399.717	96.38
399.941	96.38
400.165	102.38
400.389	92.38
400.613	90.38
400.837	84.38
401.062	86.38
401.286	97.38
401.51	96.38
401.734	109.38
401.958	109.38
402.182	159.38
402.406	213.38
402.63	156.38
402.854	113.38
403.078	95.38
403.302	95.38
403.526	93.38
403.75	83.38
403.974	89.38
404.198	86.38
404.422	94.38
404.645	102.38
404.869	92.38
405.093	123.38
405.317	140.38
405.541	131.38
405.765	136.38
405.988	140.38
406.212	232.38
406.436	357.38
406.66	240.38
406.883	129.38
407.107	102.38
407.331	110.38
407.555	101.38
407.778	104.38
408.002	89.38
408.226	94.38
408.449	97.38
408.673	77.38
408.896	99.38
409.12	109.38
409.344	97.38
409.567	91.38
409.791	77.38
410.014	99.38
410.238	90.38
410.461	103.38
410.685	101.38
410.908	94.38
411.132	94.38
411.355	105.38
411.578	93.38
411.802	97.38
412.025	98.38
412.249	92.38
412.472	115.38
412.695	123.38
412.919	114.38
413.142	86.38
413.365	90.38
413.589	86.38
413.812	86.38
414.035	93.38
414.258	96.38
414.482	99.38
414.705	98.38
414.928	89.38
415.151	94.38
415.374	97.38
415.597	92.38
415.821	81.38
416.044	96.38
416.267	92.38
416.49	84.38
416.713	84.38
416.936	88.38
417.159	91.38
417.382	102.38
417.605	95.38
417.828	114.38
418.051	82.38
418.274	91.38
418.497	78.38
418.72	93.38
418.943	100.38
419.166	96.38
419.389	80.38
419.611	97.38
419.834	95.38
420.057	99.38
420.28	99.38
420.503	92.38
420.726	86.38
420.948	88.38
421.171	99.38
421.394	97.38
421.617	110.38
421.839	86.38
422.062	95.38
422.285	98.38
422.507	100.38
422.73	107.38
422.953	93.38
423.175	89.38
423.398	99.38
423.621	94.38
423.843	91.38
424.066	92.38
424.288	101.38
424.511	85.38
424.733	101.38
424.956	110.38
425.178	120.38
425.401	114.38
425.623	103.38
425.846	96.38
426.068	99.38
426.291	95.38
426.513	88.38
426.735	83.38
426.958	105.38
427.18	115.38
427.402	185.38
427.625	269.38
427.847	236.38
428.069	203.38
428.292	137.38
428.514	96.38
428.736	85.38
428.958	91.38
429.181	92.38
429.403	99.38
429.625	87.38
429.847	84.38
430.069	105.38
430.292	93.38
430.514	92.38
430.736	93.38
430.958	90.38
431.18	82.38
431.402	86.38
431.624	85.38
431.846	91.38
432.068	93.38
432.29	83.38
432.512	91.38
432.734	86.38
432.956	97.38
433.178	113.38
433.4	97.38
433.622	101.38
433.844	105.38
434.066	103.38
434.287	96.38
434.509	90.38
434.731	86.38
434.953	93.38
435.175	90.38
435.397	88.38
435.618	89.38
435.84	91.38
436.062	121.38
436.284	117.38
436.505	108.38
436.727	109.38
436.949	89.38
437.17	90.38
437.392	97.38
437.614	95.38
437.835	144.38
438.057	157.38
438.278	123.38
438.5	129.38
438.721	140.38
438.943	108.38
439.165	100.38
439.386	86.38
439.608	106.38
439.829	97.38
440.05	150.38
440.272	181.38
440.493	110.38
440.715	93.38
440.936	85.38
441.158	103.38
441.379	101.38
441.6	113.38
441.822	105.38
442.043	101.38
442.264	115.38
442.486	120.38
442.707	109.38
442.928	133.38
443.149	190.38
443.371	180.38
443.592	150.38
443.813	137.38
444.034	126.38
444.255	85.38
444.476	89.38
444.698	80.38
444.919	104.38
445.14	134.38
445.361	128.38
445.582	139.38
445.803	206.38
446.024	179.38
446.245	189.38
446.466	132.38
446.687	99.38
446.908	92.38
447.129	95.38
447.35	90.38
447.571	92.38
447.792	91.38
448.013	106.38
448.234	119.38
448.455	124.38
448.675	133.38
448.896	139.38
449.117	123.38
449.338	122.38
449.559	151.38
449.779	147.38
450	104.38
450.221	90.38
450.442	99.38
450.662	101.38
450.883	127.38
451.104	148.38
451.324	123.38
451.545	98.38
451.766	69.38
451.986	95.38
452.207	100.38
452.428	100.38
452.648	127.38
452.869	130.38
453.089	150.38
453.31	147.38
453.53	105.38
453.751	112.38
453.971	118.38
454.192	137.38
454.412	107.38
454.633	92.38
454.853	88.38
455.073	96.38
455.294	86.38
455.514	93.38
455.734	89.38
455.955	90.38
456.175	84.38
456.395	92.38
456.616	89.38
456.836	74.38
457.056	79.38
457.276	80.38
457.497	77.38
457.717	88.38
457.937	75.38
458.157	92.38
458.377	90.38
458.598	127.38
458.818	223.38
459.038	268.38
459.258	163.38
459.478	101.38
459.698	80.38
459.918	99.38
460.138	83.38
460.358	80.38
460.578	101.38
460.798	104.38
461.018	94.38
461.238	96.38
461.458	84.38
461.678	100.38
461.898	90.38
462.118	93.38
462.338	96.38
462.558	84.38
462.777	74.38
462.997	78.38
463.217	100.38
463.437	84.38
463.657	86.38
463.876	91.38
464.096	103.38
464.316	106.38
464.536	100.38
464.755	97.38
464.975	116.38
465.195	261.38
465.414	256.38
465.634	108.38
465.854	84.38
466.073	95.38
466.293	113.38
466.512	104.38
466.732	99.38
466.951	85.38
467.171	105.38
467.391	102.38
467.61	147.38
467.829	188.38
468.049	389.38
468.268	624.38
468.488	183.38
468.707	107.38
468.927	93.38
469.146	99.38
469.365	91.38
469.585	91.38
469.804	98.38
470.023	101.38
470.243	99.38
470.462	118.38
470.681	135.38
470.901	91.38
471.12	97.38
471.339	113.38
471.558	106.38
471.777	132.38
471.997	235.38
472.216	776.38
472.435	1850.38
472.654	474.38
472.873	153.38
473.092	104.38
473.311	97.38
473.53	94.38
473.749	99.38
473.968	105.38
474.187	122.38
474.406	109.38
474.625	78.38
474.844	101.38
475.063	88.38
475.282	84.38
475.501	90.38
475.72	98.38
475.939	92.38
476.158	97.38
476.377	85.38
476.596	91.38
476.814	104.38
477.033	100.38
477.252	92.38
477.471	98.38
477.69	95.38
477.908	88.38
478.127	93.38
478.346	99.38
478.564	86.38
478.783	105.38
479.002	106.38
479.22	94.38
479.439	121.38
479.658	132.38
479.876	111.38
480.095	122.38
480.313	134.38
480.532	146.38
480.751	218.38
480.969	702.38
481.188	2999.38
481.406	1870.38
481.624	304.38
481.843	128.38
482.061	97.38
482.28	86.38
482.498	95.38
482.717	86.38
482.935	104.38
483.153	93.38
483.372	89.38
483.59	97.38
483.808	86.38
484.027	80.38
484.245	94.38
484.463	99.38
484.681	101.38
484.9	89.38
485.118	100.38
485.336	98.38
485.554	97.38
485.772	97.38
485.99	109.38
486.209	104.38
486.427	111.38
486.645	128.38
486.863	129.38
487.081	112.38
487.299	87.38
487.517	87.38
487.735	99.38
487.953	88.38
488.171	101.38
488.389	99.38
488.607	120.38
488.825	97.38
489.043	92.38
489.261	95.38
489.479	96.38
489.696	88.38
489.914	89.38
490.132	90.38
490.35	73.38
490.568	85.38
490.786	96.38
491.003	100.38
491.221	101.38
491.439	100.38
491.657	74.38
491.874	91.38
492.092	90.38
492.31	95.38
492.527	87.38
492.745	90.38
492.963	84.38
493.18	98.38
493.398	101.38
493.615	96.38
493.833	101.38
494.05	102.38
494.268	89.38
494.485	95.38
494.703	97.38
494.92	102.38
495.138	82.38
495.355	97.38
495.573	97.38
495.79	95.38
496.008	97.38
496.225	78.38
496.442	85.38
496.66	94.38
496.877	84.38
497.094	101.38
497.312	117.38
497.529	104.38
497.746	86.38
497.963	81.38
498.181	98.38
498.398	101.38
498.615	123.38
498.832	121.38
499.049	95.38
499.267	88.38
499.484	73.38
499.701	85.38
499.918	104.38
500.135	95.38
500.352	96.38
500.569	99.38
500.786	91.38
501.003	95.38
501.22	84.38
501.437	86.38
501.654	102.38
501.871	149.38
502.088	100.38
502.305	91.38
502.522	88.38
502.739	87.38
502.956	96.38
503.172	95.38
503.389	110.38
503.606	142.38
503.823	114.38
504.04	105.38
504.256	76.38
504.473	98.38
504.69	106.38
504.907	92.38
505.123	89.38
505.34	71.38
505.557	92.38
505.773	82.38
505.99	95.38
506.207	81.38
506.423	85.38
506.64	91.38
506.856	84.38
507.073	97.38
507.289	108.38
507.506	110.38
507.722	130.38
507.939	147.38
508.155	88.38
508.372	90.38
508.588	93.38
508.805	81.38
509.021	106.38
509.238	116.38
509.454	99.38
509.67	106.38
509.887	112.38
510.103	156.38
510.319	259.38
510.536	1002.38
510.752	3627.38
510.968	972.38
511.184	199.38
511.401	139.38
511.617	107.38
511.833	106.38
512.049	101.38
512.265	95.38
512.481	85.38
512.698	91.38
512.914	100.38
513.13	103.38
