Data from Circ_2007_H10_HRD10591_00069.txt Node
Date: Wed Jan 03 10:22:11 EST 2024
User: Yrep
Spectrometer: HR+D1059
Trigger mode: 1
Integration Time (sec): 1.000000E-1
Scans to average: 1
Electric dark correction enabled: true
Nonlinearity correction enabled: false
Boxcar width: 0
XAxis mode: Wavelengths
Number of Pixels in Spectrum: 2048
>>>>>Begin Spectral Data<<<<<
223.165	-32
223.4	-32
223.635	-32
223.869	-19
224.104	-30
224.338	-16
224.573	0
224.808	7
225.042	-9
225.277	5
225.511	1
225.746	-8
225.98	9
226.215	17
226.449	7
226.683	27
226.918	18
227.152	23
227.387	33
227.621	38
227.856	48
228.09	39
228.324	40
228.559	45
228.793	69
229.027	54
229.262	67
229.496	63
229.73	107
229.964	94
230.199	81
230.433	68
230.667	73
230.901	81
231.136	76
231.37	81
231.604	67
231.838	76
232.072	77
232.306	79
232.541	81
232.775	69
233.009	69
233.243	81
233.477	79
233.711	73
233.945	76
234.179	87
234.413	88
234.647	89
234.881	80
235.115	65
235.349	80
235.583	79
235.817	80
236.051	79
236.285	72
236.519	66
236.753	90
236.987	82
237.221	96
237.455	91
237.689	99
237.922	81
238.156	67
238.39	83
238.624	71
238.858	82
239.091	78
239.325	76
239.559	83
239.793	84
240.027	72
240.26	78
240.494	81
240.728	77
240.961	72
241.195	74
241.429	76
241.662	81
241.896	77
242.13	78
242.363	90
242.597	81
242.83	73
243.064	76
243.298	93
243.531	79
243.765	74
243.998	81
244.232	67
244.465	74
244.699	86
244.932	72
245.166	78
245.399	75
245.633	72
245.866	85
246.099	85
246.333	77
246.566	79
246.8	78
247.033	54
247.266	69
247.5	83
247.733	85
247.966	85
248.2	64
248.433	89
248.666	79
248.899	86
249.133	85
249.366	117
249.599	99
249.832	82
250.066	77
250.299	89
250.532	98
250.765	86
250.998	89
251.231	77
251.465	75
251.698	73
251.931	75
252.164	86
252.397	71
252.63	82
252.863	79
253.096	78
253.329	90
253.562	78
253.795	86
254.028	89
254.261	77
254.494	92
254.727	84
254.96	81
255.193	69
255.426	84
255.659	85
255.892	92
256.124	98
256.357	94
256.59	82
256.823	108
257.056	90
257.289	80
257.521	76
257.754	82
257.987	78
258.22	87
258.452	96
258.685	86
258.918	74
259.151	71
259.383	88
259.616	89
259.849	88
260.081	92
260.314	96
260.547	105
260.779	100
261.012	94
261.244	93
261.477	93
261.71	113
261.942	144
262.175	153
262.407	97
262.64	100
262.872	77
263.105	79
263.337	81
263.57	82
263.802	89
264.035	93
264.267	97
264.499	83
264.732	70
264.964	80
265.197	74
265.429	75
265.661	81
265.894	73
266.126	75
266.358	81
266.591	74
266.823	85
267.055	80
267.287	102
267.52	84
267.752	74
267.984	81
268.216	94
268.448	76
268.681	87
268.913	80
269.145	69
269.377	86
269.609	77
269.841	73
270.073	84
270.306	78
270.538	87
270.77	89
271.002	75
271.234	75
271.466	87
271.698	85
271.93	86
272.162	92
272.394	81
272.626	74
272.858	81
273.09	79
273.322	88
273.553	91
273.785	79
274.017	96
274.249	93
274.481	71
274.713	72
274.945	87
275.176	78
275.408	94
275.64	103
275.872	98
276.104	93
276.335	93
276.567	119
276.799	150
277.031	161
277.262	169
277.494	124
277.726	93
277.957	93
278.189	96
278.421	80
278.652	84
278.884	92
279.115	89
279.347	79
279.579	101
279.81	112
280.042	166
280.273	218
280.505	160
280.736	111
280.968	102
281.199	88
281.431	97
281.662	86
281.894	85
282.125	97
282.356	154
282.588	192
282.819	134
283.051	91
283.282	86
283.513	89
283.745	84
283.976	86
284.207	85
284.439	86
284.67	77
284.901	88
285.132	81
285.364	85
285.595	96
285.826	84
286.057	97
286.288	87
286.52	97
286.751	95
286.982	82
287.213	90
287.444	88
287.675	85
287.906	89
288.138	89
288.369	103
288.6	87
288.831	84
289.062	84
289.293	87
289.524	87
289.755	94
289.986	91
290.217	75
290.448	74
290.679	81
290.91	70
291.141	72
291.371	85
291.602	79
291.833	82
292.064	91
292.295	89
292.526	88
292.757	95
292.987	103
293.218	91
293.449	85
293.68	76
293.91	91
294.141	81
294.372	80
294.603	90
294.833	92
295.064	95
295.295	93
295.525	96
295.756	112
295.987	142
296.217	160
296.448	142
296.679	95
296.909	75
297.14	74
297.37	81
297.601	77
297.831	76
298.062	93
298.292	97
298.523	90
298.753	88
298.984	78
299.214	73
299.445	82
299.675	94
299.905	80
300.136	114
300.366	84
300.597	106
300.827	112
301.057	104
301.288	112
301.518	102
301.748	119
301.979	102
302.209	108
302.439	96
302.669	85
302.9	86
303.13	99
303.36	88
303.59	134
303.82	138
304.051	113
304.281	81
304.511	106
304.741	76
304.971	85
305.201	97
305.431	94
305.661	86
305.891	88
306.121	103
306.352	119
306.582	113
306.812	104
307.042	119
307.272	125
307.502	163
307.731	140
307.961	109
308.191	102
308.421	94
308.651	88
308.881	91
309.111	78
309.341	98
309.571	121
309.8	100
310.03	105
310.26	98
310.49	91
310.72	92
310.949	130
311.179	132
311.409	100
311.639	109
311.868	108
312.098	118
312.328	94
312.557	121
312.787	132
313.017	119
313.246	100
313.476	101
313.706	94
313.935	109
314.165	104
314.394	104
314.624	96
314.853	115
315.083	105
315.312	108
315.542	93
315.771	89
316.001	101
316.23	89
316.46	93
316.689	94
316.919	91
317.148	97
317.377	102
317.607	95
317.836	106
318.065	91
318.295	82
318.524	92
318.753	97
318.983	89
319.212	93
319.441	119
319.67	123
319.9	108
320.129	110
320.358	101
320.587	103
320.816	104
321.046	109
321.275	97
321.504	103
321.733	110
321.962	113
322.191	103
322.42	116
322.649	109
322.878	124
323.108	143
323.337	141
323.566	170
323.795	205
324.024	288
324.253	548
324.482	1286
324.71	2704
324.939	3705
325.168	1320
325.397	345
325.626	191
325.855	157
326.084	150
326.313	169
326.542	197
326.77	320
326.999	664
327.228	1405
327.457	2607
327.686	2109
327.914	632
328.143	497
328.372	584
328.6	338
328.829	197
329.058	203
329.287	229
329.515	184
329.744	225
329.972	393
330.201	786
330.43	1192
330.658	586
330.887	304
331.115	212
331.344	124
331.572	120
331.801	119
332.03	134
332.258	117
332.486	106
332.715	109
332.943	102
333.172	123
333.4	130
333.629	154
333.857	215
334.085	375
334.314	720
334.542	1471
334.771	1415
334.999	377
335.227	185
335.455	129
335.684	113
335.912	108
336.14	106
336.369	118
336.597	106
336.825	110
337.053	96
337.281	97
337.51	98
337.738	101
337.966	109
338.194	106
338.422	100
338.65	110
338.878	95
339.106	88
339.334	86
339.562	94
339.79	82
340.018	104
340.246	108
340.474	93
340.702	101
340.93	105
341.158	96
341.386	113
341.614	98
341.842	114
342.07	90
342.298	101
342.526	97
342.754	89
342.981	89
343.209	83
343.437	91
343.665	86
343.893	78
344.12	89
344.348	95
344.576	83
344.804	105
345.031	102
345.259	109
345.487	104
345.714	98
345.942	95
346.17	86
346.397	103
346.625	95
346.853	102
347.08	106
347.308	117
347.535	105
347.763	116
347.99	109
348.218	90
348.445	131
348.673	122
348.9	105
349.128	104
349.355	89
349.583	75
349.81	105
350.037	95
350.265	100
350.492	90
350.72	94
350.947	92
351.174	120
351.402	134
351.629	100
351.856	106
352.083	118
352.311	118
352.538	133
352.765	117
352.992	133
353.22	133
353.447	117
353.674	115
353.901	94
354.128	92
354.355	96
354.583	100
354.81	96
355.037	108
355.264	94
355.491	93
355.718	85
355.945	92
356.172	85
356.399	98
356.626	89
356.853	88
357.08	97
357.307	84
357.534	96
357.761	89
357.988	88
358.215	81
358.441	85
358.668	84
358.895	87
359.122	89
359.349	88
359.576	108
359.802	120
360.029	142
360.256	141
360.483	113
360.709	91
360.936	112
361.163	103
361.39	114
361.616	102
361.843	98
362.07	111
362.296	128
362.523	108
362.749	109
362.976	100
363.203	108
363.429	101
363.656	98
363.882	89
364.109	97
364.335	81
364.562	89
364.788	87
365.015	99
365.241	112
365.468	109
365.694	120
365.92	118
366.147	104
366.373	97
366.599	98
366.826	93
367.052	82
367.278	96
367.505	94
367.731	91
367.957	98
368.184	97
368.41	96
368.636	129
368.862	127
369.089	123
369.315	108
369.541	94
369.767	87
369.993	91
370.219	94
370.445	82
370.672	91
370.898	92
371.124	84
371.35	75
371.576	80
371.802	80
372.028	87
372.254	92
372.48	85
372.706	81
372.932	97
373.158	81
373.384	79
373.61	94
373.835	86
374.061	80
374.287	78
374.513	97
374.739	92
374.965	87
375.191	105
375.416	78
375.642	90
375.868	89
376.094	94
376.319	86
376.545	85
376.771	89
376.997	94
377.222	100
377.448	77
377.674	90
377.899	89
378.125	85
378.35	91
378.576	82
378.802	71
379.027	89
379.253	88
379.478	81
379.704	93
379.929	87
380.155	101
380.38	84
380.606	89
380.831	93
381.057	97
381.282	94
381.507	95
381.733	92
381.958	79
382.184	95
382.409	96
382.634	101
382.86	82
383.085	103
383.31	84
383.535	102
383.761	86
383.986	97
384.211	115
384.436	87
384.662	94
384.887	90
385.112	78
385.337	95
385.562	103
385.787	107
386.013	142
386.238	127
386.463	112
386.688	104
386.913	96
387.138	88
387.363	92
387.588	104
387.813	102
388.038	97
388.263	113
388.488	96
388.713	92
388.938	100
389.163	96
389.387	94
389.612	94
389.837	85
390.062	80
390.287	82
390.512	85
390.736	94
390.961	80
391.186	89
391.411	65
391.636	97
391.86	88
392.085	76
392.31	90
392.534	69
392.759	93
392.984	91
393.208	87
393.433	90
393.658	96
393.882	86
394.107	74
394.331	94
394.556	82
394.78	88
395.005	88
395.229	70
395.454	92
395.678	74
395.903	86
396.127	94
396.352	79
396.576	81
396.801	81
397.025	76
397.249	84
397.474	84
397.698	81
397.922	81
398.147	93
398.371	85
398.595	77
398.82	85
399.044	92
399.268	86
399.492	85
399.717	95
399.941	86
400.165	102
400.389	98
400.613	88
400.837	72
401.062	91
401.286	82
401.51	102
401.734	102
401.958	119
402.182	152
402.406	206
402.63	134
402.854	102
403.078	96
403.302	94
403.526	86
403.75	89
403.974	89
404.198	83
404.422	98
404.645	86
404.869	106
405.093	109
405.317	118
405.541	145
405.765	124
405.988	144
406.212	234
406.436	341
406.66	220
406.883	121
407.107	95
407.331	122
407.555	111
407.778	110
408.002	99
408.226	100
408.449	84
408.673	91
408.896	100
409.12	92
409.344	92
409.567	82
409.791	88
410.014	88
410.238	80
410.461	83
410.685	97
410.908	79
411.132	106
411.355	97
411.578	91
411.802	88
412.025	87
412.249	107
412.472	105
412.695	122
412.919	117
413.142	95
413.365	85
413.589	81
413.812	88
414.035	94
414.258	95
414.482	84
414.705	83
414.928	85
415.151	87
415.374	97
415.597	93
415.821	79
416.044	97
416.267	89
416.49	72
416.713	82
416.936	100
417.159	94
417.382	90
417.605	102
417.828	113
418.051	88
418.274	84
418.497	87
418.72	94
418.943	89
419.166	84
419.389	103
419.611	86
419.834	87
420.057	92
420.28	101
420.503	91
420.726	100
420.948	100
421.171	93
421.394	93
421.617	85
421.839	87
422.062	82
422.285	95
422.507	103
422.73	111
422.953	111
423.175	97
423.398	96
423.621	77
423.843	82
424.066	98
424.288	90
424.511	79
424.733	107
424.956	126
425.178	104
425.401	111
425.623	96
425.846	98
426.068	98
426.291	93
426.513	94
426.735	82
426.958	97
427.18	133
427.402	180
427.625	284
427.847	235
428.069	229
428.292	144
428.514	100
428.736	86
428.958	90
429.181	92
429.403	80
429.625	100
429.847	101
430.069	108
430.292	96
430.514	76
430.736	85
430.958	78
431.18	67
431.402	90
431.624	78
431.846	68
432.068	84
432.29	73
432.512	72
432.734	87
432.956	97
433.178	105
433.4	96
433.622	91
433.844	100
434.066	104
434.287	92
434.509	94
434.731	97
434.953	101
435.175	101
435.397	80
435.618	108
435.84	125
436.062	161
436.284	138
436.505	108
436.727	114
436.949	95
437.17	91
437.392	90
437.614	87
437.835	129
438.057	184
438.278	148
438.5	133
438.721	158
438.943	114
439.165	107
439.386	83
439.608	89
439.829	109
440.05	173
440.272	228
440.493	124
440.715	87
440.936	79
441.158	78
441.379	98
441.6	117
441.822	100
442.043	114
442.264	123
442.486	109
442.707	108
442.928	126
443.149	187
443.371	183
443.592	142
443.813	138
444.034	119
444.255	91
444.476	95
444.698	85
444.919	81
445.14	137
445.361	136
445.582	162
445.803	208
446.024	198
446.245	190
446.466	141
446.687	101
446.908	92
447.129	76
447.35	77
447.571	94
447.792	94
448.013	122
448.234	125
448.455	143
448.675	144
448.896	155
449.117	117
449.338	117
449.559	162
449.779	180
450	98
450.221	89
450.442	99
450.662	108
450.883	123
451.104	141
451.324	104
451.545	98
451.766	81
451.986	77
452.207	85
452.428	98
452.648	100
452.869	123
453.089	140
453.31	154
453.53	105
453.751	98
453.971	118
454.192	140
454.412	112
454.633	79
454.853	76
455.073	76
455.294	87
455.514	130
455.734	111
455.955	88
456.175	92
456.395	85
456.616	81
456.836	93
457.056	72
457.276	88
457.497	90
457.717	95
457.937	70
458.157	85
458.377	84
458.598	134
458.818	234
459.038	290
459.258	172
459.478	102
459.698	88
459.918	78
460.138	95
460.358	95
460.578	77
460.798	96
461.018	97
461.238	96
461.458	91
461.678	84
461.898	86
462.118	74
462.338	79
462.558	90
462.777	97
462.997	86
463.217	96
463.437	86
463.657	86
463.876	88
464.096	78
464.316	98
464.536	112
464.755	89
464.975	145
465.195	256
465.414	287
465.634	101
465.854	99
466.073	93
466.293	88
466.512	89
466.732	74
466.951	74
467.171	90
467.391	105
467.61	140
467.829	176
468.049	401
468.268	636
468.488	188
468.707	108
468.927	82
469.146	88
469.365	84
469.585	98
469.804	121
470.023	116
470.243	109
470.462	121
470.681	135
470.901	103
471.12	93
471.339	93
471.558	101
471.777	136
471.997	244
472.216	812
472.435	1869
472.654	464
472.873	145
473.092	102
473.311	102
473.53	89
473.749	98
473.968	96
474.187	136
474.406	117
474.625	89
474.844	85
475.063	79
475.282	92
475.501	78
475.72	78
475.939	85
476.158	85
476.377	86
476.596	96
476.814	96
477.033	98
477.252	87
477.471	95
477.69	95
477.908	91
478.127	87
478.346	95
478.564	94
478.783	107
479.002	105
479.22	93
479.439	132
479.658	158
479.876	131
480.095	122
480.313	133
480.532	144
480.751	229
480.969	766
481.188	3214
481.406	1975
481.624	293
481.843	123
482.061	102
482.28	90
482.498	97
482.717	83
482.935	74
483.153	92
483.372	90
483.59	102
483.808	76
484.027	91
484.245	93
484.463	101
484.681	109
484.9	90
485.118	89
485.336	92
485.554	96
485.772	104
485.99	110
486.209	112
486.427	106
486.645	118
486.863	131
487.081	133
487.299	102
487.517	103
487.735	91
487.953	90
488.171	86
488.389	83
488.607	105
488.825	91
489.043	81
489.261	85
489.479	90
489.696	91
489.914	86
490.132	90
490.35	92
490.568	82
490.786	82
491.003	76
491.221	100
491.439	90
491.657	96
491.874	93
492.092	92
492.31	96
492.527	95
492.745	112
492.963	88
493.18	101
493.398	97
493.615	104
493.833	94
494.05	92
494.268	65
494.485	100
494.703	94
494.92	94
495.138	83
495.355	88
495.573	89
495.79	86
496.008	104
496.225	103
496.442	81
496.66	73
496.877	97
497.094	87
497.312	89
497.529	93
497.746	89
497.963	95
498.181	93
498.398	89
498.615	119
498.832	122
499.049	98
499.267	93
499.484	96
499.701	81
499.918	93
500.135	82
500.352	91
500.569	84
500.786	98
501.003	74
501.22	94
501.437	104
501.654	97
501.871	144
502.088	97
502.305	93
502.522	93
502.739	85
502.956	96
503.172	101
503.389	93
503.606	122
503.823	102
504.04	92
504.256	100
504.473	100
504.69	88
504.907	83
505.123	85
505.34	90
505.557	100
505.773	78
505.99	85
506.207	80
506.423	90
506.64	100
506.856	78
507.073	86
507.289	96
507.506	97
507.722	142
507.939	151
508.155	113
508.372	104
508.588	87
508.805	88
509.021	103
509.238	115
509.454	90
509.67	108
509.887	111
510.103	138
510.319	249
510.536	1041
510.752	3659
510.968	974
511.184	175
511.401	142
511.617	104
511.833	118
512.049	93
512.265	82
512.481	103
512.698	104
512.914	76
513.13	99
513.346	88
513.562	85
513.778	106
513.994	111
514.21	123
514.426	156
514.642	196
514.858	177
515.074	254
515.29	844
515.506	3033
515.721	1081
515.937	254
516.153	171
516.369	111
516.585	108
516.801	109
517.016	109
517.232	101
517.448	82
517.664	110
517.879	117
518.095	95
518.311	98
518.527	106
518.742	96
518.958	87
519.173	104
519.389	105
519.605	93
519.82	102
520.036	108
520.251	161
520.467	154
520.682	132
520.898	118
521.113	141
521.329	172
521.544	330
521.76	1082
521.975	5111
522.19	3110
522.406	602
522.621	181
522.836	122
523.052	111
523.267	97
523.482	92
523.698	118
523.913	165
524.128	137
524.343	98
524.559	89
524.774	86
524.989	100
525.204	135
525.419	110
525.634	108
525.849	94
526.064	88
526.28	85
526.495	90
526.71	85
526.925	99
527.14	96
527.355	90
527.57	93
527.785	99
527.999	85
528.214	87
528.429	86
528.644	101
528.859	87
529.074	104
529.289	158
529.503	324
529.718	139
529.933	80
530.148	96
530.363	88
530.577	95
530.792	74
531.007	91
531.221	93
531.436	100
531.651	88
531.865	84
532.08	89
532.295	99
532.509	92
532.724	88
532.938	87
533.153	94
533.367	85
533.582	77
533.796	89
534.011	92
534.225	95
534.44	88
534.654	89
534.868	80
535.083	88
535.297	109
535.511	112
535.726	107
535.94	110
536.154	90
536.369	93
536.583	88
536.797	95
537.011	75
537.225	85
537.44	84
537.654	84
537.868	94
538.082	89
538.296	93
538.51	79
538.724	79
538.938	88
539.153	96
539.367	132
539.581	96
539.795	96
540.009	91
540.222	94
540.436	80
540.65	79
540.864	89
541.078	115
541.292	85
541.506	90
541.72	97
541.934	92
542.147	107
542.361	93
542.575	72
542.789	93
543.002	92
543.216	101
543.43	104
543.644	102
543.857	93
544.071	91
544.285	87
544.498	68
544.712	77
544.925	78
545.139	103
545.352	93
545.566	78
545.779	79
545.993	95
546.206	97
546.42	87
546.633	76
546.847	85
547.06	96
547.274	96
547.487	79
547.7	81
547.914	92
548.127	82
548.34	74
548.554	88
548.767	95
548.98	87
549.193	89
549.407	86
549.62	82
549.833	94
550.046	93
550.259	80
550.473	86
550.686	94
550.899	99
551.112	89
551.325	91
551.538	95
551.751	71
551.964	96
552.177	93
552.39	93
552.603	86
552.816	81
553.029	82
553.242	104
553.455	91
553.667	110
553.88	120
554.093	110
554.306	82
554.519	129
554.732	89
554.944	102
555.157	90
555.37	87
555.583	98
555.795	87
556.008	86
556.221	91
556.433	102
556.646	97
556.859	95
557.071	97
557.284	88
557.496	86
557.709	85
557.921	96
558.134	92
558.346	88
558.559	80
558.771	83
558.984	86
559.196	85
559.409	87
559.621	87
559.833	84
560.046	91
560.258	98
560.47	118
560.683	103
560.895	100
561.107	75
561.32	97
561.532	87
561.744	101
561.956	89
562.168	91
562.381	88
562.593	81
562.805	94
563.017	87
563.229	87
563.441	88
563.653	87
563.865	84
564.077	78
564.289	98
564.501	89
564.713	75
564.925	102
565.137	111
565.349	107
565.561	85
565.773	76
565.985	94
566.197	77
566.408	73
566.62	77
566.832	78
567.044	95
567.255	79
567.467	87
567.679	99
567.891	91
568.102	85
568.314	72
568.526	92
568.737	86
568.949	86
569.161	91
569.372	76
569.584	103
569.795	90
570.007	111
570.218	345
570.43	161
570.641	88
570.853	95
571.064	88
571.276	81
571.487	80
571.698	81
571.91	83
572.121	78
572.333	82
572.544	81
572.755	86
572.966	82
573.178	84
573.389	98
573.6	92
573.811	79
574.023	89
574.234	103
574.445	95
574.656	83
574.867	83
575.078	78
575.289	82
575.501	88
575.712	80
575.923	96
576.134	99
576.345	92
576.556	94
576.767	88
576.978	93
577.188	100
577.399	108
577.61	106
577.821	101
578.032	136
578.243	356
578.454	1137
578.665	277
578.875	116
579.086	92
579.297	91
579.508	88
579.718	87
579.929	94
580.14	75
580.35	80
580.561	79
580.772	91
580.982	97
581.193	77
