Data from Circ_2007_H10_HRD10591_00008.txt Node
Date: Wed Jan 03 10:21:58 EST 2024
User: Yrep
Spectrometer: HR+D1059
Trigger mode: 1
Integration Time (sec): 1.000000E-1
Scans to average: 1
Electric dark correction enabled: true
Nonlinearity correction enabled: false
Boxcar width: 0
XAxis mode: Wavelengths
Number of Pixels in Spectrum: 2048
>>>>>Begin Spectral Data<<<<<
223.165	-19.31
223.4	-19.31
223.635	-19.31
223.869	-20.31
224.104	-6.31
224.338	-10.31
224.573	-30.31
224.808	-22.31
225.042	-6.31
225.277	-4.31
225.511	-0.31
225.746	10.69
225.98	3.69
226.215	16.69
226.449	5.69
226.683	16.69
226.918	31.69
227.152	34.69
227.387	47.69
227.621	46.69
227.856	39.69
228.09	52.69
228.324	45.69
228.559	55.69
228.793	62.69
229.027	68.69
229.262	57.69
229.496	69.69
229.73	68.69
229.964	85.69
230.199	69.69
230.433	67.69
230.667	75.69
230.901	79.69
231.136	82.69
231.37	82.69
231.604	89.69
231.838	77.69
232.072	86.69
232.306	93.69
232.541	79.69
232.775	81.69
233.009	72.69
233.243	82.69
233.477	83.69
233.711	87.69
233.945	90.69
234.179	78.69
234.413	80.69
234.647	79.69
234.881	85.69
235.115	87.69
235.349	72.69
235.583	88.69
235.817	79.69
236.051	82.69
236.285	62.69
236.519	78.69
236.753	75.69
236.987	96.69
237.221	86.69
237.455	93.69
237.689	98.69
237.922	77.69
238.156	73.69
238.39	81.69
238.624	71.69
238.858	93.69
239.091	73.69
239.325	83.69
239.559	82.69
239.793	88.69
240.027	88.69
240.26	87.69
240.494	68.69
240.728	77.69
240.961	63.69
241.195	79.69
241.429	67.69
241.662	79.69
241.896	84.69
242.13	76.69
242.363	71.69
242.597	67.69
242.83	80.69
243.064	83.69
243.298	74.69
243.531	54.69
243.765	78.69
243.998	83.69
244.232	74.69
244.465	82.69
244.699	80.69
244.932	67.69
245.166	71.69
245.399	74.69
245.633	78.69
245.866	78.69
246.099	79.69
246.333	91.69
246.566	75.69
246.8	77.69
247.033	83.69
247.266	71.69
247.5	75.69
247.733	89.69
247.966	81.69
248.2	86.69
248.433	73.69
248.666	85.69
248.899	85.69
249.133	77.69
249.366	83.69
249.599	90.69
249.832	78.69
250.066	83.69
250.299	81.69
250.532	83.69
250.765	84.69
250.998	81.69
251.231	80.69
251.465	72.69
251.698	66.69
251.931	74.69
252.164	84.69
252.397	75.69
252.63	73.69
252.863	69.69
253.096	77.69
253.329	82.69
253.562	84.69
253.795	69.69
254.028	72.69
254.261	79.69
254.494	90.69
254.727	75.69
254.96	83.69
255.193	71.69
255.426	69.69
255.659	88.69
255.892	93.69
256.124	89.69
256.357	93.69
256.59	99.69
256.823	86.69
257.056	66.69
257.289	72.69
257.521	99.69
257.754	87.69
257.987	80.69
258.22	79.69
258.452	89.69
258.685	95.69
258.918	98.69
259.151	90.69
259.383	94.69
259.616	87.69
259.849	89.69
260.081	69.69
260.314	52.69
260.547	84.69
260.779	94.69
261.012	79.69
261.244	90.69
261.477	99.69
261.71	92.69
261.942	109.69
262.175	119.69
262.407	91.69
262.64	83.69
262.872	83.69
263.105	85.69
263.337	83.69
263.57	74.69
263.802	84.69
264.035	68.69
264.267	85.69
264.499	79.69
264.732	69.69
264.964	75.69
265.197	77.69
265.429	95.69
265.661	78.69
265.894	70.69
266.126	82.69
266.358	86.69
266.591	71.69
266.823	82.69
267.055	89.69
267.287	82.69
267.52	85.69
267.752	91.69
267.984	90.69
268.216	79.69
268.448	76.69
268.681	74.69
268.913	78.69
269.145	77.69
269.377	85.69
269.609	64.69
269.841	94.69
270.073	85.69
270.306	94.69
270.538	76.69
270.77	90.69
271.002	83.69
271.234	81.69
271.466	95.69
271.698	85.69
271.93	103.69
272.162	99.69
272.394	82.69
272.626	86.69
272.858	81.69
273.09	92.69
273.322	83.69
273.553	73.69
273.785	82.69
274.017	89.69
274.249	79.69
274.481	93.69
274.713	86.69
274.945	81.69
275.176	82.69
275.408	79.69
275.64	98.69
275.872	80.69
276.104	89.69
276.335	95.69
276.567	88.69
276.799	102.69
277.031	108.69
277.262	99.69
277.494	91.69
277.726	88.69
277.957	85.69
278.189	73.69
278.421	93.69
278.652	84.69
278.884	75.69
279.115	95.69
279.347	84.69
279.579	83.69
279.81	100.69
280.042	87.69
280.273	99.69
280.505	89.69
280.736	83.69
280.968	74.69
281.199	99.69
281.431	76.69
281.662	88.69
281.894	101.69
282.125	93.69
282.356	107.69
282.588	122.69
282.819	123.69
283.051	79.69
283.282	88.69
283.513	82.69
283.745	85.69
283.976	75.69
284.207	87.69
284.439	89.69
284.67	84.69
284.901	85.69
285.132	87.69
285.364	73.69
285.595	81.69
285.826	76.69
286.057	89.69
286.288	91.69
286.52	82.69
286.751	81.69
286.982	88.69
287.213	85.69
287.444	79.69
287.675	91.69
287.906	83.69
288.138	96.69
288.369	99.69
288.6	97.69
288.831	102.69
289.062	91.69
289.293	89.69
289.524	85.69
289.755	75.69
289.986	93.69
290.217	90.69
290.448	97.69
290.679	70.69
290.91	84.69
291.141	84.69
291.371	85.69
291.602	101.69
291.833	83.69
292.064	87.69
292.295	93.69
292.526	87.69
292.757	104.69
292.987	81.69
293.218	74.69
293.449	96.69
293.68	101.69
293.91	80.69
294.141	90.69
294.372	87.69
294.603	90.69
294.833	87.69
295.064	65.69
295.295	83.69
295.525	100.69
295.756	100.69
295.987	106.69
296.217	126.69
296.448	114.69
296.679	99.69
296.909	96.69
297.14	92.69
297.37	76.69
297.601	101.69
297.831	82.69
298.062	73.69
298.292	103.69
298.523	96.69
298.753	84.69
298.984	90.69
299.214	72.69
299.445	90.69
299.675	100.69
299.905	101.69
300.136	91.69
300.366	83.69
300.597	72.69
300.827	87.69
301.057	86.69
301.288	90.69
301.518	97.69
301.748	89.69
301.979	115.69
302.209	92.69
302.439	94.69
302.669	94.69
302.9	89.69
303.13	91.69
303.36	93.69
303.59	100.69
303.82	122.69
304.051	87.69
304.281	89.69
304.511	102.69
304.741	82.69
304.971	80.69
305.201	81.69
305.431	80.69
305.661	85.69
305.891	88.69
306.121	104.69
306.352	110.69
306.582	108.69
306.812	98.69
307.042	100.69
307.272	104.69
307.502	105.69
307.731	112.69
307.961	90.69
308.191	89.69
308.421	94.69
308.651	99.69
308.881	90.69
309.111	99.69
309.341	95.69
309.571	97.69
309.8	92.69
310.03	91.69
310.26	94.69
310.49	110.69
310.72	98.69
310.949	100.69
311.179	105.69
311.409	89.69
311.639	104.69
311.868	90.69
312.098	85.69
312.328	98.69
312.557	105.69
312.787	105.69
313.017	101.69
313.246	100.69
313.476	92.69
313.706	85.69
313.935	77.69
314.165	101.69
314.394	94.69
314.624	105.69
314.853	91.69
315.083	101.69
315.312	95.69
315.542	83.69
315.771	89.69
316.001	93.69
316.23	93.69
316.46	89.69
316.689	96.69
316.919	90.69
317.148	105.69
317.377	101.69
317.607	87.69
317.836	98.69
318.065	89.69
318.295	97.69
318.524	88.69
318.753	87.69
318.983	77.69
319.212	96.69
319.441	93.69
319.67	120.69
319.9	105.69
320.129	89.69
320.358	98.69
320.587	100.69
320.816	100.69
321.046	91.69
321.275	82.69
321.504	99.69
321.733	81.69
321.962	94.69
322.191	113.69
322.42	107.69
322.649	120.69
322.878	107.69
323.108	115.69
323.337	124.69
323.566	131.69
323.795	153.69
324.024	183.69
324.253	370.69
324.482	805.69
324.71	1575.69
324.939	2122.69
325.168	796.69
325.397	242.69
325.626	141.69
325.855	136.69
326.084	114.69
326.313	131.69
326.542	157.69
326.77	221.69
326.999	409.69
327.228	884.69
327.457	1653.69
327.686	1323.69
327.914	377.69
328.143	236.69
328.372	212.69
328.6	152.69
328.829	111.69
329.058	137.69
329.287	127.69
329.515	103.69
329.744	128.69
329.972	149.69
330.201	212.69
330.43	291.69
330.658	201.69
330.887	157.69
331.115	111.69
331.344	113.69
331.572	88.69
331.801	99.69
332.03	112.69
332.258	85.69
332.486	93.69
332.715	100.69
332.943	91.69
333.172	100.69
333.4	90.69
333.629	106.69
333.857	133.69
334.085	155.69
334.314	220.69
334.542	351.69
334.771	337.69
334.999	135.69
335.227	114.69
335.455	96.69
335.684	104.69
335.912	111.69
336.14	96.69
336.369	107.69
336.597	91.69
336.825	95.69
337.053	107.69
337.281	95.69
337.51	91.69
337.738	91.69
337.966	92.69
338.194	85.69
338.422	101.69
338.65	93.69
338.878	89.69
339.106	95.69
339.334	88.69
339.562	91.69
339.79	89.69
340.018	92.69
340.246	89.69
340.474	97.69
340.702	75.69
340.93	99.69
341.158	96.69
341.386	92.69
341.614	93.69
341.842	91.69
342.07	89.69
342.298	98.69
342.526	97.69
342.754	75.69
342.981	91.69
343.209	94.69
343.437	101.69
343.665	105.69
343.893	87.69
344.12	84.69
344.348	79.69
344.576	88.69
344.804	100.69
345.031	99.69
345.259	89.69
345.487	95.69
345.714	99.69
345.942	84.69
346.17	102.69
346.397	100.69
346.625	89.69
346.853	86.69
347.08	88.69
347.308	93.69
347.535	109.69
347.763	80.69
347.99	99.69
348.218	97.69
348.445	101.69
348.673	96.69
348.9	101.69
349.128	108.69
349.355	98.69
349.583	92.69
349.81	92.69
350.037	93.69
350.265	97.69
350.492	95.69
350.72	88.69
350.947	98.69
351.174	97.69
351.402	95.69
351.629	90.69
351.856	93.69
352.083	104.69
352.311	83.69
352.538	109.69
352.765	119.69
352.992	107.69
353.22	97.69
353.447	94.69
353.674	97.69
353.901	95.69
354.128	86.69
354.355	93.69
354.583	83.69
354.81	110.69
355.037	91.69
355.264	92.69
355.491	88.69
355.718	81.69
355.945	94.69
356.172	77.69
356.399	94.69
356.626	90.69
356.853	93.69
357.08	108.69
357.307	92.69
357.534	94.69
357.761	92.69
357.988	103.69
358.215	94.69
358.441	112.69
358.668	99.69
358.895	95.69
359.122	87.69
359.349	102.69
359.576	97.69
359.802	106.69
360.029	109.69
360.256	107.69
360.483	92.69
360.709	84.69
360.936	86.69
361.163	92.69
361.39	91.69
361.616	98.69
361.843	94.69
362.07	89.69
362.296	94.69
362.523	95.69
362.749	85.69
362.976	89.69
363.203	91.69
363.429	83.69
363.656	82.69
363.882	98.69
364.109	83.69
364.335	91.69
364.562	91.69
364.788	84.69
365.015	89.69
365.241	81.69
365.468	101.69
365.694	99.69
365.92	97.69
366.147	99.69
366.373	83.69
366.599	86.69
366.826	95.69
367.052	88.69
367.278	98.69
367.505	84.69
367.731	87.69
367.957	87.69
368.184	102.69
368.41	94.69
368.636	108.69
368.862	105.69
369.089	107.69
369.315	97.69
369.541	97.69
369.767	80.69
369.993	93.69
370.219	100.69
370.445	85.69
370.672	78.69
370.898	77.69
371.124	77.69
371.35	89.69
371.576	88.69
371.802	90.69
372.028	56.69
372.254	79.69
372.48	84.69
372.706	84.69
372.932	105.69
373.158	90.69
373.384	90.69
373.61	88.69
373.835	96.69
374.061	85.69
374.287	83.69
374.513	93.69
374.739	86.69
374.965	100.69
375.191	89.69
375.416	88.69
375.642	98.69
375.868	81.69
376.094	106.69
376.319	90.69
376.545	97.69
376.771	90.69
376.997	91.69
377.222	93.69
377.448	89.69
377.674	88.69
377.899	89.69
378.125	83.69
378.35	99.69
378.576	91.69
378.802	92.69
379.027	91.69
379.253	103.69
379.478	100.69
379.704	78.69
379.929	106.69
380.155	100.69
380.38	97.69
380.606	118.69
380.831	100.69
381.057	104.69
381.282	104.69
381.507	95.69
381.733	93.69
381.958	94.69
382.184	99.69
382.409	105.69
382.634	121.69
382.86	110.69
383.085	104.69
383.31	104.69
383.535	105.69
383.761	97.69
383.986	98.69
384.211	109.69
384.436	100.69
384.662	109.69
384.887	121.69
385.112	109.69
385.337	113.69
385.562	120.69
385.787	107.69
386.013	133.69
386.238	130.69
386.463	103.69
386.688	120.69
386.913	116.69
387.138	120.69
387.363	130.69
387.588	108.69
387.813	96.69
388.038	134.69
388.263	146.69
388.488	131.69
388.713	97.69
388.938	93.69
389.163	81.69
389.387	99.69
389.612	90.69
389.837	93.69
390.062	99.69
390.287	95.69
390.512	83.69
390.736	84.69
390.961	86.69
391.186	93.69
391.411	93.69
391.636	83.69
391.86	83.69
392.085	93.69
392.31	87.69
392.534	63.69
392.759	80.69
392.984	82.69
393.208	96.69
393.433	107.69
393.658	106.69
393.882	90.69
394.107	81.69
394.331	70.69
394.556	85.69
394.78	94.69
395.005	91.69
395.229	92.69
395.454	98.69
395.678	104.69
395.903	91.69
396.127	100.69
396.352	92.69
396.576	86.69
396.801	103.69
397.025	107.69
397.249	95.69
397.474	90.69
397.698	85.69
397.922	81.69
398.147	81.69
398.371	80.69
398.595	89.69
398.82	85.69
399.044	84.69
399.268	100.69
399.492	83.69
399.717	81.69
399.941	90.69
400.165	97.69
400.389	75.69
400.613	93.69
400.837	89.69
401.062	92.69
401.286	79.69
401.51	98.69
401.734	91.69
401.958	108.69
402.182	117.69
402.406	142.69
402.63	110.69
402.854	108.69
403.078	96.69
403.302	90.69
403.526	81.69
403.75	81.69
403.974	89.69
404.198	84.69
404.422	87.69
404.645	71.69
404.869	85.69
405.093	103.69
405.317	101.69
405.541	105.69
405.765	110.69
405.988	117.69
406.212	168.69
406.436	229.69
406.66	147.69
406.883	94.69
407.107	88.69
407.331	104.69
407.555	97.69
407.778	94.69
408.002	99.69
408.226	84.69
408.449	85.69
408.673	91.69
408.896	79.69
409.12	101.69
409.344	89.69
409.567	93.69
409.791	83.69
410.014	87.69
410.238	105.69
410.461	93.69
410.685	94.69
410.908	106.69
411.132	104.69
411.355	88.69
411.578	95.69
411.802	91.69
412.025	89.69
412.249	91.69
412.472	106.69
412.695	95.69
412.919	96.69
413.142	104.69
413.365	100.69
413.589	85.69
413.812	83.69
414.035	85.69
414.258	94.69
414.482	95.69
414.705	62.69
414.928	93.69
415.151	98.69
415.374	88.69
415.597	77.69
415.821	93.69
416.044	78.69
416.267	82.69
416.49	96.69
416.713	85.69
416.936	101.69
417.159	80.69
417.382	92.69
417.605	86.69
417.828	83.69
418.051	89.69
418.274	83.69
418.497	96.69
418.72	77.69
418.943	81.69
419.166	83.69
419.389	103.69
419.611	92.69
419.834	77.69
420.057	91.69
420.28	85.69
420.503	79.69
420.726	97.69
420.948	100.69
421.171	88.69
421.394	82.69
421.617	87.69
421.839	99.69
422.062	83.69
422.285	90.69
422.507	93.69
422.73	101.69
422.953	102.69
423.175	82.69
423.398	91.69
423.621	92.69
423.843	86.69
424.066	87.69
424.288	93.69
424.511	81.69
424.733	86.69
424.956	89.69
425.178	98.69
425.401	100.69
425.623	89.69
425.846	90.69
426.068	120.69
426.291	86.69
426.513	103.69
426.735	96.69
426.958	74.69
427.18	83.69
427.402	155.69
427.625	176.69
427.847	149.69
428.069	141.69
428.292	100.69
428.514	94.69
428.736	103.69
428.958	81.69
429.181	87.69
429.403	85.69
429.625	91.69
429.847	91.69
430.069	97.69
430.292	73.69
430.514	86.69
430.736	68.69
430.958	90.69
431.18	75.69
431.402	100.69
431.624	87.69
431.846	74.69
432.068	80.69
432.29	101.69
432.512	83.69
432.734	95.69
432.956	92.69
433.178	99.69
433.4	110.69
433.622	85.69
433.844	95.69
434.066	102.69
434.287	96.69
434.509	83.69
434.731	88.69
434.953	93.69
435.175	85.69
435.397	99.69
435.618	94.69
435.84	93.69
436.062	127.69
436.284	114.69
436.505	103.69
436.727	108.69
436.949	105.69
437.17	84.69
437.392	87.69
437.614	95.69
437.835	106.69
438.057	116.69
438.278	110.69
438.5	102.69
438.721	113.69
438.943	119.69
439.165	86.69
439.386	76.69
439.608	87.69
439.829	98.69
440.05	111.69
440.272	149.69
440.493	108.69
440.715	81.69
440.936	94.69
441.158	95.69
441.379	78.69
441.6	86.69
441.822	108.69
442.043	83.69
442.264	96.69
442.486	97.69
442.707	105.69
442.928	114.69
443.149	127.69
443.371	120.69
443.592	109.69
443.813	107.69
444.034	106.69
444.255	84.69
444.476	77.69
444.698	78.69
444.919	88.69
445.14	126.69
445.361	124.69
445.582	125.69
445.803	141.69
446.024	145.69
446.245	128.69
446.466	115.69
446.687	102.69
446.908	105.69
447.129	92.69
447.35	95.69
447.571	75.69
447.792	78.69
448.013	105.69
448.234	98.69
448.455	98.69
448.675	115.69
448.896	111.69
449.117	86.69
449.338	98.69
449.559	108.69
449.779	132.69
450	98.69
450.221	75.69
450.442	89.69
450.662	93.69
450.883	88.69
451.104	105.69
451.324	82.69
451.545	84.69
451.766	86.69
451.986	84.69
452.207	81.69
452.428	95.69
452.648	98.69
452.869	103.69
453.089	111.69
453.31	103.69
453.53	96.69
453.751	97.69
453.971	105.69
454.192	100.69
454.412	94.69
454.633	90.69
454.853	101.69
455.073	85.69
455.294	84.69
455.514	90.69
455.734	94.69
455.955	74.69
456.175	88.69
456.395	82.69
456.616	87.69
456.836	84.69
457.056	79.69
457.276	71.69
457.497	77.69
457.717	85.69
457.937	91.69
458.157	85.69
458.377	101.69
458.598	106.69
458.818	129.69
459.038	149.69
459.258	121.69
459.478	89.69
459.698	83.69
459.918	81.69
460.138	76.69
460.358	83.69
460.578	84.69
460.798	89.69
461.018	76.69
461.238	86.69
461.458	106.69
461.678	93.69
461.898	96.69
462.118	85.69
462.338	74.69
462.558	86.69
462.777	78.69
462.997	84.69
463.217	83.69
463.437	85.69
463.657	87.69
463.876	79.69
464.096	86.69
464.316	78.69
464.536	88.69
464.755	91.69
464.975	100.69
465.195	163.69
465.414	156.69
465.634	102.69
465.854	93.69
466.073	73.69
466.293	68.69
466.512	96.69
466.732	72.69
466.951	89.69
467.171	91.69
467.391	93.69
467.61	104.69
467.829	101.69
468.049	160.69
468.268	199.69
468.488	107.69
468.707	87.69
468.927	85.69
469.146	82.69
469.365	81.69
469.585	79.69
469.804	87.69
470.023	97.69
470.243	77.69
470.462	103.69
470.681	123.69
470.901	99.69
471.12	101.69
471.339	92.69
471.558	95.69
471.777	100.69
471.997	126.69
472.216	244.69
472.435	472.69
472.654	167.69
472.873	96.69
473.092	97.69
473.311	80.69
473.53	94.69
473.749	93.69
473.968	90.69
474.187	95.69
474.406	90.69
474.625	89.69
474.844	92.69
475.063	89.69
475.282	76.69
475.501	87.69
475.72	83.69
475.939	76.69
476.158	81.69
476.377	81.69
476.596	78.69
476.814	100.69
477.033	87.69
477.252	96.69
477.471	91.69
477.69	90.69
477.908	89.69
478.127	84.69
478.346	82.69
478.564	77.69
478.783	85.69
479.002	91.69
479.22	94.69
479.439	107.69
479.658	83.69
479.876	97.69
480.095	96.69
480.313	101.69
480.532	94.69
480.751	98.69
480.969	231.69
481.188	740.69
481.406	496.69
481.624	139.69
481.843	93.69
482.061	80.69
482.28	96.69
482.498	112.69
482.717	92.69
482.935	88.69
483.153	85.69
483.372	90.69
483.59	83.69
483.808	87.69
484.027	95.69
484.245	91.69
484.463	104.69
484.681	104.69
484.9	104.69
485.118	94.69
485.336	87.69
485.554	115.69
485.772	112.69
485.99	109.69
486.209	105.69
486.427	103.69
486.645	103.69
486.863	108.69
487.081	90.69
487.299	106.69
487.517	94.69
487.735	92.69
487.953	86.69
488.171	97.69
488.389	94.69
488.607	87.69
488.825	95.69
489.043	88.69
489.261	82.69
489.479	88.69
489.696	81.69
489.914	87.69
490.132	78.69
490.35	96.69
490.568	93.69
490.786	77.69
491.003	84.69
491.221	87.69
491.439	86.69
491.657	96.69
491.874	92.69
492.092	85.69
492.31	89.69
492.527	90.69
492.745	80.69
492.963	103.69
493.18	110.69
493.398	98.69
493.615	99.69
493.833	101.69
494.05	95.69
494.268	101.69
494.485	84.69
494.703	82.69
494.92	89.69
495.138	85.69
495.355	93.69
495.573	97.69
495.79	93.69
496.008	104.69
496.225	96.69
496.442	82.69
496.66	98.69
496.877	91.69
497.094	111.69
497.312	80.69
497.529	86.69
497.746	86.69
497.963	97.69
498.181	89.69
498.398	86.69
498.615	115.69
498.832	104.69
499.049	98.69
499.267	89.69
499.484	97.69
499.701	84.69
499.918	94.69
500.135	95.69
500.352	82.69
500.569	84.69
500.786	97.69
501.003	95.69
501.22	81.69
501.437	79.69
501.654	92.69
501.871	110.69
502.088	101.69
502.305	83.69
502.522	92.69
502.739	85.69
502.956	83.69
503.172	109.69
503.389	97.69
503.606	105.69
503.823	85.69
504.04	83.69
504.256	100.69
504.473	86.69
504.69	94.69
504.907	86.69
505.123	72.69
505.34	87.69
505.557	81.69
505.773	101.69
505.99	92.69
506.207	82.69
506.423	91.69
506.64	92.69
506.856	94.69
507.073	82.69
507.289	86.69
507.506	85.69
507.722	111.69
507.939	108.69
508.155	103.69
508.372	88.69
508.588	89.69
508.805	93.69
509.021	102.69
509.238	92.69
509.454	96.69
509.67	106.69
509.887	119.69
510.103	124.69
510.319	203.69
510.536	690.69
510.752	2233.69
510.968	649.69
511.184	153.69
511.401	108.69
511.617	97.69
511.833	108.69
512.049	91.69
512.265	93.69
512.481	97.69
512.698	105.69
512.914	95.69
513.13	92.69
513.346	82.69
513.562	80.69
513.778	100.69
513.994	90.69
514.21	114.69
514.426	122.69
514.642	142.69
514.858	110.69
515.074	160.69
515.29	442.69
