Data from Circ_2007_H10_HRD10591_00089.txt Node
Date: Wed Jan 03 10:22:15 EST 2024
User: Yrep
Spectrometer: HR+D1059
Trigger mode: 1
Integration Time (sec): 1.000000E-1
Scans to average: 1
Electric dark correction enabled: true
Nonlinearity correction enabled: false
Boxcar width: 0
XAxis mode: Wavelengths
Number of Pixels in Spectrum: 2048
>>>>>Begin Spectral Data<<<<<
223.165	-8.69
223.4	-8.69
223.635	-8.69
223.869	-26.69
224.104	-25.69
224.338	-23.69
224.573	-19.69
224.808	-20.69
225.042	-5.69
225.277	-10.69
225.511	6.31
225.746	6.31
225.98	4.31
226.215	28.31
226.449	12.31
226.683	8.31
226.918	31.31
227.152	44.31
227.387	41.31
227.621	48.31
227.856	42.31
228.09	40.31
228.324	60.31
228.559	55.31
228.793	53.31
229.027	69.31
229.262	78.31
229.496	76.31
229.73	122.31
229.964	100.31
230.199	91.31
230.433	98.31
230.667	86.31
230.901	88.31
231.136	83.31
231.37	75.31
231.604	78.31
231.838	70.31
232.072	84.31
232.306	63.31
232.541	81.31
232.775	75.31
233.009	70.31
233.243	96.31
233.477	81.31
233.711	85.31
233.945	99.31
234.179	96.31
234.413	87.31
234.647	83.31
234.881	94.31
235.115	86.31
235.349	85.31
235.583	87.31
235.817	84.31
236.051	84.31
236.285	85.31
236.519	75.31
236.753	87.31
236.987	93.31
237.221	101.31
237.455	96.31
237.689	85.31
237.922	74.31
238.156	74.31
238.39	79.31
238.624	78.31
238.858	79.31
239.091	96.31
239.325	68.31
239.559	79.31
239.793	80.31
240.027	83.31
240.26	76.31
240.494	66.31
240.728	83.31
240.961	79.31
241.195	79.31
241.429	91.31
241.662	86.31
241.896	76.31
242.13	80.31
242.363	81.31
242.597	83.31
242.83	71.31
243.064	99.31
243.298	86.31
243.531	72.31
243.765	78.31
243.998	82.31
244.232	86.31
244.465	94.31
244.699	75.31
244.932	88.31
245.166	83.31
245.399	70.31
245.633	84.31
245.866	84.31
246.099	82.31
246.333	75.31
246.566	81.31
246.8	74.31
247.033	78.31
247.266	75.31
247.5	91.31
247.733	91.31
247.966	79.31
248.2	100.31
248.433	89.31
248.666	70.31
248.899	88.31
249.133	87.31
249.366	98.31
249.599	101.31
249.832	96.31
250.066	83.31
250.299	87.31
250.532	78.31
250.765	76.31
250.998	82.31
251.231	83.31
251.465	85.31
251.698	80.31
251.931	73.31
252.164	82.31
252.397	81.31
252.63	86.31
252.863	78.31
253.096	94.31
253.329	93.31
253.562	101.31
253.795	92.31
254.028	87.31
254.261	81.31
254.494	84.31
254.727	94.31
254.96	92.31
255.193	93.31
255.426	91.31
255.659	81.31
255.892	106.31
256.124	98.31
256.357	76.31
256.59	89.31
256.823	90.31
257.056	96.31
257.289	104.31
257.521	85.31
257.754	84.31
257.987	78.31
258.22	102.31
258.452	97.31
258.685	98.31
258.918	90.31
259.151	98.31
259.383	85.31
259.616	101.31
259.849	88.31
260.081	95.31
260.314	78.31
260.547	102.31
260.779	92.31
261.012	113.31
261.244	106.31
261.477	114.31
261.71	111.31
261.942	154.31
262.175	162.31
262.407	98.31
262.64	94.31
262.872	87.31
263.105	96.31
263.337	87.31
263.57	82.31
263.802	88.31
264.035	82.31
264.267	87.31
264.499	80.31
264.732	83.31
264.964	88.31
265.197	81.31
265.429	84.31
265.661	86.31
265.894	91.31
266.126	94.31
266.358	93.31
266.591	75.31
266.823	79.31
267.055	101.31
267.287	95.31
267.52	92.31
267.752	99.31
267.984	90.31
268.216	94.31
268.448	91.31
268.681	91.31
268.913	103.31
269.145	87.31
269.377	100.31
269.609	92.31
269.841	86.31
270.073	79.31
270.306	94.31
270.538	95.31
270.77	84.31
271.002	82.31
271.234	100.31
271.466	95.31
271.698	99.31
271.93	84.31
272.162	84.31
272.394	104.31
272.626	108.31
272.858	86.31
273.09	78.31
273.322	85.31
273.553	90.31
273.785	81.31
274.017	98.31
274.249	97.31
274.481	83.31
274.713	90.31
274.945	86.31
275.176	86.31
275.408	104.31
275.64	118.31
275.872	125.31
276.104	110.31
276.335	117.31
276.567	121.31
276.799	164.31
277.031	180.31
277.262	190.31
277.494	148.31
277.726	118.31
277.957	98.31
278.189	106.31
278.421	86.31
278.652	93.31
278.884	94.31
279.115	89.31
279.347	84.31
279.579	111.31
279.81	122.31
280.042	191.31
280.273	258.31
280.505	173.31
280.736	107.31
280.968	105.31
281.199	79.31
281.431	87.31
281.662	99.31
281.894	97.31
282.125	114.31
282.356	156.31
282.588	188.31
282.819	145.31
283.051	104.31
283.282	101.31
283.513	90.31
283.745	88.31
283.976	93.31
284.207	94.31
284.439	93.31
284.67	111.31
284.901	97.31
285.132	97.31
285.364	87.31
285.595	95.31
285.826	98.31
286.057	111.31
286.288	92.31
286.52	87.31
286.751	91.31
286.982	94.31
287.213	86.31
287.444	94.31
287.675	100.31
287.906	101.31
288.138	102.31
288.369	106.31
288.6	107.31
288.831	93.31
289.062	103.31
289.293	96.31
289.524	89.31
289.755	99.31
289.986	84.31
290.217	97.31
290.448	98.31
290.679	84.31
290.91	87.31
291.141	93.31
291.371	87.31
291.602	92.31
291.833	91.31
292.064	102.31
292.295	90.31
292.526	89.31
292.757	95.31
292.987	88.31
293.218	91.31
293.449	100.31
293.68	88.31
293.91	104.31
294.141	107.31
294.372	90.31
294.603	94.31
294.833	89.31
295.064	97.31
295.295	93.31
295.525	113.31
295.756	125.31
295.987	142.31
296.217	191.31
296.448	149.31
296.679	107.31
296.909	103.31
297.14	101.31
297.37	100.31
297.601	85.31
297.831	90.31
298.062	95.31
298.292	99.31
298.523	100.31
298.753	92.31
298.984	94.31
299.214	87.31
299.445	95.31
299.675	86.31
299.905	119.31
300.136	101.31
300.366	94.31
300.597	88.31
300.827	104.31
301.057	109.31
301.288	112.31
301.518	108.31
301.748	109.31
301.979	104.31
302.209	112.31
302.439	115.31
302.669	95.31
302.9	96.31
303.13	111.31
303.36	102.31
303.59	130.31
303.82	156.31
304.051	102.31
304.281	98.31
304.511	90.31
304.741	94.31
304.971	88.31
305.201	90.31
305.431	82.31
305.661	82.31
305.891	111.31
306.121	99.31
306.352	114.31
306.582	116.31
306.812	130.31
307.042	131.31
307.272	162.31
307.502	167.31
307.731	145.31
307.961	117.31
308.191	111.31
308.421	78.31
308.651	98.31
308.881	85.31
309.111	113.31
309.341	115.31
309.571	112.31
309.8	115.31
310.03	117.31
310.26	124.31
310.49	115.31
310.72	125.31
310.949	140.31
311.179	107.31
311.409	111.31
311.639	113.31
311.868	99.31
312.098	106.31
312.328	118.31
312.557	117.31
312.787	122.31
313.017	127.31
313.246	114.31
313.476	86.31
313.706	102.31
313.935	119.31
314.165	115.31
314.394	125.31
314.624	106.31
314.853	113.31
315.083	107.31
315.312	95.31
315.542	103.31
315.771	93.31
316.001	97.31
316.23	101.31
316.46	99.31
316.689	92.31
316.919	109.31
317.148	118.31
317.377	112.31
317.607	117.31
317.836	100.31
318.065	107.31
318.295	87.31
318.524	106.31
318.753	97.31
318.983	86.31
319.212	117.31
319.441	132.31
319.67	134.31
319.9	106.31
320.129	87.31
320.358	105.31
320.587	106.31
320.816	108.31
321.046	108.31
321.275	113.31
321.504	100.31
321.733	91.31
321.962	117.31
322.191	122.31
322.42	126.31
322.649	131.31
322.878	144.31
323.108	144.31
323.337	160.31
323.566	171.31
323.795	203.31
324.024	264.31
324.253	526.31
324.482	1159.31
324.71	2382.31
324.939	3157.31
325.168	1154.31
325.397	336.31
325.626	192.31
325.855	146.31
326.084	159.31
326.313	165.31
326.542	182.31
326.77	274.31
326.999	582.31
327.228	1201.31
327.457	2243.31
327.686	1847.31
327.914	631.31
328.143	526.31
328.372	691.31
328.6	401.31
328.829	192.31
329.058	208.31
329.287	237.31
329.515	208.31
329.744	246.31
329.972	463.31
330.201	946.31
330.43	1398.31
330.658	633.31
330.887	331.31
331.115	215.31
331.344	148.31
331.572	134.31
331.801	138.31
332.03	140.31
332.258	117.31
332.486	115.31
332.715	113.31
332.943	136.31
333.172	126.31
333.4	128.31
333.629	183.31
333.857	237.31
334.085	429.31
334.314	879.31
334.542	1702.31
334.771	1617.31
334.999	436.31
335.227	178.31
335.455	117.31
335.684	115.31
335.912	96.31
336.14	118.31
336.369	119.31
336.597	132.31
336.825	124.31
337.053	106.31
337.281	108.31
337.51	101.31
337.738	111.31
337.966	115.31
338.194	124.31
338.422	118.31
338.65	93.31
338.878	97.31
339.106	100.31
339.334	94.31
339.562	103.31
339.79	102.31
340.018	104.31
340.246	104.31
340.474	95.31
340.702	101.31
340.93	101.31
341.158	91.31
341.386	124.31
341.614	104.31
341.842	109.31
342.07	109.31
342.298	93.31
342.526	89.31
342.754	100.31
342.981	111.31
343.209	92.31
343.437	95.31
343.665	98.31
343.893	114.31
344.12	104.31
344.348	93.31
344.576	79.31
344.804	101.31
345.031	105.31
345.259	119.31
345.487	111.31
345.714	108.31
345.942	99.31
346.17	80.31
346.397	92.31
346.625	99.31
346.853	103.31
347.08	109.31
347.308	116.31
347.535	116.31
347.763	123.31
347.99	111.31
348.218	120.31
348.445	128.31
348.673	122.31
348.9	110.31
349.128	93.31
349.355	90.31
349.583	103.31
349.81	95.31
350.037	111.31
350.265	100.31
350.492	104.31
350.72	108.31
350.947	110.31
351.174	109.31
351.402	121.31
351.629	115.31
351.856	118.31
352.083	113.31
352.311	117.31
352.538	135.31
352.765	150.31
352.992	130.31
353.22	127.31
353.447	103.31
353.674	109.31
353.901	103.31
354.128	98.31
354.355	103.31
354.583	113.31
354.81	98.31
355.037	103.31
355.264	98.31
355.491	91.31
355.718	99.31
355.945	91.31
356.172	99.31
356.399	84.31
356.626	102.31
356.853	90.31
357.08	109.31
357.307	104.31
357.534	95.31
357.761	86.31
357.988	106.31
358.215	98.31
358.441	95.31
358.668	103.31
358.895	100.31
359.122	92.31
359.349	91.31
359.576	100.31
359.802	114.31
360.029	159.31
360.256	166.31
360.483	126.31
360.709	87.31
360.936	105.31
361.163	106.31
361.39	105.31
361.616	107.31
361.843	101.31
362.07	103.31
362.296	101.31
362.523	111.31
362.749	108.31
362.976	94.31
363.203	101.31
363.429	104.31
363.656	85.31
363.882	96.31
364.109	78.31
364.335	88.31
364.562	99.31
364.788	105.31
365.015	102.31
365.241	124.31
365.468	131.31
365.694	130.31
365.92	110.31
366.147	117.31
366.373	97.31
366.599	111.31
366.826	116.31
367.052	109.31
367.278	103.31
367.505	106.31
367.731	94.31
367.957	101.31
368.184	103.31
368.41	118.31
368.636	129.31
368.862	148.31
369.089	133.31
369.315	106.31
369.541	96.31
369.767	87.31
369.993	99.31
370.219	98.31
370.445	93.31
370.672	95.31
370.898	97.31
371.124	85.31
371.35	88.31
371.576	83.31
371.802	89.31
372.028	89.31
372.254	89.31
372.48	74.31
372.706	69.31
372.932	86.31
373.158	91.31
373.384	99.31
373.61	97.31
373.835	90.31
374.061	93.31
374.287	94.31
374.513	87.31
374.739	91.31
374.965	95.31
375.191	102.31
375.416	95.31
375.642	85.31
375.868	95.31
376.094	84.31
376.319	91.31
376.545	94.31
376.771	85.31
376.997	79.31
377.222	91.31
377.448	90.31
377.674	80.31
377.899	84.31
378.125	94.31
378.35	94.31
378.576	95.31
378.802	89.31
379.027	99.31
379.253	99.31
379.478	100.31
379.704	98.31
379.929	97.31
380.155	95.31
380.38	103.31
380.606	95.31
380.831	104.31
381.057	91.31
381.282	103.31
381.507	98.31
381.733	98.31
381.958	104.31
382.184	111.31
382.409	106.31
382.634	114.31
382.86	104.31
383.085	99.31
383.31	93.31
383.535	103.31
383.761	91.31
383.986	88.31
384.211	92.31
384.436	94.31
384.662	106.31
384.887	99.31
385.112	94.31
385.337	107.31
385.562	107.31
385.787	90.31
386.013	130.31
386.238	140.31
386.463	126.31
386.688	115.31
386.913	110.31
387.138	107.31
387.363	102.31
387.588	101.31
387.813	106.31
388.038	102.31
388.263	119.31
388.488	99.31
388.713	103.31
388.938	88.31
389.163	70.31
389.387	101.31
389.612	99.31
389.837	86.31
390.062	105.31
390.287	98.31
390.512	91.31
390.736	84.31
390.961	93.31
391.186	94.31
391.411	96.31
391.636	90.31
391.86	93.31
392.085	88.31
392.31	84.31
392.534	97.31
392.759	105.31
392.984	78.31
393.208	98.31
393.433	89.31
393.658	88.31
393.882	80.31
394.107	85.31
394.331	92.31
394.556	90.31
394.78	74.31
395.005	87.31
395.229	88.31
395.454	85.31
395.678	94.31
395.903	86.31
396.127	86.31
396.352	89.31
396.576	79.31
396.801	79.31
397.025	86.31
397.249	93.31
397.474	96.31
397.698	83.31
397.922	86.31
398.147	86.31
398.371	101.31
398.595	99.31
398.82	83.31
399.044	77.31
399.268	98.31
399.492	111.31
399.717	91.31
399.941	79.31
400.165	94.31
400.389	106.31
400.613	91.31
400.837	94.31
401.062	92.31
401.286	97.31
401.51	85.31
401.734	107.31
401.958	110.31
402.182	163.31
402.406	223.31
402.63	164.31
402.854	119.31
403.078	81.31
403.302	107.31
403.526	90.31
403.75	89.31
403.974	100.31
404.198	98.31
404.422	103.31
404.645	99.31
404.869	100.31
405.093	138.31
405.317	166.31
405.541	150.31
405.765	124.31
405.988	152.31
406.212	245.31
406.436	351.31
406.66	241.31
406.883	138.31
407.107	116.31
407.331	119.31
407.555	118.31
407.778	117.31
408.002	105.31
408.226	81.31
408.449	86.31
408.673	95.31
408.896	102.31
409.12	116.31
409.344	93.31
409.567	101.31
409.791	102.31
410.014	95.31
410.238	95.31
410.461	87.31
410.685	100.31
410.908	111.31
411.132	119.31
411.355	102.31
411.578	95.31
411.802	79.31
412.025	83.31
412.249	110.31
412.472	109.31
412.695	141.31
412.919	118.31
413.142	87.31
413.365	91.31
413.589	90.31
413.812	98.31
414.035	87.31
414.258	94.31
414.482	96.31
414.705	92.31
414.928	99.31
415.151	84.31
415.374	99.31
415.597	89.31
415.821	100.31
416.044	101.31
416.267	99.31
416.49	90.31
416.713	101.31
416.936	88.31
417.159	96.31
417.382	92.31
417.605	95.31
417.828	112.31
418.051	99.31
418.274	95.31
418.497	98.31
418.72	102.31
418.943	107.31
419.166	95.31
419.389	94.31
419.611	85.31
419.834	111.31
420.057	100.31
420.28	90.31
420.503	87.31
420.726	96.31
420.948	93.31
421.171	122.31
421.394	98.31
421.617	93.31
421.839	87.31
422.062	102.31
422.285	92.31
422.507	104.31
422.73	121.31
422.953	97.31
423.175	109.31
423.398	92.31
423.621	87.31
423.843	109.31
424.066	89.31
424.288	86.31
424.511	102.31
424.733	108.31
424.956	129.31
425.178	122.31
425.401	114.31
425.623	101.31
425.846	100.31
426.068	93.31
426.291	100.31
426.513	101.31
426.735	119.31
426.958	111.31
427.18	145.31
427.402	198.31
427.625	294.31
427.847	262.31
428.069	215.31
428.292	131.31
428.514	98.31
428.736	107.31
428.958	79.31
429.181	86.31
429.403	83.31
429.625	103.31
429.847	98.31
430.069	116.31
430.292	99.31
430.514	82.31
430.736	92.31
430.958	86.31
431.18	85.31
431.402	92.31
431.624	94.31
431.846	90.31
432.068	90.31
432.29	94.31
432.512	96.31
432.734	97.31
432.956	105.31
433.178	95.31
433.4	120.31
433.622	106.31
433.844	111.31
434.066	84.31
434.287	108.31
434.509	83.31
434.731	79.31
434.953	88.31
435.175	103.31
435.397	91.31
435.618	98.31
435.84	119.31
436.062	156.31
436.284	138.31
436.505	116.31
436.727	116.31
436.949	100.31
437.17	77.31
437.392	86.31
437.614	96.31
437.835	141.31
438.057	169.31
438.278	138.31
438.5	115.31
438.721	166.31
438.943	123.31
439.165	94.31
439.386	95.31
439.608	93.31
439.829	127.31
440.05	161.31
440.272	202.31
440.493	132.31
440.715	101.31
440.936	103.31
441.158	99.31
441.379	114.31
441.6	99.31
441.822	112.31
442.043	104.31
442.264	134.31
442.486	118.31
442.707	101.31
442.928	139.31
443.149	190.31
443.371	214.31
443.592	140.31
443.813	148.31
444.034	143.31
444.255	106.31
444.476	90.31
444.698	95.31
444.919	83.31
445.14	131.31
445.361	145.31
445.582	149.31
445.803	210.31
446.024	196.31
446.245	195.31
446.466	127.31
446.687	115.31
446.908	93.31
447.129	95.31
447.35	96.31
447.571	102.31
447.792	94.31
448.013	111.31
448.234	138.31
448.455	110.31
448.675	133.31
448.896	155.31
449.117	104.31
449.338	117.31
449.559	156.31
449.779	170.31
450	102.31
450.221	95.31
450.442	110.31
450.662	112.31
450.883	149.31
451.104	129.31
451.324	106.31
451.545	81.31
451.766	102.31
451.986	84.31
452.207	102.31
452.428	116.31
452.648	112.31
452.869	145.31
453.089	149.31
453.31	148.31
453.53	99.31
453.751	111.31
453.971	133.31
454.192	149.31
454.412	99.31
454.633	105.31
454.853	85.31
455.073	99.31
455.294	106.31
455.514	138.31
455.734	110.31
455.955	92.31
456.175	88.31
456.395	92.31
456.616	98.31
456.836	87.31
457.056	98.31
457.276	88.31
457.497	101.31
457.717	96.31
457.937	99.31
458.157	84.31
458.377	90.31
458.598	125.31
458.818	237.31
459.038	274.31
459.258	191.31
459.478	114.31
459.698	107.31
459.918	93.31
460.138	82.31
460.358	95.31
460.578	97.31
460.798	103.31
461.018	92.31
461.238	85.31
461.458	86.31
461.678	79.31
461.898	93.31
462.118	78.31
462.338	90.31
462.558	84.31
462.777	101.31
462.997	102.31
463.217	102.31
463.437	107.31
463.657	87.31
463.876	93.31
464.096	93.31
464.316	111.31
464.536	117.31
464.755	104.31
464.975	143.31
465.195	285.31
465.414	284.31
465.634	109.31
465.854	88.31
466.073	89.31
466.293	94.31
466.512	105.31
466.732	88.31
466.951	83.31
467.171	104.31
467.391	114.31
467.61	161.31
467.829	207.31
468.049	500.31
468.268	755.31
468.488	226.31
468.707	111.31
468.927	102.31
469.146	102.31
469.365	112.31
469.585	102.31
469.804	111.31
470.023	123.31
470.243	112.31
470.462	122.31
470.681	168.31
470.901	116.31
471.12	109.31
471.339	109.31
471.558	110.31
471.777	144.31
471.997	274.31
472.216	1010.31
472.435	2348.31
472.654	578.31
472.873	164.31
473.092	101.31
473.311	86.31
473.53	95.31
473.749	104.31
473.968	114.31
474.187	138.31
474.406	111.31
474.625	89.31
474.844	108.31
475.063	96.31
475.282	109.31
475.501	96.31
475.72	99.31
475.939	95.31
476.158	95.31
476.377	96.31
476.596	102.31
476.814	98.31
477.033	96.31
477.252	94.31
477.471	96.31
477.69	103.31
477.908	95.31
478.127	110.31
478.346	106.31
478.564	115.31
478.783	119.31
479.002	108.31
479.22	118.31
479.439	138.31
479.658	132.31
479.876	133.31
480.095	129.31
480.313	139.31
480.532	163.31
480.751	277.31
480.969	924.31
481.188	3968.31
481.406	2351.31
481.624	356.31
481.843	132.31
482.061	120.31
482.28	112.31
482.498	94.31
482.717	96.31
482.935	109.31
483.153	105.31
483.372	110.31
483.59	86.31
483.808	99.31
484.027	104.31
484.245	103.31
484.463	91.31
484.681	104.31
484.9	107.31
485.118	117.31
485.336	110.31
485.554	107.31
485.772	105.31
485.99	131.31
486.209	106.31
486.427	117.31
486.645	140.31
486.863	135.31
487.081	110.31
487.299	105.31
487.517	109.31
487.735	102.31
487.953	113.31
488.171	82.31
488.389	99.31
488.607	110.31
488.825	107.31
489.043	81.31
489.261	109.31
489.479	101.31
489.696	89.31
489.914	99.31
490.132	97.31
490.35	94.31
490.568	99.31
490.786	88.31
491.003	80.31
491.221	93.31
491.439	110.31
491.657	103.31
491.874	105.31
492.092	93.31
492.31	94.31
492.527	101.31
492.745	101.31
492.963	94.31
493.18	103.31
493.398	104.31
493.615	95.31
493.833	97.31
494.05	85.31
494.268	91.31
494.485	94.31
494.703	102.31
494.92	101.31
495.138	93.31
495.355	101.31
495.573	108.31
495.79	88.31
496.008	102.31
496.225	82.31
496.442	99.31
496.66	101.31
496.877	91.31
497.094	106.31
497.312	125.31
497.529	84.31
497.746	83.31
497.963	91.31
498.181	107.31
498.398	97.31
498.615	129.31
498.832	116.31
499.049	107.31
499.267	99.31
499.484	100.31
499.701	91.31
499.918	88.31
500.135	83.31
500.352	116.31
500.569	106.31
500.786	92.31
501.003	98.31
501.22	90.31
501.437	90.31
501.654	118.31
501.871	142.31
502.088	110.31
502.305	89.31
502.522	100.31
502.739	91.31
502.956	86.31
503.172	91.31
503.389	100.31
503.606	136.31
503.823	124.31
504.04	101.31
504.256	94.31
504.473	97.31
504.69	91.31
504.907	102.31
505.123	102.31
505.34	108.31
505.557	95.31
505.773	88.31
505.99	92.31
506.207	77.31
506.423	84.31
506.64	99.31
506.856	90.31
507.073	95.31
507.289	107.31
507.506	101.31
507.722	159.31
507.939	170.31
508.155	112.31
508.372	106.31
508.588	99.31
508.805	107.31
509.021	107.31
509.238	108.31
509.454	108.31
509.67	119.31
509.887	129.31
510.103	150.31
510.319	288.31
510.536	1074.31
510.752	3724.31
510.968	999.31
