Data from Circ_2007_H10_HRD10591_00014.txt Node
Date: Wed Jan 03 10:22:00 EST 2024
User: Yrep
Spectrometer: HR+D1059
Trigger mode: 1
Integration Time (sec): 1.000000E-1
Scans to average: 1
Electric dark correction enabled: true
Nonlinearity correction enabled: false
Boxcar width: 0
XAxis mode: Wavelengths
Number of Pixels in Spectrum: 2048
>>>>>Begin Spectral Data<<<<<
223.165	-14.81
223.4	-14.81
223.635	-14.81
223.869	-8.81
224.104	-29.81
224.338	-25.81
224.573	-19.81
224.808	0.19
225.042	-4.81
225.277	-1.81
225.511	-10.81
225.746	16.19
225.98	7.19
226.215	6.19
226.449	10.19
226.683	28.19
226.918	22.19
227.152	26.19
227.387	33.19
227.621	32.19
227.856	55.19
228.09	44.19
228.324	53.19
228.559	58.19
228.793	60.19
229.027	60.19
229.262	62.19
229.496	84.19
229.73	95.19
229.964	94.19
230.199	64.19
230.433	68.19
230.667	95.19
230.901	82.19
231.136	73.19
231.37	86.19
231.604	87.19
231.838	79.19
232.072	82.19
232.306	80.19
232.541	91.19
232.775	84.19
233.009	80.19
233.243	87.19
233.477	82.19
233.711	81.19
233.945	88.19
234.179	71.19
234.413	80.19
234.647	82.19
234.881	83.19
235.115	76.19
235.349	71.19
235.583	76.19
235.817	76.19
236.051	87.19
236.285	76.19
236.519	85.19
236.753	79.19
236.987	80.19
237.221	101.19
237.455	102.19
237.689	89.19
237.922	87.19
238.156	80.19
238.39	82.19
238.624	82.19
238.858	87.19
239.091	73.19
239.325	74.19
239.559	94.19
239.793	100.19
240.027	82.19
240.26	82.19
240.494	84.19
240.728	71.19
240.961	79.19
241.195	88.19
241.429	82.19
241.662	56.19
241.896	76.19
242.13	69.19
242.363	75.19
242.597	85.19
242.83	71.19
243.064	84.19
243.298	88.19
243.531	85.19
243.765	75.19
243.998	73.19
244.232	83.19
244.465	78.19
244.699	81.19
244.932	65.19
245.166	75.19
245.399	75.19
245.633	87.19
245.866	103.19
246.099	88.19
246.333	80.19
246.566	79.19
246.8	90.19
247.033	88.19
247.266	79.19
247.5	91.19
247.733	78.19
247.966	80.19
248.2	76.19
248.433	77.19
248.666	84.19
248.899	81.19
249.133	87.19
249.366	107.19
249.599	118.19
249.832	80.19
250.066	88.19
250.299	95.19
250.532	88.19
250.765	88.19
250.998	87.19
251.231	88.19
251.465	82.19
251.698	79.19
251.931	92.19
252.164	86.19
252.397	68.19
252.63	81.19
252.863	91.19
253.096	68.19
253.329	85.19
253.562	80.19
253.795	82.19
254.028	72.19
254.261	81.19
254.494	98.19
254.727	90.19
254.96	88.19
255.193	89.19
255.426	90.19
255.659	90.19
255.892	74.19
256.124	96.19
256.357	83.19
256.59	87.19
256.823	71.19
257.056	90.19
257.289	109.19
257.521	89.19
257.754	80.19
257.987	71.19
258.22	84.19
258.452	88.19
258.685	93.19
258.918	85.19
259.151	93.19
259.383	82.19
259.616	92.19
259.849	91.19
260.081	79.19
260.314	80.19
260.547	96.19
260.779	87.19
261.012	100.19
261.244	105.19
261.477	100.19
261.71	94.19
261.942	150.19
262.175	148.19
262.407	100.19
262.64	88.19
262.872	83.19
263.105	91.19
263.337	80.19
263.57	85.19
263.802	86.19
264.035	81.19
264.267	80.19
264.499	88.19
264.732	92.19
264.964	96.19
265.197	92.19
265.429	96.19
265.661	84.19
265.894	96.19
266.126	83.19
266.358	90.19
266.591	77.19
266.823	91.19
267.055	87.19
267.287	95.19
267.52	94.19
267.752	92.19
267.984	88.19
268.216	90.19
268.448	90.19
268.681	101.19
268.913	95.19
269.145	83.19
269.377	90.19
269.609	89.19
269.841	82.19
270.073	98.19
270.306	99.19
270.538	91.19
270.77	91.19
271.002	89.19
271.234	99.19
271.466	96.19
271.698	95.19
271.93	90.19
272.162	87.19
272.394	95.19
272.626	96.19
272.858	91.19
273.09	94.19
273.322	100.19
273.553	98.19
273.785	96.19
274.017	85.19
274.249	83.19
274.481	81.19
274.713	86.19
274.945	92.19
275.176	96.19
275.408	92.19
275.64	109.19
275.872	110.19
276.104	107.19
276.335	101.19
276.567	119.19
276.799	142.19
277.031	137.19
277.262	159.19
277.494	127.19
277.726	86.19
277.957	85.19
278.189	87.19
278.421	88.19
278.652	84.19
278.884	98.19
279.115	94.19
279.347	98.19
279.579	98.19
279.81	104.19
280.042	145.19
280.273	187.19
280.505	130.19
280.736	102.19
280.968	93.19
281.199	105.19
281.431	106.19
281.662	86.19
281.894	94.19
282.125	96.19
282.356	142.19
282.588	184.19
282.819	134.19
283.051	98.19
283.282	106.19
283.513	85.19
283.745	92.19
283.976	83.19
284.207	88.19
284.439	91.19
284.67	92.19
284.901	84.19
285.132	102.19
285.364	79.19
285.595	79.19
285.826	88.19
286.057	93.19
286.288	107.19
286.52	87.19
286.751	87.19
286.982	80.19
287.213	93.19
287.444	103.19
287.675	85.19
287.906	98.19
288.138	100.19
288.369	103.19
288.6	97.19
288.831	78.19
289.062	77.19
289.293	103.19
289.524	97.19
289.755	88.19
289.986	80.19
290.217	93.19
290.448	93.19
290.679	77.19
290.91	94.19
291.141	92.19
291.371	87.19
291.602	101.19
291.833	86.19
292.064	76.19
292.295	95.19
292.526	94.19
292.757	95.19
292.987	100.19
293.218	93.19
293.449	94.19
293.68	104.19
293.91	81.19
294.141	92.19
294.372	79.19
294.603	112.19
294.833	83.19
295.064	97.19
295.295	86.19
295.525	93.19
295.756	94.19
295.987	125.19
296.217	165.19
296.448	152.19
296.679	103.19
296.909	94.19
297.14	84.19
297.37	108.19
297.601	97.19
297.831	85.19
298.062	98.19
298.292	103.19
298.523	94.19
298.753	92.19
298.984	94.19
299.214	95.19
299.445	100.19
299.675	90.19
299.905	102.19
300.136	101.19
300.366	99.19
300.597	92.19
300.827	99.19
301.057	94.19
301.288	110.19
301.518	110.19
301.748	113.19
301.979	104.19
302.209	109.19
302.439	103.19
302.669	87.19
302.9	97.19
303.13	90.19
303.36	101.19
303.59	121.19
303.82	142.19
304.051	101.19
304.281	101.19
304.511	78.19
304.741	94.19
304.971	92.19
305.201	99.19
305.431	88.19
305.661	76.19
305.891	111.19
306.121	87.19
306.352	107.19
306.582	126.19
306.812	106.19
307.042	122.19
307.272	128.19
307.502	148.19
307.731	119.19
307.961	103.19
308.191	81.19
308.421	92.19
308.651	93.19
308.881	112.19
309.111	84.19
309.341	112.19
309.571	108.19
309.8	106.19
310.03	103.19
310.26	108.19
310.49	107.19
310.72	103.19
310.949	119.19
311.179	120.19
311.409	107.19
311.639	98.19
311.868	94.19
312.098	108.19
312.328	100.19
312.557	116.19
312.787	123.19
313.017	128.19
313.246	92.19
313.476	102.19
313.706	102.19
313.935	103.19
314.165	131.19
314.394	114.19
314.624	113.19
314.853	108.19
315.083	99.19
315.312	100.19
315.542	94.19
315.771	94.19
316.001	96.19
316.23	99.19
316.46	87.19
316.689	95.19
316.919	108.19
317.148	115.19
317.377	107.19
317.607	104.19
317.836	101.19
318.065	89.19
318.295	87.19
318.524	97.19
318.753	89.19
318.983	99.19
319.212	129.19
319.441	118.19
319.67	126.19
319.9	110.19
320.129	109.19
320.358	103.19
320.587	91.19
320.816	114.19
321.046	107.19
321.275	114.19
321.504	113.19
321.733	103.19
321.962	99.19
322.191	100.19
322.42	122.19
322.649	131.19
322.878	131.19
323.108	121.19
323.337	159.19
323.566	179.19
323.795	202.19
324.024	271.19
324.253	560.19
324.482	1259.19
324.71	2575.19
324.939	3570.19
325.168	1246.19
325.397	346.19
325.626	184.19
325.855	142.19
326.084	155.19
326.313	182.19
326.542	210.19
326.77	294.19
326.999	641.19
327.228	1367.19
327.457	2616.19
327.686	2123.19
327.914	577.19
328.143	421.19
328.372	453.19
328.6	277.19
328.829	164.19
329.058	204.19
329.287	199.19
329.515	168.19
329.744	204.19
329.972	312.19
330.201	623.19
330.43	916.19
330.658	450.19
330.887	268.19
331.115	186.19
331.344	112.19
331.572	128.19
331.801	119.19
332.03	125.19
332.258	108.19
332.486	107.19
332.715	102.19
332.943	107.19
333.172	119.19
333.4	128.19
333.629	146.19
333.857	178.19
334.085	307.19
334.314	580.19
334.542	1110.19
334.771	1076.19
334.999	316.19
335.227	154.19
335.455	116.19
335.684	113.19
335.912	118.19
336.14	100.19
336.369	112.19
336.597	109.19
336.825	124.19
337.053	111.19
337.281	104.19
337.51	109.19
337.738	104.19
337.966	103.19
338.194	119.19
338.422	110.19
338.65	99.19
338.878	106.19
339.106	102.19
339.334	89.19
339.562	102.19
339.79	96.19
340.018	97.19
340.246	100.19
340.474	106.19
340.702	117.19
340.93	104.19
341.158	101.19
341.386	103.19
341.614	106.19
341.842	119.19
342.07	113.19
342.298	115.19
342.526	82.19
342.754	103.19
342.981	110.19
343.209	95.19
343.437	97.19
343.665	99.19
343.893	104.19
344.12	102.19
344.348	101.19
344.576	95.19
344.804	103.19
345.031	125.19
345.259	108.19
345.487	111.19
345.714	101.19
345.942	100.19
346.17	104.19
346.397	106.19
346.625	102.19
346.853	103.19
347.08	116.19
347.308	105.19
347.535	109.19
347.763	112.19
347.99	116.19
348.218	108.19
348.445	115.19
348.673	125.19
348.9	103.19
349.128	91.19
349.355	83.19
349.583	103.19
349.81	93.19
350.037	87.19
350.265	103.19
350.492	105.19
350.72	118.19
350.947	106.19
351.174	128.19
351.402	131.19
351.629	119.19
351.856	110.19
352.083	123.19
352.311	116.19
352.538	127.19
352.765	117.19
352.992	126.19
353.22	126.19
353.447	126.19
353.674	94.19
353.901	100.19
354.128	90.19
354.355	112.19
354.583	92.19
354.81	103.19
355.037	95.19
355.264	87.19
355.491	90.19
355.718	90.19
355.945	92.19
356.172	92.19
356.399	99.19
356.626	97.19
356.853	98.19
357.08	98.19
357.307	91.19
357.534	96.19
357.761	104.19
357.988	95.19
358.215	87.19
358.441	95.19
358.668	119.19
358.895	104.19
359.122	93.19
359.349	73.19
359.576	103.19
359.802	111.19
360.029	148.19
360.256	154.19
360.483	115.19
360.709	96.19
360.936	108.19
361.163	117.19
361.39	100.19
361.616	100.19
361.843	94.19
362.07	102.19
362.296	110.19
362.523	117.19
362.749	117.19
362.976	90.19
363.203	102.19
363.429	97.19
363.656	113.19
363.882	89.19
364.109	96.19
364.335	103.19
364.562	97.19
364.788	100.19
365.015	99.19
365.241	105.19
365.468	115.19
365.694	131.19
365.92	115.19
366.147	94.19
366.373	94.19
366.599	106.19
366.826	101.19
367.052	99.19
367.278	94.19
367.505	99.19
367.731	111.19
367.957	119.19
368.184	89.19
368.41	111.19
368.636	143.19
368.862	125.19
369.089	127.19
369.315	122.19
369.541	101.19
369.767	87.19
369.993	96.19
370.219	106.19
370.445	99.19
370.672	103.19
370.898	95.19
371.124	109.19
371.35	86.19
371.576	92.19
371.802	91.19
372.028	80.19
372.254	96.19
372.48	91.19
372.706	92.19
372.932	94.19
373.158	83.19
373.384	92.19
373.61	105.19
373.835	93.19
374.061	104.19
374.287	106.19
374.513	94.19
374.739	86.19
374.965	98.19
375.191	103.19
375.416	85.19
375.642	106.19
375.868	100.19
376.094	81.19
376.319	90.19
376.545	89.19
376.771	92.19
376.997	78.19
377.222	97.19
377.448	109.19
377.674	115.19
377.899	91.19
378.125	91.19
378.35	85.19
378.576	103.19
378.802	87.19
379.027	105.19
379.253	111.19
379.478	86.19
379.704	116.19
379.929	99.19
380.155	97.19
380.38	101.19
380.606	93.19
380.831	98.19
381.057	94.19
381.282	116.19
381.507	110.19
381.733	100.19
381.958	108.19
382.184	98.19
382.409	123.19
382.634	110.19
382.86	98.19
383.085	101.19
383.31	106.19
383.535	108.19
383.761	112.19
383.986	116.19
384.211	117.19
384.436	120.19
384.662	116.19
384.887	123.19
385.112	136.19
385.337	122.19
385.562	111.19
385.787	115.19
386.013	133.19
386.238	141.19
386.463	116.19
386.688	114.19
386.913	115.19
387.138	123.19
387.363	126.19
387.588	107.19
387.813	108.19
388.038	122.19
388.263	137.19
388.488	113.19
388.713	95.19
388.938	96.19
389.163	89.19
389.387	96.19
389.612	114.19
389.837	94.19
390.062	100.19
390.287	81.19
390.512	84.19
390.736	94.19
390.961	92.19
391.186	101.19
391.411	95.19
391.636	94.19
391.86	102.19
392.085	94.19
392.31	98.19
392.534	93.19
392.759	102.19
392.984	99.19
393.208	92.19
393.433	111.19
393.658	116.19
393.882	96.19
394.107	83.19
394.331	105.19
394.556	87.19
394.78	91.19
395.005	96.19
395.229	76.19
395.454	84.19
395.678	100.19
395.903	99.19
396.127	108.19
396.352	96.19
396.576	93.19
396.801	82.19
397.025	99.19
397.249	93.19
397.474	86.19
397.698	94.19
397.922	88.19
398.147	97.19
398.371	94.19
398.595	98.19
398.82	103.19
399.044	99.19
399.268	87.19
399.492	94.19
399.717	95.19
399.941	103.19
400.165	96.19
400.389	97.19
400.613	87.19
400.837	97.19
401.062	95.19
401.286	106.19
401.51	108.19
401.734	107.19
401.958	122.19
402.182	146.19
402.406	193.19
402.63	156.19
402.854	102.19
403.078	94.19
403.302	99.19
403.526	92.19
403.75	85.19
403.974	97.19
404.198	100.19
404.422	99.19
404.645	111.19
404.869	103.19
405.093	118.19
405.317	138.19
405.541	142.19
405.765	124.19
405.988	139.19
406.212	219.19
406.436	323.19
406.66	228.19
406.883	138.19
407.107	126.19
407.331	113.19
407.555	107.19
407.778	127.19
408.002	106.19
408.226	87.19
408.449	107.19
408.673	109.19
408.896	108.19
409.12	118.19
409.344	97.19
409.567	76.19
409.791	100.19
410.014	94.19
410.238	83.19
410.461	103.19
410.685	88.19
410.908	107.19
411.132	113.19
411.355	103.19
411.578	98.19
411.802	80.19
412.025	101.19
412.249	114.19
412.472	115.19
412.695	125.19
412.919	102.19
413.142	112.19
413.365	103.19
413.589	94.19
413.812	92.19
414.035	104.19
414.258	108.19
414.482	100.19
414.705	103.19
414.928	99.19
415.151	91.19
415.374	99.19
415.597	94.19
415.821	103.19
416.044	100.19
416.267	98.19
416.49	99.19
416.713	110.19
416.936	109.19
417.159	108.19
417.382	95.19
417.605	99.19
417.828	101.19
418.051	99.19
418.274	99.19
418.497	94.19
418.72	87.19
418.943	95.19
419.166	92.19
419.389	82.19
419.611	87.19
419.834	95.19
420.057	95.19
420.28	106.19
420.503	87.19
420.726	94.19
420.948	100.19
421.171	105.19
421.394	111.19
421.617	92.19
421.839	85.19
422.062	100.19
422.285	98.19
422.507	116.19
422.73	111.19
422.953	98.19
423.175	107.19
423.398	90.19
423.621	91.19
423.843	100.19
424.066	92.19
424.288	85.19
424.511	122.19
424.733	115.19
424.956	135.19
425.178	118.19
425.401	117.19
425.623	102.19
425.846	110.19
426.068	113.19
426.291	92.19
426.513	98.19
426.735	116.19
426.958	94.19
427.18	131.19
427.402	193.19
427.625	284.19
427.847	258.19
428.069	237.19
428.292	125.19
428.514	87.19
428.736	95.19
428.958	95.19
429.181	101.19
429.403	102.19
429.625	109.19
429.847	110.19
430.069	110.19
430.292	115.19
430.514	87.19
430.736	93.19
430.958	88.19
431.18	94.19
431.402	100.19
431.624	88.19
431.846	87.19
432.068	91.19
432.29	82.19
432.512	113.19
432.734	95.19
432.956	98.19
433.178	101.19
433.4	99.19
433.622	86.19
433.844	104.19
434.066	100.19
434.287	92.19
434.509	110.19
434.731	88.19
434.953	86.19
435.175	99.19
435.397	91.19
435.618	104.19
435.84	116.19
436.062	162.19
436.284	144.19
436.505	118.19
436.727	124.19
436.949	84.19
437.17	104.19
437.392	95.19
437.614	102.19
437.835	122.19
438.057	170.19
438.278	150.19
438.5	131.19
438.721	159.19
438.943	116.19
439.165	101.19
439.386	102.19
439.608	106.19
439.829	124.19
440.05	168.19
440.272	211.19
440.493	98.19
440.715	100.19
440.936	92.19
441.158	103.19
441.379	101.19
441.6	121.19
441.822	94.19
442.043	111.19
442.264	135.19
442.486	119.19
442.707	108.19
442.928	126.19
443.149	188.19
443.371	201.19
443.592	144.19
443.813	142.19
444.034	134.19
444.255	97.19
444.476	96.19
444.698	94.19
444.919	103.19
445.14	154.19
445.361	157.19
445.582	163.19
445.803	205.19
446.024	199.19
446.245	199.19
446.466	133.19
446.687	128.19
446.908	116.19
447.129	106.19
447.35	100.19
447.571	110.19
447.792	108.19
448.013	111.19
448.234	126.19
448.455	128.19
448.675	142.19
448.896	149.19
449.117	101.19
449.338	122.19
449.559	163.19
449.779	179.19
450	100.19
450.221	85.19
450.442	100.19
450.662	123.19
450.883	122.19
451.104	148.19
451.324	117.19
451.545	98.19
451.766	96.19
451.986	79.19
452.207	106.19
452.428	101.19
452.648	120.19
452.869	133.19
453.089	157.19
453.31	140.19
453.53	107.19
453.751	96.19
453.971	126.19
454.192	131.19
454.412	107.19
454.633	81.19
454.853	94.19
455.073	95.19
455.294	88.19
455.514	117.19
455.734	113.19
455.955	92.19
456.175	90.19
456.395	80.19
456.616	86.19
456.836	95.19
457.056	97.19
457.276	98.19
457.497	92.19
457.717	102.19
457.937	89.19
458.157	98.19
458.377	107.19
458.598	138.19
458.818	225.19
459.038	264.19
459.258	161.19
459.478	118.19
459.698	94.19
459.918	92.19
460.138	100.19
460.358	92.19
460.578	88.19
460.798	94.19
461.018	94.19
461.238	92.19
461.458	96.19
461.678	88.19
461.898	98.19
462.118	103.19
462.338	94.19
462.558	91.19
462.777	71.19
462.997	80.19
463.217	90.19
463.437	106.19
463.657	92.19
463.876	108.19
464.096	107.19
464.316	106.19
464.536	104.19
464.755	90.19
464.975	142.19
465.195	266.19
465.414	257.19
465.634	104.19
465.854	96.19
466.073	94.19
466.293	96.19
466.512	86.19
466.732	84.19
466.951	90.19
467.171	103.19
467.391	95.19
467.61	119.19
467.829	160.19
468.049	309.19
468.268	477.19
468.488	159.19
468.707	113.19
468.927	98.19
469.146	102.19
469.365	98.19
469.585	99.19
469.804	114.19
470.023	128.19
470.243	98.19
470.462	125.19
470.681	149.19
470.901	101.19
471.12	99.19
471.339	107.19
471.558	99.19
471.777	130.19
471.997	194.19
472.216	600.19
472.435	1371.19
472.654	384.19
472.873	140.19
473.092	98.19
473.311	100.19
473.53	96.19
473.749	94.19
473.968	116.19
474.187	142.19
474.406	136.19
474.625	86.19
474.844	99.19
475.063	79.19
475.282	111.19
475.501	98.19
475.72	96.19
475.939	80.19
476.158	111.19
476.377	97.19
476.596	108.19
476.814	101.19
477.033	102.19
477.252	104.19
477.471	99.19
477.69	93.19
477.908	113.19
478.127	102.19
478.346	94.19
478.564	111.19
478.783	108.19
479.002	106.19
479.22	113.19
479.439	119.19
479.658	126.19
479.876	124.19
480.095	120.19
480.313	114.19
480.532	135.19
480.751	198.19
480.969	567.19
481.188	2279.19
481.406	1479.19
481.624	268.19
481.843	130.19
482.061	108.19
482.28	96.19
482.498	93.19
482.717	89.19
482.935	106.19
483.153	99.19
483.372	95.19
483.59	94.19
483.808	99.19
484.027	85.19
484.245	104.19
484.463	98.19
484.681	103.19
484.9	107.19
485.118	103.19
485.336	101.19
485.554	103.19
485.772	87.19
485.99	110.19
486.209	118.19
486.427	109.19
486.645	121.19
486.863	139.19
487.081	114.19
487.299	110.19
487.517	92.19
487.735	93.19
487.953	94.19
488.171	95.19
488.389	107.19
488.607	103.19
488.825	108.19
489.043	96.19
489.261	100.19
489.479	90.19
489.696	103.19
489.914	95.19
490.132	82.19
490.35	103.19
490.568	94.19
490.786	91.19
491.003	102.19
491.221	110.19
491.439	104.19
491.657	95.19
491.874	103.19
492.092	92.19
492.31	97.19
492.527	106.19
492.745	101.19
492.963	86.19
493.18	87.19
493.398	100.19
493.615	94.19
493.833	104.19
494.05	110.19
494.268	91.19
494.485	108.19
494.703	93.19
494.92	96.19
495.138	93.19
495.355	101.19
495.573	101.19
495.79	97.19
496.008	99.19
496.225	97.19
496.442	94.19
496.66	92.19
496.877	80.19
497.094	92.19
497.312	95.19
497.529	98.19
497.746	95.19
497.963	100.19
498.181	108.19
498.398	99.19
498.615	112.19
498.832	106.19
499.049	87.19
499.267	91.19
499.484	82.19
499.701	76.19
499.918	84.19
500.135	107.19
500.352	97.19
500.569	82.19
500.786	94.19
501.003	77.19
501.22	121.19
501.437	94.19
501.654	102.19
501.871	143.19
502.088	107.19
502.305	90.19
502.522	87.19
502.739	89.19
502.956	96.19
503.172	102.19
503.389	102.19
503.606	137.19
503.823	106.19
504.04	92.19
504.256	99.19
504.473	94.19
504.69	82.19
504.907	95.19
505.123	98.19
505.34	95.19
505.557	95.19
505.773	108.19
505.99	91.19
506.207	75.19
506.423	82.19
506.64	95.19
506.856	102.19
507.073	92.19
507.289	99.19
507.506	116.19
507.722	149.19
507.939	156.19
508.155	104.19
508.372	100.19
508.588	103.19
508.805	114.19
509.021	108.19
509.238	103.19
509.454	106.19
509.67	117.19
509.887	120.19
510.103	145.19
510.319	251.19
510.536	949.19
510.752	3304.19
510.968	911.19
