Data from Circ_2007_H10_HRD10591_00074.txt Node
Date: Wed Jan 03 10:22:12 EST 2024
User: Yrep
Spectrometer: HR+D1059
Trigger mode: 1
Integration Time (sec): 1.000000E-1
Scans to average: 1
Electric dark correction enabled: true
Nonlinearity correction enabled: false
Boxcar width: 0
XAxis mode: Wavelengths
Number of Pixels in Spectrum: 2048
>>>>>Begin Spectral Data<<<<<
223.165	-11.38
223.4	-11.38
223.635	-11.38
223.869	-6.38
224.104	-11.38
224.338	-25.38
224.573	-19.38
224.808	-4.38
225.042	-13.38
225.277	-4.38
225.511	-7.38
225.746	3.62
225.98	4.62
226.215	17.62
226.449	14.62
226.683	28.62
226.918	15.62
227.152	18.62
227.387	32.62
227.621	32.62
227.856	32.62
228.09	46.62
228.324	52.62
228.559	47.62
228.793	74.62
229.027	67.62
229.262	64.62
229.496	74.62
229.73	96.62
229.964	80.62
230.199	78.62
230.433	72.62
230.667	87.62
230.901	68.62
231.136	77.62
231.37	76.62
231.604	79.62
231.838	84.62
232.072	83.62
232.306	74.62
232.541	83.62
232.775	74.62
233.009	72.62
233.243	79.62
233.477	80.62
233.711	73.62
233.945	76.62
234.179	68.62
234.413	73.62
234.647	86.62
234.881	78.62
235.115	89.62
235.349	76.62
235.583	89.62
235.817	75.62
236.051	69.62
236.285	74.62
236.519	64.62
236.753	79.62
236.987	74.62
237.221	87.62
237.455	94.62
237.689	67.62
237.922	65.62
238.156	69.62
238.39	81.62
238.624	59.62
238.858	68.62
239.091	78.62
239.325	78.62
239.559	74.62
239.793	77.62
240.027	76.62
240.26	80.62
240.494	77.62
240.728	95.62
240.961	68.62
241.195	81.62
241.429	74.62
241.662	76.62
241.896	76.62
242.13	69.62
242.363	84.62
242.597	88.62
242.83	75.62
243.064	76.62
243.298	93.62
243.531	70.62
243.765	94.62
243.998	73.62
244.232	69.62
244.465	81.62
244.699	74.62
244.932	82.62
245.166	87.62
245.399	78.62
245.633	90.62
245.866	76.62
246.099	82.62
246.333	79.62
246.566	92.62
246.8	81.62
247.033	65.62
247.266	83.62
247.5	97.62
247.733	90.62
247.966	80.62
248.2	90.62
248.433	59.62
248.666	85.62
248.899	82.62
249.133	92.62
249.366	106.62
249.599	94.62
249.832	80.62
250.066	83.62
250.299	80.62
250.532	92.62
250.765	89.62
250.998	83.62
251.231	91.62
251.465	92.62
251.698	83.62
251.931	69.62
252.164	89.62
252.397	65.62
252.63	93.62
252.863	84.62
253.096	92.62
253.329	80.62
253.562	89.62
253.795	76.62
254.028	73.62
254.261	72.62
254.494	83.62
254.727	89.62
254.96	98.62
255.193	74.62
255.426	83.62
255.659	85.62
255.892	92.62
256.124	85.62
256.357	78.62
256.59	89.62
256.823	82.62
257.056	100.62
257.289	95.62
257.521	82.62
257.754	88.62
257.987	89.62
258.22	83.62
258.452	70.62
258.685	83.62
258.918	96.62
259.151	80.62
259.383	80.62
259.616	75.62
259.849	79.62
260.081	82.62
260.314	92.62
260.547	81.62
260.779	90.62
261.012	90.62
261.244	104.62
261.477	89.62
261.71	110.62
261.942	118.62
262.175	115.62
262.407	95.62
262.64	104.62
262.872	92.62
263.105	101.62
263.337	93.62
263.57	85.62
263.802	81.62
264.035	90.62
264.267	76.62
264.499	70.62
264.732	81.62
264.964	90.62
265.197	81.62
265.429	78.62
265.661	84.62
265.894	83.62
266.126	89.62
266.358	70.62
266.591	70.62
266.823	75.62
267.055	90.62
267.287	79.62
267.52	84.62
267.752	76.62
267.984	84.62
268.216	89.62
268.448	80.62
268.681	83.62
268.913	81.62
269.145	81.62
269.377	80.62
269.609	85.62
269.841	70.62
270.073	79.62
270.306	84.62
270.538	94.62
270.77	80.62
271.002	86.62
271.234	72.62
271.466	81.62
271.698	86.62
271.93	74.62
272.162	107.62
272.394	85.62
272.626	74.62
272.858	75.62
273.09	84.62
273.322	82.62
273.553	77.62
273.785	77.62
274.017	93.62
274.249	70.62
274.481	81.62
274.713	77.62
274.945	100.62
275.176	77.62
275.408	100.62
275.64	102.62
275.872	108.62
276.104	102.62
276.335	88.62
276.567	117.62
276.799	136.62
277.031	138.62
277.262	147.62
277.494	140.62
277.726	107.62
277.957	86.62
278.189	88.62
278.421	88.62
278.652	92.62
278.884	77.62
279.115	88.62
279.347	86.62
279.579	90.62
279.81	93.62
280.042	146.62
280.273	185.62
280.505	147.62
280.736	109.62
280.968	98.62
281.199	81.62
281.431	85.62
281.662	84.62
281.894	85.62
282.125	105.62
282.356	125.62
282.588	159.62
282.819	120.62
283.051	113.62
283.282	87.62
283.513	88.62
283.745	76.62
283.976	83.62
284.207	80.62
284.439	97.62
284.67	86.62
284.901	85.62
285.132	81.62
285.364	79.62
285.595	94.62
285.826	82.62
286.057	100.62
286.288	84.62
286.52	91.62
286.751	88.62
286.982	96.62
287.213	86.62
287.444	89.62
287.675	90.62
287.906	92.62
288.138	92.62
288.369	92.62
288.6	94.62
288.831	99.62
289.062	86.62
289.293	84.62
289.524	89.62
289.755	79.62
289.986	71.62
290.217	82.62
290.448	77.62
290.679	97.62
290.91	105.62
291.141	98.62
291.371	108.62
291.602	84.62
291.833	90.62
292.064	88.62
292.295	83.62
292.526	89.62
292.757	78.62
292.987	98.62
293.218	90.62
293.449	103.62
293.68	103.62
293.91	111.62
294.141	82.62
294.372	84.62
294.603	72.62
294.833	87.62
295.064	87.62
295.295	90.62
295.525	93.62
295.756	107.62
295.987	124.62
296.217	177.62
296.448	141.62
296.679	88.62
296.909	98.62
297.14	92.62
297.37	93.62
297.601	100.62
297.831	91.62
298.062	90.62
298.292	82.62
298.523	88.62
298.753	99.62
298.984	86.62
299.214	95.62
299.445	85.62
299.675	90.62
299.905	96.62
300.136	92.62
300.366	99.62
300.597	98.62
300.827	99.62
301.057	98.62
301.288	112.62
301.518	102.62
301.748	87.62
301.979	105.62
302.209	89.62
302.439	86.62
302.669	75.62
302.9	83.62
303.13	88.62
303.36	103.62
303.59	117.62
303.82	128.62
304.051	108.62
304.281	85.62
304.511	87.62
304.741	90.62
304.971	76.62
305.201	78.62
305.431	94.62
305.661	86.62
305.891	85.62
306.121	99.62
306.352	98.62
306.582	107.62
306.812	92.62
307.042	118.62
307.272	129.62
307.502	150.62
307.731	137.62
307.961	101.62
308.191	98.62
308.421	93.62
308.651	93.62
308.881	106.62
309.111	89.62
309.341	104.62
309.571	99.62
309.8	94.62
310.03	101.62
310.26	103.62
310.49	101.62
310.72	97.62
310.949	118.62
311.179	108.62
311.409	100.62
311.639	100.62
311.868	92.62
312.098	95.62
312.328	113.62
312.557	105.62
312.787	123.62
313.017	125.62
313.246	92.62
313.476	96.62
313.706	101.62
313.935	105.62
314.165	114.62
314.394	114.62
314.624	107.62
314.853	106.62
315.083	108.62
315.312	72.62
315.542	99.62
315.771	94.62
316.001	99.62
316.23	96.62
316.46	91.62
316.689	104.62
316.919	98.62
317.148	100.62
317.377	107.62
317.607	100.62
317.836	89.62
318.065	81.62
318.295	92.62
318.524	95.62
318.753	84.62
318.983	101.62
319.212	110.62
319.441	123.62
319.67	101.62
319.9	103.62
320.129	81.62
320.358	89.62
320.587	92.62
320.816	102.62
321.046	93.62
321.275	95.62
321.504	82.62
321.733	100.62
321.962	97.62
322.191	108.62
322.42	113.62
322.649	136.62
322.878	128.62
323.108	132.62
323.337	145.62
323.566	153.62
323.795	186.62
324.024	244.62
324.253	506.62
324.482	1084.62
324.71	2302.62
324.939	3172.62
325.168	1113.62
325.397	321.62
325.626	184.62
325.855	142.62
326.084	133.62
326.313	159.62
326.542	177.62
326.77	284.62
326.999	594.62
327.228	1230.62
327.457	2309.62
327.686	1877.62
327.914	530.62
328.143	398.62
328.372	458.62
328.6	298.62
328.829	171.62
329.058	181.62
329.287	188.62
329.515	174.62
329.744	195.62
329.972	314.62
330.201	645.62
330.43	960.62
330.658	462.62
330.887	244.62
331.115	168.62
331.344	123.62
331.572	114.62
331.801	114.62
332.03	118.62
332.258	108.62
332.486	101.62
332.715	109.62
332.943	96.62
333.172	117.62
333.4	134.62
333.629	134.62
333.857	188.62
334.085	298.62
334.314	584.62
334.542	1182.62
334.771	1158.62
334.999	335.62
335.227	154.62
335.455	120.62
335.684	114.62
335.912	95.62
336.14	104.62
336.369	109.62
336.597	121.62
336.825	108.62
337.053	113.62
337.281	94.62
337.51	103.62
337.738	93.62
337.966	98.62
338.194	96.62
338.422	110.62
338.65	103.62
338.878	89.62
339.106	81.62
339.334	91.62
339.562	87.62
339.79	99.62
340.018	91.62
340.246	101.62
340.474	100.62
340.702	88.62
340.93	96.62
341.158	86.62
341.386	109.62
341.614	98.62
341.842	92.62
342.07	101.62
342.298	108.62
342.526	85.62
342.754	100.62
342.981	90.62
343.209	100.62
343.437	110.62
343.665	91.62
343.893	100.62
344.12	84.62
344.348	89.62
344.576	97.62
344.804	83.62
345.031	90.62
345.259	107.62
345.487	104.62
345.714	102.62
345.942	97.62
346.17	92.62
346.397	90.62
346.625	112.62
346.853	105.62
347.08	103.62
347.308	108.62
347.535	104.62
347.763	103.62
347.99	113.62
348.218	126.62
348.445	110.62
348.673	97.62
348.9	98.62
349.128	108.62
349.355	84.62
349.583	98.62
349.81	107.62
350.037	97.62
350.265	98.62
350.492	83.62
350.72	91.62
350.947	101.62
351.174	125.62
351.402	126.62
351.629	98.62
351.856	92.62
352.083	104.62
352.311	120.62
352.538	126.62
352.765	117.62
352.992	111.62
353.22	132.62
353.447	99.62
353.674	103.62
353.901	100.62
354.128	82.62
354.355	103.62
354.583	104.62
354.81	101.62
355.037	85.62
355.264	105.62
355.491	99.62
355.718	94.62
355.945	87.62
356.172	101.62
356.399	99.62
356.626	105.62
356.853	95.62
357.08	99.62
357.307	93.62
357.534	101.62
357.761	94.62
357.988	95.62
358.215	92.62
358.441	92.62
358.668	86.62
358.895	100.62
359.122	90.62
359.349	86.62
359.576	86.62
359.802	108.62
360.029	136.62
360.256	128.62
360.483	129.62
360.709	92.62
360.936	91.62
361.163	93.62
361.39	84.62
361.616	92.62
361.843	93.62
362.07	110.62
362.296	121.62
362.523	90.62
362.749	96.62
362.976	86.62
363.203	81.62
363.429	84.62
363.656	90.62
363.882	90.62
364.109	91.62
364.335	87.62
364.562	100.62
364.788	99.62
365.015	100.62
365.241	90.62
365.468	105.62
365.694	113.62
365.92	92.62
366.147	108.62
366.373	98.62
366.599	97.62
366.826	90.62
367.052	90.62
367.278	93.62
367.505	95.62
367.731	94.62
367.957	111.62
368.184	106.62
368.41	108.62
368.636	112.62
368.862	135.62
369.089	100.62
369.315	92.62
369.541	97.62
369.767	95.62
369.993	96.62
370.219	90.62
370.445	98.62
370.672	84.62
370.898	94.62
371.124	87.62
371.35	83.62
371.576	90.62
371.802	93.62
372.028	98.62
372.254	90.62
372.48	91.62
372.706	94.62
372.932	83.62
373.158	95.62
373.384	96.62
373.61	82.62
373.835	100.62
374.061	98.62
374.287	91.62
374.513	97.62
374.739	93.62
374.965	86.62
375.191	79.62
375.416	81.62
375.642	91.62
375.868	98.62
376.094	93.62
376.319	85.62
376.545	89.62
376.771	94.62
376.997	82.62
377.222	83.62
377.448	87.62
377.674	75.62
377.899	86.62
378.125	86.62
378.35	81.62
378.576	99.62
378.802	93.62
379.027	91.62
379.253	89.62
379.478	96.62
379.704	93.62
379.929	92.62
380.155	100.62
380.38	93.62
380.606	99.62
380.831	82.62
381.057	95.62
381.282	84.62
381.507	100.62
381.733	93.62
381.958	79.62
382.184	96.62
382.409	104.62
382.634	107.62
382.86	97.62
383.085	102.62
383.31	103.62
383.535	97.62
383.761	100.62
383.986	108.62
384.211	108.62
384.436	102.62
384.662	108.62
384.887	97.62
385.112	102.62
385.337	109.62
385.562	107.62
385.787	107.62
386.013	105.62
386.238	120.62
386.463	106.62
386.688	114.62
386.913	92.62
387.138	88.62
387.363	97.62
387.588	101.62
387.813	104.62
388.038	106.62
388.263	111.62
388.488	107.62
388.713	95.62
388.938	94.62
389.163	99.62
389.387	95.62
389.612	85.62
389.837	97.62
390.062	96.62
390.287	92.62
390.512	101.62
390.736	83.62
390.961	90.62
391.186	90.62
391.411	100.62
391.636	90.62
391.86	84.62
392.085	84.62
392.31	80.62
392.534	93.62
392.759	101.62
392.984	93.62
393.208	89.62
393.433	99.62
393.658	98.62
393.882	95.62
394.107	91.62
394.331	95.62
394.556	78.62
394.78	85.62
395.005	99.62
395.229	79.62
395.454	78.62
395.678	86.62
395.903	84.62
396.127	86.62
396.352	92.62
396.576	86.62
396.801	76.62
397.025	85.62
397.249	82.62
397.474	94.62
397.698	96.62
397.922	88.62
398.147	81.62
398.371	88.62
398.595	83.62
398.82	79.62
399.044	94.62
399.268	86.62
399.492	97.62
399.717	93.62
399.941	98.62
400.165	106.62
400.389	103.62
400.613	91.62
400.837	79.62
401.062	93.62
401.286	90.62
401.51	100.62
401.734	89.62
401.958	103.62
402.182	154.62
402.406	184.62
402.63	154.62
402.854	108.62
403.078	107.62
403.302	90.62
403.526	84.62
403.75	76.62
403.974	81.62
404.198	66.62
404.422	88.62
404.645	86.62
404.869	106.62
405.093	128.62
405.317	128.62
405.541	131.62
405.765	117.62
405.988	147.62
406.212	208.62
406.436	273.62
406.66	192.62
406.883	110.62
407.107	104.62
407.331	104.62
407.555	109.62
407.778	111.62
408.002	86.62
408.226	94.62
408.449	95.62
408.673	99.62
408.896	98.62
409.12	105.62
409.344	97.62
409.567	83.62
409.791	88.62
410.014	99.62
410.238	99.62
410.461	107.62
410.685	84.62
410.908	93.62
411.132	116.62
411.355	95.62
411.578	98.62
411.802	93.62
412.025	90.62
412.249	93.62
412.472	117.62
412.695	144.62
412.919	105.62
413.142	83.62
413.365	82.62
413.589	92.62
413.812	83.62
414.035	102.62
414.258	80.62
414.482	107.62
414.705	99.62
414.928	100.62
415.151	97.62
415.374	90.62
415.597	82.62
415.821	89.62
416.044	87.62
416.267	102.62
416.49	89.62
416.713	78.62
416.936	101.62
417.159	97.62
417.382	79.62
417.605	96.62
417.828	92.62
418.051	95.62
418.274	89.62
418.497	97.62
418.72	91.62
418.943	81.62
419.166	81.62
419.389	91.62
419.611	88.62
419.834	91.62
420.057	110.62
420.28	107.62
420.503	86.62
420.726	82.62
420.948	98.62
421.171	93.62
421.394	95.62
421.617	83.62
421.839	101.62
422.062	78.62
422.285	104.62
422.507	99.62
422.73	108.62
422.953	103.62
423.175	90.62
423.398	77.62
423.621	84.62
423.843	85.62
424.066	90.62
424.288	82.62
424.511	98.62
424.733	110.62
424.956	120.62
425.178	116.62
425.401	91.62
425.623	107.62
425.846	105.62
426.068	95.62
426.291	89.62
426.513	99.62
426.735	90.62
426.958	94.62
427.18	119.62
427.402	172.62
427.625	242.62
427.847	216.62
428.069	195.62
428.292	120.62
428.514	105.62
428.736	98.62
428.958	84.62
429.181	90.62
429.403	87.62
429.625	71.62
429.847	103.62
430.069	109.62
430.292	90.62
430.514	85.62
430.736	85.62
430.958	88.62
431.18	89.62
431.402	79.62
431.624	92.62
431.846	101.62
432.068	101.62
432.29	86.62
432.512	94.62
432.734	100.62
432.956	81.62
433.178	96.62
433.4	100.62
433.622	87.62
433.844	99.62
434.066	107.62
434.287	97.62
434.509	86.62
434.731	91.62
434.953	83.62
435.175	65.62
435.397	105.62
435.618	77.62
435.84	108.62
436.062	140.62
436.284	138.62
436.505	118.62
436.727	127.62
436.949	104.62
437.17	83.62
437.392	92.62
437.614	94.62
437.835	117.62
438.057	140.62
438.278	131.62
438.5	109.62
438.721	146.62
438.943	113.62
439.165	96.62
439.386	94.62
439.608	93.62
439.829	123.62
440.05	149.62
440.272	189.62
440.493	111.62
440.715	83.62
440.936	90.62
441.158	95.62
441.379	94.62
441.6	95.62
441.822	123.62
442.043	107.62
442.264	113.62
442.486	107.62
442.707	114.62
442.928	118.62
443.149	166.62
443.371	173.62
443.592	123.62
443.813	115.62
444.034	122.62
444.255	106.62
444.476	80.62
444.698	96.62
444.919	101.62
445.14	144.62
445.361	136.62
445.582	147.62
445.803	190.62
446.024	186.62
446.245	172.62
446.466	121.62
446.687	94.62
446.908	88.62
447.129	86.62
447.35	92.62
447.571	102.62
447.792	94.62
448.013	110.62
448.234	135.62
448.455	125.62
448.675	140.62
448.896	137.62
449.117	103.62
449.338	108.62
449.559	164.62
449.779	165.62
450	105.62
450.221	113.62
450.442	84.62
450.662	94.62
450.883	101.62
451.104	124.62
451.324	113.62
451.545	107.62
451.766	93.62
451.986	78.62
452.207	88.62
452.428	89.62
452.648	88.62
452.869	133.62
453.089	124.62
453.31	138.62
453.53	89.62
453.751	101.62
453.971	112.62
454.192	116.62
454.412	92.62
454.633	85.62
454.853	91.62
455.073	97.62
455.294	91.62
455.514	110.62
455.734	94.62
455.955	81.62
456.175	93.62
456.395	82.62
456.616	100.62
456.836	86.62
457.056	83.62
457.276	85.62
457.497	84.62
457.717	77.62
457.937	79.62
458.157	82.62
458.377	111.62
458.598	113.62
458.818	197.62
459.038	229.62
459.258	142.62
459.478	101.62
459.698	94.62
459.918	95.62
460.138	92.62
460.358	78.62
460.578	93.62
460.798	91.62
461.018	98.62
461.238	66.62
461.458	79.62
461.678	75.62
461.898	84.62
462.118	92.62
462.338	85.62
462.558	89.62
462.777	92.62
462.997	104.62
463.217	99.62
463.437	77.62
463.657	85.62
463.876	85.62
464.096	100.62
464.316	105.62
464.536	102.62
464.755	88.62
464.975	128.62
465.195	218.62
465.414	215.62
465.634	111.62
465.854	85.62
466.073	104.62
466.293	89.62
466.512	76.62
466.732	88.62
466.951	110.62
467.171	105.62
467.391	94.62
467.61	131.62
467.829	171.62
468.049	351.62
468.268	545.62
468.488	182.62
468.707	84.62
468.927	89.62
469.146	97.62
469.365	98.62
469.585	87.62
469.804	110.62
470.023	99.62
470.243	89.62
470.462	120.62
470.681	128.62
470.901	93.62
471.12	99.62
471.339	86.62
471.558	106.62
471.777	137.62
471.997	204.62
472.216	686.62
472.435	1546.62
472.654	410.62
472.873	126.62
473.092	103.62
473.311	85.62
473.53	94.62
473.749	85.62
473.968	99.62
474.187	140.62
474.406	101.62
474.625	84.62
474.844	86.62
475.063	105.62
475.282	90.62
475.501	94.62
475.72	85.62
475.939	83.62
476.158	99.62
476.377	94.62
476.596	93.62
476.814	75.62
477.033	94.62
477.252	104.62
477.471	96.62
477.69	92.62
477.908	98.62
478.127	96.62
478.346	100.62
478.564	93.62
478.783	95.62
479.002	98.62
479.22	111.62
479.439	107.62
479.658	108.62
479.876	112.62
480.095	112.62
480.313	125.62
480.532	141.62
480.751	204.62
480.969	637.62
481.188	2624.62
481.406	1614.62
481.624	241.62
481.843	122.62
482.061	109.62
482.28	85.62
482.498	101.62
482.717	94.62
482.935	93.62
483.153	89.62
483.372	105.62
483.59	87.62
483.808	95.62
484.027	96.62
484.245	99.62
484.463	93.62
484.681	96.62
484.9	93.62
485.118	100.62
485.336	93.62
485.554	93.62
485.772	90.62
485.99	104.62
486.209	104.62
486.427	103.62
486.645	122.62
486.863	128.62
487.081	113.62
487.299	110.62
487.517	107.62
487.735	80.62
487.953	89.62
488.171	92.62
488.389	104.62
488.607	101.62
488.825	96.62
489.043	88.62
489.261	95.62
489.479	91.62
489.696	102.62
489.914	83.62
490.132	85.62
490.35	94.62
490.568	90.62
490.786	91.62
491.003	99.62
491.221	96.62
491.439	99.62
491.657	89.62
491.874	93.62
492.092	93.62
492.31	95.62
492.527	88.62
492.745	99.62
492.963	92.62
493.18	86.62
493.398	78.62
493.615	86.62
493.833	85.62
494.05	82.62
494.268	88.62
494.485	96.62
494.703	80.62
494.92	96.62
495.138	84.62
495.355	94.62
495.573	96.62
495.79	97.62
496.008	100.62
496.225	91.62
496.442	93.62
496.66	94.62
496.877	96.62
497.094	94.62
497.312	86.62
497.529	84.62
497.746	88.62
497.963	108.62
498.181	110.62
498.398	94.62
498.615	110.62
498.832	108.62
499.049	105.62
499.267	83.62
499.484	96.62
499.701	94.62
499.918	90.62
500.135	70.62
500.352	82.62
500.569	104.62
500.786	95.62
501.003	93.62
501.22	94.62
501.437	100.62
501.654	120.62
501.871	135.62
502.088	92.62
502.305	86.62
502.522	107.62
502.739	79.62
502.956	106.62
503.172	110.62
503.389	92.62
503.606	110.62
503.823	110.62
504.04	99.62
504.256	82.62
504.473	98.62
504.69	99.62
504.907	84.62
505.123	87.62
505.34	80.62
505.557	84.62
505.773	109.62
505.99	95.62
506.207	84.62
506.423	86.62
506.64	82.62
506.856	84.62
507.073	91.62
507.289	88.62
507.506	103.62
507.722	132.62
507.939	132.62
508.155	100.62
508.372	98.62
508.588	102.62
508.805	96.62
509.021	97.62
509.238	97.62
509.454	92.62
509.67	94.62
509.887	121.62
510.103	150.62
510.319	202.62
510.536	836.62
510.752	2797.62
510.968	812.62
511.184	174.62
511.401	126.62
511.617	96.62
511.833	107.62
512.049	97.62
512.265	99.62
512.481	102.62
512.698	92.62
512.914	94.62
513.13	93.62
513.346	98.62
