Data from Circ_2007_H10_HRD10591_00078.txt Node
Date: Wed Jan 03 10:22:12 EST 2024
User: Yrep
Spectrometer: HR+D1059
Trigger mode: 1
Integration Time (sec): 1.000000E-1
Scans to average: 1
Electric dark correction enabled: true
Nonlinearity correction enabled: false
Boxcar width: 0
XAxis mode: Wavelengths
Number of Pixels in Spectrum: 2048
>>>>>Begin Spectral Data<<<<<
223.165	-17.75
223.4	-17.75
223.635	-17.75
223.869	-13.75
224.104	-11.75
224.338	-19.75
224.573	-25.75
224.808	-0.75
225.042	-7.75
225.277	-7.75
225.511	-5.75
225.746	-4.75
225.98	10.25
226.215	1.25
226.449	13.25
226.683	21.25
226.918	39.25
227.152	30.25
227.387	47.25
227.621	34.25
227.856	60.25
228.09	56.25
228.324	49.25
228.559	57.25
228.793	51.25
229.027	71.25
229.262	86.25
229.496	72.25
229.73	123.25
229.964	108.25
230.199	77.25
230.433	71.25
230.667	88.25
230.901	99.25
231.136	79.25
231.37	72.25
231.604	68.25
231.838	79.25
232.072	93.25
232.306	79.25
232.541	82.25
232.775	81.25
233.009	88.25
233.243	76.25
233.477	92.25
233.711	90.25
233.945	94.25
234.179	82.25
234.413	72.25
234.647	90.25
234.881	80.25
235.115	90.25
235.349	92.25
235.583	72.25
235.817	85.25
236.051	93.25
236.285	85.25
236.519	91.25
236.753	82.25
236.987	84.25
237.221	100.25
237.455	96.25
237.689	75.25
237.922	84.25
238.156	86.25
238.39	76.25
238.624	75.25
238.858	79.25
239.091	68.25
239.325	76.25
239.559	85.25
239.793	88.25
240.027	82.25
240.26	97.25
240.494	89.25
240.728	90.25
240.961	83.25
241.195	94.25
241.429	90.25
241.662	95.25
241.896	77.25
242.13	74.25
242.363	89.25
242.597	84.25
242.83	83.25
243.064	84.25
243.298	85.25
243.531	82.25
243.765	87.25
243.998	84.25
244.232	82.25
244.465	106.25
244.699	90.25
244.932	90.25
245.166	89.25
245.399	89.25
245.633	72.25
245.866	72.25
246.099	85.25
246.333	89.25
246.566	81.25
246.8	78.25
247.033	84.25
247.266	77.25
247.5	103.25
247.733	84.25
247.966	88.25
248.2	82.25
248.433	80.25
248.666	91.25
248.899	98.25
249.133	101.25
249.366	114.25
249.599	114.25
249.832	98.25
250.066	87.25
250.299	85.25
250.532	91.25
250.765	93.25
250.998	88.25
251.231	93.25
251.465	90.25
251.698	95.25
251.931	91.25
252.164	88.25
252.397	73.25
252.63	77.25
252.863	91.25
253.096	85.25
253.329	75.25
253.562	90.25
253.795	78.25
254.028	98.25
254.261	100.25
254.494	84.25
254.727	93.25
254.96	92.25
255.193	82.25
255.426	86.25
255.659	88.25
255.892	85.25
256.124	99.25
256.357	80.25
256.59	92.25
256.823	89.25
257.056	94.25
257.289	85.25
257.521	84.25
257.754	76.25
257.987	84.25
258.22	84.25
258.452	112.25
258.685	92.25
258.918	99.25
259.151	77.25
259.383	77.25
259.616	56.25
259.849	91.25
260.081	81.25
260.314	88.25
260.547	83.25
260.779	94.25
261.012	111.25
261.244	124.25
261.477	105.25
261.71	113.25
261.942	147.25
262.175	174.25
262.407	111.25
262.64	89.25
262.872	106.25
263.105	92.25
263.337	92.25
263.57	81.25
263.802	99.25
264.035	84.25
264.267	94.25
264.499	86.25
264.732	86.25
264.964	70.25
265.197	85.25
265.429	88.25
265.661	92.25
265.894	77.25
266.126	76.25
266.358	86.25
266.591	90.25
266.823	94.25
267.055	95.25
267.287	91.25
267.52	105.25
267.752	86.25
267.984	85.25
268.216	94.25
268.448	94.25
268.681	82.25
268.913	94.25
269.145	97.25
269.377	86.25
269.609	94.25
269.841	93.25
270.073	84.25
270.306	87.25
270.538	85.25
270.77	82.25
271.002	92.25
271.234	85.25
271.466	90.25
271.698	93.25
271.93	99.25
272.162	99.25
272.394	93.25
272.626	102.25
272.858	79.25
273.09	102.25
273.322	88.25
273.553	80.25
273.785	93.25
274.017	100.25
274.249	96.25
274.481	101.25
274.713	106.25
274.945	98.25
275.176	87.25
275.408	105.25
275.64	118.25
275.872	143.25
276.104	120.25
276.335	107.25
276.567	129.25
276.799	165.25
277.031	202.25
277.262	195.25
277.494	175.25
277.726	102.25
277.957	90.25
278.189	101.25
278.421	103.25
278.652	96.25
278.884	92.25
279.115	91.25
279.347	96.25
279.579	96.25
279.81	138.25
280.042	205.25
280.273	277.25
280.505	197.25
280.736	117.25
280.968	99.25
281.199	94.25
281.431	84.25
281.662	106.25
281.894	83.25
282.125	114.25
282.356	146.25
282.588	187.25
282.819	155.25
283.051	93.25
283.282	88.25
283.513	103.25
283.745	91.25
283.976	76.25
284.207	81.25
284.439	93.25
284.67	93.25
284.901	84.25
285.132	77.25
285.364	93.25
285.595	96.25
285.826	101.25
286.057	103.25
286.288	94.25
286.52	83.25
286.751	94.25
286.982	93.25
287.213	90.25
287.444	87.25
287.675	94.25
287.906	84.25
288.138	94.25
288.369	108.25
288.6	89.25
288.831	82.25
289.062	98.25
289.293	93.25
289.524	103.25
289.755	81.25
289.986	83.25
290.217	85.25
290.448	87.25
290.679	93.25
290.91	85.25
291.141	75.25
291.371	95.25
291.602	93.25
291.833	81.25
292.064	87.25
292.295	84.25
292.526	109.25
292.757	85.25
292.987	80.25
293.218	89.25
293.449	86.25
293.68	98.25
293.91	84.25
294.141	87.25
294.372	84.25
294.603	91.25
294.833	96.25
295.064	94.25
295.295	104.25
295.525	82.25
295.756	104.25
295.987	137.25
296.217	204.25
296.448	156.25
296.679	91.25
296.909	88.25
297.14	94.25
297.37	83.25
297.601	100.25
297.831	91.25
298.062	92.25
298.292	101.25
298.523	105.25
298.753	88.25
298.984	97.25
299.214	89.25
299.445	96.25
299.675	104.25
299.905	112.25
300.136	104.25
300.366	100.25
300.597	104.25
300.827	90.25
301.057	112.25
301.288	117.25
301.518	102.25
301.748	95.25
301.979	126.25
302.209	108.25
302.439	116.25
302.669	97.25
302.9	93.25
303.13	113.25
303.36	115.25
303.59	128.25
303.82	155.25
304.051	127.25
304.281	94.25
304.511	103.25
304.741	80.25
304.971	84.25
305.201	91.25
305.431	89.25
305.661	96.25
305.891	109.25
306.121	110.25
306.352	116.25
306.582	115.25
306.812	123.25
307.042	145.25
307.272	162.25
307.502	194.25
307.731	164.25
307.961	113.25
308.191	96.25
308.421	93.25
308.651	90.25
308.881	125.25
309.111	92.25
309.341	100.25
309.571	118.25
309.8	109.25
310.03	120.25
310.26	135.25
310.49	118.25
310.72	116.25
310.949	141.25
311.179	121.25
311.409	123.25
311.639	129.25
311.868	110.25
312.098	106.25
312.328	117.25
312.557	129.25
312.787	131.25
313.017	142.25
313.246	115.25
313.476	90.25
313.706	93.25
313.935	98.25
314.165	117.25
314.394	115.25
314.624	109.25
314.853	106.25
315.083	104.25
315.312	88.25
315.542	86.25
315.771	95.25
316.001	88.25
316.23	97.25
316.46	108.25
316.689	105.25
316.919	101.25
317.148	116.25
317.377	122.25
317.607	108.25
317.836	93.25
318.065	97.25
318.295	86.25
318.524	86.25
318.753	93.25
318.983	99.25
319.212	117.25
319.441	129.25
319.67	130.25
319.9	107.25
320.129	102.25
320.358	92.25
320.587	100.25
320.816	110.25
321.046	128.25
321.275	118.25
321.504	98.25
321.733	93.25
321.962	113.25
322.191	114.25
322.42	118.25
322.649	135.25
322.878	142.25
323.108	157.25
323.337	165.25
323.566	175.25
323.795	210.25
324.024	296.25
324.253	598.25
324.482	1316.25
324.71	2749.25
324.939	3784.25
325.168	1382.25
325.397	370.25
325.626	206.25
325.855	168.25
326.084	154.25
326.313	158.25
326.542	213.25
326.77	327.25
326.999	654.25
327.228	1375.25
327.457	2617.25
327.686	2157.25
327.914	682.25
328.143	611.25
328.372	776.25
328.6	426.25
328.829	221.25
329.058	238.25
329.287	253.25
329.515	199.25
329.744	275.25
329.972	530.25
330.201	1080.25
330.43	1629.25
330.658	758.25
330.887	356.25
331.115	240.25
331.344	135.25
331.572	152.25
331.801	158.25
332.03	162.25
332.258	136.25
332.486	104.25
332.715	123.25
332.943	113.25
333.172	107.25
333.4	138.25
333.629	184.25
333.857	269.25
334.085	464.25
334.314	992.25
334.542	1968.25
334.771	1885.25
334.999	499.25
335.227	188.25
335.455	147.25
335.684	129.25
335.912	108.25
336.14	90.25
336.369	108.25
336.597	120.25
336.825	116.25
337.053	97.25
337.281	101.25
337.51	99.25
337.738	102.25
337.966	107.25
338.194	120.25
338.422	120.25
338.65	94.25
338.878	112.25
339.106	101.25
339.334	97.25
339.562	99.25
339.79	98.25
340.018	80.25
340.246	113.25
340.474	113.25
340.702	100.25
340.93	101.25
341.158	95.25
341.386	115.25
341.614	124.25
341.842	101.25
342.07	97.25
342.298	95.25
342.526	91.25
342.754	82.25
342.981	86.25
343.209	86.25
343.437	85.25
343.665	98.25
343.893	97.25
344.12	86.25
344.348	99.25
344.576	106.25
344.804	102.25
345.031	102.25
345.259	131.25
345.487	130.25
345.714	115.25
345.942	97.25
346.17	97.25
346.397	99.25
346.625	94.25
346.853	105.25
347.08	81.25
347.308	115.25
347.535	98.25
347.763	136.25
347.99	124.25
348.218	100.25
348.445	128.25
348.673	127.25
348.9	109.25
349.128	101.25
349.355	87.25
349.583	92.25
349.81	92.25
350.037	112.25
350.265	107.25
350.492	93.25
350.72	102.25
350.947	110.25
351.174	114.25
351.402	142.25
351.629	120.25
351.856	113.25
352.083	126.25
352.311	125.25
352.538	142.25
352.765	146.25
352.992	152.25
353.22	138.25
353.447	113.25
353.674	113.25
353.901	98.25
354.128	91.25
354.355	103.25
354.583	104.25
354.81	95.25
355.037	93.25
355.264	92.25
355.491	86.25
355.718	92.25
355.945	91.25
356.172	96.25
356.399	95.25
356.626	95.25
356.853	84.25
357.08	92.25
357.307	77.25
357.534	85.25
357.761	104.25
357.988	118.25
358.215	97.25
358.441	83.25
358.668	98.25
358.895	94.25
359.122	84.25
359.349	99.25
359.576	105.25
359.802	135.25
360.029	182.25
360.256	168.25
360.483	131.25
360.709	97.25
360.936	97.25
361.163	100.25
361.39	106.25
361.616	116.25
361.843	89.25
362.07	117.25
362.296	121.25
362.523	101.25
362.749	96.25
362.976	91.25
363.203	93.25
363.429	86.25
363.656	95.25
363.882	98.25
364.109	101.25
364.335	107.25
364.562	108.25
364.788	107.25
365.015	99.25
365.241	108.25
365.468	154.25
365.694	142.25
365.92	109.25
366.147	105.25
366.373	99.25
366.599	96.25
366.826	89.25
367.052	99.25
367.278	99.25
367.505	95.25
367.731	92.25
367.957	106.25
368.184	106.25
368.41	112.25
368.636	148.25
368.862	156.25
369.089	140.25
369.315	105.25
369.541	94.25
369.767	93.25
369.993	101.25
370.219	93.25
370.445	89.25
370.672	83.25
370.898	98.25
371.124	84.25
371.35	86.25
371.576	93.25
371.802	81.25
372.028	83.25
372.254	101.25
372.48	100.25
372.706	86.25
372.932	86.25
373.158	72.25
373.384	96.25
373.61	95.25
373.835	91.25
374.061	90.25
374.287	104.25
374.513	96.25
374.739	97.25
374.965	92.25
375.191	98.25
375.416	81.25
375.642	93.25
375.868	95.25
376.094	94.25
376.319	92.25
376.545	91.25
376.771	83.25
376.997	94.25
377.222	110.25
377.448	99.25
377.674	93.25
377.899	90.25
378.125	105.25
378.35	92.25
378.576	84.25
378.802	98.25
379.027	85.25
379.253	95.25
379.478	90.25
379.704	89.25
379.929	93.25
380.155	100.25
380.38	87.25
380.606	100.25
380.831	97.25
381.057	98.25
381.282	95.25
381.507	93.25
381.733	103.25
381.958	99.25
382.184	112.25
382.409	97.25
382.634	120.25
382.86	100.25
383.085	104.25
383.31	98.25
383.535	101.25
383.761	109.25
383.986	85.25
384.211	80.25
384.436	101.25
384.662	87.25
384.887	96.25
385.112	109.25
385.337	101.25
385.562	100.25
385.787	95.25
386.013	95.25
386.238	133.25
386.463	112.25
386.688	115.25
386.913	86.25
387.138	104.25
387.363	100.25
387.588	95.25
387.813	84.25
388.038	101.25
388.263	102.25
388.488	98.25
388.713	96.25
388.938	97.25
389.163	99.25
389.387	105.25
389.612	85.25
389.837	89.25
390.062	92.25
390.287	95.25
390.512	84.25
390.736	93.25
390.961	83.25
391.186	88.25
391.411	86.25
391.636	82.25
391.86	90.25
392.085	85.25
392.31	93.25
392.534	101.25
392.759	96.25
392.984	91.25
393.208	92.25
393.433	114.25
393.658	86.25
393.882	80.25
394.107	87.25
394.331	90.25
394.556	89.25
394.78	87.25
395.005	99.25
395.229	87.25
395.454	91.25
395.678	82.25
395.903	88.25
396.127	96.25
396.352	96.25
396.576	89.25
396.801	99.25
397.025	101.25
397.249	88.25
397.474	93.25
397.698	70.25
397.922	80.25
398.147	91.25
398.371	87.25
398.595	92.25
398.82	80.25
399.044	85.25
399.268	80.25
399.492	82.25
399.717	80.25
399.941	93.25
400.165	105.25
400.389	104.25
400.613	87.25
400.837	93.25
401.062	96.25
401.286	113.25
401.51	109.25
401.734	101.25
401.958	121.25
402.182	152.25
402.406	243.25
402.63	179.25
402.854	110.25
403.078	92.25
403.302	93.25
403.526	106.25
403.75	93.25
403.974	77.25
404.198	92.25
404.422	88.25
404.645	99.25
404.869	114.25
405.093	117.25
405.317	153.25
405.541	151.25
405.765	149.25
405.988	164.25
406.212	245.25
406.436	405.25
406.66	269.25
406.883	150.25
407.107	123.25
407.331	130.25
407.555	127.25
407.778	112.25
408.002	85.25
408.226	112.25
408.449	86.25
408.673	86.25
408.896	112.25
409.12	109.25
409.344	93.25
409.567	95.25
409.791	80.25
410.014	105.25
410.238	99.25
410.461	83.25
410.685	91.25
410.908	91.25
411.132	126.25
411.355	82.25
411.578	94.25
411.802	102.25
412.025	85.25
412.249	110.25
412.472	105.25
412.695	145.25
412.919	117.25
413.142	86.25
413.365	99.25
413.589	80.25
413.812	99.25
414.035	101.25
414.258	81.25
414.482	111.25
414.705	84.25
414.928	91.25
415.151	91.25
415.374	92.25
415.597	104.25
415.821	90.25
416.044	104.25
416.267	92.25
416.49	106.25
416.713	99.25
416.936	97.25
417.159	83.25
417.382	109.25
417.605	122.25
417.828	130.25
418.051	122.25
418.274	81.25
418.497	75.25
418.72	88.25
418.943	81.25
419.166	97.25
419.389	87.25
419.611	89.25
419.834	92.25
420.057	85.25
420.28	98.25
420.503	94.25
420.726	86.25
420.948	91.25
421.171	107.25
421.394	96.25
421.617	83.25
421.839	84.25
422.062	81.25
422.285	98.25
422.507	96.25
422.73	130.25
422.953	85.25
423.175	99.25
423.398	103.25
423.621	89.25
423.843	87.25
424.066	81.25
424.288	90.25
424.511	93.25
424.733	111.25
424.956	138.25
425.178	120.25
425.401	125.25
425.623	121.25
425.846	113.25
426.068	117.25
426.291	105.25
426.513	106.25
426.735	115.25
426.958	120.25
427.18	138.25
427.402	226.25
427.625	349.25
427.847	304.25
428.069	260.25
428.292	144.25
428.514	102.25
428.736	90.25
428.958	96.25
429.181	78.25
429.403	95.25
429.625	91.25
429.847	96.25
430.069	125.25
430.292	96.25
430.514	81.25
430.736	93.25
430.958	91.25
431.18	100.25
431.402	85.25
431.624	84.25
431.846	70.25
432.068	98.25
432.29	89.25
432.512	85.25
432.734	80.25
432.956	93.25
433.178	103.25
433.4	117.25
433.622	107.25
433.844	93.25
434.066	88.25
434.287	90.25
434.509	100.25
434.731	89.25
434.953	92.25
435.175	92.25
435.397	99.25
435.618	110.25
435.84	110.25
436.062	155.25
436.284	147.25
436.505	117.25
436.727	114.25
436.949	107.25
437.17	86.25
437.392	96.25
437.614	106.25
437.835	153.25
438.057	174.25
438.278	138.25
438.5	120.25
438.721	146.25
438.943	125.25
439.165	99.25
439.386	91.25
439.608	122.25
439.829	127.25
440.05	182.25
440.272	256.25
440.493	136.25
440.715	104.25
440.936	94.25
441.158	102.25
441.379	95.25
441.6	108.25
441.822	108.25
442.043	90.25
442.264	125.25
442.486	121.25
442.707	110.25
442.928	144.25
443.149	219.25
443.371	223.25
443.592	155.25
443.813	145.25
444.034	146.25
444.255	101.25
444.476	98.25
444.698	105.25
444.919	98.25
445.14	157.25
445.361	158.25
445.582	171.25
445.803	250.25
446.024	216.25
446.245	202.25
446.466	146.25
446.687	102.25
446.908	93.25
447.129	110.25
447.35	108.25
447.571	113.25
447.792	90.25
448.013	115.25
448.234	163.25
448.455	116.25
448.675	141.25
448.896	162.25
449.117	110.25
449.338	120.25
449.559	176.25
449.779	161.25
450	111.25
450.221	88.25
450.442	93.25
450.662	104.25
450.883	151.25
451.104	179.25
451.324	126.25
451.545	95.25
451.766	90.25
451.986	101.25
452.207	109.25
452.428	121.25
452.648	126.25
452.869	150.25
453.089	159.25
453.31	173.25
453.53	122.25
453.751	105.25
453.971	136.25
454.192	175.25
454.412	113.25
454.633	104.25
454.853	77.25
455.073	88.25
455.294	96.25
455.514	98.25
455.734	98.25
455.955	90.25
456.175	76.25
456.395	75.25
456.616	84.25
456.836	90.25
457.056	77.25
457.276	97.25
457.497	85.25
457.717	86.25
457.937	97.25
458.157	96.25
458.377	97.25
458.598	153.25
458.818	285.25
459.038	305.25
459.258	212.25
459.478	108.25
459.698	96.25
459.918	101.25
460.138	101.25
460.358	94.25
460.578	104.25
460.798	90.25
461.018	100.25
461.238	106.25
461.458	97.25
461.678	74.25
461.898	90.25
462.118	91.25
462.338	90.25
462.558	90.25
462.777	96.25
462.997	105.25
463.217	113.25
463.437	103.25
463.657	97.25
463.876	85.25
464.096	94.25
464.316	99.25
464.536	121.25
464.755	108.25
464.975	150.25
465.195	310.25
465.414	308.25
465.634	130.25
465.854	92.25
466.073	109.25
466.293	97.25
466.512	98.25
466.732	92.25
466.951	102.25
467.171	96.25
467.391	114.25
467.61	159.25
467.829	214.25
468.049	562.25
468.268	890.25
468.488	233.25
468.707	101.25
468.927	86.25
469.146	93.25
469.365	109.25
469.585	105.25
469.804	108.25
470.023	125.25
470.243	118.25
470.462	134.25
470.681	177.25
470.901	114.25
471.12	107.25
471.339	102.25
471.558	137.25
471.777	154.25
471.997	278.25
472.216	1092.25
472.435	2633.25
472.654	637.25
472.873	164.25
473.092	111.25
473.311	93.25
473.53	107.25
473.749	106.25
473.968	105.25
474.187	142.25
474.406	137.25
474.625	94.25
474.844	85.25
475.063	97.25
475.282	92.25
475.501	81.25
475.72	94.25
475.939	89.25
476.158	88.25
476.377	84.25
476.596	95.25
476.814	96.25
477.033	115.25
477.252	100.25
477.471	103.25
477.69	101.25
477.908	92.25
478.127	99.25
478.346	96.25
478.564	98.25
478.783	119.25
479.002	109.25
479.22	120.25
479.439	150.25
479.658	165.25
479.876	128.25
480.095	129.25
480.313	138.25
480.532	166.25
480.751	287.25
480.969	980.25
481.188	4353.25
481.406	2731.25
481.624	402.25
481.843	144.25
482.061	99.25
482.28	110.25
482.498	105.25
482.717	89.25
482.935	85.25
483.153	113.25
483.372	101.25
483.59	76.25
483.808	84.25
484.027	94.25
484.245	108.25
484.463	108.25
484.681	91.25
484.9	101.25
485.118	85.25
485.336	102.25
485.554	97.25
485.772	106.25
485.99	111.25
486.209	108.25
486.427	114.25
486.645	129.25
486.863	135.25
487.081	116.25
487.299	98.25
487.517	102.25
487.735	89.25
487.953	95.25
488.171	91.25
488.389	104.25
488.607	107.25
488.825	115.25
489.043	89.25
489.261	87.25
489.479	96.25
489.696	103.25
489.914	93.25
490.132	94.25
490.35	92.25
490.568	100.25
490.786	77.25
491.003	101.25
491.221	101.25
491.439	95.25
491.657	98.25
491.874	103.25
492.092	85.25
492.31	86.25
492.527	94.25
492.745	107.25
492.963	94.25
493.18	86.25
493.398	92.25
493.615	101.25
493.833	96.25
494.05	102.25
494.268	95.25
494.485	93.25
494.703	79.25
494.92	79.25
495.138	107.25
495.355	99.25
495.573	89.25
495.79	92.25
496.008	105.25
496.225	102.25
496.442	92.25
496.66	85.25
496.877	98.25
497.094	102.25
497.312	91.25
497.529	88.25
497.746	90.25
497.963	99.25
498.181	99.25
498.398	111.25
498.615	136.25
498.832	128.25
499.049	112.25
499.267	98.25
499.484	96.25
499.701	84.25
499.918	83.25
500.135	95.25
500.352	94.25
500.569	95.25
500.786	105.25
501.003	93.25
501.22	93.25
501.437	96.25
501.654	106.25
501.871	162.25
502.088	107.25
502.305	101.25
502.522	80.25
502.739	82.25
502.956	104.25
503.172	80.25
503.389	111.25
503.606	170.25
503.823	117.25
504.04	109.25
504.256	100.25
504.473	110.25
504.69	89.25
504.907	102.25
505.123	87.25
505.34	101.25
505.557	100.25
505.773	101.25
505.99	85.25
506.207	95.25
506.423	96.25
506.64	79.25
506.856	103.25
507.073	98.25
507.289	111.25
507.506	110.25
507.722	153.25
507.939	144.25
508.155	110.25
508.372	99.25
508.588	94.25
508.805	109.25
509.021	117.25
509.238	118.25
509.454	117.25
509.67	106.25
509.887	122.25
510.103	159.25
510.319	266.25
510.536	1122.25
510.752	4124.25
510.968	1097.25
511.184	222.25
511.401	145.25
511.617	124.25
