Data from Circ_2007_H10_HRD10591_00079.txt Node
Date: Wed Jan 03 10:22:13 EST 2024
User: Yrep
Spectrometer: HR+D1059
Trigger mode: 1
Integration Time (sec): 1.000000E-1
Scans to average: 1
Electric dark correction enabled: true
Nonlinearity correction enabled: false
Boxcar width: 0
XAxis mode: Wavelengths
Number of Pixels in Spectrum: 2048
>>>>>Begin Spectral Data<<<<<
223.165	-13.44
223.4	-13.44
223.635	-13.44
223.869	-11.44
224.104	-28.44
224.338	-23.44
224.573	-15.44
224.808	-13.44
225.042	1.56
225.277	-0.44
225.511	-13.44
225.746	1.56
225.98	9.56
226.215	15.56
226.449	1.56
226.683	29.56
226.918	33.56
227.152	26.56
227.387	30.56
227.621	32.56
227.856	45.56
228.09	30.56
228.324	53.56
228.559	43.56
228.793	44.56
229.027	57.56
229.262	70.56
229.496	71.56
229.73	99.56
229.964	98.56
230.199	79.56
230.433	61.56
230.667	86.56
230.901	76.56
231.136	72.56
231.37	82.56
231.604	78.56
231.838	80.56
232.072	84.56
232.306	77.56
232.541	77.56
232.775	90.56
233.009	81.56
233.243	84.56
233.477	74.56
233.711	92.56
233.945	69.56
234.179	75.56
234.413	75.56
234.647	58.56
234.881	61.56
235.115	77.56
235.349	78.56
235.583	73.56
235.817	81.56
236.051	86.56
236.285	66.56
236.519	82.56
236.753	89.56
236.987	84.56
237.221	82.56
237.455	77.56
237.689	79.56
237.922	75.56
238.156	56.56
238.39	78.56
238.624	66.56
238.858	93.56
239.091	85.56
239.325	75.56
239.559	78.56
239.793	71.56
240.027	85.56
240.26	75.56
240.494	79.56
240.728	73.56
240.961	72.56
241.195	80.56
241.429	70.56
241.662	66.56
241.896	69.56
242.13	71.56
242.363	70.56
242.597	66.56
242.83	82.56
243.064	83.56
243.298	80.56
243.531	66.56
243.765	72.56
243.998	85.56
244.232	84.56
244.465	91.56
244.699	87.56
244.932	78.56
245.166	88.56
245.399	86.56
245.633	83.56
245.866	83.56
246.099	88.56
246.333	78.56
246.566	75.56
246.8	78.56
247.033	73.56
247.266	73.56
247.5	85.56
247.733	89.56
247.966	94.56
248.2	78.56
248.433	89.56
248.666	80.56
248.899	93.56
249.133	93.56
249.366	102.56
249.599	97.56
249.832	80.56
250.066	86.56
250.299	84.56
250.532	84.56
250.765	69.56
250.998	70.56
251.231	82.56
251.465	88.56
251.698	69.56
251.931	82.56
252.164	73.56
252.397	84.56
252.63	79.56
252.863	81.56
253.096	82.56
253.329	91.56
253.562	76.56
253.795	89.56
254.028	68.56
254.261	79.56
254.494	74.56
254.727	86.56
254.96	87.56
255.193	80.56
255.426	76.56
255.659	76.56
255.892	91.56
256.124	97.56
256.357	87.56
256.59	89.56
256.823	78.56
257.056	97.56
257.289	75.56
257.521	80.56
257.754	86.56
257.987	88.56
258.22	97.56
258.452	88.56
258.685	87.56
258.918	78.56
259.151	85.56
259.383	84.56
259.616	74.56
259.849	79.56
260.081	80.56
260.314	87.56
260.547	88.56
260.779	92.56
261.012	104.56
261.244	96.56
261.477	92.56
261.71	101.56
261.942	134.56
262.175	152.56
262.407	87.56
262.64	111.56
262.872	86.56
263.105	81.56
263.337	82.56
263.57	78.56
263.802	84.56
264.035	69.56
264.267	83.56
264.499	82.56
264.732	75.56
264.964	79.56
265.197	82.56
265.429	75.56
265.661	78.56
265.894	76.56
266.126	88.56
266.358	97.56
266.591	85.56
266.823	69.56
267.055	83.56
267.287	75.56
267.52	67.56
267.752	81.56
267.984	76.56
268.216	84.56
268.448	87.56
268.681	77.56
268.913	86.56
269.145	89.56
269.377	84.56
269.609	83.56
269.841	93.56
270.073	76.56
270.306	79.56
270.538	75.56
270.77	84.56
271.002	87.56
271.234	85.56
271.466	81.56
271.698	95.56
271.93	87.56
272.162	86.56
272.394	89.56
272.626	91.56
272.858	92.56
273.09	96.56
273.322	87.56
273.553	85.56
273.785	87.56
274.017	83.56
274.249	79.56
274.481	78.56
274.713	83.56
274.945	90.56
275.176	82.56
275.408	88.56
275.64	105.56
275.872	106.56
276.104	114.56
276.335	116.56
276.567	117.56
276.799	158.56
277.031	157.56
277.262	170.56
277.494	160.56
277.726	104.56
277.957	90.56
278.189	98.56
278.421	92.56
278.652	96.56
278.884	90.56
279.115	86.56
279.347	81.56
279.579	95.56
279.81	122.56
280.042	171.56
280.273	211.56
280.505	161.56
280.736	100.56
280.968	81.56
281.199	88.56
281.431	82.56
281.662	95.56
281.894	93.56
282.125	109.56
282.356	130.56
282.588	189.56
282.819	144.56
283.051	86.56
283.282	96.56
283.513	87.56
283.745	74.56
283.976	78.56
284.207	86.56
284.439	75.56
284.67	93.56
284.901	89.56
285.132	82.56
285.364	80.56
285.595	83.56
285.826	86.56
286.057	93.56
286.288	80.56
286.52	82.56
286.751	81.56
286.982	82.56
287.213	77.56
287.444	92.56
287.675	84.56
287.906	86.56
288.138	88.56
288.369	82.56
288.6	102.56
288.831	81.56
289.062	87.56
289.293	82.56
289.524	85.56
289.755	79.56
289.986	86.56
290.217	72.56
290.448	87.56
290.679	89.56
290.91	83.56
291.141	61.56
291.371	90.56
291.602	80.56
291.833	87.56
292.064	65.56
292.295	95.56
292.526	102.56
292.757	96.56
292.987	89.56
293.218	92.56
293.449	96.56
293.68	89.56
293.91	93.56
294.141	93.56
294.372	82.56
294.603	88.56
294.833	79.56
295.064	94.56
295.295	82.56
295.525	100.56
295.756	104.56
295.987	129.56
296.217	193.56
296.448	158.56
296.679	100.56
296.909	83.56
297.14	92.56
297.37	88.56
297.601	99.56
297.831	93.56
298.062	90.56
298.292	98.56
298.523	94.56
298.753	91.56
298.984	82.56
299.214	87.56
299.445	103.56
299.675	89.56
299.905	95.56
300.136	90.56
300.366	80.56
300.597	87.56
300.827	105.56
301.057	99.56
301.288	120.56
301.518	95.56
301.748	83.56
301.979	111.56
302.209	81.56
302.439	87.56
302.669	78.56
302.9	83.56
303.13	87.56
303.36	112.56
303.59	134.56
303.82	141.56
304.051	108.56
304.281	69.56
304.511	79.56
304.741	89.56
304.971	85.56
305.201	98.56
305.431	103.56
305.661	90.56
305.891	89.56
306.121	98.56
306.352	102.56
306.582	121.56
306.812	104.56
307.042	121.56
307.272	149.56
307.502	165.56
307.731	146.56
307.961	127.56
308.191	93.56
308.421	87.56
308.651	83.56
308.881	96.56
309.111	104.56
309.341	97.56
309.571	120.56
309.8	112.56
310.03	102.56
310.26	111.56
310.49	101.56
310.72	120.56
310.949	125.56
311.179	118.56
311.409	108.56
311.639	96.56
311.868	100.56
312.098	86.56
312.328	119.56
312.557	114.56
312.787	127.56
313.017	126.56
313.246	98.56
313.476	97.56
313.706	103.56
313.935	104.56
314.165	88.56
314.394	127.56
314.624	105.56
314.853	101.56
315.083	107.56
315.312	94.56
315.542	95.56
315.771	84.56
316.001	106.56
316.23	80.56
316.46	93.56
316.689	77.56
316.919	90.56
317.148	110.56
317.377	99.56
317.607	105.56
317.836	93.56
318.065	94.56
318.295	96.56
318.524	90.56
318.753	90.56
318.983	91.56
319.212	112.56
319.441	121.56
319.67	111.56
319.9	98.56
320.129	99.56
320.358	100.56
320.587	90.56
320.816	126.56
321.046	120.56
321.275	103.56
321.504	104.56
321.733	110.56
321.962	94.56
322.191	120.56
322.42	108.56
322.649	125.56
322.878	124.56
323.108	139.56
323.337	155.56
323.566	169.56
323.795	171.56
324.024	266.56
324.253	511.56
324.482	1092.56
324.71	2267.56
324.939	3029.56
325.168	1138.56
325.397	327.56
325.626	183.56
325.855	157.56
326.084	142.56
326.313	162.56
326.542	189.56
326.77	267.56
326.999	555.56
327.228	1153.56
327.457	2119.56
327.686	1720.56
327.914	586.56
328.143	481.56
328.372	585.56
328.6	343.56
328.829	189.56
329.058	210.56
329.287	224.56
329.515	183.56
329.744	234.56
329.972	400.56
330.201	816.56
330.43	1230.56
330.658	590.56
330.887	316.56
331.115	216.56
331.344	143.56
331.572	135.56
331.801	134.56
332.03	124.56
332.258	121.56
332.486	90.56
332.715	88.56
332.943	126.56
333.172	123.56
333.4	129.56
333.629	160.56
333.857	205.56
334.085	354.56
334.314	719.56
334.542	1441.56
334.771	1474.56
334.999	415.56
335.227	166.56
335.455	133.56
335.684	117.56
335.912	111.56
336.14	103.56
336.369	106.56
336.597	129.56
336.825	138.56
337.053	94.56
337.281	100.56
337.51	94.56
337.738	94.56
337.966	91.56
338.194	98.56
338.422	107.56
338.65	99.56
338.878	98.56
339.106	96.56
339.334	102.56
339.562	99.56
339.79	103.56
340.018	106.56
340.246	90.56
340.474	107.56
340.702	118.56
340.93	98.56
341.158	105.56
341.386	103.56
341.614	106.56
341.842	103.56
342.07	96.56
342.298	90.56
342.526	98.56
342.754	73.56
342.981	98.56
343.209	91.56
343.437	102.56
343.665	92.56
343.893	77.56
344.12	85.56
344.348	94.56
344.576	86.56
344.804	96.56
345.031	117.56
345.259	127.56
345.487	109.56
345.714	101.56
345.942	102.56
346.17	90.56
346.397	98.56
346.625	105.56
346.853	106.56
347.08	105.56
347.308	84.56
347.535	111.56
347.763	107.56
347.99	107.56
348.218	101.56
348.445	108.56
348.673	108.56
348.9	117.56
349.128	95.56
349.355	78.56
349.583	74.56
349.81	98.56
350.037	98.56
350.265	90.56
350.492	98.56
350.72	98.56
350.947	112.56
351.174	121.56
351.402	135.56
351.629	116.56
351.856	117.56
352.083	109.56
352.311	120.56
352.538	121.56
352.765	141.56
352.992	137.56
353.22	113.56
353.447	100.56
353.674	100.56
353.901	77.56
354.128	93.56
354.355	111.56
354.583	96.56
354.81	89.56
355.037	96.56
355.264	101.56
355.491	98.56
355.718	83.56
355.945	91.56
356.172	91.56
356.399	94.56
356.626	110.56
356.853	95.56
357.08	90.56
357.307	88.56
357.534	81.56
357.761	104.56
357.988	88.56
358.215	82.56
358.441	82.56
358.668	100.56
358.895	82.56
359.122	102.56
359.349	86.56
359.576	88.56
359.802	106.56
360.029	161.56
360.256	133.56
360.483	117.56
360.709	99.56
360.936	99.56
361.163	97.56
361.39	95.56
361.616	103.56
361.843	100.56
362.07	104.56
362.296	117.56
362.523	99.56
362.749	113.56
362.976	95.56
363.203	94.56
363.429	94.56
363.656	86.56
363.882	83.56
364.109	98.56
364.335	98.56
364.562	89.56
364.788	100.56
365.015	95.56
365.241	105.56
365.468	117.56
365.694	128.56
365.92	110.56
366.147	115.56
366.373	91.56
366.599	77.56
366.826	83.56
367.052	95.56
367.278	110.56
367.505	92.56
367.731	89.56
367.957	100.56
368.184	102.56
368.41	113.56
368.636	129.56
368.862	146.56
369.089	133.56
369.315	106.56
369.541	86.56
369.767	94.56
369.993	96.56
370.219	106.56
370.445	104.56
370.672	83.56
370.898	90.56
371.124	98.56
371.35	83.56
371.576	104.56
371.802	85.56
372.028	87.56
372.254	78.56
372.48	89.56
372.706	89.56
372.932	78.56
373.158	82.56
373.384	90.56
373.61	106.56
373.835	87.56
374.061	77.56
374.287	92.56
374.513	97.56
374.739	83.56
374.965	97.56
375.191	78.56
375.416	83.56
375.642	90.56
375.868	90.56
376.094	96.56
376.319	82.56
376.545	95.56
376.771	82.56
376.997	89.56
377.222	73.56
377.448	90.56
377.674	89.56
377.899	91.56
378.125	87.56
378.35	82.56
378.576	91.56
378.802	102.56
379.027	99.56
379.253	95.56
379.478	89.56
379.704	87.56
379.929	105.56
380.155	106.56
380.38	91.56
380.606	82.56
380.831	94.56
381.057	97.56
381.282	94.56
381.507	78.56
381.733	96.56
381.958	86.56
382.184	88.56
382.409	92.56
382.634	104.56
382.86	86.56
383.085	109.56
383.31	101.56
383.535	99.56
383.761	103.56
383.986	78.56
384.211	104.56
384.436	108.56
384.662	110.56
384.887	95.56
385.112	99.56
385.337	72.56
385.562	93.56
385.787	113.56
386.013	114.56
386.238	141.56
386.463	108.56
386.688	103.56
386.913	102.56
387.138	85.56
387.363	96.56
387.588	93.56
387.813	103.56
388.038	104.56
388.263	108.56
388.488	102.56
388.713	89.56
388.938	113.56
389.163	95.56
389.387	87.56
389.612	95.56
389.837	95.56
390.062	71.56
390.287	97.56
390.512	86.56
390.736	90.56
390.961	78.56
391.186	83.56
391.411	106.56
391.636	76.56
391.86	81.56
392.085	78.56
392.31	82.56
392.534	81.56
392.759	78.56
392.984	86.56
393.208	89.56
393.433	90.56
393.658	78.56
393.882	67.56
394.107	82.56
394.331	95.56
394.556	83.56
394.78	81.56
395.005	75.56
395.229	99.56
395.454	87.56
395.678	89.56
395.903	101.56
396.127	98.56
396.352	83.56
396.576	82.56
396.801	88.56
397.025	73.56
397.249	91.56
397.474	80.56
397.698	96.56
397.922	94.56
398.147	84.56
398.371	79.56
398.595	84.56
398.82	93.56
399.044	87.56
399.268	86.56
399.492	102.56
399.717	86.56
399.941	94.56
400.165	92.56
400.389	93.56
400.613	98.56
400.837	85.56
401.062	102.56
401.286	101.56
401.51	101.56
401.734	109.56
401.958	122.56
402.182	165.56
402.406	240.56
402.63	155.56
402.854	109.56
403.078	93.56
403.302	97.56
403.526	94.56
403.75	84.56
403.974	81.56
404.198	92.56
404.422	88.56
404.645	89.56
404.869	91.56
405.093	103.56
405.317	122.56
405.541	137.56
405.765	107.56
405.988	141.56
406.212	230.56
406.436	358.56
406.66	227.56
406.883	135.56
407.107	107.56
407.331	111.56
407.555	100.56
407.778	118.56
408.002	101.56
408.226	93.56
408.449	96.56
408.673	69.56
408.896	93.56
409.12	106.56
409.344	85.56
409.567	95.56
409.791	97.56
410.014	88.56
410.238	77.56
410.461	82.56
410.685	93.56
410.908	100.56
411.132	106.56
411.355	108.56
411.578	80.56
411.802	81.56
412.025	79.56
412.249	104.56
412.472	118.56
412.695	145.56
412.919	110.56
413.142	101.56
413.365	93.56
413.589	92.56
413.812	93.56
414.035	81.56
414.258	63.56
414.482	80.56
414.705	90.56
414.928	86.56
415.151	93.56
415.374	90.56
415.597	79.56
415.821	80.56
416.044	104.56
416.267	82.56
416.49	86.56
416.713	83.56
416.936	86.56
417.159	86.56
417.382	108.56
417.605	99.56
417.828	106.56
418.051	108.56
418.274	102.56
418.497	98.56
418.72	94.56
418.943	96.56
419.166	87.56
419.389	82.56
419.611	91.56
419.834	90.56
420.057	96.56
420.28	98.56
420.503	86.56
420.726	103.56
420.948	87.56
421.171	104.56
421.394	93.56
421.617	83.56
421.839	89.56
422.062	86.56
422.285	83.56
422.507	93.56
422.73	103.56
422.953	102.56
423.175	93.56
423.398	91.56
423.621	80.56
423.843	79.56
424.066	87.56
424.288	85.56
424.511	97.56
424.733	93.56
424.956	126.56
425.178	103.56
425.401	93.56
425.623	106.56
425.846	105.56
426.068	114.56
426.291	111.56
426.513	103.56
426.735	89.56
426.958	101.56
427.18	132.56
427.402	188.56
427.625	281.56
427.847	249.56
428.069	218.56
428.292	115.56
428.514	92.56
428.736	103.56
428.958	95.56
429.181	81.56
429.403	92.56
429.625	75.56
429.847	107.56
430.069	96.56
430.292	84.56
430.514	79.56
430.736	97.56
430.958	82.56
431.18	83.56
431.402	77.56
431.624	79.56
431.846	90.56
432.068	80.56
432.29	82.56
432.512	89.56
432.734	87.56
432.956	89.56
433.178	93.56
433.4	108.56
433.622	100.56
433.844	80.56
434.066	84.56
434.287	89.56
434.509	88.56
434.731	96.56
434.953	92.56
435.175	84.56
435.397	100.56
435.618	102.56
435.84	99.56
436.062	123.56
436.284	137.56
436.505	113.56
436.727	108.56
436.949	105.56
437.17	80.56
437.392	89.56
437.614	91.56
437.835	137.56
438.057	163.56
438.278	145.56
438.5	120.56
438.721	139.56
438.943	109.56
439.165	111.56
439.386	83.56
439.608	90.56
439.829	117.56
440.05	151.56
440.272	189.56
440.493	113.56
440.715	91.56
440.936	95.56
441.158	90.56
441.379	79.56
441.6	109.56
441.822	109.56
442.043	105.56
442.264	105.56
442.486	124.56
442.707	89.56
442.928	133.56
443.149	185.56
443.371	191.56
443.592	153.56
443.813	130.56
444.034	113.56
444.255	93.56
444.476	84.56
444.698	94.56
444.919	99.56
445.14	144.56
445.361	129.56
445.582	137.56
445.803	202.56
446.024	193.56
446.245	166.56
446.466	136.56
446.687	97.56
446.908	86.56
447.129	85.56
447.35	84.56
447.571	105.56
447.792	105.56
448.013	97.56
448.234	134.56
448.455	108.56
448.675	144.56
448.896	147.56
449.117	101.56
449.338	106.56
449.559	144.56
449.779	166.56
450	107.56
450.221	91.56
450.442	109.56
450.662	114.56
450.883	143.56
451.104	162.56
451.324	109.56
451.545	98.56
451.766	79.56
451.986	82.56
452.207	85.56
452.428	101.56
452.648	126.56
452.869	146.56
453.089	157.56
453.31	158.56
453.53	106.56
453.751	103.56
453.971	116.56
454.192	148.56
454.412	109.56
454.633	91.56
454.853	96.56
455.073	85.56
455.294	89.56
455.514	115.56
455.734	102.56
455.955	93.56
456.175	77.56
456.395	76.56
456.616	74.56
456.836	91.56
457.056	72.56
457.276	105.56
457.497	90.56
457.717	82.56
457.937	87.56
458.157	79.56
458.377	87.56
458.598	157.56
458.818	224.56
459.038	275.56
459.258	167.56
459.478	99.56
459.698	83.56
459.918	78.56
460.138	82.56
460.358	80.56
460.578	103.56
460.798	94.56
461.018	80.56
461.238	86.56
461.458	80.56
461.678	93.56
461.898	95.56
462.118	71.56
462.338	74.56
462.558	80.56
462.777	92.56
462.997	95.56
463.217	106.56
463.437	99.56
463.657	92.56
463.876	90.56
464.096	102.56
464.316	105.56
464.536	112.56
464.755	110.56
464.975	160.56
465.195	278.56
465.414	281.56
465.634	123.56
465.854	101.56
466.073	77.56
466.293	86.56
466.512	89.56
466.732	98.56
466.951	88.56
467.171	89.56
467.391	107.56
467.61	144.56
467.829	185.56
468.049	450.56
468.268	718.56
468.488	190.56
468.707	100.56
468.927	108.56
469.146	81.56
469.365	98.56
469.585	98.56
469.804	109.56
470.023	119.56
470.243	93.56
470.462	109.56
470.681	145.56
470.901	106.56
471.12	91.56
471.339	113.56
471.558	122.56
471.777	140.56
471.997	240.56
472.216	870.56
472.435	2052.56
472.654	508.56
472.873	169.56
473.092	113.56
473.311	102.56
473.53	95.56
473.749	103.56
473.968	97.56
474.187	125.56
474.406	120.56
474.625	101.56
474.844	93.56
475.063	87.56
475.282	90.56
475.501	82.56
475.72	97.56
475.939	87.56
476.158	85.56
476.377	83.56
476.596	97.56
476.814	99.56
477.033	103.56
477.252	99.56
477.471	82.56
477.69	93.56
477.908	84.56
478.127	94.56
478.346	87.56
478.564	97.56
478.783	104.56
479.002	101.56
479.22	106.56
479.439	131.56
479.658	142.56
479.876	125.56
480.095	114.56
480.313	130.56
480.532	159.56
480.751	229.56
480.969	804.56
481.188	3419.56
481.406	2123.56
481.624	315.56
481.843	117.56
482.061	105.56
482.28	97.56
482.498	84.56
482.717	84.56
482.935	98.56
483.153	84.56
483.372	79.56
483.59	98.56
483.808	81.56
484.027	91.56
484.245	100.56
484.463	95.56
484.681	87.56
484.9	96.56
485.118	105.56
485.336	83.56
485.554	93.56
485.772	95.56
485.99	107.56
486.209	111.56
486.427	104.56
486.645	121.56
486.863	138.56
487.081	106.56
487.299	92.56
487.517	107.56
487.735	98.56
487.953	95.56
488.171	95.56
488.389	110.56
488.607	96.56
488.825	97.56
489.043	83.56
489.261	95.56
489.479	81.56
489.696	83.56
489.914	78.56
490.132	80.56
490.35	88.56
490.568	71.56
490.786	81.56
491.003	77.56
491.221	109.56
491.439	91.56
491.657	75.56
491.874	97.56
492.092	79.56
492.31	97.56
492.527	87.56
492.745	98.56
492.963	97.56
493.18	93.56
493.398	82.56
493.615	84.56
493.833	82.56
494.05	82.56
494.268	91.56
494.485	100.56
494.703	89.56
494.92	70.56
495.138	90.56
495.355	90.56
495.573	87.56
495.79	91.56
496.008	89.56
496.225	80.56
496.442	71.56
496.66	70.56
496.877	103.56
497.094	101.56
497.312	76.56
497.529	96.56
497.746	87.56
497.963	92.56
498.181	78.56
498.398	85.56
498.615	119.56
498.832	113.56
499.049	90.56
499.267	79.56
499.484	75.56
499.701	90.56
499.918	87.56
500.135	86.56
500.352	85.56
500.569	103.56
500.786	101.56
501.003	87.56
501.22	90.56
501.437	89.56
501.654	93.56
501.871	139.56
502.088	101.56
502.305	94.56
502.522	95.56
502.739	81.56
502.956	106.56
503.172	95.56
503.389	113.56
503.606	129.56
503.823	115.56
504.04	93.56
504.256	89.56
504.473	85.56
504.69	88.56
504.907	63.56
505.123	79.56
505.34	95.56
505.557	82.56
505.773	94.56
505.99	86.56
506.207	96.56
506.423	92.56
506.64	91.56
506.856	81.56
507.073	77.56
507.289	93.56
507.506	97.56
507.722	138.56
507.939	143.56
508.155	93.56
508.372	101.56
508.588	82.56
508.805	102.56
509.021	91.56
509.238	98.56
509.454	112.56
509.67	94.56
509.887	113.56
510.103	159.56
510.319	262.56
510.536	1018.56
510.752	3670.56
510.968	1029.56
511.184	197.56
511.401	139.56
511.617	119.56
511.833	104.56
512.049	97.56
512.265	93.56
512.481	96.56
512.698	88.56
512.914	95.56
513.13	94.56
513.346	110.56
