Data from Circ_2007_H10_HRD10591_00011.txt Node
Date: Wed Jan 03 10:21:59 EST 2024
User: Yrep
Spectrometer: HR+D1059
Trigger mode: 1
Integration Time (sec): 1.000000E-1
Scans to average: 1
Electric dark correction enabled: true
Nonlinearity correction enabled: false
Boxcar width: 0
XAxis mode: Wavelengths
Number of Pixels in Spectrum: 2048
>>>>>Begin Spectral Data<<<<<
223.165	-13.19
223.4	-13.19
223.635	-13.19
223.869	-22.19
224.104	-40.19
224.338	-18.19
224.573	-14.19
224.808	-1.19
225.042	-13.19
225.277	8.81
225.511	0.81
225.746	-0.19
225.98	13.81
226.215	13.81
226.449	12.81
226.683	12.81
226.918	18.81
227.152	40.81
227.387	27.81
227.621	38.81
227.856	44.81
228.09	55.81
228.324	50.81
228.559	52.81
228.793	61.81
229.027	53.81
229.262	70.81
229.496	80.81
229.73	102.81
229.964	88.81
230.199	78.81
230.433	75.81
230.667	82.81
230.901	77.81
231.136	89.81
231.37	84.81
231.604	89.81
231.838	72.81
232.072	84.81
232.306	79.81
232.541	87.81
232.775	73.81
233.009	68.81
233.243	77.81
233.477	82.81
233.711	72.81
233.945	83.81
234.179	78.81
234.413	81.81
234.647	86.81
234.881	77.81
235.115	105.81
235.349	94.81
235.583	84.81
235.817	82.81
236.051	82.81
236.285	77.81
236.519	75.81
236.753	81.81
236.987	86.81
237.221	86.81
237.455	96.81
237.689	75.81
237.922	78.81
238.156	74.81
238.39	83.81
238.624	76.81
238.858	81.81
239.091	70.81
239.325	78.81
239.559	90.81
239.793	80.81
240.027	77.81
240.26	74.81
240.494	76.81
240.728	75.81
240.961	69.81
241.195	85.81
241.429	68.81
241.662	65.81
241.896	70.81
242.13	66.81
242.363	88.81
242.597	75.81
242.83	85.81
243.064	70.81
243.298	76.81
243.531	79.81
243.765	86.81
243.998	80.81
244.232	87.81
244.465	98.81
244.699	85.81
244.932	80.81
245.166	83.81
245.399	75.81
245.633	86.81
245.866	75.81
246.099	69.81
246.333	85.81
246.566	87.81
246.8	80.81
247.033	89.81
247.266	76.81
247.5	94.81
247.733	87.81
247.966	97.81
248.2	74.81
248.433	73.81
248.666	75.81
248.899	85.81
249.133	93.81
249.366	106.81
249.599	100.81
249.832	89.81
250.066	67.81
250.299	84.81
250.532	71.81
250.765	75.81
250.998	81.81
251.231	86.81
251.465	87.81
251.698	80.81
251.931	92.81
252.164	83.81
252.397	78.81
252.63	86.81
252.863	79.81
253.096	95.81
253.329	93.81
253.562	93.81
253.795	73.81
254.028	74.81
254.261	72.81
254.494	84.81
254.727	94.81
254.96	80.81
255.193	74.81
255.426	80.81
255.659	71.81
255.892	87.81
256.124	93.81
256.357	87.81
256.59	74.81
256.823	95.81
257.056	79.81
257.289	83.81
257.521	64.81
257.754	81.81
257.987	86.81
258.22	80.81
258.452	92.81
258.685	81.81
258.918	82.81
259.151	78.81
259.383	79.81
259.616	83.81
259.849	101.81
260.081	71.81
260.314	79.81
260.547	98.81
260.779	78.81
261.012	86.81
261.244	92.81
261.477	85.81
261.71	76.81
261.942	122.81
262.175	127.81
262.407	93.81
262.64	94.81
262.872	79.81
263.105	97.81
263.337	96.81
263.57	91.81
263.802	84.81
264.035	77.81
264.267	79.81
264.499	94.81
264.732	81.81
264.964	88.81
265.197	93.81
265.429	96.81
265.661	97.81
265.894	96.81
266.126	91.81
266.358	82.81
266.591	98.81
266.823	84.81
267.055	89.81
267.287	85.81
267.52	89.81
267.752	86.81
267.984	82.81
268.216	86.81
268.448	84.81
268.681	97.81
268.913	76.81
269.145	72.81
269.377	94.81
269.609	75.81
269.841	77.81
270.073	75.81
270.306	91.81
270.538	92.81
270.77	77.81
271.002	88.81
271.234	81.81
271.466	86.81
271.698	77.81
271.93	92.81
272.162	90.81
272.394	100.81
272.626	94.81
272.858	98.81
273.09	84.81
273.322	92.81
273.553	83.81
273.785	89.81
274.017	89.81
274.249	92.81
274.481	76.81
274.713	79.81
274.945	86.81
275.176	95.81
275.408	75.81
275.64	105.81
275.872	103.81
276.104	98.81
276.335	106.81
276.567	122.81
276.799	137.81
277.031	126.81
277.262	127.81
277.494	117.81
277.726	91.81
277.957	87.81
278.189	75.81
278.421	81.81
278.652	75.81
278.884	89.81
279.115	81.81
279.347	98.81
279.579	92.81
279.81	99.81
280.042	131.81
280.273	141.81
280.505	132.81
280.736	87.81
280.968	88.81
281.199	81.81
281.431	95.81
281.662	86.81
281.894	102.81
282.125	103.81
282.356	115.81
282.588	164.81
282.819	131.81
283.051	93.81
283.282	86.81
283.513	84.81
283.745	99.81
283.976	96.81
284.207	90.81
284.439	85.81
284.67	97.81
284.901	90.81
285.132	99.81
285.364	89.81
285.595	90.81
285.826	74.81
286.057	94.81
286.288	86.81
286.52	83.81
286.751	91.81
286.982	75.81
287.213	94.81
287.444	97.81
287.675	89.81
287.906	86.81
288.138	106.81
288.369	73.81
288.6	92.81
288.831	91.81
289.062	88.81
289.293	83.81
289.524	73.81
289.755	86.81
289.986	80.81
290.217	83.81
290.448	99.81
290.679	87.81
290.91	98.81
291.141	81.81
291.371	81.81
291.602	90.81
291.833	76.81
292.064	90.81
292.295	100.81
292.526	95.81
292.757	78.81
292.987	90.81
293.218	87.81
293.449	92.81
293.68	91.81
293.91	84.81
294.141	89.81
294.372	93.81
294.603	104.81
294.833	108.81
295.064	88.81
295.295	82.81
295.525	93.81
295.756	102.81
295.987	137.81
296.217	185.81
296.448	152.81
296.679	97.81
296.909	94.81
297.14	103.81
297.37	80.81
297.601	89.81
297.831	86.81
298.062	97.81
298.292	100.81
298.523	76.81
298.753	85.81
298.984	91.81
299.214	106.81
299.445	89.81
299.675	99.81
299.905	96.81
300.136	99.81
300.366	97.81
300.597	103.81
300.827	100.81
301.057	112.81
301.288	115.81
301.518	109.81
301.748	106.81
301.979	111.81
302.209	118.81
302.439	100.81
302.669	74.81
302.9	98.81
303.13	105.81
303.36	105.81
303.59	98.81
303.82	131.81
304.051	93.81
304.281	97.81
304.511	93.81
304.741	90.81
304.971	90.81
305.201	93.81
305.431	88.81
305.661	90.81
305.891	83.81
306.121	95.81
306.352	97.81
306.582	96.81
306.812	103.81
307.042	89.81
307.272	121.81
307.502	126.81
307.731	121.81
307.961	111.81
308.191	98.81
308.421	85.81
308.651	96.81
308.881	104.81
309.111	104.81
309.341	117.81
309.571	107.81
309.8	97.81
310.03	105.81
310.26	90.81
310.49	91.81
310.72	101.81
310.949	111.81
311.179	105.81
311.409	112.81
311.639	108.81
311.868	99.81
312.098	89.81
312.328	92.81
312.557	104.81
312.787	117.81
313.017	100.81
313.246	99.81
313.476	100.81
313.706	92.81
313.935	101.81
314.165	102.81
314.394	104.81
314.624	116.81
314.853	106.81
315.083	104.81
315.312	89.81
315.542	89.81
315.771	109.81
316.001	81.81
316.23	94.81
316.46	87.81
316.689	92.81
316.919	96.81
317.148	97.81
317.377	97.81
317.607	99.81
317.836	94.81
318.065	70.81
318.295	82.81
318.524	81.81
318.753	101.81
318.983	110.81
319.212	104.81
319.441	107.81
319.67	115.81
319.9	106.81
320.129	115.81
320.358	102.81
320.587	103.81
320.816	106.81
321.046	102.81
321.275	98.81
321.504	97.81
321.733	101.81
321.962	106.81
322.191	106.81
322.42	105.81
322.649	117.81
322.878	109.81
323.108	137.81
323.337	143.81
323.566	141.81
323.795	176.81
324.024	240.81
324.253	467.81
324.482	977.81
324.71	2088.81
324.939	2861.81
325.168	1047.81
325.397	291.81
325.626	149.81
325.855	141.81
326.084	142.81
326.313	145.81
326.542	154.81
326.77	268.81
326.999	553.81
327.228	1081.81
327.457	2077.81
327.686	1711.81
327.914	494.81
328.143	346.81
328.372	372.81
328.6	221.81
328.829	171.81
329.058	160.81
329.287	183.81
329.515	138.81
329.744	179.81
329.972	253.81
330.201	430.81
330.43	638.81
330.658	351.81
330.887	223.81
331.115	165.81
331.344	126.81
331.572	127.81
331.801	124.81
332.03	109.81
332.258	109.81
332.486	90.81
332.715	107.81
332.943	110.81
333.172	112.81
333.4	113.81
333.629	119.81
333.857	158.81
334.085	251.81
334.314	406.81
334.542	779.81
334.771	805.81
334.999	243.81
335.227	138.81
335.455	102.81
335.684	94.81
335.912	115.81
336.14	108.81
336.369	104.81
336.597	107.81
336.825	112.81
337.053	104.81
337.281	93.81
337.51	86.81
337.738	80.81
337.966	79.81
338.194	98.81
338.422	102.81
338.65	90.81
338.878	87.81
339.106	101.81
339.334	92.81
339.562	87.81
339.79	107.81
340.018	102.81
340.246	94.81
340.474	101.81
340.702	110.81
340.93	103.81
341.158	90.81
341.386	102.81
341.614	90.81
341.842	99.81
342.07	99.81
342.298	93.81
342.526	83.81
342.754	95.81
342.981	91.81
343.209	97.81
343.437	81.81
343.665	93.81
343.893	91.81
344.12	112.81
344.348	89.81
344.576	100.81
344.804	102.81
345.031	104.81
345.259	110.81
345.487	96.81
345.714	93.81
345.942	101.81
346.17	84.81
346.397	89.81
346.625	106.81
346.853	96.81
347.08	96.81
347.308	102.81
347.535	94.81
347.763	115.81
347.99	86.81
348.218	115.81
348.445	125.81
348.673	123.81
348.9	105.81
349.128	99.81
349.355	107.81
349.583	73.81
349.81	101.81
350.037	100.81
350.265	95.81
350.492	94.81
350.72	100.81
350.947	109.81
351.174	110.81
351.402	125.81
351.629	102.81
351.856	95.81
352.083	116.81
352.311	117.81
352.538	139.81
352.765	122.81
352.992	118.81
353.22	104.81
353.447	111.81
353.674	110.81
353.901	100.81
354.128	89.81
354.355	102.81
354.583	102.81
354.81	106.81
355.037	95.81
355.264	90.81
355.491	99.81
355.718	85.81
355.945	95.81
356.172	106.81
356.399	106.81
356.626	101.81
356.853	85.81
357.08	104.81
357.307	91.81
357.534	107.81
357.761	98.81
357.988	111.81
358.215	103.81
358.441	98.81
358.668	90.81
358.895	102.81
359.122	94.81
359.349	94.81
359.576	106.81
359.802	126.81
360.029	123.81
360.256	132.81
360.483	116.81
360.709	100.81
360.936	88.81
361.163	101.81
361.39	93.81
361.616	100.81
361.843	109.81
362.07	100.81
362.296	107.81
362.523	82.81
362.749	102.81
362.976	94.81
363.203	98.81
363.429	84.81
363.656	95.81
363.882	86.81
364.109	76.81
364.335	98.81
364.562	94.81
364.788	102.81
365.015	108.81
365.241	106.81
365.468	133.81
365.694	111.81
365.92	107.81
366.147	91.81
366.373	83.81
366.599	99.81
366.826	89.81
367.052	95.81
367.278	94.81
367.505	105.81
367.731	98.81
367.957	114.81
368.184	112.81
368.41	112.81
368.636	122.81
368.862	130.81
369.089	106.81
369.315	92.81
369.541	101.81
369.767	80.81
369.993	91.81
370.219	93.81
370.445	98.81
370.672	90.81
370.898	98.81
371.124	86.81
371.35	92.81
371.576	83.81
371.802	98.81
372.028	90.81
372.254	94.81
372.48	84.81
372.706	83.81
372.932	95.81
373.158	73.81
373.384	92.81
373.61	89.81
373.835	87.81
374.061	89.81
374.287	90.81
374.513	103.81
374.739	98.81
374.965	86.81
375.191	72.81
375.416	89.81
375.642	85.81
375.868	103.81
376.094	89.81
376.319	87.81
376.545	77.81
376.771	93.81
376.997	83.81
377.222	98.81
377.448	84.81
377.674	84.81
377.899	101.81
378.125	95.81
378.35	96.81
378.576	93.81
378.802	95.81
379.027	96.81
379.253	98.81
379.478	92.81
379.704	89.81
379.929	116.81
380.155	111.81
380.38	98.81
380.606	102.81
380.831	100.81
381.057	100.81
381.282	94.81
381.507	101.81
381.733	108.81
381.958	104.81
382.184	106.81
382.409	106.81
382.634	115.81
382.86	101.81
383.085	108.81
383.31	106.81
383.535	116.81
383.761	103.81
383.986	100.81
384.211	110.81
384.436	107.81
384.662	133.81
384.887	125.81
385.112	119.81
385.337	110.81
385.562	117.81
385.787	109.81
386.013	117.81
386.238	134.81
386.463	114.81
386.688	116.81
386.913	103.81
387.138	111.81
387.363	107.81
387.588	98.81
387.813	105.81
388.038	118.81
388.263	131.81
388.488	122.81
388.713	100.81
388.938	86.81
389.163	86.81
389.387	90.81
389.612	86.81
389.837	101.81
390.062	101.81
390.287	101.81
390.512	76.81
390.736	93.81
390.961	87.81
391.186	100.81
391.411	89.81
391.636	87.81
391.86	85.81
392.085	82.81
392.31	88.81
392.534	90.81
392.759	81.81
392.984	93.81
393.208	93.81
393.433	114.81
393.658	99.81
393.882	89.81
394.107	92.81
394.331	79.81
394.556	97.81
394.78	98.81
395.005	103.81
395.229	93.81
395.454	93.81
395.678	95.81
395.903	97.81
396.127	92.81
396.352	83.81
396.576	93.81
396.801	92.81
397.025	106.81
397.249	93.81
397.474	102.81
397.698	93.81
397.922	105.81
398.147	105.81
398.371	87.81
398.595	98.81
398.82	88.81
399.044	78.81
399.268	78.81
399.492	83.81
399.717	92.81
399.941	95.81
400.165	87.81
400.389	91.81
400.613	94.81
400.837	82.81
401.062	85.81
401.286	81.81
401.51	77.81
401.734	85.81
401.958	94.81
402.182	144.81
402.406	198.81
402.63	147.81
402.854	105.81
403.078	96.81
403.302	84.81
403.526	101.81
403.75	90.81
403.974	84.81
404.198	93.81
404.422	93.81
404.645	93.81
404.869	97.81
405.093	126.81
405.317	135.81
405.541	135.81
405.765	111.81
405.988	134.81
406.212	193.81
406.436	300.81
406.66	195.81
406.883	113.81
407.107	107.81
407.331	92.81
407.555	112.81
407.778	115.81
408.002	111.81
408.226	97.81
408.449	96.81
408.673	80.81
408.896	106.81
409.12	101.81
409.344	97.81
409.567	101.81
409.791	102.81
410.014	99.81
410.238	90.81
410.461	106.81
410.685	98.81
410.908	100.81
411.132	99.81
411.355	101.81
411.578	100.81
411.802	93.81
412.025	92.81
412.249	100.81
412.472	103.81
412.695	122.81
412.919	108.81
413.142	99.81
413.365	89.81
413.589	97.81
413.812	74.81
414.035	93.81
414.258	96.81
414.482	92.81
414.705	97.81
414.928	99.81
415.151	83.81
415.374	93.81
415.597	79.81
415.821	100.81
416.044	93.81
416.267	102.81
416.49	94.81
416.713	82.81
416.936	87.81
417.159	103.81
417.382	94.81
417.605	96.81
417.828	105.81
418.051	99.81
418.274	107.81
418.497	94.81
418.72	104.81
418.943	85.81
419.166	90.81
419.389	88.81
419.611	91.81
419.834	98.81
420.057	104.81
420.28	98.81
420.503	84.81
420.726	90.81
420.948	95.81
421.171	108.81
421.394	103.81
421.617	84.81
421.839	98.81
422.062	97.81
422.285	103.81
422.507	105.81
422.73	118.81
422.953	97.81
423.175	94.81
423.398	97.81
423.621	89.81
423.843	88.81
424.066	93.81
424.288	88.81
424.511	106.81
424.733	109.81
424.956	109.81
425.178	110.81
425.401	118.81
425.623	108.81
425.846	91.81
426.068	107.81
426.291	88.81
426.513	83.81
426.735	100.81
426.958	109.81
427.18	129.81
427.402	167.81
427.625	236.81
427.847	210.81
428.069	185.81
428.292	127.81
428.514	113.81
428.736	91.81
428.958	85.81
429.181	83.81
429.403	86.81
429.625	100.81
429.847	98.81
430.069	115.81
430.292	99.81
430.514	98.81
430.736	90.81
430.958	93.81
431.18	90.81
431.402	95.81
431.624	83.81
431.846	69.81
432.068	88.81
432.29	89.81
432.512	93.81
432.734	92.81
432.956	90.81
433.178	90.81
433.4	114.81
433.622	88.81
433.844	82.81
434.066	94.81
434.287	91.81
434.509	87.81
434.731	106.81
434.953	86.81
435.175	94.81
435.397	96.81
435.618	117.81
435.84	115.81
436.062	145.81
436.284	129.81
436.505	115.81
436.727	112.81
436.949	105.81
437.17	84.81
437.392	97.81
437.614	98.81
437.835	119.81
438.057	152.81
438.278	137.81
438.5	112.81
438.721	129.81
438.943	108.81
439.165	105.81
439.386	91.81
439.608	89.81
439.829	108.81
440.05	143.81
440.272	187.81
440.493	110.81
440.715	90.81
440.936	88.81
441.158	91.81
441.379	94.81
441.6	99.81
441.822	111.81
442.043	106.81
442.264	115.81
442.486	113.81
442.707	93.81
442.928	126.81
443.149	165.81
443.371	171.81
443.592	133.81
443.813	135.81
444.034	134.81
444.255	91.81
444.476	93.81
444.698	85.81
444.919	87.81
445.14	125.81
445.361	137.81
445.582	138.81
445.803	169.81
446.024	175.81
446.245	161.81
446.466	129.81
446.687	98.81
446.908	99.81
447.129	96.81
447.35	99.81
447.571	98.81
447.792	92.81
448.013	109.81
448.234	132.81
448.455	96.81
448.675	142.81
448.896	133.81
449.117	129.81
449.338	115.81
449.559	166.81
449.779	170.81
450	102.81
450.221	102.81
450.442	83.81
450.662	111.81
450.883	123.81
451.104	127.81
451.324	102.81
451.545	86.81
451.766	98.81
451.986	82.81
452.207	89.81
452.428	102.81
452.648	106.81
452.869	131.81
453.089	126.81
453.31	139.81
453.53	114.81
453.751	110.81
453.971	122.81
454.192	129.81
454.412	87.81
454.633	78.81
454.853	100.81
455.073	92.81
455.294	83.81
455.514	109.81
455.734	98.81
455.955	86.81
456.175	97.81
456.395	68.81
456.616	79.81
456.836	96.81
457.056	91.81
457.276	86.81
457.497	83.81
457.717	90.81
457.937	99.81
458.157	92.81
458.377	87.81
458.598	111.81
458.818	197.81
459.038	204.81
459.258	159.81
459.478	103.81
459.698	95.81
459.918	92.81
460.138	86.81
460.358	67.81
460.578	84.81
460.798	96.81
461.018	102.81
461.238	79.81
461.458	95.81
461.678	82.81
461.898	95.81
462.118	95.81
462.338	90.81
462.558	93.81
462.777	91.81
462.997	91.81
463.217	111.81
463.437	88.81
463.657	97.81
463.876	98.81
464.096	91.81
464.316	94.81
464.536	96.81
464.755	114.81
464.975	118.81
465.195	225.81
465.414	222.81
465.634	111.81
465.854	94.81
466.073	84.81
466.293	106.81
466.512	81.81
466.732	86.81
466.951	97.81
467.171	109.81
467.391	101.81
467.61	123.81
467.829	121.81
468.049	253.81
468.268	365.81
468.488	137.81
468.707	85.81
468.927	94.81
469.146	90.81
469.365	92.81
469.585	105.81
469.804	111.81
470.023	103.81
470.243	105.81
470.462	111.81
470.681	128.81
470.901	105.81
471.12	93.81
471.339	94.81
471.558	110.81
471.777	126.81
471.997	156.81
472.216	457.81
472.435	1021.81
472.654	295.81
472.873	139.81
473.092	109.81
473.311	85.81
473.53	65.81
473.749	82.81
473.968	89.81
474.187	112.81
474.406	102.81
474.625	86.81
474.844	83.81
475.063	95.81
475.282	92.81
475.501	85.81
475.72	100.81
475.939	89.81
476.158	86.81
476.377	78.81
476.596	82.81
476.814	98.81
477.033	111.81
477.252	95.81
477.471	94.81
477.69	91.81
477.908	100.81
478.127	89.81
478.346	93.81
478.564	94.81
478.783	121.81
479.002	110.81
479.22	105.81
479.439	108.81
479.658	120.81
479.876	114.81
480.095	99.81
480.313	115.81
480.532	133.81
480.751	176.81
480.969	427.81
481.188	1721.81
481.406	1112.81
481.624	209.81
481.843	122.81
482.061	107.81
482.28	121.81
482.498	93.81
482.717	86.81
482.935	91.81
483.153	84.81
483.372	90.81
483.59	80.81
483.808	94.81
484.027	93.81
484.245	92.81
484.463	84.81
484.681	96.81
484.9	93.81
485.118	109.81
485.336	100.81
485.554	110.81
485.772	96.81
485.99	111.81
486.209	110.81
486.427	106.81
486.645	128.81
486.863	137.81
487.081	121.81
487.299	97.81
487.517	90.81
487.735	90.81
487.953	103.81
488.171	99.81
488.389	88.81
488.607	109.81
488.825	87.81
489.043	71.81
489.261	94.81
489.479	101.81
489.696	96.81
489.914	100.81
490.132	82.81
490.35	94.81
490.568	103.81
490.786	100.81
491.003	83.81
491.221	100.81
491.439	100.81
491.657	102.81
491.874	93.81
492.092	93.81
492.31	109.81
492.527	102.81
492.745	76.81
492.963	90.81
493.18	87.81
493.398	88.81
493.615	102.81
493.833	101.81
494.05	101.81
494.268	94.81
494.485	78.81
494.703	101.81
494.92	95.81
495.138	93.81
495.355	101.81
495.573	100.81
495.79	85.81
496.008	93.81
496.225	90.81
496.442	78.81
496.66	78.81
496.877	93.81
497.094	104.81
497.312	90.81
497.529	100.81
497.746	91.81
497.963	85.81
498.181	103.81
498.398	103.81
498.615	110.81
498.832	119.81
499.049	101.81
499.267	102.81
499.484	94.81
499.701	99.81
499.918	98.81
500.135	94.81
500.352	79.81
500.569	101.81
500.786	116.81
501.003	83.81
501.22	108.81
501.437	89.81
501.654	108.81
501.871	125.81
502.088	96.81
502.305	93.81
502.522	106.81
502.739	98.81
502.956	101.81
503.172	96.81
503.389	106.81
503.606	115.81
503.823	107.81
504.04	105.81
504.256	98.81
504.473	91.81
504.69	113.81
504.907	98.81
505.123	99.81
505.34	94.81
505.557	88.81
505.773	85.81
505.99	88.81
506.207	95.81
506.423	100.81
506.64	113.81
506.856	91.81
507.073	86.81
507.289	116.81
507.506	100.81
507.722	128.81
507.939	123.81
508.155	103.81
508.372	110.81
508.588	88.81
508.805	105.81
509.021	94.81
509.238	108.81
509.454	86.81
509.67	113.81
509.887	106.81
510.103	135.81
510.319	232.81
510.536	860.81
510.752	2999.81
510.968	803.81
511.184	177.81
511.401	124.81
511.617	115.81
511.833	110.81
512.049	100.81
512.265	96.81
512.481	99.81
