Data from Circ_2007_H10_HRD10591_00090.txt Node
Date: Wed Jan 03 10:22:15 EST 2024
User: Yrep
Spectrometer: HR+D1059
Trigger mode: 1
Integration Time (sec): 1.000000E-1
Scans to average: 1
Electric dark correction enabled: true
Nonlinearity correction enabled: false
Boxcar width: 0
XAxis mode: Wavelengths
Number of Pixels in Spectrum: 2048
>>>>>Begin Spectral Data<<<<<
223.165	-17.81
223.4	-17.81
223.635	-17.81
223.869	-28.81
224.104	-14.81
224.338	-20.81
224.573	-16.81
224.808	-18.81
225.042	-0.81
225.277	7.19
225.511	3.19
225.746	14.19
225.98	8.19
226.215	14.19
226.449	11.19
226.683	7.19
226.918	26.19
227.152	27.19
227.387	28.19
227.621	33.19
227.856	40.19
228.09	33.19
228.324	50.19
228.559	45.19
228.793	54.19
229.027	65.19
229.262	58.19
229.496	81.19
229.73	90.19
229.964	79.19
230.199	75.19
230.433	76.19
230.667	75.19
230.901	74.19
231.136	82.19
231.37	75.19
231.604	76.19
231.838	84.19
232.072	73.19
232.306	65.19
232.541	78.19
232.775	96.19
233.009	88.19
233.243	77.19
233.477	90.19
233.711	70.19
233.945	70.19
234.179	93.19
234.413	70.19
234.647	66.19
234.881	72.19
235.115	69.19
235.349	74.19
235.583	82.19
235.817	87.19
236.051	79.19
236.285	77.19
236.519	72.19
236.753	86.19
236.987	76.19
237.221	97.19
237.455	84.19
237.689	82.19
237.922	87.19
238.156	72.19
238.39	57.19
238.624	79.19
238.858	73.19
239.091	72.19
239.325	69.19
239.559	79.19
239.793	96.19
240.027	94.19
240.26	80.19
240.494	79.19
240.728	72.19
240.961	83.19
241.195	76.19
241.429	91.19
241.662	77.19
241.896	73.19
242.13	80.19
242.363	63.19
242.597	73.19
242.83	82.19
243.064	87.19
243.298	82.19
243.531	85.19
243.765	80.19
243.998	60.19
244.232	80.19
244.465	88.19
244.699	82.19
244.932	80.19
245.166	74.19
245.399	76.19
245.633	83.19
245.866	85.19
246.099	90.19
246.333	82.19
246.566	79.19
246.8	86.19
247.033	71.19
247.266	78.19
247.5	63.19
247.733	81.19
247.966	68.19
248.2	81.19
248.433	80.19
248.666	78.19
248.899	90.19
249.133	75.19
249.366	103.19
249.599	100.19
249.832	89.19
250.066	77.19
250.299	74.19
250.532	91.19
250.765	81.19
250.998	85.19
251.231	82.19
251.465	78.19
251.698	90.19
251.931	78.19
252.164	71.19
252.397	90.19
252.63	83.19
252.863	70.19
253.096	78.19
253.329	90.19
253.562	81.19
253.795	78.19
254.028	77.19
254.261	74.19
254.494	80.19
254.727	66.19
254.96	64.19
255.193	84.19
255.426	67.19
255.659	87.19
255.892	90.19
256.124	85.19
256.357	87.19
256.59	72.19
256.823	98.19
257.056	74.19
257.289	83.19
257.521	83.19
257.754	79.19
257.987	73.19
258.22	83.19
258.452	95.19
258.685	89.19
258.918	83.19
259.151	81.19
259.383	81.19
259.616	86.19
259.849	81.19
260.081	85.19
260.314	94.19
260.547	96.19
260.779	74.19
261.012	93.19
261.244	121.19
261.477	95.19
261.71	86.19
261.942	140.19
262.175	140.19
262.407	90.19
262.64	79.19
262.872	84.19
263.105	95.19
263.337	75.19
263.57	87.19
263.802	75.19
264.035	99.19
264.267	73.19
264.499	82.19
264.732	87.19
264.964	85.19
265.197	70.19
265.429	81.19
265.661	89.19
265.894	86.19
266.126	76.19
266.358	81.19
266.591	78.19
266.823	83.19
267.055	83.19
267.287	89.19
267.52	95.19
267.752	92.19
267.984	77.19
268.216	83.19
268.448	82.19
268.681	100.19
268.913	90.19
269.145	82.19
269.377	82.19
269.609	107.19
269.841	88.19
270.073	66.19
270.306	88.19
270.538	83.19
270.77	61.19
271.002	73.19
271.234	86.19
271.466	101.19
271.698	101.19
271.93	98.19
272.162	91.19
272.394	86.19
272.626	77.19
272.858	77.19
273.09	85.19
273.322	101.19
273.553	82.19
273.785	85.19
274.017	90.19
274.249	90.19
274.481	79.19
274.713	87.19
274.945	99.19
275.176	87.19
275.408	98.19
275.64	96.19
275.872	113.19
276.104	91.19
276.335	90.19
276.567	112.19
276.799	147.19
277.031	149.19
277.262	161.19
277.494	123.19
277.726	85.19
277.957	94.19
278.189	81.19
278.421	82.19
278.652	79.19
278.884	88.19
279.115	76.19
279.347	105.19
279.579	96.19
279.81	126.19
280.042	158.19
280.273	193.19
280.505	147.19
280.736	91.19
280.968	76.19
281.199	88.19
281.431	90.19
281.662	79.19
281.894	92.19
282.125	105.19
282.356	127.19
282.588	165.19
282.819	120.19
283.051	100.19
283.282	90.19
283.513	89.19
283.745	86.19
283.976	81.19
284.207	94.19
284.439	78.19
284.67	88.19
284.901	85.19
285.132	86.19
285.364	75.19
285.595	95.19
285.826	87.19
286.057	106.19
286.288	84.19
286.52	84.19
286.751	96.19
286.982	83.19
287.213	90.19
287.444	83.19
287.675	91.19
287.906	98.19
288.138	91.19
288.369	90.19
288.6	91.19
288.831	83.19
289.062	88.19
289.293	89.19
289.524	85.19
289.755	93.19
289.986	84.19
290.217	79.19
290.448	96.19
290.679	81.19
290.91	107.19
291.141	90.19
291.371	87.19
291.602	93.19
291.833	83.19
292.064	86.19
292.295	93.19
292.526	98.19
292.757	87.19
292.987	96.19
293.218	84.19
293.449	92.19
293.68	94.19
293.91	89.19
294.141	89.19
294.372	89.19
294.603	89.19
294.833	94.19
295.064	86.19
295.295	89.19
295.525	96.19
295.756	115.19
295.987	131.19
296.217	155.19
296.448	120.19
296.679	86.19
296.909	75.19
297.14	87.19
297.37	105.19
297.601	84.19
297.831	79.19
298.062	84.19
298.292	95.19
298.523	83.19
298.753	96.19
298.984	92.19
299.214	106.19
299.445	96.19
299.675	105.19
299.905	102.19
300.136	99.19
300.366	96.19
300.597	90.19
300.827	97.19
301.057	114.19
301.288	124.19
301.518	106.19
301.748	94.19
301.979	98.19
302.209	77.19
302.439	80.19
302.669	90.19
302.9	98.19
303.13	103.19
303.36	96.19
303.59	129.19
303.82	120.19
304.051	102.19
304.281	82.19
304.511	82.19
304.741	92.19
304.971	97.19
305.201	83.19
305.431	100.19
305.661	97.19
305.891	105.19
306.121	94.19
306.352	97.19
306.582	134.19
306.812	90.19
307.042	97.19
307.272	139.19
307.502	159.19
307.731	147.19
307.961	129.19
308.191	107.19
308.421	86.19
308.651	91.19
308.881	100.19
309.111	88.19
309.341	93.19
309.571	110.19
309.8	109.19
310.03	94.19
310.26	95.19
310.49	94.19
310.72	114.19
310.949	123.19
311.179	105.19
311.409	109.19
311.639	113.19
311.868	105.19
312.098	100.19
312.328	94.19
312.557	129.19
312.787	124.19
313.017	112.19
313.246	93.19
313.476	96.19
313.706	96.19
313.935	91.19
314.165	110.19
314.394	125.19
314.624	95.19
314.853	106.19
315.083	99.19
315.312	92.19
315.542	107.19
315.771	102.19
316.001	93.19
316.23	83.19
316.46	86.19
316.689	79.19
316.919	100.19
317.148	109.19
317.377	103.19
317.607	96.19
317.836	88.19
318.065	106.19
318.295	78.19
318.524	88.19
318.753	102.19
318.983	109.19
319.212	98.19
319.441	118.19
319.67	106.19
319.9	94.19
320.129	102.19
320.358	84.19
320.587	112.19
320.816	104.19
321.046	102.19
321.275	111.19
321.504	93.19
321.733	86.19
321.962	106.19
322.191	111.19
322.42	108.19
322.649	137.19
322.878	128.19
323.108	123.19
323.337	154.19
323.566	174.19
323.795	176.19
324.024	258.19
324.253	507.19
324.482	1118.19
324.71	2372.19
324.939	3206.19
325.168	1124.19
325.397	305.19
325.626	167.19
325.855	136.19
326.084	128.19
326.313	142.19
326.542	187.19
326.77	287.19
326.999	597.19
327.228	1291.19
327.457	2359.19
327.686	1934.19
327.914	544.19
328.143	430.19
328.372	508.19
328.6	307.19
328.829	172.19
329.058	167.19
329.287	183.19
329.515	172.19
329.744	214.19
329.972	345.19
330.201	670.19
330.43	1002.19
330.658	467.19
330.887	231.19
331.115	181.19
331.344	128.19
331.572	112.19
331.801	119.19
332.03	122.19
332.258	103.19
332.486	95.19
332.715	106.19
332.943	111.19
333.172	124.19
333.4	126.19
333.629	146.19
333.857	187.19
334.085	342.19
334.314	636.19
334.542	1226.19
334.771	1189.19
334.999	346.19
335.227	155.19
335.455	118.19
335.684	109.19
335.912	97.19
336.14	87.19
336.369	105.19
336.597	95.19
336.825	107.19
337.053	104.19
337.281	87.19
337.51	103.19
337.738	97.19
337.966	100.19
338.194	106.19
338.422	102.19
338.65	84.19
338.878	105.19
339.106	88.19
339.334	87.19
339.562	96.19
339.79	92.19
340.018	95.19
340.246	72.19
340.474	93.19
340.702	112.19
340.93	99.19
341.158	92.19
341.386	102.19
341.614	111.19
341.842	91.19
342.07	84.19
342.298	89.19
342.526	94.19
342.754	81.19
342.981	89.19
343.209	86.19
343.437	100.19
343.665	78.19
343.893	86.19
344.12	103.19
344.348	105.19
344.576	82.19
344.804	98.19
345.031	106.19
345.259	119.19
345.487	103.19
345.714	82.19
345.942	105.19
346.17	92.19
346.397	82.19
346.625	89.19
346.853	96.19
347.08	98.19
347.308	103.19
347.535	99.19
347.763	101.19
347.99	111.19
348.218	95.19
348.445	122.19
348.673	113.19
348.9	81.19
349.128	104.19
349.355	89.19
349.583	81.19
349.81	91.19
350.037	93.19
350.265	90.19
350.492	100.19
350.72	82.19
350.947	116.19
351.174	116.19
351.402	135.19
351.629	113.19
351.856	96.19
352.083	108.19
352.311	106.19
352.538	126.19
352.765	107.19
352.992	122.19
353.22	114.19
353.447	120.19
353.674	99.19
353.901	78.19
354.128	87.19
354.355	103.19
354.583	102.19
354.81	89.19
355.037	82.19
355.264	99.19
355.491	92.19
355.718	99.19
355.945	88.19
356.172	90.19
356.399	95.19
356.626	94.19
356.853	94.19
357.08	97.19
357.307	94.19
357.534	85.19
357.761	98.19
357.988	86.19
358.215	91.19
358.441	91.19
358.668	91.19
358.895	79.19
359.122	83.19
359.349	93.19
359.576	98.19
359.802	120.19
360.029	124.19
360.256	131.19
360.483	91.19
360.709	106.19
360.936	105.19
361.163	112.19
361.39	93.19
361.616	90.19
361.843	98.19
362.07	107.19
362.296	96.19
362.523	94.19
362.749	104.19
362.976	87.19
363.203	96.19
363.429	73.19
363.656	83.19
363.882	88.19
364.109	95.19
364.335	94.19
364.562	92.19
364.788	98.19
365.015	95.19
365.241	112.19
365.468	134.19
365.694	115.19
365.92	89.19
366.147	91.19
366.373	82.19
366.599	88.19
366.826	90.19
367.052	94.19
367.278	87.19
367.505	88.19
367.731	104.19
367.957	98.19
368.184	95.19
368.41	100.19
368.636	118.19
368.862	129.19
369.089	123.19
369.315	100.19
369.541	88.19
369.767	87.19
369.993	96.19
370.219	112.19
370.445	92.19
370.672	91.19
370.898	87.19
371.124	88.19
371.35	84.19
371.576	85.19
371.802	98.19
372.028	84.19
372.254	88.19
372.48	75.19
372.706	84.19
372.932	92.19
373.158	91.19
373.384	89.19
373.61	94.19
373.835	85.19
374.061	82.19
374.287	99.19
374.513	97.19
374.739	87.19
374.965	86.19
375.191	75.19
375.416	77.19
375.642	83.19
375.868	92.19
376.094	80.19
376.319	89.19
376.545	90.19
376.771	91.19
376.997	86.19
377.222	86.19
377.448	72.19
377.674	94.19
377.899	89.19
378.125	75.19
378.35	89.19
378.576	91.19
378.802	87.19
379.027	81.19
379.253	99.19
379.478	80.19
379.704	87.19
379.929	105.19
380.155	90.19
380.38	87.19
380.606	91.19
380.831	106.19
381.057	92.19
381.282	105.19
381.507	99.19
381.733	83.19
381.958	95.19
382.184	93.19
382.409	89.19
382.634	95.19
382.86	106.19
383.085	88.19
383.31	94.19
383.535	104.19
383.761	96.19
383.986	99.19
384.211	97.19
384.436	88.19
384.662	84.19
384.887	101.19
385.112	110.19
385.337	104.19
385.562	89.19
385.787	107.19
386.013	108.19
386.238	111.19
386.463	94.19
386.688	105.19
386.913	98.19
387.138	107.19
387.363	76.19
387.588	105.19
387.813	99.19
388.038	99.19
388.263	126.19
388.488	118.19
388.713	81.19
388.938	77.19
389.163	93.19
389.387	99.19
389.612	103.19
389.837	86.19
390.062	88.19
390.287	91.19
390.512	95.19
390.736	99.19
390.961	91.19
391.186	97.19
391.411	81.19
391.636	100.19
391.86	77.19
392.085	84.19
392.31	80.19
392.534	79.19
392.759	76.19
392.984	100.19
393.208	80.19
393.433	93.19
393.658	87.19
393.882	82.19
394.107	87.19
394.331	85.19
394.556	88.19
394.78	99.19
395.005	92.19
395.229	90.19
395.454	92.19
395.678	77.19
395.903	81.19
396.127	82.19
396.352	93.19
396.576	91.19
396.801	86.19
397.025	97.19
397.249	95.19
397.474	92.19
397.698	86.19
397.922	89.19
398.147	90.19
398.371	78.19
398.595	83.19
398.82	80.19
399.044	86.19
399.268	99.19
399.492	94.19
399.717	90.19
399.941	88.19
400.165	93.19
400.389	92.19
400.613	92.19
400.837	85.19
401.062	83.19
401.286	90.19
401.51	91.19
401.734	99.19
401.958	102.19
402.182	149.19
402.406	167.19
402.63	135.19
402.854	105.19
403.078	81.19
403.302	90.19
403.526	92.19
403.75	86.19
403.974	70.19
404.198	98.19
404.422	95.19
404.645	90.19
404.869	108.19
405.093	115.19
405.317	133.19
405.541	141.19
405.765	99.19
405.988	138.19
406.212	206.19
406.436	263.19
406.66	172.19
406.883	121.19
407.107	105.19
407.331	118.19
407.555	111.19
407.778	121.19
408.002	109.19
408.226	95.19
408.449	103.19
408.673	85.19
408.896	111.19
409.12	86.19
409.344	91.19
409.567	95.19
409.791	95.19
410.014	94.19
410.238	103.19
410.461	75.19
410.685	100.19
410.908	103.19
411.132	109.19
411.355	128.19
411.578	96.19
411.802	90.19
412.025	79.19
412.249	99.19
412.472	122.19
412.695	136.19
412.919	111.19
413.142	92.19
413.365	86.19
413.589	88.19
413.812	82.19
414.035	90.19
414.258	83.19
414.482	85.19
414.705	79.19
414.928	91.19
415.151	87.19
415.374	87.19
415.597	79.19
415.821	95.19
416.044	80.19
416.267	90.19
416.49	87.19
416.713	89.19
416.936	96.19
417.159	90.19
417.382	95.19
417.605	97.19
417.828	96.19
418.051	96.19
418.274	80.19
418.497	87.19
418.72	80.19
418.943	96.19
419.166	85.19
419.389	90.19
419.611	84.19
419.834	100.19
420.057	91.19
420.28	95.19
420.503	94.19
420.726	98.19
420.948	97.19
421.171	90.19
421.394	91.19
421.617	87.19
421.839	86.19
422.062	104.19
422.285	92.19
422.507	91.19
422.73	108.19
422.953	96.19
423.175	93.19
423.398	82.19
423.621	88.19
423.843	83.19
424.066	84.19
424.288	93.19
424.511	90.19
424.733	98.19
424.956	122.19
425.178	107.19
425.401	100.19
425.623	97.19
425.846	95.19
426.068	91.19
426.291	97.19
426.513	95.19
426.735	105.19
426.958	100.19
427.18	109.19
427.402	169.19
427.625	239.19
427.847	219.19
428.069	220.19
428.292	127.19
428.514	98.19
428.736	99.19
428.958	86.19
429.181	80.19
429.403	73.19
429.625	93.19
429.847	107.19
430.069	102.19
430.292	103.19
430.514	99.19
430.736	89.19
430.958	84.19
431.18	96.19
431.402	83.19
431.624	75.19
431.846	79.19
432.068	104.19
432.29	87.19
432.512	92.19
432.734	83.19
432.956	90.19
433.178	94.19
433.4	113.19
433.622	96.19
433.844	102.19
434.066	107.19
434.287	85.19
434.509	89.19
434.731	81.19
434.953	83.19
435.175	72.19
435.397	83.19
435.618	88.19
435.84	97.19
436.062	140.19
436.284	145.19
436.505	98.19
436.727	113.19
436.949	81.19
437.17	98.19
437.392	80.19
437.614	91.19
437.835	113.19
438.057	152.19
438.278	122.19
438.5	132.19
438.721	134.19
438.943	117.19
439.165	94.19
439.386	92.19
439.608	93.19
439.829	108.19
440.05	147.19
440.272	182.19
440.493	113.19
440.715	98.19
440.936	86.19
441.158	102.19
441.379	95.19
441.6	89.19
441.822	92.19
442.043	91.19
442.264	133.19
442.486	107.19
442.707	93.19
442.928	114.19
443.149	154.19
443.371	168.19
443.592	134.19
443.813	128.19
444.034	121.19
444.255	104.19
444.476	90.19
444.698	73.19
444.919	99.19
445.14	124.19
445.361	142.19
445.582	141.19
445.803	183.19
446.024	182.19
446.245	175.19
446.466	123.19
446.687	102.19
446.908	107.19
447.129	93.19
447.35	90.19
447.571	94.19
447.792	107.19
448.013	98.19
448.234	107.19
448.455	124.19
448.675	140.19
448.896	134.19
449.117	95.19
449.338	107.19
449.559	142.19
449.779	159.19
450	89.19
450.221	83.19
450.442	77.19
450.662	100.19
450.883	119.19
451.104	131.19
451.324	119.19
451.545	91.19
451.766	97.19
451.986	82.19
452.207	89.19
452.428	92.19
452.648	94.19
452.869	137.19
453.089	148.19
453.31	148.19
453.53	113.19
453.751	106.19
453.971	123.19
454.192	115.19
454.412	113.19
454.633	94.19
454.853	91.19
455.073	88.19
455.294	98.19
455.514	121.19
455.734	89.19
455.955	93.19
456.175	88.19
456.395	87.19
456.616	86.19
456.836	96.19
457.056	93.19
457.276	97.19
457.497	90.19
457.717	82.19
457.937	81.19
458.157	90.19
458.377	90.19
458.598	119.19
458.818	184.19
459.038	226.19
459.258	148.19
459.478	92.19
459.698	88.19
459.918	87.19
460.138	84.19
460.358	82.19
460.578	90.19
460.798	87.19
461.018	81.19
461.238	91.19
461.458	81.19
461.678	88.19
461.898	73.19
462.118	81.19
462.338	87.19
462.558	98.19
462.777	89.19
462.997	88.19
463.217	98.19
463.437	94.19
463.657	75.19
463.876	78.19
464.096	91.19
464.316	98.19
464.536	99.19
464.755	111.19
464.975	103.19
465.195	217.19
465.414	206.19
465.634	104.19
465.854	94.19
466.073	94.19
466.293	91.19
466.512	94.19
466.732	98.19
466.951	95.19
467.171	107.19
467.391	107.19
467.61	126.19
467.829	171.19
468.049	375.19
468.268	532.19
468.488	178.19
468.707	103.19
468.927	94.19
469.146	73.19
469.365	87.19
469.585	94.19
469.804	86.19
470.023	94.19
470.243	91.19
470.462	106.19
470.681	134.19
470.901	126.19
471.12	87.19
471.339	97.19
471.558	111.19
471.777	132.19
471.997	235.19
472.216	742.19
472.435	1661.19
472.654	430.19
472.873	138.19
473.092	93.19
473.311	113.19
473.53	90.19
473.749	74.19
473.968	100.19
474.187	131.19
474.406	106.19
474.625	94.19
474.844	72.19
475.063	83.19
475.282	88.19
475.501	84.19
475.72	84.19
475.939	91.19
476.158	98.19
476.377	82.19
476.596	81.19
476.814	106.19
477.033	89.19
477.252	88.19
477.471	103.19
477.69	87.19
477.908	97.19
478.127	72.19
478.346	82.19
478.564	92.19
478.783	102.19
479.002	103.19
479.22	103.19
479.439	102.19
479.658	112.19
479.876	124.19
480.095	107.19
480.313	111.19
480.532	146.19
480.751	242.19
480.969	671.19
481.188	2862.19
481.406	1741.19
481.624	277.19
481.843	123.19
482.061	118.19
482.28	102.19
482.498	94.19
482.717	97.19
482.935	88.19
483.153	78.19
483.372	97.19
483.59	101.19
483.808	84.19
484.027	99.19
484.245	92.19
484.463	79.19
484.681	90.19
484.9	100.19
485.118	90.19
485.336	93.19
485.554	73.19
485.772	115.19
485.99	94.19
486.209	115.19
486.427	97.19
486.645	115.19
486.863	126.19
487.081	103.19
487.299	91.19
487.517	92.19
487.735	76.19
487.953	97.19
488.171	111.19
488.389	75.19
488.607	91.19
488.825	93.19
489.043	91.19
489.261	79.19
489.479	92.19
489.696	83.19
489.914	80.19
490.132	84.19
490.35	89.19
490.568	92.19
490.786	99.19
491.003	90.19
491.221	92.19
491.439	100.19
491.657	102.19
491.874	90.19
492.092	84.19
492.31	104.19
492.527	101.19
492.745	103.19
492.963	97.19
493.18	101.19
493.398	86.19
493.615	85.19
493.833	100.19
494.05	95.19
494.268	99.19
494.485	79.19
494.703	98.19
494.92	80.19
495.138	96.19
495.355	85.19
495.573	89.19
495.79	82.19
496.008	89.19
496.225	95.19
496.442	80.19
496.66	97.19
496.877	87.19
497.094	88.19
497.312	102.19
497.529	96.19
497.746	87.19
497.963	93.19
498.181	88.19
498.398	96.19
498.615	118.19
498.832	109.19
499.049	90.19
499.267	102.19
499.484	72.19
499.701	87.19
499.918	87.19
500.135	82.19
500.352	88.19
500.569	103.19
500.786	106.19
501.003	90.19
501.22	95.19
501.437	88.19
501.654	99.19
501.871	130.19
502.088	84.19
502.305	95.19
502.522	83.19
502.739	92.19
502.956	80.19
503.172	89.19
503.389	99.19
503.606	108.19
503.823	113.19
504.04	97.19
504.256	90.19
504.473	96.19
504.69	107.19
504.907	90.19
505.123	73.19
505.34	88.19
505.557	98.19
505.773	95.19
505.99	89.19
506.207	100.19
506.423	81.19
506.64	89.19
506.856	77.19
507.073	83.19
507.289	82.19
507.506	99.19
507.722	125.19
507.939	120.19
508.155	115.19
508.372	115.19
508.588	105.19
508.805	83.19
509.021	92.19
509.238	111.19
509.454	85.19
509.67	107.19
509.887	112.19
510.103	144.19
510.319	229.19
510.536	855.19
510.752	2849.19
510.968	788.19
511.184	161.19
511.401	124.19
511.617	99.19
511.833	98.19
512.049	114.19
512.265	107.19
512.481	98.19
512.698	93.19
512.914	102.19
513.13	105.19
513.346	87.19
513.562	83.19
513.778	113.19
513.994	103.19
