Data from Circ_2007_H10_HRD10591_00032.txt Node
Date: Wed Jan 03 10:22:03 EST 2024
User: Yrep
Spectrometer: HR+D1059
Trigger mode: 1
Integration Time (sec): 1.000000E-1
Scans to average: 1
Electric dark correction enabled: true
Nonlinearity correction enabled: false
Boxcar width: 0
XAxis mode: Wavelengths
Number of Pixels in Spectrum: 2048
>>>>>Begin Spectral Data<<<<<
223.165	-22.44
223.4	-22.44
223.635	-22.44
223.869	-27.44
224.104	-41.44
224.338	-21.44
224.573	-7.44
224.808	-21.44
225.042	-7.44
225.277	12.56
225.511	5.56
225.746	1.56
225.98	3.56
226.215	6.56
226.449	21.56
226.683	26.56
226.918	29.56
227.152	41.56
227.387	44.56
227.621	40.56
227.856	42.56
228.09	61.56
228.324	66.56
228.559	64.56
228.793	67.56
229.027	58.56
229.262	58.56
229.496	85.56
229.73	86.56
229.964	75.56
230.199	75.56
230.433	88.56
230.667	81.56
230.901	84.56
231.136	88.56
231.37	72.56
231.604	75.56
231.838	81.56
232.072	88.56
232.306	89.56
232.541	87.56
232.775	90.56
233.009	71.56
233.243	84.56
233.477	73.56
233.711	92.56
233.945	104.56
234.179	76.56
234.413	86.56
234.647	81.56
234.881	74.56
235.115	64.56
235.349	86.56
235.583	85.56
235.817	82.56
236.051	76.56
236.285	80.56
236.519	76.56
236.753	86.56
236.987	84.56
237.221	85.56
237.455	99.56
237.689	73.56
237.922	82.56
238.156	77.56
238.39	72.56
238.624	92.56
238.858	83.56
239.091	65.56
239.325	90.56
239.559	93.56
239.793	74.56
240.027	89.56
240.26	80.56
240.494	75.56
240.728	74.56
240.961	73.56
241.195	81.56
241.429	79.56
241.662	69.56
241.896	72.56
242.13	92.56
242.363	75.56
242.597	67.56
242.83	67.56
243.064	76.56
243.298	80.56
243.531	74.56
243.765	70.56
243.998	78.56
244.232	70.56
244.465	92.56
244.699	87.56
244.932	80.56
245.166	63.56
245.399	73.56
245.633	90.56
245.866	93.56
246.099	84.56
246.333	82.56
246.566	92.56
246.8	80.56
247.033	82.56
247.266	73.56
247.5	79.56
247.733	72.56
247.966	69.56
248.2	80.56
248.433	82.56
248.666	74.56
248.899	77.56
249.133	82.56
249.366	97.56
249.599	102.56
249.832	94.56
250.066	73.56
250.299	86.56
250.532	85.56
250.765	71.56
250.998	88.56
251.231	86.56
251.465	78.56
251.698	89.56
251.931	82.56
252.164	63.56
252.397	81.56
252.63	84.56
252.863	74.56
253.096	73.56
253.329	73.56
253.562	70.56
253.795	92.56
254.028	90.56
254.261	89.56
254.494	86.56
254.727	96.56
254.96	92.56
255.193	88.56
255.426	108.56
255.659	96.56
255.892	91.56
256.124	94.56
256.357	80.56
256.59	85.56
256.823	90.56
257.056	90.56
257.289	78.56
257.521	85.56
257.754	91.56
257.987	80.56
258.22	85.56
258.452	98.56
258.685	91.56
258.918	84.56
259.151	93.56
259.383	70.56
259.616	76.56
259.849	70.56
260.081	82.56
260.314	89.56
260.547	78.56
260.779	77.56
261.012	91.56
261.244	100.56
261.477	92.56
261.71	99.56
261.942	144.56
262.175	138.56
262.407	95.56
262.64	94.56
262.872	91.56
263.105	85.56
263.337	81.56
263.57	66.56
263.802	81.56
264.035	84.56
264.267	84.56
264.499	87.56
264.732	96.56
264.964	84.56
265.197	74.56
265.429	92.56
265.661	77.56
265.894	82.56
266.126	85.56
266.358	85.56
266.591	88.56
266.823	81.56
267.055	89.56
267.287	87.56
267.52	81.56
267.752	83.56
267.984	97.56
268.216	86.56
268.448	81.56
268.681	94.56
268.913	96.56
269.145	104.56
269.377	74.56
269.609	82.56
269.841	88.56
270.073	85.56
270.306	85.56
270.538	79.56
270.77	82.56
271.002	72.56
271.234	80.56
271.466	95.56
271.698	84.56
271.93	82.56
272.162	83.56
272.394	75.56
272.626	100.56
272.858	75.56
273.09	80.56
273.322	85.56
273.553	73.56
273.785	75.56
274.017	93.56
274.249	85.56
274.481	104.56
274.713	85.56
274.945	92.56
275.176	83.56
275.408	102.56
275.64	100.56
275.872	108.56
276.104	100.56
276.335	101.56
276.567	118.56
276.799	137.56
277.031	130.56
277.262	147.56
277.494	128.56
277.726	99.56
277.957	101.56
278.189	91.56
278.421	77.56
278.652	94.56
278.884	95.56
279.115	105.56
279.347	88.56
279.579	101.56
279.81	108.56
280.042	147.56
280.273	183.56
280.505	138.56
280.736	90.56
280.968	94.56
281.199	76.56
281.431	89.56
281.662	96.56
281.894	99.56
282.125	103.56
282.356	142.56
282.588	180.56
282.819	141.56
283.051	100.56
283.282	97.56
283.513	88.56
283.745	93.56
283.976	92.56
284.207	78.56
284.439	88.56
284.67	83.56
284.901	93.56
285.132	96.56
285.364	94.56
285.595	100.56
285.826	84.56
286.057	90.56
286.288	91.56
286.52	95.56
286.751	94.56
286.982	80.56
287.213	91.56
287.444	86.56
287.675	84.56
287.906	91.56
288.138	87.56
288.369	95.56
288.6	88.56
288.831	85.56
289.062	90.56
289.293	103.56
289.524	78.56
289.755	84.56
289.986	96.56
290.217	83.56
290.448	81.56
290.679	97.56
290.91	99.56
291.141	85.56
291.371	70.56
291.602	83.56
291.833	96.56
292.064	97.56
292.295	95.56
292.526	111.56
292.757	90.56
292.987	77.56
293.218	96.56
293.449	80.56
293.68	87.56
293.91	92.56
294.141	80.56
294.372	90.56
294.603	92.56
294.833	79.56
295.064	85.56
295.295	79.56
295.525	92.56
295.756	111.56
295.987	142.56
296.217	164.56
296.448	161.56
296.679	104.56
296.909	92.56
297.14	84.56
297.37	89.56
297.601	83.56
297.831	97.56
298.062	92.56
298.292	94.56
298.523	107.56
298.753	94.56
298.984	85.56
299.214	89.56
299.445	101.56
299.675	92.56
299.905	92.56
300.136	95.56
300.366	99.56
300.597	84.56
300.827	105.56
301.057	106.56
301.288	114.56
301.518	108.56
301.748	95.56
301.979	97.56
302.209	103.56
302.439	94.56
302.669	91.56
302.9	97.56
303.13	81.56
303.36	110.56
303.59	137.56
303.82	147.56
304.051	106.56
304.281	96.56
304.511	110.56
304.741	89.56
304.971	74.56
305.201	92.56
305.431	82.56
305.661	86.56
305.891	94.56
306.121	94.56
306.352	107.56
306.582	117.56
306.812	110.56
307.042	96.56
307.272	132.56
307.502	139.56
307.731	144.56
307.961	124.56
308.191	91.56
308.421	84.56
308.651	107.56
308.881	102.56
309.111	86.56
309.341	96.56
309.571	111.56
309.8	91.56
310.03	103.56
310.26	101.56
310.49	104.56
310.72	108.56
310.949	108.56
311.179	102.56
311.409	106.56
311.639	94.56
311.868	97.56
312.098	101.56
312.328	109.56
312.557	128.56
312.787	127.56
313.017	99.56
313.246	92.56
313.476	94.56
313.706	87.56
313.935	91.56
314.165	104.56
314.394	113.56
314.624	101.56
314.853	105.56
315.083	105.56
315.312	95.56
315.542	97.56
315.771	94.56
316.001	101.56
316.23	88.56
316.46	96.56
316.689	93.56
316.919	101.56
317.148	112.56
317.377	101.56
317.607	101.56
317.836	102.56
318.065	107.56
318.295	97.56
318.524	89.56
318.753	104.56
318.983	94.56
319.212	102.56
319.441	124.56
319.67	110.56
319.9	95.56
320.129	101.56
320.358	92.56
320.587	112.56
320.816	106.56
321.046	114.56
321.275	102.56
321.504	99.56
321.733	86.56
321.962	98.56
322.191	114.56
322.42	118.56
322.649	126.56
322.878	117.56
323.108	120.56
323.337	138.56
323.566	156.56
323.795	189.56
324.024	240.56
324.253	466.56
324.482	948.56
324.71	1986.56
324.939	2585.56
325.168	956.56
325.397	281.56
325.626	168.56
325.855	137.56
326.084	157.56
326.313	136.56
326.542	176.56
326.77	254.56
326.999	513.56
327.228	1006.56
327.457	1855.56
327.686	1498.56
327.914	490.56
328.143	384.56
328.372	435.56
328.6	284.56
328.829	168.56
329.058	184.56
329.287	200.56
329.515	150.56
329.744	189.56
329.972	280.56
330.201	563.56
330.43	848.56
330.658	424.56
330.887	270.56
331.115	183.56
331.344	124.56
331.572	122.56
331.801	136.56
332.03	120.56
332.258	110.56
332.486	103.56
332.715	96.56
332.943	106.56
333.172	117.56
333.4	115.56
333.629	140.56
333.857	180.56
334.085	269.56
334.314	522.56
334.542	1001.56
334.771	1008.56
334.999	306.56
335.227	143.56
335.455	113.56
335.684	105.56
335.912	115.56
336.14	109.56
336.369	117.56
336.597	116.56
336.825	106.56
337.053	104.56
337.281	103.56
337.51	99.56
337.738	100.56
337.966	105.56
338.194	111.56
338.422	108.56
338.65	103.56
338.878	98.56
339.106	80.56
339.334	96.56
339.562	92.56
339.79	97.56
340.018	89.56
340.246	108.56
340.474	109.56
340.702	98.56
340.93	84.56
341.158	86.56
341.386	105.56
341.614	92.56
341.842	116.56
342.07	89.56
342.298	92.56
342.526	87.56
342.754	83.56
342.981	86.56
343.209	87.56
343.437	94.56
343.665	89.56
343.893	96.56
344.12	84.56
344.348	99.56
344.576	101.56
344.804	94.56
345.031	111.56
345.259	99.56
345.487	96.56
345.714	88.56
345.942	97.56
346.17	91.56
346.397	109.56
346.625	107.56
346.853	90.56
347.08	90.56
347.308	103.56
347.535	113.56
347.763	94.56
347.99	100.56
348.218	92.56
348.445	126.56
348.673	112.56
348.9	98.56
349.128	112.56
349.355	85.56
349.583	103.56
349.81	89.56
350.037	94.56
350.265	104.56
350.492	97.56
350.72	91.56
350.947	103.56
351.174	106.56
351.402	128.56
351.629	113.56
351.856	114.56
352.083	113.56
352.311	113.56
352.538	116.56
352.765	114.56
352.992	120.56
353.22	103.56
353.447	112.56
353.674	100.56
353.901	80.56
354.128	96.56
354.355	95.56
354.583	100.56
354.81	100.56
355.037	88.56
355.264	85.56
355.491	82.56
355.718	96.56
355.945	97.56
356.172	99.56
356.399	86.56
356.626	88.56
356.853	86.56
357.08	91.56
357.307	96.56
357.534	82.56
357.761	87.56
357.988	99.56
358.215	101.56
358.441	102.56
358.668	99.56
358.895	102.56
359.122	99.56
359.349	74.56
359.576	88.56
359.802	115.56
360.029	148.56
360.256	152.56
360.483	123.56
360.709	98.56
360.936	97.56
361.163	111.56
361.39	109.56
361.616	113.56
361.843	96.56
362.07	96.56
362.296	108.56
362.523	99.56
362.749	94.56
362.976	97.56
363.203	98.56
363.429	86.56
363.656	85.56
363.882	85.56
364.109	90.56
364.335	90.56
364.562	83.56
364.788	98.56
365.015	86.56
365.241	112.56
365.468	124.56
365.694	113.56
365.92	103.56
366.147	100.56
366.373	87.56
366.599	91.56
366.826	97.56
367.052	83.56
367.278	108.56
367.505	96.56
367.731	88.56
367.957	93.56
368.184	96.56
368.41	109.56
368.636	132.56
368.862	145.56
369.089	105.56
369.315	96.56
369.541	83.56
369.767	93.56
369.993	102.56
370.219	99.56
370.445	96.56
370.672	84.56
370.898	93.56
371.124	84.56
371.35	107.56
371.576	82.56
371.802	100.56
372.028	91.56
372.254	84.56
372.48	83.56
372.706	92.56
372.932	94.56
373.158	87.56
373.384	95.56
373.61	98.56
373.835	79.56
374.061	96.56
374.287	94.56
374.513	89.56
374.739	92.56
374.965	81.56
375.191	88.56
375.416	85.56
375.642	93.56
375.868	94.56
376.094	85.56
376.319	80.56
376.545	80.56
376.771	81.56
376.997	89.56
377.222	95.56
377.448	94.56
377.674	90.56
377.899	85.56
378.125	92.56
378.35	90.56
378.576	79.56
378.802	83.56
379.027	91.56
379.253	87.56
379.478	101.56
379.704	99.56
379.929	97.56
380.155	79.56
380.38	98.56
380.606	104.56
380.831	84.56
381.057	99.56
381.282	86.56
381.507	82.56
381.733	84.56
381.958	91.56
382.184	90.56
382.409	116.56
382.634	94.56
382.86	101.56
383.085	104.56
383.31	111.56
383.535	110.56
383.761	106.56
383.986	96.56
384.211	105.56
384.436	106.56
384.662	86.56
384.887	96.56
385.112	104.56
385.337	113.56
385.562	97.56
385.787	107.56
386.013	120.56
386.238	128.56
386.463	126.56
386.688	104.56
386.913	105.56
387.138	110.56
387.363	102.56
387.588	109.56
387.813	109.56
388.038	105.56
388.263	106.56
388.488	113.56
388.713	96.56
388.938	90.56
389.163	100.56
389.387	103.56
389.612	88.56
389.837	84.56
390.062	82.56
390.287	89.56
390.512	72.56
390.736	86.56
390.961	101.56
391.186	95.56
391.411	90.56
391.636	92.56
391.86	84.56
392.085	89.56
392.31	87.56
392.534	95.56
392.759	97.56
392.984	87.56
393.208	101.56
393.433	93.56
393.658	110.56
393.882	78.56
394.107	76.56
394.331	85.56
394.556	80.56
394.78	85.56
395.005	98.56
395.229	94.56
395.454	97.56
395.678	84.56
395.903	72.56
396.127	89.56
396.352	85.56
396.576	86.56
396.801	85.56
397.025	95.56
397.249	98.56
397.474	81.56
397.698	85.56
397.922	84.56
398.147	85.56
398.371	87.56
398.595	94.56
398.82	84.56
399.044	72.56
399.268	79.56
399.492	79.56
399.717	74.56
399.941	83.56
400.165	87.56
400.389	99.56
400.613	91.56
400.837	95.56
401.062	89.56
401.286	97.56
401.51	110.56
401.734	102.56
401.958	117.56
402.182	154.56
402.406	201.56
402.63	145.56
402.854	101.56
403.078	112.56
403.302	100.56
403.526	86.56
403.75	81.56
403.974	89.56
404.198	92.56
404.422	83.56
404.645	91.56
404.869	86.56
405.093	111.56
405.317	128.56
405.541	114.56
405.765	113.56
405.988	128.56
406.212	211.56
406.436	344.56
406.66	212.56
406.883	122.56
407.107	96.56
407.331	107.56
407.555	107.56
407.778	106.56
408.002	99.56
408.226	99.56
408.449	89.56
408.673	109.56
408.896	107.56
409.12	86.56
409.344	87.56
409.567	89.56
409.791	86.56
410.014	88.56
410.238	111.56
410.461	87.56
410.685	90.56
410.908	101.56
411.132	99.56
411.355	105.56
411.578	95.56
411.802	99.56
412.025	88.56
412.249	100.56
412.472	100.56
412.695	139.56
412.919	105.56
413.142	101.56
413.365	94.56
413.589	91.56
413.812	85.56
414.035	69.56
414.258	93.56
414.482	83.56
414.705	99.56
414.928	93.56
415.151	99.56
415.374	91.56
415.597	89.56
415.821	84.56
416.044	80.56
416.267	89.56
416.49	86.56
416.713	87.56
416.936	87.56
417.159	85.56
417.382	105.56
417.605	101.56
417.828	99.56
418.051	94.56
418.274	89.56
418.497	80.56
418.72	63.56
418.943	92.56
419.166	80.56
419.389	103.56
419.611	101.56
419.834	105.56
420.057	96.56
420.28	91.56
420.503	84.56
420.726	92.56
420.948	96.56
421.171	99.56
421.394	104.56
421.617	83.56
421.839	88.56
422.062	110.56
422.285	90.56
422.507	114.56
422.73	125.56
422.953	106.56
423.175	83.56
423.398	82.56
423.621	82.56
423.843	99.56
424.066	94.56
424.288	99.56
424.511	97.56
424.733	92.56
424.956	123.56
425.178	116.56
425.401	112.56
425.623	113.56
425.846	86.56
426.068	109.56
426.291	103.56
426.513	99.56
426.735	97.56
426.958	77.56
427.18	113.56
427.402	170.56
427.625	240.56
427.847	215.56
428.069	170.56
428.292	81.56
428.514	93.56
428.736	86.56
428.958	81.56
429.181	94.56
429.403	86.56
429.625	86.56
429.847	101.56
430.069	135.56
430.292	104.56
430.514	89.56
430.736	81.56
430.958	96.56
431.18	83.56
431.402	85.56
431.624	77.56
431.846	98.56
432.068	93.56
432.29	71.56
432.512	84.56
432.734	93.56
432.956	95.56
433.178	103.56
433.4	95.56
433.622	91.56
433.844	78.56
434.066	105.56
434.287	89.56
434.509	90.56
434.731	84.56
434.953	88.56
435.175	94.56
435.397	95.56
435.618	106.56
435.84	98.56
436.062	147.56
436.284	124.56
436.505	104.56
436.727	98.56
436.949	101.56
437.17	97.56
437.392	81.56
437.614	104.56
437.835	141.56
438.057	148.56
438.278	119.56
438.5	117.56
438.721	128.56
438.943	94.56
439.165	88.56
439.386	101.56
439.608	102.56
439.829	88.56
440.05	155.56
440.272	175.56
440.493	108.56
440.715	90.56
440.936	103.56
441.158	102.56
441.379	100.56
441.6	88.56
441.822	99.56
442.043	98.56
442.264	126.56
442.486	109.56
442.707	108.56
442.928	109.56
443.149	160.56
443.371	178.56
443.592	135.56
443.813	115.56
444.034	126.56
444.255	95.56
444.476	100.56
444.698	82.56
444.919	96.56
445.14	134.56
445.361	117.56
445.582	138.56
445.803	172.56
446.024	166.56
446.245	161.56
446.466	128.56
446.687	103.56
446.908	105.56
447.129	90.56
447.35	96.56
447.571	90.56
447.792	98.56
448.013	117.56
448.234	140.56
448.455	98.56
448.675	117.56
448.896	138.56
449.117	99.56
449.338	116.56
449.559	137.56
449.779	136.56
450	103.56
450.221	99.56
450.442	83.56
450.662	113.56
450.883	143.56
451.104	137.56
451.324	116.56
451.545	82.56
451.766	87.56
451.986	96.56
452.207	97.56
452.428	91.56
452.648	106.56
452.869	120.56
453.089	142.56
453.31	148.56
453.53	116.56
453.751	96.56
453.971	102.56
454.192	147.56
454.412	98.56
454.633	93.56
454.853	94.56
455.073	100.56
455.294	81.56
455.514	113.56
455.734	95.56
455.955	104.56
456.175	89.56
456.395	81.56
456.616	92.56
456.836	85.56
457.056	78.56
457.276	78.56
457.497	89.56
457.717	86.56
457.937	96.56
458.157	84.56
458.377	100.56
458.598	127.56
458.818	222.56
459.038	243.56
459.258	160.56
459.478	92.56
459.698	92.56
459.918	78.56
460.138	82.56
460.358	80.56
460.578	99.56
460.798	72.56
461.018	87.56
461.238	77.56
461.458	97.56
461.678	100.56
461.898	98.56
462.118	87.56
462.338	94.56
462.558	92.56
462.777	94.56
462.997	91.56
463.217	99.56
463.437	78.56
463.657	88.56
463.876	93.56
464.096	90.56
464.316	101.56
464.536	117.56
464.755	93.56
464.975	124.56
465.195	258.56
465.414	262.56
465.634	121.56
465.854	84.56
466.073	81.56
466.293	76.56
466.512	100.56
466.732	99.56
466.951	97.56
467.171	91.56
467.391	86.56
467.61	141.56
467.829	168.56
468.049	324.56
468.268	485.56
468.488	160.56
468.707	96.56
468.927	92.56
469.146	85.56
469.365	78.56
469.585	106.56
469.804	84.56
470.023	102.56
470.243	80.56
470.462	122.56
470.681	143.56
470.901	109.56
471.12	85.56
471.339	82.56
471.558	100.56
471.777	120.56
471.997	188.56
472.216	580.56
472.435	1393.56
472.654	365.56
472.873	134.56
473.092	95.56
473.311	98.56
473.53	104.56
473.749	92.56
473.968	116.56
474.187	103.56
474.406	103.56
474.625	90.56
474.844	91.56
475.063	93.56
475.282	99.56
475.501	86.56
475.72	78.56
475.939	91.56
476.158	89.56
476.377	78.56
476.596	90.56
476.814	97.56
477.033	95.56
477.252	89.56
477.471	100.56
477.69	89.56
477.908	91.56
478.127	99.56
478.346	93.56
478.564	101.56
478.783	116.56
479.002	99.56
479.22	114.56
479.439	115.56
479.658	125.56
479.876	113.56
480.095	109.56
480.313	109.56
480.532	138.56
480.751	188.56
480.969	548.56
481.188	2257.56
481.406	1452.56
481.624	254.56
481.843	127.56
482.061	91.56
482.28	91.56
482.498	96.56
482.717	96.56
482.935	89.56
483.153	92.56
483.372	86.56
483.59	90.56
483.808	86.56
484.027	99.56
484.245	93.56
484.463	110.56
484.681	96.56
484.9	96.56
485.118	95.56
485.336	99.56
485.554	93.56
485.772	102.56
485.99	117.56
486.209	115.56
486.427	102.56
486.645	117.56
486.863	131.56
487.081	108.56
487.299	94.56
487.517	103.56
487.735	93.56
487.953	98.56
488.171	94.56
488.389	92.56
488.607	104.56
488.825	82.56
489.043	80.56
489.261	85.56
489.479	86.56
489.696	80.56
489.914	99.56
490.132	89.56
490.35	106.56
490.568	88.56
490.786	89.56
491.003	82.56
491.221	108.56
491.439	89.56
491.657	85.56
491.874	96.56
492.092	104.56
492.31	101.56
492.527	107.56
492.745	92.56
492.963	88.56
493.18	81.56
493.398	95.56
493.615	101.56
493.833	99.56
494.05	92.56
494.268	93.56
494.485	102.56
494.703	91.56
494.92	89.56
495.138	92.56
495.355	87.56
495.573	90.56
495.79	81.56
496.008	98.56
496.225	102.56
496.442	89.56
496.66	93.56
496.877	99.56
497.094	85.56
497.312	104.56
497.529	89.56
497.746	94.56
497.963	98.56
498.181	99.56
498.398	92.56
498.615	97.56
498.832	100.56
499.049	88.56
499.267	90.56
499.484	91.56
499.701	84.56
499.918	87.56
500.135	87.56
500.352	95.56
500.569	106.56
500.786	102.56
501.003	102.56
501.22	106.56
501.437	97.56
501.654	114.56
501.871	126.56
502.088	106.56
502.305	92.56
502.522	89.56
502.739	98.56
502.956	85.56
503.172	92.56
503.389	109.56
503.606	135.56
503.823	116.56
504.04	99.56
504.256	78.56
504.473	91.56
504.69	94.56
504.907	91.56
505.123	83.56
505.34	95.56
505.557	84.56
505.773	96.56
505.99	83.56
506.207	69.56
506.423	93.56
506.64	86.56
506.856	102.56
507.073	86.56
507.289	94.56
507.506	89.56
507.722	134.56
507.939	141.56
508.155	104.56
508.372	81.56
508.588	81.56
508.805	92.56
509.021	86.56
509.238	109.56
509.454	98.56
509.67	111.56
509.887	114.56
510.103	169.56
510.319	264.56
510.536	1058.56
510.752	3667.56
510.968	996.56
511.184	195.56
511.401	128.56
511.617	96.56
511.833	106.56
512.049	95.56
512.265	95.56
512.481	79.56
512.698	97.56
512.914	97.56
513.13	91.56
513.346	94.56
