Data from Circ_2007_H10_HRD10591_00037.txt Node
Date: Wed Jan 03 10:22:04 EST 2024
User: Yrep
Spectrometer: HR+D1059
Trigger mode: 1
Integration Time (sec): 1.000000E-1
Scans to average: 1
Electric dark correction enabled: true
Nonlinearity correction enabled: false
Boxcar width: 0
XAxis mode: Wavelengths
Number of Pixels in Spectrum: 2048
>>>>>Begin Spectral Data<<<<<
223.165	-24.44
223.4	-24.44
223.635	-24.44
223.869	-14.44
224.104	-28.44
224.338	-5.44
224.573	-11.44
224.808	-9.44
225.042	-5.44
225.277	-17.44
225.511	0.56
225.746	11.56
225.98	6.56
226.215	6.56
226.449	5.56
226.683	26.56
226.918	35.56
227.152	23.56
227.387	29.56
227.621	43.56
227.856	47.56
228.09	60.56
228.324	50.56
228.559	56.56
228.793	79.56
229.027	60.56
229.262	63.56
229.496	77.56
229.73	92.56
229.964	97.56
230.199	77.56
230.433	74.56
230.667	85.56
230.901	74.56
231.136	74.56
231.37	81.56
231.604	86.56
231.838	83.56
232.072	91.56
232.306	75.56
232.541	96.56
232.775	80.56
233.009	84.56
233.243	82.56
233.477	92.56
233.711	75.56
233.945	75.56
234.179	83.56
234.413	77.56
234.647	81.56
234.881	89.56
235.115	86.56
235.349	95.56
235.583	75.56
235.817	82.56
236.051	82.56
236.285	88.56
236.519	83.56
236.753	75.56
236.987	75.56
237.221	101.56
237.455	95.56
237.689	79.56
237.922	88.56
238.156	65.56
238.39	89.56
238.624	75.56
238.858	81.56
239.091	88.56
239.325	66.56
239.559	78.56
239.793	80.56
240.027	100.56
240.26	85.56
240.494	69.56
240.728	78.56
240.961	67.56
241.195	83.56
241.429	83.56
241.662	89.56
241.896	93.56
242.13	85.56
242.363	78.56
242.597	81.56
242.83	76.56
243.064	77.56
243.298	84.56
243.531	77.56
243.765	86.56
243.998	87.56
244.232	92.56
244.465	87.56
244.699	82.56
244.932	65.56
245.166	85.56
245.399	79.56
245.633	77.56
245.866	78.56
246.099	76.56
246.333	85.56
246.566	79.56
246.8	87.56
247.033	82.56
247.266	75.56
247.5	77.56
247.733	75.56
247.966	94.56
248.2	70.56
248.433	74.56
248.666	77.56
248.899	82.56
249.133	84.56
249.366	107.56
249.599	116.56
249.832	80.56
250.066	78.56
250.299	84.56
250.532	91.56
250.765	98.56
250.998	88.56
251.231	81.56
251.465	66.56
251.698	67.56
251.931	90.56
252.164	95.56
252.397	81.56
252.63	86.56
252.863	80.56
253.096	76.56
253.329	83.56
253.562	82.56
253.795	84.56
254.028	81.56
254.261	87.56
254.494	87.56
254.727	87.56
254.96	74.56
255.193	95.56
255.426	87.56
255.659	80.56
255.892	92.56
256.124	85.56
256.357	84.56
256.59	94.56
256.823	91.56
257.056	81.56
257.289	70.56
257.521	84.56
257.754	92.56
257.987	87.56
258.22	78.56
258.452	91.56
258.685	83.56
258.918	98.56
259.151	81.56
259.383	96.56
259.616	86.56
259.849	82.56
260.081	88.56
260.314	85.56
260.547	85.56
260.779	91.56
261.012	97.56
261.244	95.56
261.477	86.56
261.71	97.56
261.942	130.56
262.175	139.56
262.407	105.56
262.64	87.56
262.872	101.56
263.105	75.56
263.337	88.56
263.57	73.56
263.802	67.56
264.035	82.56
264.267	85.56
264.499	86.56
264.732	85.56
264.964	89.56
265.197	89.56
265.429	84.56
265.661	87.56
265.894	81.56
266.126	81.56
266.358	78.56
266.591	82.56
266.823	84.56
267.055	84.56
267.287	79.56
267.52	65.56
267.752	86.56
267.984	86.56
268.216	84.56
268.448	92.56
268.681	65.56
268.913	87.56
269.145	90.56
269.377	94.56
269.609	87.56
269.841	88.56
270.073	91.56
270.306	82.56
270.538	84.56
270.77	94.56
271.002	93.56
271.234	99.56
271.466	90.56
271.698	98.56
271.93	80.56
272.162	83.56
272.394	90.56
272.626	91.56
272.858	86.56
273.09	90.56
273.322	81.56
273.553	90.56
273.785	87.56
274.017	81.56
274.249	77.56
274.481	77.56
274.713	78.56
274.945	96.56
275.176	90.56
275.408	97.56
275.64	100.56
275.872	98.56
276.104	107.56
276.335	114.56
276.567	114.56
276.799	147.56
277.031	157.56
277.262	157.56
277.494	122.56
277.726	100.56
277.957	87.56
278.189	93.56
278.421	91.56
278.652	96.56
278.884	79.56
279.115	93.56
279.347	94.56
279.579	102.56
279.81	111.56
280.042	162.56
280.273	185.56
280.505	141.56
280.736	109.56
280.968	101.56
281.199	98.56
281.431	86.56
281.662	87.56
281.894	89.56
282.125	112.56
282.356	119.56
282.588	182.56
282.819	142.56
283.051	102.56
283.282	89.56
283.513	81.56
283.745	92.56
283.976	92.56
284.207	86.56
284.439	83.56
284.67	94.56
284.901	71.56
285.132	87.56
285.364	89.56
285.595	92.56
285.826	89.56
286.057	91.56
286.288	91.56
286.52	90.56
286.751	78.56
286.982	81.56
287.213	78.56
287.444	82.56
287.675	98.56
287.906	104.56
288.138	90.56
288.369	102.56
288.6	98.56
288.831	99.56
289.062	94.56
289.293	91.56
289.524	93.56
289.755	93.56
289.986	86.56
290.217	83.56
290.448	87.56
290.679	84.56
290.91	80.56
291.141	101.56
291.371	96.56
291.602	86.56
291.833	74.56
292.064	74.56
292.295	90.56
292.526	99.56
292.757	96.56
292.987	87.56
293.218	73.56
293.449	101.56
293.68	81.56
293.91	82.56
294.141	90.56
294.372	94.56
294.603	101.56
294.833	106.56
295.064	92.56
295.295	93.56
295.525	111.56
295.756	102.56
295.987	126.56
296.217	170.56
296.448	130.56
296.679	105.56
296.909	97.56
297.14	86.56
297.37	103.56
297.601	92.56
297.831	87.56
298.062	100.56
298.292	94.56
298.523	97.56
298.753	89.56
298.984	80.56
299.214	81.56
299.445	97.56
299.675	75.56
299.905	94.56
300.136	96.56
300.366	98.56
300.597	76.56
300.827	92.56
301.057	101.56
301.288	116.56
301.518	97.56
301.748	90.56
301.979	107.56
302.209	97.56
302.439	104.56
302.669	105.56
302.9	107.56
303.13	82.56
303.36	112.56
303.59	116.56
303.82	127.56
304.051	111.56
304.281	78.56
304.511	85.56
304.741	101.56
304.971	114.56
305.201	91.56
305.431	107.56
305.661	95.56
305.891	91.56
306.121	105.56
306.352	109.56
306.582	106.56
306.812	100.56
307.042	107.56
307.272	137.56
307.502	140.56
307.731	140.56
307.961	125.56
308.191	85.56
308.421	84.56
308.651	95.56
308.881	102.56
309.111	101.56
309.341	110.56
309.571	108.56
309.8	92.56
310.03	106.56
310.26	122.56
310.49	117.56
310.72	100.56
310.949	107.56
311.179	122.56
311.409	88.56
311.639	106.56
311.868	102.56
312.098	105.56
312.328	109.56
312.557	114.56
312.787	132.56
313.017	119.56
313.246	111.56
313.476	99.56
313.706	102.56
313.935	95.56
314.165	114.56
314.394	121.56
314.624	121.56
314.853	108.56
315.083	100.56
315.312	101.56
315.542	88.56
315.771	99.56
316.001	112.56
316.23	105.56
316.46	97.56
316.689	96.56
316.919	100.56
317.148	105.56
317.377	95.56
317.607	121.56
317.836	102.56
318.065	91.56
318.295	101.56
318.524	94.56
318.753	97.56
318.983	97.56
319.212	99.56
319.441	113.56
319.67	117.56
319.9	92.56
320.129	92.56
320.358	101.56
320.587	105.56
320.816	125.56
321.046	110.56
321.275	121.56
321.504	102.56
321.733	103.56
321.962	100.56
322.191	101.56
322.42	121.56
322.649	127.56
322.878	127.56
323.108	144.56
323.337	168.56
323.566	173.56
323.795	209.56
324.024	261.56
324.253	524.56
324.482	1150.56
324.71	2468.56
324.939	3283.56
325.168	1198.56
325.397	334.56
325.626	192.56
325.855	141.56
326.084	150.56
326.313	151.56
326.542	187.56
326.77	273.56
326.999	608.56
327.228	1297.56
327.457	2424.56
327.686	1972.56
327.914	585.56
328.143	459.56
328.372	527.56
328.6	302.56
328.829	185.56
329.058	186.56
329.287	203.56
329.515	159.56
329.744	213.56
329.972	340.56
330.201	678.56
330.43	1039.56
330.658	498.56
330.887	265.56
331.115	196.56
331.344	122.56
331.572	122.56
331.801	128.56
332.03	143.56
332.258	114.56
332.486	110.56
332.715	117.56
332.943	116.56
333.172	128.56
333.4	129.56
333.629	147.56
333.857	186.56
334.085	330.56
334.314	661.56
334.542	1278.56
334.771	1230.56
334.999	361.56
335.227	148.56
335.455	116.56
335.684	111.56
335.912	111.56
336.14	100.56
336.369	118.56
336.597	112.56
336.825	101.56
337.053	92.56
337.281	110.56
337.51	98.56
337.738	89.56
337.966	104.56
338.194	115.56
338.422	123.56
338.65	108.56
338.878	99.56
339.106	91.56
339.334	94.56
339.562	95.56
339.79	89.56
340.018	95.56
340.246	95.56
340.474	115.56
340.702	109.56
340.93	97.56
341.158	98.56
341.386	103.56
341.614	108.56
341.842	101.56
342.07	97.56
342.298	94.56
342.526	83.56
342.754	100.56
342.981	79.56
343.209	88.56
343.437	87.56
343.665	95.56
343.893	98.56
344.12	97.56
344.348	86.56
344.576	81.56
344.804	86.56
345.031	97.56
345.259	121.56
345.487	106.56
345.714	105.56
345.942	102.56
346.17	98.56
346.397	93.56
346.625	92.56
346.853	86.56
347.08	92.56
347.308	106.56
347.535	121.56
347.763	125.56
347.99	95.56
348.218	110.56
348.445	122.56
348.673	113.56
348.9	91.56
349.128	99.56
349.355	96.56
349.583	103.56
349.81	91.56
350.037	94.56
350.265	101.56
350.492	97.56
350.72	91.56
350.947	98.56
351.174	122.56
351.402	122.56
351.629	111.56
351.856	109.56
352.083	106.56
352.311	123.56
352.538	125.56
352.765	113.56
352.992	125.56
353.22	113.56
353.447	110.56
353.674	95.56
353.901	106.56
354.128	95.56
354.355	105.56
354.583	120.56
354.81	99.56
355.037	97.56
355.264	80.56
355.491	89.56
355.718	86.56
355.945	101.56
356.172	98.56
356.399	89.56
356.626	93.56
356.853	92.56
357.08	92.56
357.307	89.56
357.534	85.56
357.761	92.56
357.988	108.56
358.215	97.56
358.441	107.56
358.668	96.56
358.895	85.56
359.122	104.56
359.349	111.56
359.576	84.56
359.802	123.56
360.029	157.56
360.256	154.56
360.483	122.56
360.709	108.56
360.936	117.56
361.163	101.56
361.39	110.56
361.616	103.56
361.843	109.56
362.07	119.56
362.296	122.56
362.523	93.56
362.749	91.56
362.976	91.56
363.203	94.56
363.429	94.56
363.656	99.56
363.882	87.56
364.109	100.56
364.335	86.56
364.562	95.56
364.788	106.56
365.015	100.56
365.241	101.56
365.468	123.56
365.694	122.56
365.92	112.56
366.147	102.56
366.373	99.56
366.599	87.56
366.826	97.56
367.052	91.56
367.278	90.56
367.505	99.56
367.731	96.56
367.957	85.56
368.184	114.56
368.41	98.56
368.636	143.56
368.862	119.56
369.089	124.56
369.315	94.56
369.541	109.56
369.767	110.56
369.993	117.56
370.219	103.56
370.445	94.56
370.672	90.56
370.898	78.56
371.124	90.56
371.35	87.56
371.576	90.56
371.802	85.56
372.028	91.56
372.254	95.56
372.48	66.56
372.706	90.56
372.932	79.56
373.158	87.56
373.384	102.56
373.61	83.56
373.835	87.56
374.061	90.56
374.287	86.56
374.513	103.56
374.739	99.56
374.965	98.56
375.191	87.56
375.416	99.56
375.642	113.56
375.868	99.56
376.094	86.56
376.319	90.56
376.545	83.56
376.771	91.56
376.997	91.56
377.222	90.56
377.448	105.56
377.674	87.56
377.899	93.56
378.125	102.56
378.35	97.56
378.576	93.56
378.802	94.56
379.027	86.56
379.253	75.56
379.478	77.56
379.704	104.56
379.929	96.56
380.155	98.56
380.38	110.56
380.606	102.56
380.831	93.56
381.057	106.56
381.282	108.56
381.507	102.56
381.733	98.56
381.958	98.56
382.184	98.56
382.409	87.56
382.634	90.56
382.86	109.56
383.085	107.56
383.31	107.56
383.535	99.56
383.761	107.56
383.986	87.56
384.211	102.56
384.436	97.56
384.662	108.56
384.887	107.56
385.112	99.56
385.337	99.56
385.562	105.56
385.787	113.56
386.013	123.56
386.238	123.56
386.463	111.56
386.688	117.56
386.913	109.56
387.138	102.56
387.363	94.56
387.588	98.56
387.813	125.56
388.038	118.56
388.263	121.56
388.488	121.56
388.713	107.56
388.938	94.56
389.163	111.56
389.387	100.56
389.612	94.56
389.837	91.56
390.062	86.56
390.287	77.56
390.512	95.56
390.736	93.56
390.961	80.56
391.186	99.56
391.411	89.56
391.636	96.56
391.86	94.56
392.085	83.56
392.31	72.56
392.534	79.56
392.759	85.56
392.984	90.56
393.208	86.56
393.433	93.56
393.658	106.56
393.882	93.56
394.107	94.56
394.331	79.56
394.556	75.56
394.78	92.56
395.005	90.56
395.229	97.56
395.454	89.56
395.678	88.56
395.903	95.56
396.127	99.56
396.352	103.56
396.576	98.56
396.801	109.56
397.025	87.56
397.249	93.56
397.474	88.56
397.698	84.56
397.922	81.56
398.147	92.56
398.371	67.56
398.595	85.56
398.82	99.56
399.044	85.56
399.268	78.56
399.492	91.56
399.717	103.56
399.941	97.56
400.165	98.56
400.389	112.56
400.613	94.56
400.837	105.56
401.062	94.56
401.286	95.56
401.51	94.56
401.734	96.56
401.958	93.56
402.182	139.56
402.406	195.56
402.63	156.56
402.854	105.56
403.078	92.56
403.302	76.56
403.526	79.56
403.75	83.56
403.974	88.56
404.198	89.56
404.422	98.56
404.645	107.56
404.869	99.56
405.093	126.56
405.317	155.56
405.541	131.56
405.765	134.56
405.988	155.56
406.212	224.56
406.436	309.56
406.66	216.56
406.883	129.56
407.107	109.56
407.331	106.56
407.555	101.56
407.778	108.56
408.002	106.56
408.226	110.56
408.449	94.56
408.673	83.56
408.896	115.56
409.12	99.56
409.344	86.56
409.567	93.56
409.791	86.56
410.014	96.56
410.238	97.56
410.461	117.56
410.685	107.56
410.908	100.56
411.132	114.56
411.355	112.56
411.578	80.56
411.802	90.56
412.025	78.56
412.249	96.56
412.472	127.56
412.695	132.56
412.919	103.56
413.142	101.56
413.365	81.56
413.589	89.56
413.812	89.56
414.035	83.56
414.258	101.56
414.482	84.56
414.705	108.56
414.928	86.56
415.151	93.56
415.374	85.56
415.597	94.56
415.821	87.56
416.044	90.56
416.267	92.56
416.49	75.56
416.713	98.56
416.936	100.56
417.159	85.56
417.382	99.56
417.605	102.56
417.828	117.56
418.051	97.56
418.274	85.56
418.497	85.56
418.72	95.56
418.943	84.56
419.166	93.56
419.389	93.56
419.611	91.56
419.834	97.56
420.057	91.56
420.28	100.56
420.503	91.56
420.726	87.56
420.948	97.56
421.171	106.56
421.394	115.56
421.617	92.56
421.839	92.56
422.062	88.56
422.285	93.56
422.507	105.56
422.73	115.56
422.953	105.56
423.175	98.56
423.398	95.56
423.621	108.56
423.843	86.56
424.066	91.56
424.288	83.56
424.511	101.56
424.733	116.56
424.956	130.56
425.178	105.56
425.401	107.56
425.623	110.56
425.846	101.56
426.068	114.56
426.291	104.56
426.513	99.56
426.735	96.56
426.958	106.56
427.18	128.56
427.402	198.56
427.625	268.56
427.847	251.56
428.069	213.56
428.292	128.56
428.514	104.56
428.736	87.56
428.958	98.56
429.181	94.56
429.403	94.56
429.625	86.56
429.847	93.56
430.069	104.56
430.292	100.56
430.514	89.56
430.736	85.56
430.958	83.56
431.18	80.56
431.402	89.56
431.624	99.56
431.846	76.56
432.068	95.56
432.29	75.56
432.512	88.56
432.734	101.56
432.956	94.56
433.178	117.56
433.4	119.56
433.622	82.56
433.844	93.56
434.066	91.56
434.287	95.56
434.509	101.56
434.731	87.56
434.953	90.56
435.175	95.56
435.397	98.56
435.618	89.56
435.84	129.56
436.062	173.56
436.284	159.56
436.505	141.56
436.727	126.56
436.949	106.56
437.17	95.56
437.392	80.56
437.614	107.56
437.835	120.56
438.057	158.56
438.278	151.56
438.5	124.56
438.721	146.56
438.943	111.56
439.165	95.56
439.386	93.56
439.608	105.56
439.829	108.56
440.05	158.56
440.272	205.56
440.493	121.56
440.715	100.56
440.936	98.56
441.158	86.56
441.379	93.56
441.6	100.56
441.822	114.56
442.043	101.56
442.264	133.56
442.486	125.56
442.707	100.56
442.928	118.56
443.149	195.56
443.371	173.56
443.592	135.56
443.813	141.56
444.034	128.56
444.255	100.56
444.476	89.56
444.698	97.56
444.919	87.56
445.14	140.56
445.361	137.56
445.582	154.56
445.803	233.56
446.024	193.56
446.245	187.56
446.466	140.56
446.687	105.56
446.908	98.56
447.129	97.56
447.35	91.56
447.571	103.56
447.792	99.56
448.013	123.56
448.234	148.56
448.455	114.56
448.675	146.56
448.896	169.56
449.117	126.56
449.338	110.56
449.559	169.56
449.779	182.56
450	113.56
450.221	90.56
450.442	102.56
450.662	116.56
450.883	138.56
451.104	159.56
451.324	114.56
451.545	102.56
451.766	81.56
451.986	89.56
452.207	93.56
452.428	103.56
452.648	105.56
452.869	137.56
453.089	138.56
453.31	148.56
453.53	110.56
453.751	97.56
453.971	120.56
454.192	131.56
454.412	113.56
454.633	93.56
454.853	87.56
455.073	100.56
455.294	96.56
455.514	117.56
455.734	78.56
455.955	76.56
456.175	77.56
456.395	89.56
456.616	98.56
456.836	95.56
457.056	96.56
457.276	82.56
457.497	90.56
457.717	75.56
457.937	86.56
458.157	102.56
458.377	101.56
458.598	139.56
458.818	225.56
459.038	252.56
459.258	157.56
459.478	116.56
459.698	79.56
459.918	101.56
460.138	102.56
460.358	91.56
460.578	87.56
460.798	110.56
461.018	100.56
461.238	84.56
461.458	77.56
461.678	87.56
461.898	86.56
462.118	84.56
462.338	84.56
462.558	92.56
462.777	80.56
462.997	91.56
463.217	97.56
463.437	100.56
463.657	99.56
463.876	90.56
464.096	89.56
464.316	101.56
464.536	105.56
464.755	99.56
464.975	124.56
465.195	242.56
465.414	254.56
465.634	111.56
465.854	83.56
466.073	94.56
466.293	99.56
466.512	86.56
466.732	100.56
466.951	93.56
467.171	97.56
467.391	113.56
467.61	148.56
467.829	162.56
468.049	350.56
468.268	536.56
468.488	155.56
468.707	99.56
468.927	96.56
469.146	98.56
469.365	89.56
469.585	103.56
469.804	101.56
470.023	105.56
470.243	94.56
470.462	106.56
470.681	132.56
470.901	110.56
471.12	81.56
471.339	87.56
471.558	112.56
471.777	122.56
471.997	226.56
472.216	695.56
472.435	1566.56
472.654	406.56
472.873	138.56
473.092	112.56
473.311	89.56
473.53	85.56
473.749	109.56
473.968	114.56
474.187	137.56
474.406	116.56
474.625	83.56
474.844	93.56
475.063	88.56
475.282	95.56
475.501	86.56
475.72	94.56
475.939	101.56
476.158	86.56
476.377	87.56
476.596	83.56
476.814	113.56
477.033	99.56
477.252	81.56
477.471	102.56
477.69	91.56
477.908	96.56
478.127	86.56
478.346	104.56
478.564	93.56
478.783	103.56
479.002	99.56
479.22	95.56
479.439	117.56
479.658	137.56
479.876	131.56
480.095	106.56
480.313	116.56
480.532	132.56
480.751	215.56
480.969	635.56
481.188	2742.56
481.406	1657.56
481.624	278.56
481.843	105.56
482.061	85.56
482.28	93.56
482.498	88.56
482.717	95.56
482.935	86.56
483.153	88.56
483.372	85.56
483.59	89.56
483.808	91.56
484.027	98.56
484.245	77.56
484.463	104.56
484.681	102.56
484.9	99.56
485.118	93.56
485.336	94.56
485.554	102.56
485.772	112.56
485.99	98.56
486.209	106.56
486.427	124.56
486.645	121.56
486.863	132.56
487.081	112.56
487.299	93.56
487.517	107.56
487.735	102.56
487.953	106.56
488.171	102.56
488.389	98.56
488.607	114.56
488.825	99.56
489.043	95.56
489.261	95.56
489.479	93.56
489.696	97.56
489.914	94.56
490.132	93.56
490.35	93.56
490.568	95.56
490.786	95.56
491.003	96.56
491.221	102.56
491.439	114.56
491.657	98.56
491.874	78.56
492.092	88.56
492.31	86.56
492.527	100.56
492.745	96.56
492.963	99.56
493.18	93.56
493.398	89.56
493.615	91.56
493.833	105.56
494.05	98.56
494.268	99.56
494.485	86.56
494.703	102.56
494.92	94.56
495.138	97.56
495.355	96.56
495.573	97.56
495.79	92.56
496.008	101.56
496.225	92.56
496.442	82.56
496.66	95.56
496.877	85.56
497.094	82.56
497.312	91.56
497.529	93.56
497.746	99.56
497.963	88.56
498.181	113.56
498.398	109.56
498.615	131.56
498.832	106.56
499.049	89.56
499.267	86.56
499.484	88.56
499.701	94.56
499.918	101.56
500.135	85.56
500.352	99.56
500.569	99.56
500.786	85.56
501.003	98.56
501.22	88.56
501.437	88.56
501.654	113.56
501.871	127.56
502.088	102.56
502.305	109.56
502.522	99.56
502.739	93.56
502.956	93.56
503.172	96.56
503.389	112.56
503.606	117.56
503.823	118.56
504.04	98.56
504.256	88.56
504.473	98.56
504.69	95.56
504.907	80.56
505.123	91.56
505.34	100.56
505.557	106.56
505.773	102.56
505.99	87.56
506.207	94.56
506.423	99.56
506.64	97.56
506.856	114.56
507.073	87.56
507.289	95.56
507.506	102.56
507.722	137.56
507.939	139.56
508.155	103.56
508.372	94.56
508.588	90.56
508.805	91.56
509.021	101.56
509.238	84.56
509.454	106.56
509.67	103.56
509.887	107.56
510.103	143.56
510.319	230.56
510.536	912.56
510.752	3170.56
510.968	878.56
511.184	177.56
511.401	127.56
511.617	115.56
511.833	109.56
512.049	100.56
512.265	92.56
512.481	79.56
