Data from Circ_2007_H10_HRD10591_00049.txt Node
Date: Wed Jan 03 10:22:07 EST 2024
User: Yrep
Spectrometer: HR+D1059
Trigger mode: 1
Integration Time (sec): 1.000000E-1
Scans to average: 1
Electric dark correction enabled: true
Nonlinearity correction enabled: false
Boxcar width: 0
XAxis mode: Wavelengths
Number of Pixels in Spectrum: 2048
>>>>>Begin Spectral Data<<<<<
223.165	-31.25
223.4	-31.25
223.635	-31.25
223.869	-21.25
224.104	-17.25
224.338	-4.25
224.573	-3.25
224.808	-31.25
225.042	12.75
225.277	2.75
225.511	-7.25
225.746	-5.25
225.98	0.75
226.215	16.75
226.449	24.75
226.683	11.75
226.918	23.75
227.152	27.75
227.387	37.75
227.621	47.75
227.856	32.75
228.09	29.75
228.324	40.75
228.559	68.75
228.793	59.75
229.027	66.75
229.262	59.75
229.496	85.75
229.73	112.75
229.964	114.75
230.199	78.75
230.433	82.75
230.667	77.75
230.901	84.75
231.136	77.75
231.37	83.75
231.604	64.75
231.838	74.75
232.072	68.75
232.306	83.75
232.541	87.75
232.775	83.75
233.009	105.75
233.243	91.75
233.477	85.75
233.711	76.75
233.945	81.75
234.179	81.75
234.413	88.75
234.647	76.75
234.881	79.75
235.115	74.75
235.349	67.75
235.583	72.75
235.817	68.75
236.051	98.75
236.285	81.75
236.519	73.75
236.753	68.75
236.987	91.75
237.221	98.75
237.455	90.75
237.689	92.75
237.922	76.75
238.156	72.75
238.39	88.75
238.624	85.75
238.858	84.75
239.091	81.75
239.325	74.75
239.559	78.75
239.793	78.75
240.027	79.75
240.26	73.75
240.494	83.75
240.728	90.75
240.961	73.75
241.195	72.75
241.429	74.75
241.662	80.75
241.896	79.75
242.13	74.75
242.363	72.75
242.597	71.75
242.83	85.75
243.064	72.75
243.298	83.75
243.531	74.75
243.765	71.75
243.998	79.75
244.232	88.75
244.465	94.75
244.699	79.75
244.932	73.75
245.166	72.75
245.399	77.75
245.633	65.75
245.866	78.75
246.099	76.75
246.333	76.75
246.566	86.75
246.8	85.75
247.033	91.75
247.266	83.75
247.5	83.75
247.733	88.75
247.966	81.75
248.2	79.75
248.433	75.75
248.666	86.75
248.899	90.75
249.133	91.75
249.366	115.75
249.599	109.75
249.832	83.75
250.066	97.75
250.299	79.75
250.532	82.75
250.765	69.75
250.998	97.75
251.231	78.75
251.465	78.75
251.698	80.75
251.931	84.75
252.164	78.75
252.397	76.75
252.63	77.75
252.863	98.75
253.096	91.75
253.329	79.75
253.562	89.75
253.795	59.75
254.028	69.75
254.261	71.75
254.494	88.75
254.727	73.75
254.96	79.75
255.193	91.75
255.426	93.75
255.659	94.75
255.892	100.75
256.124	107.75
256.357	86.75
256.59	91.75
256.823	88.75
257.056	89.75
257.289	81.75
257.521	91.75
257.754	71.75
257.987	72.75
258.22	82.75
258.452	84.75
258.685	98.75
258.918	77.75
259.151	81.75
259.383	87.75
259.616	96.75
259.849	86.75
260.081	90.75
260.314	88.75
260.547	96.75
260.779	86.75
261.012	100.75
261.244	94.75
261.477	85.75
261.71	108.75
261.942	139.75
262.175	156.75
262.407	92.75
262.64	85.75
262.872	86.75
263.105	103.75
263.337	94.75
263.57	98.75
263.802	86.75
264.035	72.75
264.267	79.75
264.499	93.75
264.732	94.75
264.964	87.75
265.197	86.75
265.429	88.75
265.661	84.75
265.894	80.75
266.126	85.75
266.358	87.75
266.591	80.75
266.823	98.75
267.055	77.75
267.287	75.75
267.52	85.75
267.752	84.75
267.984	81.75
268.216	81.75
268.448	72.75
268.681	88.75
268.913	108.75
269.145	92.75
269.377	78.75
269.609	80.75
269.841	90.75
270.073	98.75
270.306	81.75
270.538	75.75
270.77	90.75
271.002	88.75
271.234	84.75
271.466	90.75
271.698	93.75
271.93	98.75
272.162	85.75
272.394	88.75
272.626	92.75
272.858	87.75
273.09	81.75
273.322	85.75
273.553	93.75
273.785	76.75
274.017	84.75
274.249	80.75
274.481	85.75
274.713	91.75
274.945	85.75
275.176	103.75
275.408	115.75
275.64	114.75
275.872	118.75
276.104	109.75
276.335	102.75
276.567	135.75
276.799	176.75
277.031	187.75
277.262	176.75
277.494	135.75
277.726	101.75
277.957	90.75
278.189	91.75
278.421	93.75
278.652	94.75
278.884	96.75
279.115	82.75
279.347	96.75
279.579	98.75
279.81	120.75
280.042	187.75
280.273	262.75
280.505	187.75
280.736	118.75
280.968	96.75
281.199	93.75
281.431	81.75
281.662	90.75
281.894	103.75
282.125	105.75
282.356	148.75
282.588	204.75
282.819	168.75
283.051	102.75
283.282	89.75
283.513	85.75
283.745	91.75
283.976	92.75
284.207	87.75
284.439	91.75
284.67	78.75
284.901	85.75
285.132	89.75
285.364	98.75
285.595	87.75
285.826	80.75
286.057	93.75
286.288	90.75
286.52	93.75
286.751	96.75
286.982	81.75
287.213	90.75
287.444	86.75
287.675	88.75
287.906	85.75
288.138	77.75
288.369	101.75
288.6	98.75
288.831	97.75
289.062	85.75
289.293	71.75
289.524	94.75
289.755	97.75
289.986	80.75
290.217	83.75
290.448	77.75
290.679	78.75
290.91	110.75
291.141	91.75
291.371	89.75
291.602	93.75
291.833	76.75
292.064	84.75
292.295	97.75
292.526	88.75
292.757	105.75
292.987	94.75
293.218	97.75
293.449	84.75
293.68	85.75
293.91	85.75
294.141	101.75
294.372	93.75
294.603	105.75
294.833	96.75
295.064	93.75
295.295	93.75
295.525	94.75
295.756	120.75
295.987	148.75
296.217	179.75
296.448	165.75
296.679	100.75
296.909	96.75
297.14	85.75
297.37	87.75
297.601	96.75
297.831	90.75
298.062	104.75
298.292	104.75
298.523	101.75
298.753	83.75
298.984	90.75
299.214	96.75
299.445	100.75
299.675	98.75
299.905	109.75
300.136	96.75
300.366	84.75
300.597	85.75
300.827	96.75
301.057	116.75
301.288	120.75
301.518	95.75
301.748	85.75
301.979	102.75
302.209	104.75
302.439	99.75
302.669	87.75
302.9	94.75
303.13	111.75
303.36	96.75
303.59	135.75
303.82	158.75
304.051	111.75
304.281	98.75
304.511	94.75
304.741	81.75
304.971	94.75
305.201	95.75
305.431	108.75
305.661	102.75
305.891	110.75
306.121	94.75
306.352	125.75
306.582	125.75
306.812	108.75
307.042	139.75
307.272	154.75
307.502	172.75
307.731	145.75
307.961	123.75
308.191	95.75
308.421	105.75
308.651	105.75
308.881	104.75
309.111	87.75
309.341	100.75
309.571	106.75
309.8	112.75
310.03	114.75
310.26	120.75
310.49	103.75
310.72	111.75
310.949	128.75
311.179	127.75
311.409	103.75
311.639	105.75
311.868	111.75
312.098	108.75
312.328	116.75
312.557	138.75
312.787	135.75
313.017	133.75
313.246	107.75
313.476	98.75
313.706	111.75
313.935	100.75
314.165	112.75
314.394	115.75
314.624	121.75
314.853	114.75
315.083	92.75
315.312	111.75
315.542	93.75
315.771	84.75
316.001	85.75
316.23	90.75
316.46	95.75
316.689	90.75
316.919	108.75
317.148	107.75
317.377	106.75
317.607	110.75
317.836	114.75
318.065	102.75
318.295	84.75
318.524	91.75
318.753	92.75
318.983	105.75
319.212	119.75
319.441	138.75
319.67	149.75
319.9	95.75
320.129	96.75
320.358	100.75
320.587	123.75
320.816	114.75
321.046	105.75
321.275	118.75
321.504	113.75
321.733	107.75
321.962	103.75
322.191	102.75
322.42	116.75
322.649	145.75
322.878	144.75
323.108	143.75
323.337	167.75
323.566	185.75
323.795	213.75
324.024	288.75
324.253	608.75
324.482	1325.75
324.71	2767.75
324.939	3716.75
325.168	1293.75
325.397	368.75
325.626	196.75
325.855	167.75
326.084	156.75
326.313	167.75
326.542	197.75
326.77	328.75
326.999	669.75
327.228	1414.75
327.457	2590.75
327.686	2081.75
327.914	651.75
328.143	536.75
328.372	660.75
328.6	385.75
328.829	213.75
329.058	229.75
329.287	234.75
329.515	217.75
329.744	247.75
329.972	436.75
330.201	925.75
330.43	1371.75
330.658	628.75
330.887	359.75
331.115	250.75
331.344	138.75
331.572	129.75
331.801	148.75
332.03	154.75
332.258	136.75
332.486	111.75
332.715	114.75
332.943	113.75
333.172	136.75
333.4	142.75
333.629	174.75
333.857	249.75
334.085	411.75
334.314	862.75
334.542	1692.75
334.771	1587.75
334.999	455.75
335.227	192.75
335.455	117.75
335.684	107.75
335.912	115.75
336.14	113.75
336.369	116.75
336.597	135.75
336.825	119.75
337.053	99.75
337.281	103.75
337.51	103.75
337.738	121.75
337.966	105.75
338.194	113.75
338.422	103.75
338.65	95.75
338.878	100.75
339.106	104.75
339.334	106.75
339.562	95.75
339.79	98.75
340.018	113.75
340.246	105.75
340.474	100.75
340.702	119.75
340.93	106.75
341.158	102.75
341.386	108.75
341.614	113.75
341.842	104.75
342.07	99.75
342.298	95.75
342.526	103.75
342.754	95.75
342.981	97.75
343.209	78.75
343.437	92.75
343.665	89.75
343.893	102.75
344.12	109.75
344.348	100.75
344.576	95.75
344.804	108.75
345.031	121.75
345.259	112.75
345.487	82.75
345.714	105.75
345.942	103.75
346.17	96.75
346.397	83.75
346.625	112.75
346.853	97.75
347.08	89.75
347.308	106.75
347.535	118.75
347.763	120.75
347.99	128.75
348.218	127.75
348.445	130.75
348.673	133.75
348.9	101.75
349.128	106.75
349.355	104.75
349.583	91.75
349.81	79.75
350.037	113.75
350.265	109.75
350.492	100.75
350.72	108.75
350.947	113.75
351.174	111.75
351.402	125.75
351.629	111.75
351.856	109.75
352.083	114.75
352.311	141.75
352.538	155.75
352.765	141.75
352.992	123.75
353.22	133.75
353.447	127.75
353.674	109.75
353.901	94.75
354.128	96.75
354.355	87.75
354.583	109.75
354.81	104.75
355.037	93.75
355.264	101.75
355.491	94.75
355.718	105.75
355.945	83.75
356.172	87.75
356.399	89.75
356.626	93.75
356.853	88.75
357.08	91.75
357.307	94.75
357.534	92.75
357.761	84.75
357.988	89.75
358.215	94.75
358.441	98.75
358.668	107.75
358.895	95.75
359.122	106.75
359.349	84.75
359.576	109.75
359.802	129.75
360.029	157.75
360.256	176.75
360.483	134.75
360.709	108.75
360.936	97.75
361.163	105.75
361.39	125.75
361.616	104.75
361.843	99.75
362.07	122.75
362.296	126.75
362.523	114.75
362.749	97.75
362.976	104.75
363.203	113.75
363.429	98.75
363.656	96.75
363.882	104.75
364.109	89.75
364.335	101.75
364.562	107.75
364.788	89.75
365.015	104.75
365.241	115.75
365.468	137.75
365.694	140.75
365.92	119.75
366.147	109.75
366.373	90.75
366.599	90.75
366.826	86.75
367.052	104.75
367.278	104.75
367.505	87.75
367.731	99.75
367.957	103.75
368.184	108.75
368.41	124.75
368.636	145.75
368.862	140.75
369.089	126.75
369.315	113.75
369.541	97.75
369.767	109.75
369.993	93.75
370.219	107.75
370.445	91.75
370.672	95.75
370.898	85.75
371.124	103.75
371.35	90.75
371.576	95.75
371.802	84.75
372.028	92.75
372.254	100.75
372.48	86.75
372.706	85.75
372.932	97.75
373.158	91.75
373.384	104.75
373.61	102.75
373.835	83.75
374.061	90.75
374.287	106.75
374.513	86.75
374.739	93.75
374.965	87.75
375.191	100.75
375.416	107.75
375.642	88.75
375.868	86.75
376.094	104.75
376.319	91.75
376.545	78.75
376.771	86.75
376.997	94.75
377.222	110.75
377.448	98.75
377.674	95.75
377.899	88.75
378.125	81.75
378.35	107.75
378.576	92.75
378.802	100.75
379.027	100.75
379.253	79.75
379.478	82.75
379.704	94.75
379.929	102.75
380.155	97.75
380.38	98.75
380.606	102.75
380.831	93.75
381.057	95.75
381.282	99.75
381.507	104.75
381.733	112.75
381.958	97.75
382.184	101.75
382.409	96.75
382.634	112.75
382.86	110.75
383.085	101.75
383.31	118.75
383.535	103.75
383.761	100.75
383.986	100.75
384.211	76.75
384.436	82.75
384.662	100.75
384.887	107.75
385.112	96.75
385.337	105.75
385.562	100.75
385.787	102.75
386.013	136.75
386.238	154.75
386.463	121.75
386.688	121.75
386.913	111.75
387.138	106.75
387.363	111.75
387.588	93.75
387.813	100.75
388.038	117.75
388.263	108.75
388.488	100.75
388.713	92.75
388.938	96.75
389.163	106.75
389.387	105.75
389.612	109.75
389.837	88.75
390.062	77.75
390.287	85.75
390.512	83.75
390.736	98.75
390.961	104.75
391.186	97.75
391.411	94.75
391.636	95.75
391.86	91.75
392.085	96.75
392.31	85.75
392.534	79.75
392.759	93.75
392.984	89.75
393.208	92.75
393.433	85.75
393.658	95.75
393.882	82.75
394.107	84.75
394.331	91.75
394.556	96.75
394.78	96.75
395.005	94.75
395.229	100.75
395.454	91.75
395.678	96.75
395.903	84.75
396.127	98.75
396.352	85.75
396.576	92.75
396.801	92.75
397.025	91.75
397.249	106.75
397.474	98.75
397.698	89.75
397.922	94.75
398.147	77.75
398.371	84.75
398.595	84.75
398.82	80.75
399.044	87.75
399.268	90.75
399.492	83.75
399.717	87.75
399.941	81.75
400.165	105.75
400.389	93.75
400.613	93.75
400.837	93.75
401.062	92.75
401.286	88.75
401.51	99.75
401.734	111.75
401.958	124.75
402.182	169.75
402.406	236.75
402.63	170.75
402.854	108.75
403.078	84.75
403.302	105.75
403.526	105.75
403.75	84.75
403.974	86.75
404.198	73.75
404.422	83.75
404.645	96.75
404.869	95.75
405.093	110.75
405.317	154.75
405.541	148.75
405.765	144.75
405.988	160.75
406.212	268.75
406.436	404.75
406.66	265.75
406.883	160.75
407.107	126.75
407.331	125.75
407.555	133.75
407.778	109.75
408.002	91.75
408.226	97.75
408.449	90.75
408.673	90.75
408.896	104.75
409.12	128.75
409.344	102.75
409.567	85.75
409.791	88.75
410.014	79.75
410.238	85.75
410.461	92.75
410.685	87.75
410.908	96.75
411.132	100.75
411.355	118.75
411.578	114.75
411.802	97.75
412.025	99.75
412.249	111.75
412.472	119.75
412.695	130.75
412.919	120.75
413.142	106.75
413.365	82.75
413.589	90.75
413.812	92.75
414.035	95.75
414.258	90.75
414.482	106.75
414.705	99.75
414.928	87.75
415.151	96.75
415.374	83.75
415.597	88.75
415.821	87.75
416.044	102.75
416.267	107.75
416.49	73.75
416.713	95.75
416.936	98.75
417.159	96.75
417.382	82.75
417.605	122.75
417.828	114.75
418.051	100.75
418.274	91.75
418.497	99.75
418.72	92.75
418.943	91.75
419.166	95.75
419.389	95.75
419.611	104.75
419.834	94.75
420.057	88.75
420.28	98.75
420.503	97.75
420.726	95.75
420.948	99.75
421.171	92.75
421.394	110.75
421.617	76.75
421.839	94.75
422.062	94.75
422.285	89.75
422.507	106.75
422.73	118.75
422.953	98.75
423.175	92.75
423.398	78.75
423.621	88.75
423.843	89.75
424.066	96.75
424.288	95.75
424.511	105.75
424.733	111.75
424.956	125.75
425.178	116.75
425.401	115.75
425.623	113.75
425.846	97.75
426.068	101.75
426.291	125.75
426.513	99.75
426.735	90.75
426.958	99.75
427.18	138.75
427.402	208.75
427.625	319.75
427.847	278.75
428.069	243.75
428.292	135.75
428.514	114.75
428.736	93.75
428.958	85.75
429.181	97.75
429.403	84.75
429.625	98.75
429.847	109.75
430.069	125.75
430.292	108.75
430.514	101.75
430.736	100.75
430.958	65.75
431.18	77.75
431.402	79.75
431.624	77.75
431.846	83.75
432.068	90.75
432.29	83.75
432.512	88.75
432.734	84.75
432.956	93.75
433.178	107.75
433.4	105.75
433.622	95.75
433.844	101.75
434.066	98.75
434.287	102.75
434.509	91.75
434.731	88.75
434.953	84.75
435.175	96.75
435.397	100.75
435.618	81.75
435.84	135.75
436.062	149.75
436.284	158.75
436.505	113.75
436.727	108.75
436.949	97.75
437.17	83.75
437.392	99.75
437.614	117.75
437.835	143.75
438.057	176.75
438.278	150.75
438.5	122.75
438.721	163.75
438.943	130.75
439.165	90.75
439.386	97.75
439.608	105.75
439.829	120.75
440.05	175.75
440.272	220.75
440.493	126.75
440.715	87.75
440.936	91.75
441.158	107.75
441.379	92.75
441.6	104.75
441.822	115.75
442.043	104.75
442.264	129.75
442.486	123.75
442.707	114.75
442.928	145.75
443.149	200.75
443.371	210.75
443.592	127.75
443.813	149.75
444.034	135.75
444.255	106.75
444.476	97.75
444.698	97.75
444.919	92.75
445.14	144.75
445.361	160.75
445.582	157.75
445.803	221.75
446.024	224.75
446.245	191.75
446.466	153.75
446.687	104.75
446.908	102.75
447.129	94.75
447.35	89.75
447.571	106.75
447.792	113.75
448.013	114.75
448.234	137.75
448.455	111.75
448.675	137.75
448.896	160.75
449.117	107.75
449.338	123.75
449.559	179.75
449.779	165.75
450	110.75
450.221	89.75
450.442	105.75
450.662	125.75
450.883	147.75
451.104	167.75
451.324	103.75
451.545	105.75
451.766	98.75
451.986	95.75
452.207	104.75
452.428	97.75
452.648	113.75
452.869	149.75
453.089	156.75
453.31	176.75
453.53	113.75
453.751	111.75
453.971	127.75
454.192	163.75
454.412	104.75
454.633	88.75
454.853	89.75
455.073	110.75
455.294	92.75
455.514	114.75
455.734	96.75
455.955	83.75
456.175	105.75
456.395	88.75
456.616	85.75
456.836	81.75
457.056	85.75
457.276	96.75
457.497	88.75
457.717	80.75
457.937	93.75
458.157	94.75
458.377	101.75
458.598	147.75
458.818	267.75
459.038	292.75
459.258	168.75
459.478	111.75
459.698	91.75
459.918	85.75
460.138	88.75
460.358	99.75
460.578	87.75
460.798	93.75
461.018	95.75
461.238	95.75
461.458	77.75
461.678	69.75
461.898	83.75
462.118	99.75
462.338	91.75
462.558	94.75
462.777	93.75
462.997	96.75
463.217	101.75
463.437	88.75
463.657	95.75
463.876	106.75
464.096	107.75
464.316	109.75
464.536	112.75
464.755	116.75
464.975	145.75
465.195	320.75
465.414	323.75
465.634	116.75
465.854	83.75
466.073	73.75
466.293	92.75
466.512	97.75
466.732	91.75
466.951	88.75
467.171	92.75
467.391	103.75
467.61	150.75
467.829	204.75
468.049	472.75
468.268	732.75
468.488	205.75
468.707	121.75
468.927	96.75
469.146	84.75
469.365	95.75
469.585	100.75
469.804	131.75
470.023	116.75
470.243	102.75
470.462	131.75
470.681	174.75
470.901	106.75
471.12	107.75
471.339	111.75
471.558	125.75
471.777	149.75
471.997	249.75
472.216	935.75
472.435	2195.75
472.654	551.75
472.873	152.75
473.092	112.75
473.311	79.75
473.53	99.75
473.749	93.75
473.968	117.75
474.187	147.75
474.406	118.75
474.625	98.75
474.844	93.75
475.063	90.75
475.282	93.75
475.501	97.75
475.72	89.75
475.939	88.75
476.158	96.75
476.377	96.75
476.596	89.75
476.814	103.75
477.033	99.75
477.252	107.75
477.471	94.75
477.69	103.75
477.908	102.75
478.127	101.75
478.346	99.75
478.564	112.75
478.783	110.75
479.002	121.75
479.22	108.75
479.439	128.75
479.658	143.75
479.876	123.75
480.095	126.75
480.313	131.75
480.532	152.75
480.751	250.75
480.969	840.75
481.188	3676.75
481.406	2308.75
481.624	352.75
481.843	125.75
482.061	103.75
482.28	125.75
482.498	99.75
482.717	94.75
482.935	87.75
483.153	100.75
483.372	111.75
483.59	100.75
483.808	80.75
484.027	95.75
484.245	95.75
484.463	96.75
484.681	100.75
484.9	98.75
485.118	97.75
485.336	88.75
485.554	89.75
485.772	86.75
485.99	103.75
486.209	108.75
486.427	108.75
486.645	135.75
486.863	159.75
487.081	106.75
487.299	109.75
487.517	106.75
487.735	87.75
487.953	111.75
488.171	95.75
488.389	81.75
488.607	98.75
488.825	91.75
489.043	103.75
489.261	91.75
489.479	101.75
489.696	82.75
489.914	97.75
490.132	80.75
490.35	93.75
490.568	105.75
490.786	108.75
491.003	88.75
491.221	94.75
491.439	95.75
491.657	88.75
491.874	94.75
492.092	102.75
492.31	88.75
492.527	96.75
492.745	105.75
492.963	89.75
493.18	89.75
493.398	85.75
493.615	84.75
493.833	92.75
494.05	106.75
494.268	83.75
494.485	99.75
494.703	95.75
494.92	96.75
495.138	85.75
495.355	81.75
495.573	94.75
495.79	102.75
496.008	92.75
496.225	85.75
496.442	94.75
496.66	95.75
496.877	91.75
497.094	80.75
497.312	81.75
497.529	94.75
497.746	84.75
497.963	116.75
498.181	87.75
498.398	105.75
498.615	133.75
498.832	95.75
499.049	99.75
499.267	116.75
499.484	107.75
499.701	79.75
499.918	81.75
500.135	79.75
500.352	100.75
500.569	92.75
500.786	93.75
501.003	94.75
501.22	95.75
501.437	94.75
501.654	108.75
501.871	150.75
502.088	122.75
502.305	106.75
502.522	94.75
502.739	91.75
502.956	93.75
503.172	88.75
503.389	113.75
503.606	152.75
503.823	121.75
504.04	103.75
504.256	98.75
504.473	98.75
504.69	85.75
504.907	75.75
505.123	83.75
505.34	91.75
505.557	95.75
505.773	84.75
505.99	100.75
506.207	98.75
506.423	85.75
506.64	106.75
506.856	93.75
507.073	87.75
507.289	100.75
507.506	123.75
507.722	144.75
507.939	156.75
508.155	120.75
508.372	100.75
508.588	87.75
508.805	113.75
509.021	108.75
509.238	88.75
509.454	101.75
509.67	115.75
509.887	116.75
510.103	163.75
510.319	277.75
510.536	1091.75
510.752	4108.75
510.968	1080.75
511.184	219.75
511.401	162.75
511.617	120.75
