Data from Circ_2007_H10_HRD10591_00036.txt Node
Date: Wed Jan 03 10:22:04 EST 2024
User: Yrep
Spectrometer: HR+D1059
Trigger mode: 1
Integration Time (sec): 1.000000E-1
Scans to average: 1
Electric dark correction enabled: true
Nonlinearity correction enabled: false
Boxcar width: 0
XAxis mode: Wavelengths
Number of Pixels in Spectrum: 2048
>>>>>Begin Spectral Data<<<<<
223.165	-12.62
223.4	-12.62
223.635	-12.62
223.869	-17.62
224.104	-17.62
224.338	-15.62
224.573	-20.62
224.808	-29.62
225.042	6.38
225.277	-9.62
225.511	1.38
225.746	-9.62
225.98	1.38
226.215	12.38
226.449	23.38
226.683	20.38
226.918	23.38
227.152	44.38
227.387	49.38
227.621	46.38
227.856	56.38
228.09	49.38
228.324	38.38
228.559	53.38
228.793	54.38
229.027	75.38
229.262	74.38
229.496	89.38
229.73	96.38
229.964	103.38
230.199	95.38
230.433	68.38
230.667	86.38
230.901	93.38
231.136	90.38
231.37	88.38
231.604	93.38
231.838	79.38
232.072	79.38
232.306	93.38
232.541	71.38
232.775	63.38
233.009	89.38
233.243	89.38
233.477	85.38
233.711	82.38
233.945	83.38
234.179	84.38
234.413	82.38
234.647	89.38
234.881	90.38
235.115	80.38
235.349	89.38
235.583	86.38
235.817	83.38
236.051	87.38
236.285	75.38
236.519	84.38
236.753	84.38
236.987	79.38
237.221	101.38
237.455	98.38
237.689	89.38
237.922	73.38
238.156	99.38
238.39	88.38
238.624	77.38
238.858	53.38
239.091	89.38
239.325	81.38
239.559	89.38
239.793	91.38
240.027	80.38
240.26	91.38
240.494	85.38
240.728	86.38
240.961	78.38
241.195	91.38
241.429	85.38
241.662	79.38
241.896	71.38
242.13	74.38
242.363	81.38
242.597	81.38
242.83	69.38
243.064	88.38
243.298	94.38
243.531	81.38
243.765	86.38
243.998	85.38
244.232	92.38
244.465	82.38
244.699	96.38
244.932	92.38
245.166	86.38
245.399	93.38
245.633	96.38
245.866	87.38
246.099	85.38
246.333	93.38
246.566	96.38
246.8	87.38
247.033	86.38
247.266	80.38
247.5	83.38
247.733	82.38
247.966	88.38
248.2	88.38
248.433	68.38
248.666	90.38
248.899	88.38
249.133	84.38
249.366	110.38
249.599	112.38
249.832	86.38
250.066	91.38
250.299	94.38
250.532	102.38
250.765	76.38
250.998	99.38
251.231	80.38
251.465	81.38
251.698	77.38
251.931	83.38
252.164	94.38
252.397	85.38
252.63	83.38
252.863	97.38
253.096	95.38
253.329	95.38
253.562	87.38
253.795	87.38
254.028	76.38
254.261	100.38
254.494	83.38
254.727	87.38
254.96	80.38
255.193	86.38
255.426	79.38
255.659	87.38
255.892	111.38
256.124	112.38
256.357	80.38
256.59	91.38
256.823	99.38
257.056	77.38
257.289	93.38
257.521	83.38
257.754	89.38
257.987	85.38
258.22	94.38
258.452	88.38
258.685	102.38
258.918	89.38
259.151	77.38
259.383	93.38
259.616	79.38
259.849	78.38
260.081	80.38
260.314	85.38
260.547	96.38
260.779	98.38
261.012	101.38
261.244	100.38
261.477	105.38
261.71	110.38
261.942	130.38
262.175	145.38
262.407	89.38
262.64	79.38
262.872	96.38
263.105	92.38
263.337	79.38
263.57	87.38
263.802	93.38
264.035	86.38
264.267	76.38
264.499	82.38
264.732	94.38
264.964	81.38
265.197	81.38
265.429	96.38
265.661	89.38
265.894	90.38
266.126	86.38
266.358	89.38
266.591	84.38
266.823	93.38
267.055	87.38
267.287	74.38
267.52	92.38
267.752	88.38
267.984	87.38
268.216	80.38
268.448	72.38
268.681	90.38
268.913	92.38
269.145	99.38
269.377	94.38
269.609	100.38
269.841	87.38
270.073	96.38
270.306	84.38
270.538	105.38
270.77	77.38
271.002	95.38
271.234	96.38
271.466	94.38
271.698	98.38
271.93	92.38
272.162	104.38
272.394	109.38
272.626	84.38
272.858	85.38
273.09	83.38
273.322	83.38
273.553	93.38
273.785	102.38
274.017	94.38
274.249	87.38
274.481	84.38
274.713	78.38
274.945	90.38
275.176	92.38
275.408	108.38
275.64	105.38
275.872	131.38
276.104	100.38
276.335	109.38
276.567	107.38
276.799	134.38
277.031	159.38
277.262	175.38
277.494	127.38
277.726	97.38
277.957	105.38
278.189	105.38
278.421	98.38
278.652	105.38
278.884	86.38
279.115	87.38
279.347	99.38
279.579	102.38
279.81	112.38
280.042	144.38
280.273	188.38
280.505	151.38
280.736	98.38
280.968	100.38
281.199	100.38
281.431	97.38
281.662	88.38
281.894	99.38
282.125	101.38
282.356	146.38
282.588	176.38
282.819	130.38
283.051	90.38
283.282	78.38
283.513	92.38
283.745	89.38
283.976	86.38
284.207	75.38
284.439	81.38
284.67	80.38
284.901	83.38
285.132	76.38
285.364	87.38
285.595	84.38
285.826	95.38
286.057	108.38
286.288	96.38
286.52	83.38
286.751	81.38
286.982	106.38
287.213	89.38
287.444	88.38
287.675	93.38
287.906	94.38
288.138	95.38
288.369	89.38
288.6	97.38
288.831	96.38
289.062	99.38
289.293	98.38
289.524	85.38
289.755	72.38
289.986	79.38
290.217	91.38
290.448	95.38
290.679	102.38
290.91	89.38
291.141	85.38
291.371	87.38
291.602	96.38
291.833	106.38
292.064	95.38
292.295	90.38
292.526	85.38
292.757	77.38
292.987	99.38
293.218	99.38
293.449	88.38
293.68	101.38
293.91	92.38
294.141	97.38
294.372	100.38
294.603	90.38
294.833	90.38
295.064	84.38
295.295	97.38
295.525	102.38
295.756	101.38
295.987	130.38
296.217	174.38
296.448	155.38
296.679	97.38
296.909	98.38
297.14	98.38
297.37	93.38
297.601	99.38
297.831	90.38
298.062	96.38
298.292	88.38
298.523	95.38
298.753	96.38
298.984	100.38
299.214	102.38
299.445	95.38
299.675	101.38
299.905	105.38
300.136	91.38
300.366	88.38
300.597	87.38
300.827	82.38
301.057	108.38
301.288	115.38
301.518	103.38
301.748	94.38
301.979	103.38
302.209	101.38
302.439	109.38
302.669	100.38
302.9	96.38
303.13	108.38
303.36	111.38
303.59	121.38
303.82	122.38
304.051	107.38
304.281	104.38
304.511	109.38
304.741	106.38
304.971	82.38
305.201	94.38
305.431	88.38
305.661	101.38
305.891	102.38
306.121	100.38
306.352	112.38
306.582	123.38
306.812	103.38
307.042	118.38
307.272	146.38
307.502	148.38
307.731	120.38
307.961	121.38
308.191	102.38
308.421	115.38
308.651	110.38
308.881	106.38
309.111	99.38
309.341	114.38
309.571	110.38
309.8	108.38
310.03	98.38
310.26	101.38
310.49	109.38
310.72	105.38
310.949	128.38
311.179	107.38
311.409	101.38
311.639	122.38
311.868	113.38
312.098	113.38
312.328	100.38
312.557	120.38
312.787	120.38
313.017	118.38
313.246	121.38
313.476	105.38
313.706	108.38
313.935	98.38
314.165	118.38
314.394	118.38
314.624	118.38
314.853	106.38
315.083	102.38
315.312	103.38
315.542	89.38
315.771	98.38
316.001	89.38
316.23	114.38
316.46	87.38
316.689	91.38
316.919	86.38
317.148	109.38
317.377	116.38
317.607	105.38
317.836	87.38
318.065	104.38
318.295	98.38
318.524	91.38
318.753	91.38
318.983	97.38
319.212	104.38
319.441	115.38
319.67	127.38
319.9	110.38
320.129	99.38
320.358	99.38
320.587	98.38
320.816	111.38
321.046	94.38
321.275	112.38
321.504	102.38
321.733	98.38
321.962	111.38
322.191	109.38
322.42	118.38
322.649	135.38
322.878	124.38
323.108	132.38
323.337	150.38
323.566	150.38
323.795	177.38
324.024	236.38
324.253	481.38
324.482	1006.38
324.71	1986.38
324.939	2628.38
325.168	987.38
325.397	291.38
325.626	181.38
325.855	153.38
326.084	126.38
326.313	147.38
326.542	168.38
326.77	249.38
326.999	502.38
327.228	1052.38
327.457	1874.38
327.686	1520.38
327.914	470.38
328.143	406.38
328.372	461.38
328.6	292.38
328.829	190.38
329.058	195.38
329.287	198.38
329.515	168.38
329.744	207.38
329.972	320.38
330.201	664.38
330.43	939.38
330.658	461.38
330.887	270.38
331.115	181.38
331.344	117.38
331.572	116.38
331.801	115.38
332.03	119.38
332.258	112.38
332.486	106.38
332.715	103.38
332.943	113.38
333.172	112.38
333.4	113.38
333.629	142.38
333.857	200.38
334.085	331.38
334.314	582.38
334.542	1158.38
334.771	1104.38
334.999	313.38
335.227	143.38
335.455	132.38
335.684	119.38
335.912	112.38
336.14	101.38
336.369	102.38
336.597	125.38
336.825	113.38
337.053	101.38
337.281	112.38
337.51	102.38
337.738	100.38
337.966	103.38
338.194	103.38
338.422	117.38
338.65	103.38
338.878	96.38
339.106	100.38
339.334	99.38
339.562	93.38
339.79	97.38
340.018	101.38
340.246	90.38
340.474	102.38
340.702	103.38
340.93	117.38
341.158	103.38
341.386	119.38
341.614	98.38
341.842	100.38
342.07	95.38
342.298	99.38
342.526	96.38
342.754	97.38
342.981	89.38
343.209	105.38
343.437	83.38
343.665	87.38
343.893	105.38
344.12	104.38
344.348	126.38
344.576	93.38
344.804	101.38
345.031	97.38
345.259	108.38
345.487	109.38
345.714	95.38
345.942	90.38
346.17	103.38
346.397	95.38
346.625	88.38
346.853	93.38
347.08	111.38
347.308	98.38
347.535	109.38
347.763	109.38
347.99	109.38
348.218	111.38
348.445	124.38
348.673	95.38
348.9	86.38
349.128	112.38
349.355	89.38
349.583	97.38
349.81	96.38
350.037	97.38
350.265	100.38
350.492	98.38
350.72	109.38
350.947	117.38
351.174	121.38
351.402	126.38
351.629	108.38
351.856	113.38
352.083	117.38
352.311	126.38
352.538	125.38
352.765	126.38
352.992	118.38
353.22	116.38
353.447	114.38
353.674	105.38
353.901	105.38
354.128	107.38
354.355	103.38
354.583	106.38
354.81	103.38
355.037	100.38
355.264	109.38
355.491	95.38
355.718	109.38
355.945	109.38
356.172	106.38
356.399	100.38
356.626	105.38
356.853	96.38
357.08	95.38
357.307	117.38
357.534	99.38
357.761	95.38
357.988	94.38
358.215	98.38
358.441	93.38
358.668	96.38
358.895	95.38
359.122	92.38
359.349	93.38
359.576	109.38
359.802	114.38
360.029	159.38
360.256	164.38
360.483	120.38
360.709	115.38
360.936	102.38
361.163	87.38
361.39	96.38
361.616	109.38
361.843	98.38
362.07	92.38
362.296	110.38
362.523	87.38
362.749	90.38
362.976	112.38
363.203	97.38
363.429	92.38
363.656	99.38
363.882	76.38
364.109	87.38
364.335	98.38
364.562	98.38
364.788	102.38
365.015	96.38
365.241	113.38
365.468	124.38
365.694	132.38
365.92	103.38
366.147	98.38
366.373	87.38
366.599	94.38
366.826	89.38
367.052	80.38
367.278	93.38
367.505	118.38
367.731	99.38
367.957	102.38
368.184	90.38
368.41	115.38
368.636	138.38
368.862	156.38
369.089	127.38
369.315	104.38
369.541	99.38
369.767	102.38
369.993	103.38
370.219	95.38
370.445	92.38
370.672	90.38
370.898	89.38
371.124	89.38
371.35	91.38
371.576	87.38
371.802	95.38
372.028	97.38
372.254	81.38
372.48	99.38
372.706	94.38
372.932	86.38
373.158	94.38
373.384	101.38
373.61	102.38
373.835	97.38
374.061	97.38
374.287	108.38
374.513	111.38
374.739	96.38
374.965	82.38
375.191	95.38
375.416	95.38
375.642	113.38
375.868	91.38
376.094	102.38
376.319	95.38
376.545	97.38
376.771	82.38
376.997	104.38
377.222	97.38
377.448	89.38
377.674	83.38
377.899	93.38
378.125	89.38
378.35	83.38
378.576	97.38
378.802	85.38
379.027	99.38
379.253	86.38
379.478	89.38
379.704	104.38
379.929	94.38
380.155	105.38
380.38	110.38
380.606	98.38
380.831	94.38
381.057	103.38
381.282	97.38
381.507	103.38
381.733	109.38
381.958	94.38
382.184	105.38
382.409	102.38
382.634	127.38
382.86	110.38
383.085	103.38
383.31	117.38
383.535	101.38
383.761	115.38
383.986	112.38
384.211	110.38
384.436	98.38
384.662	92.38
384.887	96.38
385.112	111.38
385.337	108.38
385.562	111.38
385.787	124.38
386.013	121.38
386.238	136.38
386.463	106.38
386.688	109.38
386.913	105.38
387.138	128.38
387.363	115.38
387.588	111.38
387.813	116.38
388.038	99.38
388.263	116.38
388.488	106.38
388.713	103.38
388.938	94.38
389.163	97.38
389.387	79.38
389.612	93.38
389.837	88.38
390.062	83.38
390.287	93.38
390.512	83.38
390.736	100.38
390.961	88.38
391.186	100.38
391.411	99.38
391.636	96.38
391.86	71.38
392.085	93.38
392.31	90.38
392.534	96.38
392.759	85.38
392.984	89.38
393.208	82.38
393.433	101.38
393.658	87.38
393.882	89.38
394.107	89.38
394.331	90.38
394.556	81.38
394.78	96.38
395.005	99.38
395.229	95.38
395.454	96.38
395.678	94.38
395.903	89.38
396.127	104.38
396.352	82.38
396.576	83.38
396.801	87.38
397.025	82.38
397.249	82.38
397.474	86.38
397.698	99.38
397.922	97.38
398.147	86.38
398.371	97.38
398.595	100.38
398.82	96.38
399.044	89.38
399.268	92.38
399.492	89.38
399.717	90.38
399.941	87.38
400.165	89.38
400.389	96.38
400.613	105.38
400.837	102.38
401.062	93.38
401.286	85.38
401.51	91.38
401.734	99.38
401.958	104.38
402.182	153.38
402.406	209.38
402.63	152.38
402.854	115.38
403.078	94.38
403.302	83.38
403.526	89.38
403.75	83.38
403.974	88.38
404.198	88.38
404.422	93.38
404.645	95.38
404.869	92.38
405.093	115.38
405.317	124.38
405.541	124.38
405.765	117.38
405.988	136.38
406.212	220.38
406.436	327.38
406.66	213.38
406.883	138.38
407.107	111.38
407.331	103.38
407.555	104.38
407.778	120.38
408.002	90.38
408.226	93.38
408.449	89.38
408.673	90.38
408.896	102.38
409.12	105.38
409.344	103.38
409.567	82.38
409.791	90.38
410.014	94.38
410.238	108.38
410.461	109.38
410.685	106.38
410.908	98.38
411.132	114.38
411.355	112.38
411.578	100.38
411.802	93.38
412.025	96.38
412.249	105.38
412.472	112.38
412.695	128.38
412.919	108.38
413.142	103.38
413.365	96.38
413.589	89.38
413.812	85.38
414.035	81.38
414.258	94.38
414.482	94.38
414.705	108.38
414.928	96.38
415.151	103.38
415.374	94.38
415.597	94.38
415.821	98.38
416.044	86.38
416.267	86.38
416.49	87.38
416.713	97.38
416.936	98.38
417.159	82.38
417.382	105.38
417.605	108.38
417.828	118.38
418.051	105.38
418.274	92.38
418.497	103.38
418.72	94.38
418.943	94.38
419.166	89.38
419.389	83.38
419.611	94.38
419.834	96.38
420.057	86.38
420.28	105.38
420.503	82.38
420.726	83.38
420.948	104.38
421.171	110.38
421.394	92.38
421.617	95.38
421.839	77.38
422.062	103.38
422.285	75.38
422.507	108.38
422.73	112.38
422.953	93.38
423.175	96.38
423.398	86.38
423.621	79.38
423.843	96.38
424.066	85.38
424.288	106.38
424.511	105.38
424.733	116.38
424.956	117.38
425.178	116.38
425.401	113.38
425.623	94.38
425.846	87.38
426.068	114.38
426.291	94.38
426.513	95.38
426.735	101.38
426.958	105.38
427.18	119.38
427.402	184.38
427.625	256.38
427.847	231.38
428.069	192.38
428.292	121.38
428.514	94.38
428.736	92.38
428.958	100.38
429.181	79.38
429.403	87.38
429.625	100.38
429.847	92.38
430.069	111.38
430.292	104.38
430.514	99.38
430.736	105.38
430.958	79.38
431.18	90.38
431.402	80.38
431.624	85.38
431.846	87.38
432.068	99.38
432.29	85.38
432.512	93.38
432.734	80.38
432.956	87.38
433.178	117.38
433.4	97.38
433.622	81.38
433.844	115.38
434.066	94.38
434.287	107.38
434.509	99.38
434.731	88.38
434.953	95.38
435.175	107.38
435.397	104.38
435.618	100.38
435.84	121.38
436.062	149.38
436.284	131.38
436.505	114.38
436.727	115.38
436.949	89.38
437.17	90.38
437.392	74.38
437.614	103.38
437.835	134.38
438.057	151.38
438.278	126.38
438.5	135.38
438.721	136.38
438.943	111.38
439.165	98.38
439.386	89.38
439.608	88.38
439.829	99.38
440.05	134.38
440.272	178.38
440.493	111.38
440.715	85.38
440.936	98.38
441.158	91.38
441.379	92.38
441.6	114.38
441.822	126.38
442.043	118.38
442.264	118.38
442.486	117.38
442.707	101.38
442.928	129.38
443.149	203.38
443.371	188.38
443.592	138.38
443.813	128.38
444.034	127.38
444.255	94.38
444.476	78.38
444.698	110.38
444.919	95.38
445.14	136.38
445.361	136.38
445.582	141.38
445.803	188.38
446.024	182.38
446.245	167.38
446.466	140.38
446.687	100.38
446.908	94.38
447.129	89.38
447.35	107.38
447.571	96.38
447.792	98.38
448.013	122.38
448.234	135.38
448.455	132.38
448.675	145.38
448.896	140.38
449.117	117.38
449.338	121.38
449.559	149.38
449.779	160.38
450	103.38
450.221	96.38
450.442	76.38
450.662	109.38
450.883	133.38
451.104	148.38
451.324	120.38
451.545	93.38
451.766	98.38
451.986	81.38
452.207	82.38
452.428	95.38
452.648	120.38
452.869	140.38
453.089	164.38
453.31	148.38
453.53	109.38
453.751	128.38
453.971	134.38
454.192	124.38
454.412	113.38
454.633	90.38
454.853	89.38
455.073	87.38
455.294	108.38
455.514	133.38
455.734	107.38
455.955	80.38
456.175	90.38
456.395	85.38
456.616	86.38
456.836	96.38
457.056	89.38
457.276	95.38
457.497	98.38
457.717	101.38
457.937	86.38
458.157	96.38
458.377	96.38
458.598	140.38
458.818	208.38
459.038	252.38
459.258	155.38
459.478	102.38
459.698	89.38
459.918	95.38
460.138	72.38
460.358	78.38
460.578	85.38
460.798	83.38
461.018	107.38
461.238	96.38
461.458	94.38
461.678	97.38
461.898	89.38
462.118	87.38
462.338	86.38
462.558	97.38
462.777	97.38
462.997	101.38
463.217	103.38
463.437	99.38
463.657	90.38
463.876	103.38
464.096	89.38
464.316	103.38
464.536	102.38
464.755	120.38
464.975	143.38
465.195	251.38
465.414	260.38
465.634	114.38
465.854	92.38
466.073	87.38
466.293	99.38
466.512	98.38
466.732	89.38
466.951	97.38
467.171	85.38
467.391	90.38
467.61	125.38
467.829	168.38
468.049	349.38
468.268	504.38
468.488	164.38
468.707	113.38
468.927	94.38
469.146	101.38
469.365	77.38
469.585	95.38
469.804	112.38
470.023	120.38
470.243	108.38
470.462	117.38
470.681	149.38
470.901	102.38
471.12	96.38
471.339	111.38
471.558	105.38
471.777	132.38
471.997	204.38
472.216	648.38
472.435	1500.38
472.654	407.38
472.873	132.38
473.092	109.38
473.311	86.38
473.53	105.38
473.749	94.38
473.968	108.38
474.187	140.38
474.406	114.38
474.625	100.38
474.844	98.38
475.063	89.38
475.282	91.38
475.501	83.38
475.72	103.38
475.939	92.38
476.158	95.38
476.377	98.38
476.596	102.38
476.814	103.38
477.033	105.38
477.252	100.38
477.471	101.38
477.69	95.38
477.908	99.38
478.127	108.38
478.346	111.38
478.564	102.38
478.783	102.38
479.002	110.38
479.22	124.38
479.439	116.38
479.658	125.38
479.876	104.38
480.095	109.38
480.313	121.38
480.532	140.38
480.751	227.38
480.969	641.38
481.188	2488.38
481.406	1542.38
481.624	276.38
481.843	130.38
482.061	108.38
482.28	98.38
482.498	114.38
482.717	88.38
482.935	104.38
483.153	91.38
483.372	80.38
483.59	85.38
483.808	94.38
484.027	87.38
484.245	109.38
484.463	84.38
484.681	100.38
484.9	95.38
485.118	107.38
485.336	99.38
485.554	85.38
485.772	111.38
485.99	122.38
486.209	111.38
486.427	110.38
486.645	112.38
486.863	120.38
487.081	114.38
487.299	102.38
487.517	111.38
487.735	92.38
487.953	86.38
488.171	98.38
488.389	91.38
488.607	120.38
488.825	98.38
489.043	115.38
489.261	87.38
489.479	100.38
489.696	100.38
489.914	95.38
490.132	96.38
490.35	76.38
490.568	95.38
490.786	97.38
491.003	94.38
491.221	104.38
491.439	98.38
491.657	100.38
491.874	100.38
492.092	84.38
492.31	86.38
492.527	110.38
492.745	108.38
492.963	107.38
493.18	97.38
493.398	87.38
493.615	96.38
493.833	106.38
494.05	93.38
494.268	96.38
494.485	97.38
494.703	85.38
494.92	100.38
495.138	92.38
495.355	92.38
495.573	90.38
495.79	96.38
496.008	81.38
496.225	88.38
496.442	84.38
496.66	102.38
496.877	98.38
497.094	82.38
497.312	101.38
497.529	97.38
497.746	96.38
497.963	94.38
498.181	105.38
498.398	100.38
498.615	103.38
498.832	126.38
499.049	110.38
499.267	119.38
499.484	105.38
499.701	95.38
499.918	89.38
500.135	97.38
500.352	96.38
500.569	92.38
500.786	114.38
501.003	90.38
501.22	93.38
501.437	99.38
501.654	108.38
501.871	131.38
502.088	104.38
502.305	90.38
502.522	95.38
502.739	103.38
502.956	108.38
503.172	96.38
503.389	112.38
503.606	147.38
503.823	114.38
504.04	106.38
504.256	106.38
504.473	94.38
504.69	97.38
504.907	97.38
505.123	105.38
505.34	90.38
505.557	103.38
505.773	97.38
505.99	100.38
506.207	104.38
506.423	105.38
506.64	92.38
506.856	104.38
507.073	105.38
507.289	99.38
507.506	133.38
507.722	149.38
507.939	131.38
508.155	97.38
508.372	101.38
508.588	97.38
508.805	91.38
509.021	107.38
509.238	110.38
509.454	114.38
509.67	128.38
509.887	121.38
510.103	160.38
510.319	272.38
510.536	983.38
510.752	3548.38
510.968	966.38
511.184	194.38
511.401	132.38
