Data from Circ_2007_H10_HRD10591_00053.txt Node
Date: Wed Jan 03 10:22:07 EST 2024
User: Yrep
Spectrometer: HR+D1059
Trigger mode: 1
Integration Time (sec): 1.000000E-1
Scans to average: 1
Electric dark correction enabled: true
Nonlinearity correction enabled: false
Boxcar width: 0
XAxis mode: Wavelengths
Number of Pixels in Spectrum: 2048
>>>>>Begin Spectral Data<<<<<
223.165	-15.88
223.4	-15.88
223.635	-15.88
223.869	-18.88
224.104	-6.88
224.338	-5.88
224.573	-23.88
224.808	-13.88
225.042	-6.88
225.277	-13.88
225.511	8.12
225.746	6.12
225.98	-4.88
226.215	6.12
226.449	16.12
226.683	22.12
226.918	20.12
227.152	32.12
227.387	37.12
227.621	32.12
227.856	45.12
228.09	36.12
228.324	47.12
228.559	61.12
228.793	56.12
229.027	63.12
229.262	71.12
229.496	81.12
229.73	85.12
229.964	93.12
230.199	79.12
230.433	76.12
230.667	85.12
230.901	75.12
231.136	87.12
231.37	88.12
231.604	91.12
231.838	80.12
232.072	82.12
232.306	75.12
232.541	84.12
232.775	70.12
233.009	95.12
233.243	69.12
233.477	80.12
233.711	81.12
233.945	80.12
234.179	107.12
234.413	85.12
234.647	81.12
234.881	85.12
235.115	73.12
235.349	75.12
235.583	79.12
235.817	93.12
236.051	72.12
236.285	84.12
236.519	89.12
236.753	80.12
236.987	83.12
237.221	101.12
237.455	99.12
237.689	72.12
237.922	80.12
238.156	61.12
238.39	76.12
238.624	83.12
238.858	86.12
239.091	79.12
239.325	89.12
239.559	81.12
239.793	68.12
240.027	77.12
240.26	82.12
240.494	71.12
240.728	89.12
240.961	82.12
241.195	98.12
241.429	69.12
241.662	83.12
241.896	74.12
242.13	70.12
242.363	64.12
242.597	75.12
242.83	77.12
243.064	76.12
243.298	81.12
243.531	66.12
243.765	79.12
243.998	70.12
244.232	84.12
244.465	113.12
244.699	83.12
244.932	90.12
245.166	70.12
245.399	92.12
245.633	79.12
245.866	72.12
246.099	67.12
246.333	67.12
246.566	98.12
246.8	90.12
247.033	73.12
247.266	93.12
247.5	91.12
247.733	60.12
247.966	92.12
248.2	73.12
248.433	82.12
248.666	85.12
248.899	89.12
249.133	90.12
249.366	92.12
249.599	114.12
249.832	96.12
250.066	79.12
250.299	81.12
250.532	89.12
250.765	65.12
250.998	93.12
251.231	78.12
251.465	74.12
251.698	92.12
251.931	76.12
252.164	72.12
252.397	88.12
252.63	89.12
252.863	94.12
253.096	82.12
253.329	83.12
253.562	74.12
253.795	74.12
254.028	61.12
254.261	72.12
254.494	58.12
254.727	93.12
254.96	86.12
255.193	84.12
255.426	82.12
255.659	74.12
255.892	92.12
256.124	85.12
256.357	83.12
256.59	77.12
256.823	78.12
257.056	75.12
257.289	86.12
257.521	88.12
257.754	88.12
257.987	89.12
258.22	80.12
258.452	89.12
258.685	93.12
258.918	67.12
259.151	86.12
259.383	91.12
259.616	98.12
259.849	95.12
260.081	77.12
260.314	92.12
260.547	92.12
260.779	81.12
261.012	90.12
261.244	104.12
261.477	100.12
261.71	92.12
261.942	128.12
262.175	132.12
262.407	86.12
262.64	96.12
262.872	79.12
263.105	94.12
263.337	86.12
263.57	84.12
263.802	80.12
264.035	91.12
264.267	80.12
264.499	78.12
264.732	90.12
264.964	73.12
265.197	84.12
265.429	91.12
265.661	85.12
265.894	80.12
266.126	76.12
266.358	80.12
266.591	85.12
266.823	89.12
267.055	83.12
267.287	76.12
267.52	99.12
267.752	90.12
267.984	76.12
268.216	61.12
268.448	89.12
268.681	86.12
268.913	83.12
269.145	84.12
269.377	89.12
269.609	85.12
269.841	78.12
270.073	91.12
270.306	83.12
270.538	84.12
270.77	84.12
271.002	78.12
271.234	96.12
271.466	89.12
271.698	77.12
271.93	83.12
272.162	98.12
272.394	96.12
272.626	98.12
272.858	76.12
273.09	73.12
273.322	83.12
273.553	89.12
273.785	72.12
274.017	80.12
274.249	92.12
274.481	82.12
274.713	99.12
274.945	98.12
275.176	93.12
275.408	105.12
275.64	113.12
275.872	104.12
276.104	101.12
276.335	94.12
276.567	110.12
276.799	136.12
277.031	163.12
277.262	155.12
277.494	123.12
277.726	94.12
277.957	96.12
278.189	87.12
278.421	77.12
278.652	84.12
278.884	83.12
279.115	93.12
279.347	89.12
279.579	85.12
279.81	120.12
280.042	164.12
280.273	190.12
280.505	141.12
280.736	112.12
280.968	82.12
281.199	108.12
281.431	91.12
281.662	94.12
281.894	94.12
282.125	98.12
282.356	136.12
282.588	184.12
282.819	124.12
283.051	90.12
283.282	88.12
283.513	93.12
283.745	93.12
283.976	100.12
284.207	84.12
284.439	87.12
284.67	81.12
284.901	86.12
285.132	100.12
285.364	99.12
285.595	92.12
285.826	86.12
286.057	97.12
286.288	80.12
286.52	81.12
286.751	97.12
286.982	95.12
287.213	89.12
287.444	76.12
287.675	96.12
287.906	93.12
288.138	99.12
288.369	88.12
288.6	92.12
288.831	71.12
289.062	91.12
289.293	90.12
289.524	93.12
289.755	81.12
289.986	81.12
290.217	79.12
290.448	86.12
290.679	100.12
290.91	106.12
291.141	80.12
291.371	92.12
291.602	92.12
291.833	84.12
292.064	93.12
292.295	102.12
292.526	88.12
292.757	82.12
292.987	81.12
293.218	94.12
293.449	93.12
293.68	93.12
293.91	106.12
294.141	90.12
294.372	91.12
294.603	86.12
294.833	87.12
295.064	89.12
295.295	93.12
295.525	100.12
295.756	106.12
295.987	132.12
296.217	176.12
296.448	137.12
296.679	113.12
296.909	96.12
297.14	89.12
297.37	90.12
297.601	94.12
297.831	75.12
298.062	81.12
298.292	83.12
298.523	104.12
298.753	80.12
298.984	83.12
299.214	93.12
299.445	87.12
299.675	83.12
299.905	96.12
300.136	90.12
300.366	82.12
300.597	102.12
300.827	109.12
301.057	113.12
301.288	123.12
301.518	91.12
301.748	85.12
301.979	96.12
302.209	104.12
302.439	109.12
302.669	87.12
302.9	96.12
303.13	99.12
303.36	108.12
303.59	129.12
303.82	138.12
304.051	117.12
304.281	99.12
304.511	91.12
304.741	80.12
304.971	91.12
305.201	85.12
305.431	98.12
305.661	101.12
305.891	86.12
306.121	100.12
306.352	102.12
306.582	125.12
306.812	112.12
307.042	120.12
307.272	122.12
307.502	155.12
307.731	136.12
307.961	125.12
308.191	100.12
308.421	86.12
308.651	110.12
308.881	92.12
309.111	92.12
309.341	102.12
309.571	108.12
309.8	108.12
310.03	107.12
310.26	109.12
310.49	116.12
310.72	115.12
310.949	132.12
311.179	109.12
311.409	89.12
311.639	97.12
311.868	96.12
312.098	94.12
312.328	108.12
312.557	112.12
312.787	123.12
313.017	123.12
313.246	94.12
313.476	93.12
313.706	91.12
313.935	102.12
314.165	102.12
314.394	124.12
314.624	102.12
314.853	104.12
315.083	93.12
315.312	99.12
315.542	105.12
315.771	100.12
316.001	107.12
316.23	77.12
316.46	91.12
316.689	94.12
316.919	91.12
317.148	101.12
317.377	92.12
317.607	99.12
317.836	95.12
318.065	99.12
318.295	107.12
318.524	84.12
318.753	93.12
318.983	102.12
319.212	110.12
319.441	117.12
319.67	130.12
319.9	91.12
320.129	95.12
320.358	102.12
320.587	90.12
320.816	98.12
321.046	129.12
321.275	109.12
321.504	97.12
321.733	102.12
321.962	104.12
322.191	95.12
322.42	116.12
322.649	120.12
322.878	123.12
323.108	136.12
323.337	159.12
323.566	163.12
323.795	213.12
324.024	257.12
324.253	523.12
324.482	1175.12
324.71	2407.12
324.939	3297.12
325.168	1169.12
325.397	318.12
325.626	152.12
325.855	160.12
326.084	144.12
326.313	152.12
326.542	177.12
326.77	282.12
326.999	614.12
327.228	1293.12
327.457	2379.12
327.686	1953.12
327.914	580.12
328.143	452.12
328.372	509.12
328.6	305.12
328.829	174.12
329.058	184.12
329.287	197.12
329.515	177.12
329.744	219.12
329.972	371.12
330.201	698.12
330.43	1008.12
330.658	498.12
330.887	261.12
331.115	203.12
331.344	112.12
331.572	120.12
331.801	129.12
332.03	138.12
332.258	119.12
332.486	93.12
332.715	102.12
332.943	102.12
333.172	112.12
333.4	113.12
333.629	160.12
333.857	222.12
334.085	355.12
334.314	674.12
334.542	1270.12
334.771	1220.12
334.999	342.12
335.227	169.12
335.455	126.12
335.684	117.12
335.912	103.12
336.14	99.12
336.369	98.12
336.597	111.12
336.825	115.12
337.053	91.12
337.281	95.12
337.51	109.12
337.738	97.12
337.966	90.12
338.194	96.12
338.422	102.12
338.65	93.12
338.878	91.12
339.106	93.12
339.334	105.12
339.562	106.12
339.79	109.12
340.018	94.12
340.246	101.12
340.474	103.12
340.702	99.12
340.93	84.12
341.158	84.12
341.386	97.12
341.614	100.12
341.842	114.12
342.07	86.12
342.298	89.12
342.526	84.12
342.754	86.12
342.981	95.12
343.209	86.12
343.437	93.12
343.665	90.12
343.893	87.12
344.12	88.12
344.348	98.12
344.576	90.12
344.804	92.12
345.031	99.12
345.259	100.12
345.487	101.12
345.714	94.12
345.942	94.12
346.17	95.12
346.397	104.12
346.625	89.12
346.853	88.12
347.08	85.12
347.308	85.12
347.535	132.12
347.763	115.12
347.99	94.12
348.218	107.12
348.445	115.12
348.673	118.12
348.9	87.12
349.128	114.12
349.355	92.12
349.583	100.12
349.81	96.12
350.037	96.12
350.265	94.12
350.492	114.12
350.72	91.12
350.947	110.12
351.174	127.12
351.402	124.12
351.629	110.12
351.856	112.12
352.083	107.12
352.311	114.12
352.538	142.12
352.765	126.12
352.992	118.12
353.22	117.12
353.447	111.12
353.674	112.12
353.901	103.12
354.128	106.12
354.355	100.12
354.583	104.12
354.81	110.12
355.037	102.12
355.264	101.12
355.491	86.12
355.718	77.12
355.945	95.12
356.172	107.12
356.399	86.12
356.626	99.12
356.853	94.12
357.08	106.12
357.307	92.12
357.534	91.12
357.761	96.12
357.988	89.12
358.215	83.12
358.441	95.12
358.668	95.12
358.895	102.12
359.122	78.12
359.349	93.12
359.576	98.12
359.802	128.12
360.029	147.12
360.256	161.12
360.483	124.12
360.709	96.12
360.936	99.12
361.163	94.12
361.39	106.12
361.616	105.12
361.843	103.12
362.07	107.12
362.296	112.12
362.523	95.12
362.749	99.12
362.976	94.12
363.203	99.12
363.429	111.12
363.656	87.12
363.882	93.12
364.109	90.12
364.335	92.12
364.562	86.12
364.788	100.12
365.015	102.12
365.241	110.12
365.468	106.12
365.694	114.12
365.92	118.12
366.147	97.12
366.373	89.12
366.599	92.12
366.826	101.12
367.052	97.12
367.278	99.12
367.505	99.12
367.731	100.12
367.957	112.12
368.184	95.12
368.41	105.12
368.636	138.12
368.862	107.12
369.089	120.12
369.315	106.12
369.541	96.12
369.767	95.12
369.993	110.12
370.219	101.12
370.445	75.12
370.672	89.12
370.898	79.12
371.124	90.12
371.35	90.12
371.576	88.12
371.802	93.12
372.028	100.12
372.254	90.12
372.48	87.12
372.706	97.12
372.932	91.12
373.158	90.12
373.384	81.12
373.61	101.12
373.835	99.12
374.061	76.12
374.287	93.12
374.513	99.12
374.739	98.12
374.965	95.12
375.191	91.12
375.416	103.12
375.642	81.12
375.868	93.12
376.094	94.12
376.319	93.12
376.545	97.12
376.771	77.12
376.997	90.12
377.222	105.12
377.448	104.12
377.674	101.12
377.899	81.12
378.125	81.12
378.35	94.12
378.576	78.12
378.802	106.12
379.027	88.12
379.253	96.12
379.478	97.12
379.704	97.12
379.929	85.12
380.155	92.12
380.38	96.12
380.606	83.12
380.831	98.12
381.057	107.12
381.282	78.12
381.507	98.12
381.733	101.12
381.958	92.12
382.184	104.12
382.409	91.12
382.634	103.12
382.86	95.12
383.085	97.12
383.31	107.12
383.535	97.12
383.761	98.12
383.986	104.12
384.211	92.12
384.436	88.12
384.662	86.12
384.887	100.12
385.112	103.12
385.337	110.12
385.562	109.12
385.787	102.12
386.013	112.12
386.238	124.12
386.463	127.12
386.688	109.12
386.913	86.12
387.138	121.12
387.363	110.12
387.588	91.12
387.813	111.12
388.038	104.12
388.263	102.12
388.488	108.12
388.713	93.12
388.938	92.12
389.163	96.12
389.387	96.12
389.612	93.12
389.837	97.12
390.062	95.12
390.287	83.12
390.512	89.12
390.736	88.12
390.961	89.12
391.186	94.12
391.411	108.12
391.636	91.12
391.86	87.12
392.085	89.12
392.31	89.12
392.534	77.12
392.759	82.12
392.984	87.12
393.208	83.12
393.433	86.12
393.658	94.12
393.882	82.12
394.107	85.12
394.331	88.12
394.556	85.12
394.78	90.12
395.005	92.12
395.229	95.12
395.454	100.12
395.678	81.12
395.903	89.12
396.127	92.12
396.352	82.12
396.576	82.12
396.801	89.12
397.025	85.12
397.249	90.12
397.474	81.12
397.698	90.12
397.922	96.12
398.147	85.12
398.371	82.12
398.595	92.12
398.82	89.12
399.044	97.12
399.268	85.12
399.492	95.12
399.717	94.12
399.941	95.12
400.165	101.12
400.389	104.12
400.613	75.12
400.837	80.12
401.062	81.12
401.286	101.12
401.51	106.12
401.734	92.12
401.958	109.12
402.182	148.12
402.406	197.12
402.63	152.12
402.854	115.12
403.078	99.12
403.302	86.12
403.526	110.12
403.75	97.12
403.974	90.12
404.198	96.12
404.422	90.12
404.645	90.12
404.869	90.12
405.093	124.12
405.317	148.12
405.541	152.12
405.765	115.12
405.988	136.12
406.212	218.12
406.436	307.12
406.66	203.12
406.883	141.12
407.107	109.12
407.331	114.12
407.555	120.12
407.778	106.12
408.002	109.12
408.226	94.12
408.449	96.12
408.673	99.12
408.896	93.12
409.12	115.12
409.344	84.12
409.567	86.12
409.791	90.12
410.014	86.12
410.238	94.12
410.461	94.12
410.685	79.12
410.908	95.12
411.132	97.12
411.355	104.12
411.578	91.12
411.802	88.12
412.025	104.12
412.249	101.12
412.472	127.12
412.695	150.12
412.919	106.12
413.142	111.12
413.365	88.12
413.589	72.12
413.812	98.12
414.035	88.12
414.258	91.12
414.482	84.12
414.705	81.12
414.928	85.12
415.151	96.12
415.374	92.12
415.597	89.12
415.821	89.12
416.044	105.12
416.267	103.12
416.49	99.12
416.713	92.12
416.936	90.12
417.159	90.12
417.382	86.12
417.605	106.12
417.828	103.12
418.051	107.12
418.274	102.12
418.497	87.12
418.72	91.12
418.943	90.12
419.166	91.12
419.389	82.12
419.611	91.12
419.834	93.12
420.057	98.12
420.28	95.12
420.503	96.12
420.726	89.12
420.948	96.12
421.171	96.12
421.394	108.12
421.617	90.12
421.839	86.12
422.062	86.12
422.285	97.12
422.507	92.12
422.73	104.12
422.953	100.12
423.175	92.12
423.398	94.12
423.621	104.12
423.843	86.12
424.066	78.12
424.288	100.12
424.511	101.12
424.733	114.12
424.956	119.12
425.178	112.12
425.401	109.12
425.623	120.12
425.846	97.12
426.068	98.12
426.291	96.12
426.513	88.12
426.735	93.12
426.958	90.12
427.18	123.12
427.402	202.12
427.625	257.12
427.847	221.12
428.069	205.12
428.292	134.12
428.514	88.12
428.736	95.12
428.958	98.12
429.181	92.12
429.403	92.12
429.625	96.12
429.847	93.12
430.069	113.12
430.292	100.12
430.514	90.12
430.736	93.12
430.958	88.12
431.18	93.12
431.402	89.12
431.624	90.12
431.846	96.12
432.068	84.12
432.29	74.12
432.512	87.12
432.734	88.12
432.956	74.12
433.178	113.12
433.4	130.12
433.622	104.12
433.844	95.12
434.066	85.12
434.287	97.12
434.509	98.12
434.731	97.12
434.953	89.12
435.175	83.12
435.397	88.12
435.618	85.12
435.84	117.12
436.062	161.12
436.284	136.12
436.505	116.12
436.727	113.12
436.949	101.12
437.17	90.12
437.392	95.12
437.614	93.12
437.835	135.12
438.057	156.12
438.278	130.12
438.5	115.12
438.721	150.12
438.943	130.12
439.165	107.12
439.386	91.12
439.608	102.12
439.829	105.12
440.05	177.12
440.272	208.12
440.493	129.12
440.715	94.12
440.936	96.12
441.158	100.12
441.379	109.12
441.6	109.12
441.822	108.12
442.043	90.12
442.264	121.12
442.486	104.12
442.707	92.12
442.928	117.12
443.149	166.12
443.371	199.12
443.592	132.12
443.813	129.12
444.034	118.12
444.255	107.12
444.476	90.12
444.698	80.12
444.919	94.12
445.14	140.12
445.361	144.12
445.582	158.12
445.803	205.12
446.024	192.12
446.245	191.12
446.466	120.12
446.687	94.12
446.908	98.12
447.129	92.12
447.35	92.12
447.571	93.12
447.792	92.12
448.013	108.12
448.234	130.12
448.455	97.12
448.675	123.12
448.896	141.12
449.117	113.12
449.338	121.12
449.559	146.12
449.779	146.12
450	106.12
450.221	96.12
450.442	109.12
450.662	109.12
450.883	139.12
451.104	136.12
451.324	114.12
451.545	97.12
451.766	88.12
451.986	88.12
452.207	90.12
452.428	104.12
452.648	97.12
452.869	130.12
453.089	144.12
453.31	143.12
453.53	97.12
453.751	84.12
453.971	113.12
454.192	122.12
454.412	104.12
454.633	94.12
454.853	94.12
455.073	86.12
455.294	97.12
455.514	104.12
455.734	97.12
455.955	88.12
456.175	75.12
456.395	90.12
456.616	81.12
456.836	101.12
457.056	89.12
457.276	86.12
457.497	86.12
457.717	84.12
457.937	105.12
458.157	85.12
458.377	107.12
458.598	119.12
458.818	216.12
459.038	245.12
459.258	151.12
459.478	99.12
459.698	80.12
459.918	81.12
460.138	100.12
460.358	88.12
460.578	94.12
460.798	96.12
461.018	93.12
461.238	90.12
461.458	84.12
461.678	86.12
461.898	93.12
462.118	92.12
462.338	88.12
462.558	84.12
462.777	101.12
462.997	119.12
463.217	101.12
463.437	101.12
463.657	93.12
463.876	100.12
464.096	96.12
464.316	98.12
464.536	108.12
464.755	106.12
464.975	114.12
465.195	259.12
465.414	233.12
465.634	103.12
465.854	98.12
466.073	79.12
466.293	92.12
466.512	76.12
466.732	86.12
466.951	97.12
467.171	85.12
467.391	116.12
467.61	140.12
467.829	163.12
468.049	369.12
468.268	560.12
468.488	169.12
468.707	108.12
468.927	90.12
469.146	78.12
469.365	89.12
469.585	107.12
469.804	125.12
470.023	108.12
470.243	111.12
470.462	115.12
470.681	146.12
470.901	95.12
471.12	95.12
471.339	97.12
471.558	116.12
471.777	124.12
471.997	216.12
472.216	734.12
472.435	1653.12
472.654	429.12
472.873	149.12
473.092	91.12
473.311	96.12
473.53	100.12
473.749	89.12
473.968	97.12
474.187	113.12
474.406	115.12
474.625	101.12
474.844	84.12
475.063	99.12
475.282	84.12
475.501	90.12
475.72	87.12
475.939	100.12
476.158	87.12
476.377	88.12
476.596	79.12
476.814	98.12
477.033	103.12
477.252	92.12
477.471	87.12
477.69	115.12
477.908	95.12
478.127	88.12
478.346	113.12
478.564	94.12
478.783	109.12
479.002	98.12
479.22	111.12
479.439	113.12
479.658	139.12
479.876	130.12
480.095	114.12
480.313	109.12
480.532	134.12
480.751	208.12
480.969	659.12
481.188	2837.12
481.406	1777.12
481.624	279.12
481.843	139.12
482.061	106.12
482.28	100.12
482.498	88.12
482.717	87.12
482.935	92.12
483.153	95.12
483.372	75.12
483.59	79.12
483.808	90.12
484.027	83.12
484.245	95.12
484.463	98.12
484.681	106.12
484.9	92.12
485.118	100.12
485.336	105.12
485.554	96.12
485.772	98.12
485.99	106.12
486.209	108.12
486.427	94.12
486.645	122.12
486.863	132.12
487.081	108.12
487.299	104.12
487.517	95.12
487.735	96.12
487.953	94.12
488.171	92.12
488.389	93.12
488.607	100.12
488.825	91.12
489.043	95.12
489.261	97.12
489.479	91.12
489.696	85.12
489.914	94.12
490.132	97.12
490.35	84.12
490.568	88.12
490.786	93.12
491.003	104.12
491.221	94.12
491.439	101.12
491.657	90.12
491.874	84.12
492.092	82.12
492.31	99.12
492.527	96.12
492.745	91.12
492.963	86.12
493.18	90.12
493.398	102.12
493.615	103.12
493.833	87.12
494.05	84.12
494.268	84.12
494.485	88.12
494.703	91.12
494.92	93.12
495.138	73.12
495.355	98.12
495.573	106.12
495.79	79.12
496.008	75.12
496.225	91.12
496.442	85.12
496.66	91.12
496.877	92.12
497.094	103.12
497.312	73.12
497.529	99.12
497.746	77.12
497.963	82.12
498.181	77.12
498.398	88.12
498.615	107.12
498.832	105.12
499.049	94.12
499.267	91.12
499.484	91.12
499.701	97.12
499.918	86.12
500.135	87.12
500.352	107.12
500.569	82.12
500.786	89.12
501.003	91.12
501.22	93.12
501.437	89.12
501.654	96.12
501.871	121.12
502.088	89.12
502.305	97.12
502.522	100.12
502.739	96.12
502.956	93.12
503.172	88.12
503.389	101.12
503.606	123.12
503.823	112.12
504.04	108.12
504.256	101.12
504.473	91.12
504.69	75.12
504.907	90.12
505.123	95.12
505.34	78.12
505.557	102.12
505.773	85.12
505.99	84.12
506.207	89.12
506.423	86.12
506.64	75.12
506.856	92.12
507.073	91.12
507.289	99.12
507.506	100.12
507.722	142.12
507.939	135.12
508.155	105.12
508.372	92.12
508.588	92.12
508.805	107.12
509.021	85.12
509.238	95.12
509.454	91.12
509.67	114.12
509.887	110.12
510.103	152.12
510.319	230.12
510.536	912.12
510.752	3118.12
510.968	877.12
511.184	184.12
511.401	117.12
511.617	107.12
511.833	121.12
512.049	91.12
512.265	81.12
512.481	100.12
512.698	95.12
512.914	103.12
513.13	93.12
