Data from Circ_2007_H10_HRD10591_00093.txt Node
Date: Wed Jan 03 10:22:15 EST 2024
User: Yrep
Spectrometer: HR+D1059
Trigger mode: 1
Integration Time (sec): 1.000000E-1
Scans to average: 1
Electric dark correction enabled: true
Nonlinearity correction enabled: false
Boxcar width: 0
XAxis mode: Wavelengths
Number of Pixels in Spectrum: 2048
>>>>>Begin Spectral Data<<<<<
223.165	-15.31
223.4	-15.31
223.635	-15.31
223.869	-24.31
224.104	-29.31
224.338	-17.31
224.573	-24.31
224.808	-12.31
225.042	-5.31
225.277	-12.31
225.511	4.69
225.746	0.69
225.98	3.69
226.215	22.69
226.449	22.69
226.683	13.69
226.918	31.69
227.152	40.69
227.387	40.69
227.621	45.69
227.856	63.69
228.09	58.69
228.324	68.69
228.559	62.69
228.793	53.69
229.027	64.69
229.262	76.69
229.496	89.69
229.73	90.69
229.964	105.69
230.199	74.69
230.433	93.69
230.667	82.69
230.901	86.69
231.136	82.69
231.37	84.69
231.604	84.69
231.838	68.69
232.072	84.69
232.306	81.69
232.541	76.69
232.775	81.69
233.009	88.69
233.243	79.69
233.477	94.69
233.711	70.69
233.945	82.69
234.179	79.69
234.413	77.69
234.647	80.69
234.881	84.69
235.115	96.69
235.349	71.69
235.583	95.69
235.817	79.69
236.051	82.69
236.285	79.69
236.519	87.69
236.753	88.69
236.987	84.69
237.221	94.69
237.455	82.69
237.689	67.69
237.922	68.69
238.156	77.69
238.39	69.69
238.624	80.69
238.858	91.69
239.091	74.69
239.325	70.69
239.559	84.69
239.793	75.69
240.027	87.69
240.26	79.69
240.494	83.69
240.728	72.69
240.961	85.69
241.195	69.69
241.429	82.69
241.662	92.69
241.896	98.69
242.13	68.69
242.363	67.69
242.597	83.69
242.83	59.69
243.064	80.69
243.298	65.69
243.531	68.69
243.765	86.69
243.998	85.69
244.232	82.69
244.465	86.69
244.699	59.69
244.932	86.69
245.166	64.69
245.399	77.69
245.633	75.69
245.866	75.69
246.099	84.69
246.333	75.69
246.566	78.69
246.8	76.69
247.033	84.69
247.266	82.69
247.5	84.69
247.733	81.69
247.966	86.69
248.2	90.69
248.433	67.69
248.666	84.69
248.899	85.69
249.133	95.69
249.366	102.69
249.599	116.69
249.832	78.69
250.066	86.69
250.299	98.69
250.532	82.69
250.765	79.69
250.998	86.69
251.231	59.69
251.465	88.69
251.698	87.69
251.931	84.69
252.164	78.69
252.397	66.69
252.63	92.69
252.863	83.69
253.096	81.69
253.329	101.69
253.562	89.69
253.795	87.69
254.028	85.69
254.261	76.69
254.494	75.69
254.727	68.69
254.96	69.69
255.193	82.69
255.426	81.69
255.659	79.69
255.892	95.69
256.124	86.69
256.357	85.69
256.59	93.69
256.823	89.69
257.056	97.69
257.289	91.69
257.521	93.69
257.754	98.69
257.987	94.69
258.22	86.69
258.452	98.69
258.685	83.69
258.918	79.69
259.151	78.69
259.383	83.69
259.616	74.69
259.849	94.69
260.081	101.69
260.314	97.69
260.547	85.69
260.779	102.69
261.012	95.69
261.244	110.69
261.477	96.69
261.71	103.69
261.942	128.69
262.175	150.69
262.407	102.69
262.64	91.69
262.872	92.69
263.105	91.69
263.337	93.69
263.57	89.69
263.802	94.69
264.035	93.69
264.267	75.69
264.499	86.69
264.732	84.69
264.964	82.69
265.197	83.69
265.429	80.69
265.661	72.69
265.894	102.69
266.126	75.69
266.358	93.69
266.591	75.69
266.823	74.69
267.055	86.69
267.287	97.69
267.52	88.69
267.752	108.69
267.984	93.69
268.216	99.69
268.448	93.69
268.681	91.69
268.913	101.69
269.145	97.69
269.377	85.69
269.609	87.69
269.841	93.69
270.073	92.69
270.306	86.69
270.538	97.69
270.77	90.69
271.002	86.69
271.234	86.69
271.466	107.69
271.698	97.69
271.93	73.69
272.162	78.69
272.394	98.69
272.626	87.69
272.858	91.69
273.09	94.69
273.322	87.69
273.553	86.69
273.785	91.69
274.017	93.69
274.249	93.69
274.481	108.69
274.713	93.69
274.945	95.69
275.176	94.69
275.408	98.69
275.64	114.69
275.872	111.69
276.104	115.69
276.335	107.69
276.567	114.69
276.799	165.69
277.031	170.69
277.262	166.69
277.494	139.69
277.726	93.69
277.957	82.69
278.189	100.69
278.421	102.69
278.652	94.69
278.884	96.69
279.115	104.69
279.347	93.69
279.579	98.69
279.81	119.69
280.042	194.69
280.273	221.69
280.505	152.69
280.736	126.69
280.968	91.69
281.199	95.69
281.431	93.69
281.662	95.69
281.894	87.69
282.125	114.69
282.356	147.69
282.588	178.69
282.819	138.69
283.051	107.69
283.282	77.69
283.513	102.69
283.745	94.69
283.976	103.69
284.207	92.69
284.439	80.69
284.67	89.69
284.901	82.69
285.132	86.69
285.364	83.69
285.595	82.69
285.826	97.69
286.057	98.69
286.288	84.69
286.52	71.69
286.751	87.69
286.982	79.69
287.213	86.69
287.444	96.69
287.675	80.69
287.906	89.69
288.138	88.69
288.369	85.69
288.6	98.69
288.831	80.69
289.062	91.69
289.293	101.69
289.524	88.69
289.755	91.69
289.986	108.69
290.217	75.69
290.448	89.69
290.679	82.69
290.91	82.69
291.141	86.69
291.371	91.69
291.602	82.69
291.833	95.69
292.064	99.69
292.295	96.69
292.526	88.69
292.757	92.69
292.987	88.69
293.218	80.69
293.449	97.69
293.68	103.69
293.91	92.69
294.141	102.69
294.372	95.69
294.603	96.69
294.833	74.69
295.064	90.69
295.295	84.69
295.525	108.69
295.756	122.69
295.987	134.69
296.217	176.69
296.448	175.69
296.679	117.69
296.909	100.69
297.14	95.69
297.37	97.69
297.601	79.69
297.831	97.69
298.062	90.69
298.292	89.69
298.523	81.69
298.753	85.69
298.984	87.69
299.214	99.69
299.445	85.69
299.675	94.69
299.905	103.69
300.136	109.69
300.366	94.69
300.597	93.69
300.827	85.69
301.057	111.69
301.288	110.69
301.518	93.69
301.748	95.69
301.979	102.69
302.209	95.69
302.439	87.69
302.669	90.69
302.9	98.69
303.13	95.69
303.36	123.69
303.59	141.69
303.82	136.69
304.051	118.69
304.281	99.69
304.511	101.69
304.741	92.69
304.971	95.69
305.201	91.69
305.431	104.69
305.661	104.69
305.891	102.69
306.121	100.69
306.352	101.69
306.582	114.69
306.812	106.69
307.042	115.69
307.272	154.69
307.502	157.69
307.731	166.69
307.961	130.69
308.191	94.69
308.421	93.69
308.651	100.69
308.881	95.69
309.111	102.69
309.341	107.69
309.571	89.69
309.8	105.69
310.03	101.69
310.26	119.69
310.49	102.69
310.72	113.69
310.949	113.69
311.179	114.69
311.409	102.69
311.639	83.69
311.868	106.69
312.098	101.69
312.328	105.69
312.557	116.69
312.787	129.69
313.017	125.69
313.246	98.69
313.476	103.69
313.706	111.69
313.935	103.69
314.165	117.69
314.394	123.69
314.624	113.69
314.853	112.69
315.083	98.69
315.312	102.69
315.542	98.69
315.771	83.69
316.001	92.69
316.23	102.69
316.46	98.69
316.689	89.69
316.919	108.69
317.148	97.69
317.377	96.69
317.607	105.69
317.836	113.69
318.065	82.69
318.295	96.69
318.524	99.69
318.753	91.69
318.983	87.69
319.212	125.69
319.441	120.69
319.67	141.69
319.9	115.69
320.129	109.69
320.358	104.69
320.587	89.69
320.816	106.69
321.046	111.69
321.275	111.69
321.504	107.69
321.733	112.69
321.962	111.69
322.191	114.69
322.42	107.69
322.649	126.69
322.878	124.69
323.108	131.69
323.337	158.69
323.566	166.69
323.795	186.69
324.024	244.69
324.253	490.69
324.482	971.69
324.71	1991.69
324.939	2691.69
325.168	979.69
325.397	298.69
325.626	176.69
325.855	142.69
326.084	144.69
326.313	143.69
326.542	172.69
326.77	266.69
326.999	502.69
327.228	1065.69
327.457	1886.69
327.686	1557.69
327.914	528.69
328.143	493.69
328.372	572.69
328.6	331.69
328.829	182.69
329.058	204.69
329.287	185.69
329.515	176.69
329.744	215.69
329.972	389.69
330.201	771.69
330.43	1166.69
330.658	543.69
330.887	282.69
331.115	191.69
331.344	119.69
331.572	122.69
331.801	141.69
332.03	132.69
332.258	112.69
332.486	112.69
332.715	118.69
332.943	122.69
333.172	117.69
333.4	144.69
333.629	156.69
333.857	210.69
334.085	350.69
334.314	705.69
334.542	1402.69
334.771	1408.69
334.999	373.69
335.227	169.69
335.455	124.69
335.684	120.69
335.912	109.69
336.14	104.69
336.369	111.69
336.597	121.69
336.825	113.69
337.053	99.69
337.281	97.69
337.51	108.69
337.738	109.69
337.966	107.69
338.194	102.69
338.422	104.69
338.65	96.69
338.878	108.69
339.106	86.69
339.334	98.69
339.562	93.69
339.79	91.69
340.018	93.69
340.246	96.69
340.474	98.69
340.702	93.69
340.93	88.69
341.158	87.69
341.386	98.69
341.614	111.69
341.842	103.69
342.07	109.69
342.298	92.69
342.526	93.69
342.754	85.69
342.981	92.69
343.209	84.69
343.437	90.69
343.665	92.69
343.893	86.69
344.12	85.69
344.348	80.69
344.576	76.69
344.804	100.69
345.031	111.69
345.259	103.69
345.487	95.69
345.714	95.69
345.942	94.69
346.17	98.69
346.397	100.69
346.625	99.69
346.853	78.69
347.08	104.69
347.308	108.69
347.535	126.69
347.763	110.69
347.99	107.69
348.218	116.69
348.445	108.69
348.673	108.69
348.9	103.69
349.128	92.69
349.355	100.69
349.583	97.69
349.81	108.69
350.037	92.69
350.265	90.69
350.492	104.69
350.72	104.69
350.947	110.69
351.174	124.69
351.402	136.69
351.629	102.69
351.856	118.69
352.083	107.69
352.311	118.69
352.538	126.69
352.765	144.69
352.992	127.69
353.22	139.69
353.447	110.69
353.674	102.69
353.901	93.69
354.128	103.69
354.355	84.69
354.583	102.69
354.81	103.69
355.037	88.69
355.264	97.69
355.491	89.69
355.718	91.69
355.945	93.69
356.172	88.69
356.399	102.69
356.626	90.69
356.853	106.69
357.08	97.69
357.307	87.69
357.534	86.69
357.761	95.69
357.988	102.69
358.215	99.69
358.441	88.69
358.668	108.69
358.895	96.69
359.122	98.69
359.349	92.69
359.576	106.69
359.802	117.69
360.029	160.69
360.256	152.69
360.483	128.69
360.709	95.69
360.936	102.69
361.163	114.69
361.39	122.69
361.616	104.69
361.843	96.69
362.07	97.69
362.296	107.69
362.523	110.69
362.749	105.69
362.976	109.69
363.203	95.69
363.429	102.69
363.656	100.69
363.882	107.69
364.109	97.69
364.335	94.69
364.562	89.69
364.788	94.69
365.015	104.69
365.241	112.69
365.468	127.69
365.694	123.69
365.92	116.69
366.147	95.69
366.373	78.69
366.599	94.69
366.826	75.69
367.052	96.69
367.278	85.69
367.505	92.69
367.731	102.69
367.957	127.69
368.184	95.69
368.41	117.69
368.636	141.69
368.862	145.69
369.089	125.69
369.315	111.69
369.541	97.69
369.767	96.69
369.993	88.69
370.219	107.69
370.445	86.69
370.672	97.69
370.898	86.69
371.124	81.69
371.35	75.69
371.576	88.69
371.802	96.69
372.028	91.69
372.254	95.69
372.48	76.69
372.706	75.69
372.932	94.69
373.158	84.69
373.384	102.69
373.61	85.69
373.835	84.69
374.061	84.69
374.287	89.69
374.513	89.69
374.739	103.69
374.965	91.69
375.191	94.69
375.416	92.69
375.642	82.69
375.868	81.69
376.094	99.69
376.319	95.69
376.545	83.69
376.771	95.69
376.997	86.69
377.222	92.69
377.448	98.69
377.674	87.69
377.899	86.69
378.125	102.69
378.35	90.69
378.576	99.69
378.802	84.69
379.027	87.69
379.253	92.69
379.478	91.69
379.704	79.69
379.929	93.69
380.155	96.69
380.38	102.69
380.606	82.69
380.831	88.69
381.057	93.69
381.282	99.69
381.507	103.69
381.733	96.69
381.958	98.69
382.184	103.69
382.409	108.69
382.634	110.69
382.86	97.69
383.085	94.69
383.31	105.69
383.535	105.69
383.761	97.69
383.986	98.69
384.211	100.69
384.436	107.69
384.662	99.69
384.887	111.69
385.112	102.69
385.337	98.69
385.562	106.69
385.787	100.69
386.013	102.69
386.238	130.69
386.463	106.69
386.688	98.69
386.913	118.69
387.138	113.69
387.363	117.69
387.588	113.69
387.813	93.69
388.038	100.69
388.263	114.69
388.488	110.69
388.713	104.69
388.938	102.69
389.163	96.69
389.387	76.69
389.612	94.69
389.837	88.69
390.062	82.69
390.287	93.69
390.512	98.69
390.736	92.69
390.961	98.69
391.186	101.69
391.411	85.69
391.636	99.69
391.86	93.69
392.085	87.69
392.31	87.69
392.534	106.69
392.759	91.69
392.984	85.69
393.208	89.69
393.433	89.69
393.658	96.69
393.882	96.69
394.107	85.69
394.331	100.69
394.556	83.69
394.78	87.69
395.005	80.69
395.229	91.69
395.454	92.69
395.678	94.69
395.903	91.69
396.127	79.69
396.352	100.69
396.576	90.69
396.801	81.69
397.025	92.69
397.249	83.69
397.474	91.69
397.698	84.69
397.922	90.69
398.147	90.69
398.371	97.69
398.595	93.69
398.82	86.69
399.044	95.69
399.268	85.69
399.492	78.69
399.717	89.69
399.941	86.69
400.165	95.69
400.389	94.69
400.613	97.69
400.837	99.69
401.062	83.69
401.286	92.69
401.51	100.69
401.734	110.69
401.958	119.69
402.182	154.69
402.406	216.69
402.63	166.69
402.854	107.69
403.078	103.69
403.302	99.69
403.526	96.69
403.75	90.69
403.974	94.69
404.198	87.69
404.422	100.69
404.645	77.69
404.869	95.69
405.093	109.69
405.317	136.69
405.541	130.69
405.765	130.69
405.988	140.69
406.212	231.69
406.436	350.69
406.66	226.69
406.883	118.69
407.107	114.69
407.331	110.69
407.555	108.69
407.778	123.69
408.002	91.69
408.226	88.69
408.449	96.69
408.673	99.69
408.896	94.69
409.12	106.69
409.344	98.69
409.567	103.69
409.791	91.69
410.014	99.69
410.238	95.69
410.461	92.69
410.685	109.69
410.908	88.69
411.132	104.69
411.355	96.69
411.578	104.69
411.802	94.69
412.025	101.69
412.249	100.69
412.472	105.69
412.695	138.69
412.919	105.69
413.142	103.69
413.365	82.69
413.589	74.69
413.812	99.69
414.035	103.69
414.258	88.69
414.482	84.69
414.705	91.69
414.928	98.69
415.151	95.69
415.374	95.69
415.597	93.69
415.821	91.69
416.044	89.69
416.267	87.69
416.49	92.69
416.713	84.69
416.936	96.69
417.159	87.69
417.382	83.69
417.605	114.69
417.828	118.69
418.051	86.69
418.274	87.69
418.497	98.69
418.72	90.69
418.943	92.69
419.166	89.69
419.389	86.69
419.611	92.69
419.834	96.69
420.057	98.69
420.28	91.69
420.503	98.69
420.726	102.69
420.948	102.69
421.171	94.69
421.394	103.69
421.617	92.69
421.839	101.69
422.062	92.69
422.285	94.69
422.507	103.69
422.73	111.69
422.953	100.69
423.175	93.69
423.398	95.69
423.621	80.69
423.843	87.69
424.066	87.69
424.288	91.69
424.511	106.69
424.733	114.69
424.956	108.69
425.178	106.69
425.401	115.69
425.623	102.69
425.846	103.69
426.068	100.69
426.291	101.69
426.513	102.69
426.735	87.69
426.958	108.69
427.18	112.69
427.402	174.69
427.625	242.69
427.847	210.69
428.069	197.69
428.292	111.69
428.514	125.69
428.736	90.69
428.958	103.69
429.181	91.69
429.403	97.69
429.625	86.69
429.847	89.69
430.069	105.69
430.292	96.69
430.514	101.69
430.736	81.69
430.958	102.69
431.18	75.69
431.402	82.69
431.624	92.69
431.846	80.69
432.068	83.69
432.29	74.69
432.512	95.69
432.734	100.69
432.956	91.69
433.178	95.69
433.4	92.69
433.622	89.69
433.844	92.69
434.066	94.69
434.287	102.69
434.509	93.69
434.731	93.69
434.953	93.69
435.175	105.69
435.397	87.69
435.618	103.69
435.84	106.69
436.062	128.69
436.284	121.69
436.505	95.69
436.727	109.69
436.949	91.69
437.17	85.69
437.392	80.69
437.614	102.69
437.835	116.69
438.057	159.69
438.278	124.69
438.5	130.69
438.721	140.69
438.943	99.69
439.165	94.69
439.386	94.69
439.608	99.69
439.829	109.69
440.05	136.69
440.272	194.69
440.493	119.69
440.715	97.69
440.936	104.69
441.158	101.69
441.379	98.69
441.6	107.69
441.822	111.69
442.043	102.69
442.264	122.69
442.486	127.69
442.707	110.69
442.928	120.69
443.149	183.69
443.371	156.69
443.592	139.69
443.813	126.69
444.034	122.69
444.255	99.69
444.476	94.69
444.698	95.69
444.919	88.69
445.14	142.69
445.361	140.69
445.582	147.69
445.803	194.69
446.024	183.69
446.245	158.69
446.466	111.69
446.687	112.69
446.908	80.69
447.129	82.69
447.35	82.69
447.571	113.69
447.792	110.69
448.013	115.69
448.234	125.69
448.455	90.69
448.675	136.69
448.896	154.69
449.117	102.69
449.338	120.69
449.559	150.69
449.779	136.69
450	103.69
450.221	103.69
450.442	116.69
450.662	126.69
450.883	112.69
451.104	147.69
451.324	102.69
451.545	99.69
451.766	100.69
451.986	92.69
452.207	99.69
452.428	88.69
452.648	101.69
452.869	130.69
453.089	160.69
453.31	173.69
453.53	122.69
453.751	104.69
453.971	125.69
454.192	147.69
454.412	106.69
454.633	104.69
454.853	98.69
455.073	89.69
455.294	98.69
455.514	114.69
455.734	100.69
455.955	94.69
456.175	91.69
456.395	87.69
456.616	92.69
456.836	88.69
457.056	97.69
457.276	96.69
457.497	102.69
457.717	78.69
457.937	79.69
458.157	88.69
458.377	107.69
458.598	140.69
458.818	239.69
459.038	238.69
459.258	163.69
459.478	101.69
459.698	110.69
459.918	105.69
460.138	88.69
460.358	82.69
460.578	91.69
460.798	91.69
461.018	91.69
461.238	87.69
461.458	76.69
461.678	91.69
461.898	100.69
462.118	87.69
462.338	79.69
462.558	84.69
462.777	94.69
462.997	93.69
463.217	106.69
463.437	91.69
463.657	98.69
463.876	91.69
464.096	85.69
464.316	103.69
464.536	107.69
464.755	119.69
464.975	127.69
465.195	252.69
465.414	264.69
465.634	110.69
465.854	94.69
466.073	79.69
466.293	98.69
466.512	92.69
466.732	86.69
466.951	97.69
467.171	112.69
467.391	122.69
467.61	144.69
467.829	201.69
468.049	468.69
468.268	700.69
468.488	182.69
468.707	101.69
468.927	106.69
469.146	108.69
469.365	98.69
469.585	99.69
469.804	109.69
470.023	125.69
470.243	110.69
470.462	119.69
470.681	144.69
470.901	104.69
471.12	93.69
471.339	103.69
471.558	132.69
471.777	147.69
471.997	242.69
472.216	878.69
472.435	2050.69
472.654	518.69
472.873	150.69
473.092	107.69
473.311	109.69
473.53	102.69
473.749	93.69
473.968	104.69
474.187	122.69
474.406	102.69
474.625	105.69
474.844	98.69
475.063	84.69
475.282	92.69
475.501	99.69
475.72	86.69
475.939	91.69
476.158	84.69
476.377	97.69
476.596	102.69
476.814	104.69
477.033	98.69
477.252	78.69
477.471	94.69
477.69	97.69
477.908	99.69
478.127	86.69
478.346	79.69
478.564	99.69
478.783	120.69
479.002	104.69
479.22	110.69
479.439	115.69
479.658	142.69
479.876	125.69
480.095	122.69
480.313	138.69
480.532	136.69
480.751	248.69
480.969	790.69
481.188	3415.69
481.406	2063.69
481.624	319.69
481.843	128.69
482.061	110.69
482.28	98.69
482.498	112.69
482.717	99.69
482.935	102.69
483.153	93.69
483.372	102.69
483.59	98.69
483.808	98.69
484.027	88.69
484.245	94.69
484.463	104.69
484.681	99.69
484.9	100.69
485.118	94.69
485.336	101.69
485.554	103.69
485.772	106.69
485.99	108.69
486.209	112.69
486.427	111.69
486.645	128.69
486.863	128.69
487.081	114.69
487.299	85.69
487.517	92.69
487.735	100.69
487.953	97.69
488.171	103.69
488.389	93.69
488.607	105.69
488.825	102.69
489.043	95.69
489.261	111.69
489.479	101.69
489.696	93.69
489.914	96.69
490.132	103.69
490.35	117.69
490.568	95.69
490.786	89.69
491.003	88.69
491.221	89.69
491.439	85.69
491.657	100.69
491.874	98.69
492.092	113.69
492.31	92.69
492.527	96.69
492.745	100.69
492.963	99.69
493.18	96.69
493.398	101.69
493.615	94.69
493.833	104.69
494.05	93.69
494.268	86.69
494.485	92.69
494.703	95.69
494.92	101.69
495.138	93.69
495.355	82.69
495.573	98.69
495.79	86.69
496.008	81.69
496.225	93.69
496.442	94.69
496.66	95.69
496.877	99.69
497.094	83.69
497.312	95.69
497.529	107.69
497.746	89.69
497.963	82.69
498.181	79.69
498.398	102.69
498.615	116.69
498.832	126.69
499.049	88.69
499.267	86.69
499.484	106.69
499.701	98.69
499.918	104.69
500.135	85.69
500.352	109.69
500.569	111.69
500.786	102.69
501.003	100.69
501.22	97.69
501.437	92.69
501.654	111.69
501.871	147.69
502.088	105.69
502.305	105.69
502.522	88.69
502.739	103.69
502.956	98.69
503.172	109.69
503.389	101.69
503.606	120.69
503.823	108.69
504.04	102.69
504.256	109.69
504.473	89.69
504.69	89.69
504.907	106.69
505.123	89.69
505.34	103.69
505.557	98.69
505.773	93.69
505.99	98.69
506.207	107.69
506.423	92.69
506.64	96.69
506.856	101.69
507.073	86.69
507.289	98.69
507.506	103.69
507.722	137.69
507.939	130.69
508.155	102.69
508.372	94.69
508.588	112.69
508.805	96.69
509.021	95.69
509.238	99.69
509.454	106.69
509.67	115.69
509.887	112.69
510.103	130.69
510.319	243.69
510.536	967.69
510.752	3511.69
510.968	976.69
511.184	194.69
511.401	131.69
511.617	105.69
511.833	110.69
512.049	108.69
