Data from Circ_2007_H10_HRD10591_00062.txt Node
Date: Wed Jan 03 10:22:09 EST 2024
User: Yrep
Spectrometer: HR+D1059
Trigger mode: 1
Integration Time (sec): 1.000000E-1
Scans to average: 1
Electric dark correction enabled: true
Nonlinearity correction enabled: false
Boxcar width: 0
XAxis mode: Wavelengths
Number of Pixels in Spectrum: 2048
>>>>>Begin Spectral Data<<<<<
223.165	-24.62
223.4	-24.62
223.635	-24.62
223.869	-1.62
224.104	-33.62
224.338	-8.62
224.573	-12.62
224.808	-18.62
225.042	-6.62
225.277	-4.62
225.511	-3.62
225.746	9.38
225.98	9.38
226.215	5.38
226.449	16.38
226.683	9.38
226.918	33.38
227.152	31.38
227.387	41.38
227.621	31.38
227.856	41.38
228.09	43.38
228.324	41.38
228.559	71.38
228.793	69.38
229.027	53.38
229.262	69.38
229.496	79.38
229.73	79.38
229.964	105.38
230.199	98.38
230.433	83.38
230.667	82.38
230.901	83.38
231.136	66.38
231.37	84.38
231.604	80.38
231.838	89.38
232.072	88.38
232.306	98.38
232.541	76.38
232.775	79.38
233.009	61.38
233.243	81.38
233.477	85.38
233.711	93.38
233.945	74.38
234.179	89.38
234.413	85.38
234.647	83.38
234.881	85.38
235.115	92.38
235.349	74.38
235.583	87.38
235.817	92.38
236.051	78.38
236.285	78.38
236.519	85.38
236.753	73.38
236.987	89.38
237.221	92.38
237.455	101.38
237.689	73.38
237.922	82.38
238.156	76.38
238.39	80.38
238.624	68.38
238.858	80.38
239.091	81.38
239.325	82.38
239.559	76.38
239.793	72.38
240.027	92.38
240.26	73.38
240.494	67.38
240.728	75.38
240.961	75.38
241.195	73.38
241.429	81.38
241.662	83.38
241.896	63.38
242.13	70.38
242.363	92.38
242.597	66.38
242.83	72.38
243.064	80.38
243.298	79.38
243.531	82.38
243.765	72.38
243.998	67.38
244.232	83.38
244.465	81.38
244.699	90.38
244.932	67.38
245.166	81.38
245.399	84.38
245.633	71.38
245.866	74.38
246.099	91.38
246.333	87.38
246.566	70.38
246.8	85.38
247.033	75.38
247.266	86.38
247.5	76.38
247.733	94.38
247.966	86.38
248.2	87.38
248.433	74.38
248.666	85.38
248.899	93.38
249.133	98.38
249.366	113.38
249.599	97.38
249.832	75.38
250.066	84.38
250.299	92.38
250.532	84.38
250.765	89.38
250.998	73.38
251.231	90.38
251.465	71.38
251.698	67.38
251.931	80.38
252.164	84.38
252.397	83.38
252.63	83.38
252.863	80.38
253.096	92.38
253.329	59.38
253.562	81.38
253.795	90.38
254.028	81.38
254.261	83.38
254.494	75.38
254.727	87.38
254.96	82.38
255.193	92.38
255.426	81.38
255.659	95.38
255.892	83.38
256.124	105.38
256.357	88.38
256.59	80.38
256.823	95.38
257.056	77.38
257.289	82.38
257.521	53.38
257.754	80.38
257.987	86.38
258.22	90.38
258.452	81.38
258.685	89.38
258.918	70.38
259.151	77.38
259.383	77.38
259.616	78.38
259.849	76.38
260.081	97.38
260.314	87.38
260.547	75.38
260.779	95.38
261.012	89.38
261.244	89.38
261.477	98.38
261.71	113.38
261.942	113.38
262.175	135.38
262.407	100.38
262.64	83.38
262.872	100.38
263.105	94.38
263.337	95.38
263.57	86.38
263.802	75.38
264.035	77.38
264.267	78.38
264.499	89.38
264.732	101.38
264.964	101.38
265.197	86.38
265.429	103.38
265.661	87.38
265.894	76.38
266.126	90.38
266.358	87.38
266.591	86.38
266.823	84.38
267.055	78.38
267.287	86.38
267.52	86.38
267.752	87.38
267.984	84.38
268.216	92.38
268.448	78.38
268.681	90.38
268.913	79.38
269.145	86.38
269.377	84.38
269.609	75.38
269.841	87.38
270.073	101.38
270.306	102.38
270.538	81.38
270.77	98.38
271.002	79.38
271.234	86.38
271.466	95.38
271.698	85.38
271.93	82.38
272.162	84.38
272.394	86.38
272.626	87.38
272.858	87.38
273.09	81.38
273.322	92.38
273.553	73.38
273.785	77.38
274.017	90.38
274.249	85.38
274.481	86.38
274.713	83.38
274.945	83.38
275.176	84.38
275.408	96.38
275.64	106.38
275.872	112.38
276.104	99.38
276.335	110.38
276.567	129.38
276.799	131.38
277.031	154.38
277.262	153.38
277.494	127.38
277.726	87.38
277.957	87.38
278.189	80.38
278.421	83.38
278.652	84.38
278.884	87.38
279.115	95.38
279.347	95.38
279.579	100.38
279.81	115.38
280.042	146.38
280.273	201.38
280.505	165.38
280.736	108.38
280.968	81.38
281.199	81.38
281.431	84.38
281.662	87.38
281.894	94.38
282.125	113.38
282.356	139.38
282.588	170.38
282.819	132.38
283.051	90.38
283.282	90.38
283.513	90.38
283.745	82.38
283.976	103.38
284.207	91.38
284.439	79.38
284.67	89.38
284.901	91.38
285.132	80.38
285.364	75.38
285.595	83.38
285.826	87.38
286.057	84.38
286.288	110.38
286.52	83.38
286.751	85.38
286.982	74.38
287.213	81.38
287.444	68.38
287.675	83.38
287.906	101.38
288.138	102.38
288.369	99.38
288.6	103.38
288.831	97.38
289.062	93.38
289.293	92.38
289.524	91.38
289.755	91.38
289.986	85.38
290.217	90.38
290.448	86.38
290.679	86.38
290.91	82.38
291.141	92.38
291.371	87.38
291.602	79.38
291.833	84.38
292.064	90.38
292.295	111.38
292.526	86.38
292.757	92.38
292.987	99.38
293.218	90.38
293.449	82.38
293.68	95.38
293.91	81.38
294.141	92.38
294.372	87.38
294.603	97.38
294.833	89.38
295.064	83.38
295.295	88.38
295.525	93.38
295.756	105.38
295.987	138.38
296.217	164.38
296.448	148.38
296.679	84.38
296.909	84.38
297.14	99.38
297.37	79.38
297.601	104.38
297.831	97.38
298.062	82.38
298.292	96.38
298.523	98.38
298.753	95.38
298.984	99.38
299.214	108.38
299.445	100.38
299.675	80.38
299.905	102.38
300.136	102.38
300.366	100.38
300.597	103.38
300.827	85.38
301.057	112.38
301.288	124.38
301.518	85.38
301.748	99.38
301.979	101.38
302.209	94.38
302.439	99.38
302.669	93.38
302.9	86.38
303.13	99.38
303.36	105.38
303.59	122.38
303.82	127.38
304.051	107.38
304.281	85.38
304.511	94.38
304.741	95.38
304.971	65.38
305.201	81.38
305.431	96.38
305.661	81.38
305.891	87.38
306.121	105.38
306.352	104.38
306.582	108.38
306.812	106.38
307.042	109.38
307.272	129.38
307.502	140.38
307.731	122.38
307.961	111.38
308.191	93.38
308.421	101.38
308.651	79.38
308.881	90.38
309.111	111.38
309.341	84.38
309.571	103.38
309.8	106.38
310.03	97.38
310.26	106.38
310.49	116.38
310.72	101.38
310.949	126.38
311.179	112.38
311.409	96.38
311.639	106.38
311.868	110.38
312.098	91.38
312.328	108.38
312.557	123.38
312.787	108.38
313.017	114.38
313.246	114.38
313.476	86.38
313.706	109.38
313.935	96.38
314.165	116.38
314.394	112.38
314.624	98.38
314.853	99.38
315.083	108.38
315.312	107.38
315.542	105.38
315.771	100.38
316.001	91.38
316.23	94.38
316.46	93.38
316.689	82.38
316.919	102.38
317.148	112.38
317.377	100.38
317.607	101.38
317.836	103.38
318.065	103.38
318.295	92.38
318.524	94.38
318.753	90.38
318.983	88.38
319.212	95.38
319.441	112.38
319.67	119.38
319.9	87.38
320.129	96.38
320.358	112.38
320.587	101.38
320.816	113.38
321.046	109.38
321.275	111.38
321.504	112.38
321.733	108.38
321.962	123.38
322.191	115.38
322.42	130.38
322.649	130.38
322.878	137.38
323.108	151.38
323.337	162.38
323.566	157.38
323.795	188.38
324.024	265.38
324.253	552.38
324.482	1232.38
324.71	2525.38
324.939	3335.38
325.168	1189.38
325.397	319.38
325.626	182.38
325.855	145.38
326.084	134.38
326.313	133.38
326.542	185.38
326.77	279.38
326.999	638.38
327.228	1370.38
327.457	2503.38
327.686	2002.38
327.914	620.38
328.143	462.38
328.372	534.38
328.6	307.38
328.829	173.38
329.058	176.38
329.287	190.38
329.515	169.38
329.744	226.38
329.972	401.38
330.201	753.38
330.43	1037.38
330.658	511.38
330.887	263.38
331.115	190.38
331.344	141.38
331.572	108.38
331.801	127.38
332.03	125.38
332.258	113.38
332.486	99.38
332.715	104.38
332.943	126.38
333.172	123.38
333.4	121.38
333.629	161.38
333.857	199.38
334.085	367.38
334.314	701.38
334.542	1365.38
334.771	1252.38
334.999	339.38
335.227	151.38
335.455	108.38
335.684	126.38
335.912	104.38
336.14	94.38
336.369	108.38
336.597	104.38
336.825	109.38
337.053	85.38
337.281	101.38
337.51	99.38
337.738	103.38
337.966	94.38
338.194	118.38
338.422	123.38
338.65	97.38
338.878	76.38
339.106	91.38
339.334	103.38
339.562	94.38
339.79	97.38
340.018	109.38
340.246	104.38
340.474	105.38
340.702	102.38
340.93	108.38
341.158	98.38
341.386	97.38
341.614	97.38
341.842	111.38
342.07	100.38
342.298	102.38
342.526	89.38
342.754	100.38
342.981	89.38
343.209	93.38
343.437	109.38
343.665	96.38
343.893	90.38
344.12	94.38
344.348	87.38
344.576	96.38
344.804	78.38
345.031	114.38
345.259	107.38
345.487	106.38
345.714	103.38
345.942	89.38
346.17	98.38
346.397	93.38
346.625	95.38
346.853	90.38
347.08	97.38
347.308	111.38
347.535	125.38
347.763	123.38
347.99	99.38
348.218	99.38
348.445	122.38
348.673	111.38
348.9	110.38
349.128	97.38
349.355	102.38
349.583	89.38
349.81	87.38
350.037	97.38
350.265	102.38
350.492	103.38
350.72	102.38
350.947	102.38
351.174	117.38
351.402	121.38
351.629	101.38
351.856	102.38
352.083	114.38
352.311	112.38
352.538	122.38
352.765	125.38
352.992	116.38
353.22	114.38
353.447	111.38
353.674	105.38
353.901	113.38
354.128	101.38
354.355	111.38
354.583	99.38
354.81	105.38
355.037	92.38
355.264	91.38
355.491	92.38
355.718	87.38
355.945	86.38
356.172	97.38
356.399	82.38
356.626	103.38
356.853	95.38
357.08	86.38
357.307	87.38
357.534	103.38
357.761	94.38
357.988	104.38
358.215	81.38
358.441	88.38
358.668	95.38
358.895	90.38
359.122	98.38
359.349	84.38
359.576	84.38
359.802	103.38
360.029	141.38
360.256	137.38
360.483	115.38
360.709	91.38
360.936	92.38
361.163	105.38
361.39	106.38
361.616	100.38
361.843	95.38
362.07	114.38
362.296	106.38
362.523	105.38
362.749	99.38
362.976	89.38
363.203	90.38
363.429	102.38
363.656	95.38
363.882	86.38
364.109	108.38
364.335	104.38
364.562	96.38
364.788	85.38
365.015	91.38
365.241	109.38
365.468	101.38
365.694	130.38
365.92	102.38
366.147	103.38
366.373	95.38
366.599	105.38
366.826	98.38
367.052	106.38
367.278	94.38
367.505	96.38
367.731	103.38
367.957	102.38
368.184	111.38
368.41	111.38
368.636	126.38
368.862	128.38
369.089	128.38
369.315	106.38
369.541	96.38
369.767	96.38
369.993	95.38
370.219	91.38
370.445	100.38
370.672	93.38
370.898	106.38
371.124	97.38
371.35	89.38
371.576	82.38
371.802	79.38
372.028	91.38
372.254	70.38
372.48	70.38
372.706	89.38
372.932	79.38
373.158	83.38
373.384	108.38
373.61	97.38
373.835	86.38
374.061	85.38
374.287	90.38
374.513	83.38
374.739	91.38
374.965	84.38
375.191	92.38
375.416	91.38
375.642	95.38
375.868	92.38
376.094	101.38
376.319	91.38
376.545	89.38
376.771	95.38
376.997	92.38
377.222	85.38
377.448	97.38
377.674	95.38
377.899	108.38
378.125	95.38
378.35	107.38
378.576	84.38
378.802	87.38
379.027	93.38
379.253	95.38
379.478	91.38
379.704	82.38
379.929	91.38
380.155	103.38
380.38	97.38
380.606	95.38
380.831	89.38
381.057	108.38
381.282	94.38
381.507	88.38
381.733	92.38
381.958	99.38
382.184	107.38
382.409	108.38
382.634	107.38
382.86	98.38
383.085	103.38
383.31	91.38
383.535	104.38
383.761	93.38
383.986	87.38
384.211	91.38
384.436	94.38
384.662	88.38
384.887	102.38
385.112	105.38
385.337	98.38
385.562	106.38
385.787	102.38
386.013	100.38
386.238	103.38
386.463	116.38
386.688	116.38
386.913	114.38
387.138	109.38
387.363	95.38
387.588	101.38
387.813	93.38
388.038	94.38
388.263	107.38
388.488	109.38
388.713	94.38
388.938	98.38
389.163	82.38
389.387	99.38
389.612	89.38
389.837	86.38
390.062	97.38
390.287	95.38
390.512	89.38
390.736	82.38
390.961	88.38
391.186	97.38
391.411	79.38
391.636	85.38
391.86	79.38
392.085	86.38
392.31	82.38
392.534	85.38
392.759	89.38
392.984	86.38
393.208	98.38
393.433	91.38
393.658	92.38
393.882	78.38
394.107	91.38
394.331	79.38
394.556	82.38
394.78	90.38
395.005	85.38
395.229	76.38
395.454	81.38
395.678	82.38
395.903	67.38
396.127	91.38
396.352	103.38
396.576	90.38
396.801	97.38
397.025	73.38
397.249	73.38
397.474	88.38
397.698	84.38
397.922	92.38
398.147	97.38
398.371	85.38
398.595	82.38
398.82	104.38
399.044	83.38
399.268	90.38
399.492	95.38
399.717	94.38
399.941	84.38
400.165	97.38
400.389	77.38
400.613	93.38
400.837	95.38
401.062	95.38
401.286	95.38
401.51	93.38
401.734	90.38
401.958	107.38
402.182	150.38
402.406	195.38
402.63	139.38
402.854	110.38
403.078	99.38
403.302	98.38
403.526	83.38
403.75	83.38
403.974	95.38
404.198	100.38
404.422	93.38
404.645	95.38
404.869	101.38
405.093	141.38
405.317	158.38
405.541	154.38
405.765	140.38
405.988	134.38
406.212	205.38
406.436	280.38
406.66	198.38
406.883	112.38
407.107	108.38
407.331	119.38
407.555	105.38
407.778	133.38
408.002	101.38
408.226	96.38
408.449	105.38
408.673	109.38
408.896	85.38
409.12	113.38
409.344	89.38
409.567	77.38
409.791	94.38
410.014	89.38
410.238	102.38
410.461	97.38
410.685	102.38
410.908	105.38
411.132	108.38
411.355	102.38
411.578	106.38
411.802	82.38
412.025	81.38
412.249	105.38
412.472	113.38
412.695	141.38
412.919	106.38
413.142	100.38
413.365	94.38
413.589	87.38
413.812	90.38
414.035	87.38
414.258	78.38
414.482	93.38
414.705	87.38
414.928	99.38
415.151	106.38
415.374	90.38
415.597	89.38
415.821	95.38
416.044	99.38
416.267	85.38
416.49	88.38
416.713	94.38
416.936	87.38
417.159	101.38
417.382	88.38
417.605	110.38
417.828	115.38
418.051	103.38
418.274	98.38
418.497	94.38
418.72	81.38
418.943	88.38
419.166	98.38
419.389	86.38
419.611	88.38
419.834	92.38
420.057	98.38
420.28	99.38
420.503	94.38
420.726	106.38
420.948	110.38
421.171	122.38
421.394	114.38
421.617	95.38
421.839	99.38
422.062	84.38
422.285	82.38
422.507	91.38
422.73	114.38
422.953	92.38
423.175	96.38
423.398	82.38
423.621	89.38
423.843	98.38
424.066	87.38
424.288	105.38
424.511	89.38
424.733	113.38
424.956	103.38
425.178	125.38
425.401	116.38
425.623	126.38
425.846	90.38
426.068	92.38
426.291	100.38
426.513	103.38
426.735	95.38
426.958	93.38
427.18	117.38
427.402	192.38
427.625	265.38
427.847	255.38
428.069	220.38
428.292	132.38
428.514	77.38
428.736	86.38
428.958	81.38
429.181	89.38
429.403	86.38
429.625	95.38
429.847	106.38
430.069	115.38
430.292	95.38
430.514	81.38
430.736	92.38
430.958	99.38
431.18	83.38
431.402	91.38
431.624	89.38
431.846	95.38
432.068	78.38
432.29	90.38
432.512	90.38
432.734	103.38
432.956	88.38
433.178	102.38
433.4	113.38
433.622	91.38
433.844	86.38
434.066	96.38
434.287	96.38
434.509	99.38
434.731	101.38
434.953	108.38
435.175	99.38
435.397	89.38
435.618	102.38
435.84	146.38
436.062	159.38
436.284	147.38
436.505	125.38
436.727	119.38
436.949	112.38
437.17	100.38
437.392	85.38
437.614	108.38
437.835	125.38
438.057	141.38
438.278	134.38
438.5	137.38
438.721	158.38
438.943	125.38
439.165	115.38
439.386	86.38
439.608	112.38
439.829	118.38
440.05	159.38
440.272	209.38
440.493	117.38
440.715	89.38
440.936	89.38
441.158	93.38
441.379	94.38
441.6	120.38
441.822	104.38
442.043	107.38
442.264	126.38
442.486	113.38
442.707	116.38
442.928	129.38
443.149	188.38
443.371	176.38
443.592	139.38
443.813	133.38
444.034	141.38
444.255	114.38
444.476	89.38
444.698	99.38
444.919	112.38
445.14	144.38
445.361	146.38
445.582	158.38
445.803	184.38
446.024	213.38
446.245	191.38
446.466	144.38
446.687	113.38
446.908	98.38
447.129	93.38
447.35	101.38
447.571	109.38
447.792	90.38
448.013	125.38
448.234	141.38
448.455	113.38
448.675	143.38
448.896	144.38
449.117	112.38
449.338	112.38
449.559	146.38
449.779	160.38
450	112.38
450.221	89.38
450.442	81.38
450.662	117.38
450.883	115.38
451.104	148.38
451.324	110.38
451.545	96.38
451.766	91.38
451.986	94.38
452.207	93.38
452.428	102.38
452.648	108.38
452.869	126.38
453.089	139.38
453.31	130.38
453.53	100.38
453.751	100.38
453.971	129.38
454.192	143.38
454.412	100.38
454.633	93.38
454.853	91.38
455.073	98.38
455.294	102.38
455.514	122.38
455.734	99.38
455.955	106.38
456.175	90.38
456.395	95.38
456.616	82.38
456.836	91.38
457.056	89.38
457.276	97.38
457.497	85.38
457.717	90.38
457.937	93.38
458.157	93.38
458.377	92.38
458.598	113.38
458.818	204.38
459.038	235.38
459.258	155.38
459.478	99.38
459.698	91.38
459.918	89.38
460.138	85.38
460.358	101.38
460.578	94.38
460.798	95.38
461.018	85.38
461.238	82.38
461.458	74.38
461.678	87.38
461.898	86.38
462.118	91.38
462.338	87.38
462.558	86.38
462.777	86.38
462.997	94.38
463.217	110.38
463.437	98.38
463.657	79.38
463.876	88.38
464.096	102.38
464.316	93.38
464.536	110.38
464.755	100.38
464.975	121.38
465.195	233.38
465.414	240.38
465.634	97.38
465.854	105.38
466.073	102.38
466.293	83.38
466.512	92.38
466.732	91.38
466.951	94.38
467.171	98.38
467.391	101.38
467.61	133.38
467.829	169.38
468.049	384.38
468.268	574.38
468.488	193.38
468.707	101.38
468.927	95.38
469.146	86.38
469.365	106.38
469.585	94.38
469.804	110.38
470.023	98.38
470.243	116.38
470.462	108.38
470.681	147.38
470.901	98.38
471.12	88.38
471.339	99.38
471.558	114.38
471.777	108.38
471.997	227.38
472.216	772.38
472.435	1681.38
472.654	448.38
472.873	138.38
473.092	105.38
473.311	106.38
473.53	97.38
473.749	92.38
473.968	105.38
474.187	142.38
474.406	113.38
474.625	101.38
474.844	96.38
475.063	93.38
475.282	101.38
475.501	97.38
475.72	93.38
475.939	87.38
476.158	73.38
476.377	91.38
476.596	105.38
476.814	100.38
477.033	89.38
477.252	98.38
477.471	89.38
477.69	103.38
477.908	86.38
478.127	100.38
478.346	96.38
478.564	111.38
478.783	119.38
479.002	115.38
479.22	115.38
479.439	119.38
479.658	130.38
479.876	119.38
480.095	118.38
480.313	126.38
480.532	134.38
480.751	229.38
480.969	719.38
481.188	2910.38
481.406	1781.38
481.624	300.38
481.843	115.38
482.061	121.38
482.28	103.38
482.498	96.38
482.717	92.38
482.935	105.38
483.153	102.38
483.372	88.38
483.59	94.38
483.808	89.38
484.027	96.38
484.245	96.38
484.463	92.38
484.681	105.38
484.9	109.38
485.118	99.38
485.336	92.38
485.554	105.38
485.772	101.38
485.99	98.38
486.209	106.38
486.427	112.38
486.645	130.38
486.863	129.38
487.081	126.38
487.299	97.38
487.517	84.38
487.735	89.38
487.953	90.38
488.171	98.38
488.389	97.38
488.607	112.38
488.825	100.38
489.043	91.38
489.261	87.38
489.479	96.38
489.696	77.38
489.914	90.38
490.132	88.38
490.35	92.38
490.568	97.38
490.786	96.38
491.003	94.38
491.221	93.38
491.439	99.38
491.657	92.38
491.874	94.38
492.092	99.38
492.31	85.38
492.527	106.38
492.745	107.38
492.963	87.38
493.18	98.38
493.398	88.38
493.615	91.38
493.833	102.38
494.05	82.38
494.268	97.38
494.485	89.38
494.703	94.38
494.92	97.38
495.138	82.38
495.355	89.38
495.573	93.38
495.79	86.38
496.008	98.38
496.225	86.38
496.442	86.38
496.66	83.38
496.877	94.38
497.094	91.38
497.312	94.38
497.529	88.38
497.746	84.38
497.963	91.38
498.181	93.38
498.398	98.38
498.615	110.38
498.832	115.38
499.049	87.38
499.267	85.38
499.484	92.38
499.701	87.38
499.918	92.38
500.135	86.38
500.352	103.38
500.569	88.38
500.786	91.38
501.003	102.38
501.22	102.38
501.437	84.38
501.654	96.38
501.871	128.38
502.088	100.38
502.305	97.38
502.522	75.38
502.739	76.38
502.956	91.38
503.172	101.38
503.389	105.38
503.606	136.38
503.823	110.38
504.04	85.38
504.256	80.38
504.473	93.38
504.69	90.38
504.907	82.38
505.123	88.38
505.34	94.38
505.557	86.38
505.773	92.38
505.99	83.38
506.207	90.38
506.423	95.38
506.64	93.38
506.856	85.38
507.073	106.38
507.289	105.38
507.506	108.38
507.722	142.38
507.939	128.38
508.155	87.38
508.372	85.38
508.588	102.38
508.805	97.38
509.021	97.38
509.238	84.38
509.454	90.38
509.67	104.38
509.887	112.38
510.103	135.38
510.319	237.38
510.536	838.38
510.752	2990.38
510.968	835.38
511.184	178.38
511.401	123.38
511.617	111.38
511.833	111.38
512.049	101.38
512.265	98.38
512.481	87.38
