Data from Circ_2007_H10_HRD10591_00068.txt Node
Date: Wed Jan 03 10:22:10 EST 2024
User: Yrep
Spectrometer: HR+D1059
Trigger mode: 1
Integration Time (sec): 1.000000E-1
Scans to average: 1
Electric dark correction enabled: true
Nonlinearity correction enabled: false
Boxcar width: 0
XAxis mode: Wavelengths
Number of Pixels in Spectrum: 2048
>>>>>Begin Spectral Data<<<<<
223.165	-26.5
223.4	-26.5
223.635	-26.5
223.869	-12.5
224.104	-14.5
224.338	-16.5
224.573	-17.5
224.808	-24.5
225.042	-11.5
225.277	-6.5
225.511	-17.5
225.746	4.5
225.98	3.5
226.215	19.5
226.449	26.5
226.683	20.5
226.918	39.5
227.152	33.5
227.387	31.5
227.621	37.5
227.856	43.5
228.09	59.5
228.324	43.5
228.559	59.5
228.793	61.5
229.027	69.5
229.262	74.5
229.496	73.5
229.73	103.5
229.964	109.5
230.199	58.5
230.433	83.5
230.667	75.5
230.901	83.5
231.136	67.5
231.37	80.5
231.604	58.5
231.838	78.5
232.072	63.5
232.306	92.5
232.541	83.5
232.775	78.5
233.009	77.5
233.243	73.5
233.477	82.5
233.711	83.5
233.945	75.5
234.179	84.5
234.413	77.5
234.647	73.5
234.881	87.5
235.115	78.5
235.349	81.5
235.583	80.5
235.817	76.5
236.051	88.5
236.285	88.5
236.519	74.5
236.753	87.5
236.987	81.5
237.221	90.5
237.455	98.5
237.689	72.5
237.922	76.5
238.156	65.5
238.39	78.5
238.624	79.5
238.858	72.5
239.091	89.5
239.325	81.5
239.559	87.5
239.793	89.5
240.027	83.5
240.26	80.5
240.494	88.5
240.728	61.5
240.961	97.5
241.195	81.5
241.429	83.5
241.662	67.5
241.896	84.5
242.13	83.5
242.363	74.5
242.597	88.5
242.83	85.5
243.064	79.5
243.298	72.5
243.531	83.5
243.765	81.5
243.998	83.5
244.232	97.5
244.465	80.5
244.699	84.5
244.932	78.5
245.166	91.5
245.399	84.5
245.633	82.5
245.866	68.5
246.099	82.5
246.333	79.5
246.566	78.5
246.8	74.5
247.033	70.5
247.266	88.5
247.5	63.5
247.733	85.5
247.966	81.5
248.2	75.5
248.433	84.5
248.666	79.5
248.899	87.5
249.133	89.5
249.366	105.5
249.599	105.5
249.832	78.5
250.066	91.5
250.299	84.5
250.532	85.5
250.765	82.5
250.998	79.5
251.231	86.5
251.465	72.5
251.698	79.5
251.931	97.5
252.164	82.5
252.397	82.5
252.63	77.5
252.863	81.5
253.096	97.5
253.329	83.5
253.562	87.5
253.795	75.5
254.028	94.5
254.261	83.5
254.494	80.5
254.727	80.5
254.96	66.5
255.193	83.5
255.426	78.5
255.659	61.5
255.892	101.5
256.124	104.5
256.357	84.5
256.59	83.5
256.823	72.5
257.056	84.5
257.289	73.5
257.521	82.5
257.754	77.5
257.987	93.5
258.22	88.5
258.452	95.5
258.685	91.5
258.918	92.5
259.151	91.5
259.383	84.5
259.616	84.5
259.849	72.5
260.081	86.5
260.314	75.5
260.547	95.5
260.779	87.5
261.012	122.5
261.244	97.5
261.477	100.5
261.71	107.5
261.942	146.5
262.175	153.5
262.407	108.5
262.64	83.5
262.872	85.5
263.105	87.5
263.337	88.5
263.57	92.5
263.802	95.5
264.035	96.5
264.267	82.5
264.499	88.5
264.732	88.5
264.964	86.5
265.197	94.5
265.429	70.5
265.661	93.5
265.894	73.5
266.126	87.5
266.358	72.5
266.591	80.5
266.823	82.5
267.055	90.5
267.287	90.5
267.52	84.5
267.752	89.5
267.984	78.5
268.216	79.5
268.448	98.5
268.681	89.5
268.913	80.5
269.145	71.5
269.377	86.5
269.609	82.5
269.841	90.5
270.073	82.5
270.306	87.5
270.538	83.5
270.77	87.5
271.002	79.5
271.234	71.5
271.466	84.5
271.698	83.5
271.93	91.5
272.162	80.5
272.394	94.5
272.626	91.5
272.858	77.5
273.09	71.5
273.322	88.5
273.553	76.5
273.785	84.5
274.017	96.5
274.249	79.5
274.481	91.5
274.713	89.5
274.945	87.5
275.176	85.5
275.408	100.5
275.64	108.5
275.872	109.5
276.104	103.5
276.335	109.5
276.567	119.5
276.799	147.5
277.031	176.5
277.262	171.5
277.494	130.5
277.726	96.5
277.957	87.5
278.189	82.5
278.421	87.5
278.652	90.5
278.884	76.5
279.115	89.5
279.347	90.5
279.579	96.5
279.81	124.5
280.042	167.5
280.273	219.5
280.505	153.5
280.736	116.5
280.968	83.5
281.199	90.5
281.431	93.5
281.662	89.5
281.894	102.5
282.125	103.5
282.356	139.5
282.588	188.5
282.819	153.5
283.051	90.5
283.282	87.5
283.513	88.5
283.745	87.5
283.976	91.5
284.207	73.5
284.439	74.5
284.67	103.5
284.901	75.5
285.132	94.5
285.364	85.5
285.595	87.5
285.826	73.5
286.057	74.5
286.288	88.5
286.52	73.5
286.751	83.5
286.982	93.5
287.213	79.5
287.444	93.5
287.675	96.5
287.906	86.5
288.138	93.5
288.369	107.5
288.6	104.5
288.831	86.5
289.062	82.5
289.293	88.5
289.524	88.5
289.755	92.5
289.986	92.5
290.217	83.5
290.448	85.5
290.679	81.5
290.91	97.5
291.141	97.5
291.371	81.5
291.602	95.5
291.833	89.5
292.064	74.5
292.295	91.5
292.526	84.5
292.757	76.5
292.987	95.5
293.218	95.5
293.449	91.5
293.68	75.5
293.91	82.5
294.141	86.5
294.372	91.5
294.603	108.5
294.833	86.5
295.064	91.5
295.295	98.5
295.525	82.5
295.756	110.5
295.987	133.5
296.217	179.5
296.448	162.5
296.679	99.5
296.909	89.5
297.14	76.5
297.37	82.5
297.601	88.5
297.831	84.5
298.062	96.5
298.292	95.5
298.523	89.5
298.753	89.5
298.984	91.5
299.214	89.5
299.445	109.5
299.675	93.5
299.905	105.5
300.136	91.5
300.366	90.5
300.597	88.5
300.827	86.5
301.057	103.5
301.288	115.5
301.518	106.5
301.748	83.5
301.979	104.5
302.209	110.5
302.439	93.5
302.669	87.5
302.9	98.5
303.13	81.5
303.36	106.5
303.59	131.5
303.82	157.5
304.051	109.5
304.281	93.5
304.511	100.5
304.741	87.5
304.971	91.5
305.201	85.5
305.431	87.5
305.661	86.5
305.891	86.5
306.121	97.5
306.352	107.5
306.582	118.5
306.812	123.5
307.042	112.5
307.272	133.5
307.502	147.5
307.731	157.5
307.961	111.5
308.191	93.5
308.421	94.5
308.651	92.5
308.881	103.5
309.111	82.5
309.341	99.5
309.571	95.5
309.8	94.5
310.03	104.5
310.26	117.5
310.49	116.5
310.72	106.5
310.949	120.5
311.179	120.5
311.409	103.5
311.639	112.5
311.868	108.5
312.098	98.5
312.328	115.5
312.557	117.5
312.787	116.5
313.017	121.5
313.246	115.5
313.476	106.5
313.706	98.5
313.935	93.5
314.165	115.5
314.394	125.5
314.624	106.5
314.853	118.5
315.083	109.5
315.312	88.5
315.542	77.5
315.771	99.5
316.001	88.5
316.23	101.5
316.46	89.5
316.689	97.5
316.919	96.5
317.148	106.5
317.377	94.5
317.607	92.5
317.836	97.5
318.065	93.5
318.295	101.5
318.524	83.5
318.753	103.5
318.983	102.5
319.212	109.5
319.441	110.5
319.67	116.5
319.9	92.5
320.129	84.5
320.358	100.5
320.587	107.5
320.816	110.5
321.046	102.5
321.275	102.5
321.504	105.5
321.733	107.5
321.962	96.5
322.191	116.5
322.42	106.5
322.649	126.5
322.878	132.5
323.108	122.5
323.337	154.5
323.566	161.5
323.795	201.5
324.024	248.5
324.253	486.5
324.482	1042.5
324.71	2095.5
324.939	2741.5
325.168	1049.5
325.397	298.5
325.626	177.5
325.855	141.5
326.084	143.5
326.313	148.5
326.542	169.5
326.77	278.5
326.999	542.5
327.228	1041.5
327.457	1902.5
327.686	1536.5
327.914	549.5
328.143	473.5
328.372	539.5
328.6	329.5
328.829	194.5
329.058	187.5
329.287	215.5
329.515	168.5
329.744	219.5
329.972	377.5
330.201	774.5
330.43	1129.5
330.658	553.5
330.887	305.5
331.115	205.5
331.344	138.5
331.572	115.5
331.801	132.5
332.03	131.5
332.258	110.5
332.486	109.5
332.715	111.5
332.943	126.5
333.172	128.5
333.4	144.5
333.629	161.5
333.857	215.5
334.085	369.5
334.314	701.5
334.542	1362.5
334.771	1333.5
334.999	352.5
335.227	161.5
335.455	133.5
335.684	123.5
335.912	116.5
336.14	115.5
336.369	117.5
336.597	118.5
336.825	115.5
337.053	99.5
337.281	91.5
337.51	98.5
337.738	119.5
337.966	98.5
338.194	123.5
338.422	98.5
338.65	113.5
338.878	87.5
339.106	98.5
339.334	91.5
339.562	86.5
339.79	83.5
340.018	100.5
340.246	86.5
340.474	100.5
340.702	93.5
340.93	99.5
341.158	97.5
341.386	97.5
341.614	105.5
341.842	103.5
342.07	88.5
342.298	90.5
342.526	101.5
342.754	92.5
342.981	80.5
343.209	83.5
343.437	91.5
343.665	99.5
343.893	87.5
344.12	84.5
344.348	86.5
344.576	97.5
344.804	91.5
345.031	118.5
345.259	113.5
345.487	107.5
345.714	108.5
345.942	92.5
346.17	92.5
346.397	83.5
346.625	91.5
346.853	103.5
347.08	92.5
347.308	93.5
347.535	106.5
347.763	119.5
347.99	107.5
348.218	124.5
348.445	137.5
348.673	101.5
348.9	112.5
349.128	98.5
349.355	84.5
349.583	98.5
349.81	109.5
350.037	95.5
350.265	100.5
350.492	92.5
350.72	107.5
350.947	117.5
351.174	130.5
351.402	138.5
351.629	115.5
351.856	124.5
352.083	106.5
352.311	125.5
352.538	141.5
352.765	127.5
352.992	135.5
353.22	122.5
353.447	111.5
353.674	95.5
353.901	88.5
354.128	85.5
354.355	95.5
354.583	96.5
354.81	87.5
355.037	92.5
355.264	100.5
355.491	100.5
355.718	88.5
355.945	92.5
356.172	86.5
356.399	98.5
356.626	109.5
356.853	84.5
357.08	84.5
357.307	91.5
357.534	89.5
357.761	101.5
357.988	104.5
358.215	96.5
358.441	93.5
358.668	84.5
358.895	77.5
359.122	90.5
359.349	87.5
359.576	109.5
359.802	113.5
360.029	164.5
360.256	143.5
360.483	132.5
360.709	96.5
360.936	104.5
361.163	102.5
361.39	106.5
361.616	110.5
361.843	112.5
362.07	98.5
362.296	101.5
362.523	96.5
362.749	105.5
362.976	89.5
363.203	98.5
363.429	102.5
363.656	79.5
363.882	101.5
364.109	90.5
364.335	98.5
364.562	101.5
364.788	90.5
365.015	81.5
365.241	106.5
365.468	127.5
365.694	125.5
365.92	111.5
366.147	104.5
366.373	98.5
366.599	98.5
366.826	94.5
367.052	93.5
367.278	92.5
367.505	107.5
367.731	82.5
367.957	88.5
368.184	100.5
368.41	120.5
368.636	125.5
368.862	155.5
369.089	122.5
369.315	110.5
369.541	116.5
369.767	101.5
369.993	95.5
370.219	93.5
370.445	93.5
370.672	87.5
370.898	91.5
371.124	108.5
371.35	99.5
371.576	88.5
371.802	92.5
372.028	97.5
372.254	88.5
372.48	86.5
372.706	88.5
372.932	96.5
373.158	97.5
373.384	97.5
373.61	97.5
373.835	90.5
374.061	87.5
374.287	98.5
374.513	85.5
374.739	90.5
374.965	91.5
375.191	79.5
375.416	63.5
375.642	99.5
375.868	85.5
376.094	89.5
376.319	80.5
376.545	105.5
376.771	84.5
376.997	88.5
377.222	79.5
377.448	100.5
377.674	77.5
377.899	86.5
378.125	87.5
378.35	90.5
378.576	94.5
378.802	85.5
379.027	78.5
379.253	85.5
379.478	92.5
379.704	94.5
379.929	85.5
380.155	102.5
380.38	92.5
380.606	100.5
380.831	91.5
381.057	108.5
381.282	94.5
381.507	92.5
381.733	102.5
381.958	91.5
382.184	100.5
382.409	86.5
382.634	109.5
382.86	89.5
383.085	100.5
383.31	88.5
383.535	104.5
383.761	85.5
383.986	100.5
384.211	86.5
384.436	110.5
384.662	97.5
384.887	100.5
385.112	104.5
385.337	102.5
385.562	99.5
385.787	114.5
386.013	103.5
386.238	108.5
386.463	99.5
386.688	106.5
386.913	100.5
387.138	109.5
387.363	103.5
387.588	94.5
387.813	104.5
388.038	107.5
388.263	112.5
388.488	108.5
388.713	103.5
388.938	87.5
389.163	100.5
389.387	85.5
389.612	93.5
389.837	82.5
390.062	87.5
390.287	84.5
390.512	86.5
390.736	77.5
390.961	92.5
391.186	87.5
391.411	99.5
391.636	79.5
391.86	81.5
392.085	77.5
392.31	85.5
392.534	68.5
392.759	96.5
392.984	84.5
393.208	105.5
393.433	85.5
393.658	94.5
393.882	75.5
394.107	90.5
394.331	80.5
394.556	84.5
394.78	85.5
395.005	83.5
395.229	105.5
395.454	91.5
395.678	80.5
395.903	72.5
396.127	94.5
396.352	98.5
396.576	86.5
396.801	88.5
397.025	88.5
397.249	92.5
397.474	82.5
397.698	85.5
397.922	86.5
398.147	93.5
398.371	84.5
398.595	82.5
398.82	88.5
399.044	89.5
399.268	83.5
399.492	72.5
399.717	81.5
399.941	94.5
400.165	103.5
400.389	104.5
400.613	89.5
400.837	109.5
401.062	95.5
401.286	86.5
401.51	100.5
401.734	91.5
401.958	131.5
402.182	162.5
402.406	213.5
402.63	183.5
402.854	104.5
403.078	86.5
403.302	88.5
403.526	89.5
403.75	85.5
403.974	89.5
404.198	88.5
404.422	92.5
404.645	86.5
404.869	106.5
405.093	119.5
405.317	153.5
405.541	144.5
405.765	124.5
405.988	136.5
406.212	259.5
406.436	375.5
406.66	244.5
406.883	135.5
407.107	88.5
407.331	104.5
407.555	95.5
407.778	113.5
408.002	90.5
408.226	83.5
408.449	90.5
408.673	94.5
408.896	100.5
409.12	109.5
409.344	88.5
409.567	84.5
409.791	99.5
410.014	96.5
410.238	91.5
410.461	88.5
410.685	100.5
410.908	92.5
411.132	101.5
411.355	108.5
411.578	94.5
411.802	92.5
412.025	90.5
412.249	104.5
412.472	109.5
412.695	113.5
412.919	88.5
413.142	82.5
413.365	90.5
413.589	94.5
413.812	94.5
414.035	89.5
414.258	109.5
414.482	105.5
414.705	93.5
414.928	82.5
415.151	83.5
415.374	79.5
415.597	85.5
415.821	79.5
416.044	81.5
416.267	94.5
416.49	91.5
416.713	72.5
416.936	96.5
417.159	90.5
417.382	94.5
417.605	89.5
417.828	102.5
418.051	103.5
418.274	81.5
418.497	73.5
418.72	90.5
418.943	82.5
419.166	91.5
419.389	85.5
419.611	100.5
419.834	87.5
420.057	91.5
420.28	96.5
420.503	90.5
420.726	85.5
420.948	105.5
421.171	103.5
421.394	73.5
421.617	89.5
421.839	87.5
422.062	86.5
422.285	82.5
422.507	98.5
422.73	108.5
422.953	98.5
423.175	98.5
423.398	88.5
423.621	101.5
423.843	81.5
424.066	77.5
424.288	94.5
424.511	88.5
424.733	99.5
424.956	117.5
425.178	125.5
425.401	103.5
425.623	115.5
425.846	109.5
426.068	104.5
426.291	103.5
426.513	105.5
426.735	106.5
426.958	100.5
427.18	126.5
427.402	187.5
427.625	291.5
427.847	220.5
428.069	187.5
428.292	109.5
428.514	98.5
428.736	90.5
428.958	81.5
429.181	91.5
429.403	92.5
429.625	101.5
429.847	93.5
430.069	110.5
430.292	95.5
430.514	88.5
430.736	91.5
430.958	81.5
431.18	79.5
431.402	92.5
431.624	87.5
431.846	91.5
432.068	96.5
432.29	93.5
432.512	94.5
432.734	101.5
432.956	90.5
433.178	106.5
433.4	109.5
433.622	85.5
433.844	96.5
434.066	97.5
434.287	89.5
434.509	80.5
434.731	99.5
434.953	79.5
435.175	80.5
435.397	90.5
435.618	95.5
435.84	103.5
436.062	129.5
436.284	135.5
436.505	103.5
436.727	82.5
436.949	93.5
437.17	102.5
437.392	93.5
437.614	104.5
437.835	143.5
438.057	167.5
438.278	153.5
438.5	124.5
438.721	141.5
438.943	108.5
439.165	105.5
439.386	82.5
439.608	106.5
439.829	100.5
440.05	160.5
440.272	190.5
440.493	116.5
440.715	101.5
440.936	97.5
441.158	95.5
441.379	80.5
441.6	107.5
441.822	126.5
442.043	97.5
442.264	107.5
442.486	127.5
442.707	106.5
442.928	120.5
443.149	179.5
443.371	190.5
443.592	149.5
443.813	119.5
444.034	117.5
444.255	98.5
444.476	82.5
444.698	99.5
444.919	101.5
445.14	144.5
445.361	142.5
445.582	147.5
445.803	190.5
446.024	185.5
446.245	175.5
446.466	130.5
446.687	108.5
446.908	86.5
447.129	96.5
447.35	91.5
447.571	105.5
447.792	98.5
448.013	102.5
448.234	133.5
448.455	121.5
448.675	134.5
448.896	158.5
449.117	101.5
449.338	97.5
449.559	148.5
449.779	162.5
450	105.5
450.221	96.5
450.442	101.5
450.662	109.5
450.883	137.5
451.104	155.5
451.324	119.5
451.545	97.5
451.766	101.5
451.986	87.5
452.207	83.5
452.428	106.5
452.648	104.5
452.869	136.5
453.089	166.5
453.31	164.5
453.53	99.5
453.751	101.5
453.971	134.5
454.192	149.5
454.412	115.5
454.633	95.5
454.853	86.5
455.073	103.5
455.294	98.5
455.514	110.5
455.734	112.5
455.955	99.5
456.175	96.5
456.395	80.5
456.616	96.5
456.836	95.5
457.056	79.5
457.276	85.5
457.497	84.5
457.717	97.5
457.937	81.5
458.157	98.5
458.377	100.5
458.598	131.5
458.818	258.5
459.038	258.5
459.258	152.5
459.478	108.5
459.698	81.5
459.918	80.5
460.138	77.5
460.358	87.5
460.578	104.5
460.798	94.5
461.018	98.5
461.238	92.5
461.458	79.5
461.678	97.5
461.898	92.5
462.118	93.5
462.338	96.5
462.558	89.5
462.777	88.5
462.997	115.5
463.217	102.5
463.437	92.5
463.657	90.5
463.876	99.5
464.096	94.5
464.316	88.5
464.536	105.5
464.755	107.5
464.975	140.5
465.195	265.5
465.414	289.5
465.634	109.5
465.854	92.5
466.073	85.5
466.293	101.5
466.512	98.5
466.732	82.5
466.951	82.5
467.171	99.5
467.391	110.5
467.61	152.5
467.829	199.5
468.049	424.5
468.268	651.5
468.488	189.5
468.707	113.5
468.927	98.5
469.146	95.5
469.365	89.5
469.585	98.5
469.804	98.5
470.023	104.5
470.243	109.5
470.462	110.5
470.681	159.5
470.901	116.5
471.12	103.5
471.339	99.5
471.558	116.5
471.777	132.5
471.997	241.5
472.216	804.5
472.435	1899.5
472.654	487.5
472.873	147.5
473.092	111.5
473.311	97.5
473.53	94.5
473.749	100.5
473.968	108.5
474.187	135.5
474.406	110.5
474.625	82.5
474.844	85.5
475.063	93.5
475.282	106.5
475.501	81.5
475.72	86.5
475.939	91.5
476.158	93.5
476.377	90.5
476.596	91.5
476.814	103.5
477.033	110.5
477.252	99.5
477.471	84.5
477.69	84.5
477.908	106.5
478.127	87.5
478.346	96.5
478.564	111.5
478.783	112.5
479.002	120.5
479.22	104.5
479.439	135.5
479.658	147.5
479.876	136.5
480.095	113.5
480.313	121.5
480.532	133.5
480.751	222.5
480.969	749.5
481.188	3151.5
481.406	1927.5
481.624	303.5
481.843	143.5
482.061	105.5
482.28	97.5
482.498	75.5
482.717	90.5
482.935	96.5
483.153	91.5
483.372	106.5
483.59	105.5
483.808	91.5
484.027	91.5
484.245	95.5
484.463	97.5
484.681	109.5
484.9	91.5
485.118	111.5
485.336	110.5
485.554	95.5
485.772	84.5
485.99	101.5
486.209	117.5
486.427	114.5
486.645	126.5
486.863	147.5
487.081	127.5
487.299	100.5
487.517	100.5
487.735	96.5
487.953	98.5
488.171	91.5
488.389	97.5
488.607	103.5
488.825	103.5
489.043	99.5
489.261	92.5
489.479	85.5
489.696	91.5
489.914	99.5
490.132	94.5
490.35	79.5
490.568	79.5
490.786	95.5
491.003	92.5
491.221	85.5
491.439	102.5
491.657	99.5
491.874	90.5
492.092	103.5
492.31	90.5
492.527	81.5
492.745	91.5
492.963	91.5
493.18	92.5
493.398	99.5
493.615	107.5
493.833	70.5
494.05	95.5
494.268	85.5
494.485	99.5
494.703	93.5
494.92	98.5
495.138	94.5
495.355	84.5
495.573	82.5
495.79	94.5
496.008	101.5
496.225	104.5
496.442	96.5
496.66	86.5
496.877	83.5
497.094	82.5
497.312	104.5
497.529	96.5
497.746	88.5
497.963	90.5
498.181	83.5
498.398	123.5
498.615	112.5
498.832	104.5
499.049	91.5
499.267	92.5
499.484	107.5
499.701	87.5
499.918	108.5
500.135	90.5
500.352	96.5
500.569	85.5
500.786	107.5
501.003	78.5
501.22	89.5
501.437	87.5
501.654	96.5
501.871	120.5
502.088	108.5
502.305	103.5
502.522	107.5
502.739	74.5
502.956	97.5
503.172	71.5
503.389	98.5
503.606	128.5
503.823	117.5
504.04	99.5
504.256	92.5
504.473	105.5
504.69	92.5
504.907	96.5
505.123	80.5
505.34	79.5
505.557	101.5
505.773	101.5
505.99	98.5
506.207	95.5
506.423	82.5
506.64	88.5
506.856	85.5
507.073	93.5
507.289	98.5
507.506	95.5
507.722	150.5
507.939	143.5
508.155	112.5
508.372	90.5
508.588	103.5
508.805	98.5
509.021	102.5
509.238	110.5
509.454	110.5
509.67	98.5
509.887	119.5
510.103	164.5
510.319	248.5
510.536	1056.5
510.752	3757.5
510.968	1021.5
511.184	188.5
511.401	141.5
511.617	120.5
511.833	96.5
512.049	91.5
512.265	96.5
512.481	92.5
512.698	95.5
512.914	92.5
513.13	98.5
513.346	100.5
513.562	104.5
513.778	105.5
513.994	102.5
514.21	111.5
514.426	160.5
514.642	202.5
514.858	162.5
515.074	273.5
515.29	841.5
515.506	3217.5
515.721	1136.5
515.937	243.5
516.153	145.5
516.369	114.5
516.585	105.5
516.801	111.5
517.016	101.5
517.232	100.5
517.448	89.5
517.664	95.5
517.879	100.5
518.095	95.5
518.311	102.5
518.527	112.5
518.742	91.5
518.958	105.5
519.173	106.5
519.389	103.5
519.605	99.5
519.82	112.5
520.036	103.5
520.251	161.5
520.467	143.5
520.682	130.5
520.898	121.5
521.113	167.5
521.329	207.5
521.544	344.5
521.76	1090.5
521.975	5237.5
522.19	3269.5
522.406	616.5
522.621	180.5
522.836	112.5
523.052	119.5
523.267	105.5
523.482	109.5
523.698	125.5
523.913	160.5
524.128	119.5
524.343	95.5
524.559	107.5
524.774	98.5
524.989	94.5
525.204	146.5
525.419	110.5
525.634	93.5
525.849	92.5
526.064	91.5
526.28	100.5
526.495	92.5
526.71	91.5
526.925	87.5
527.14	89.5
527.355	93.5
527.57	83.5
527.785	95.5
527.999	83.5
528.214	84.5
528.429	90.5
528.644	105.5
528.859	100.5
529.074	105.5
529.289	170.5
529.503	355.5
529.718	131.5
529.933	88.5
530.148	86.5
530.363	84.5
530.577	97.5
530.792	89.5
531.007	116.5
531.221	96.5
531.436	92.5
531.651	96.5
