Data from Circ_2007_H10_HRD10591_00002.txt Node
Date: Wed Jan 03 10:21:57 EST 2024
User: Yrep
Spectrometer: HR+D1059
Trigger mode: 1
Integration Time (sec): 1.000000E-1
Scans to average: 1
Electric dark correction enabled: true
Nonlinearity correction enabled: false
Boxcar width: 0
XAxis mode: Wavelengths
Number of Pixels in Spectrum: 2048
>>>>>Begin Spectral Data<<<<<
223.165	-20.56
223.4	-20.56
223.635	-20.56
223.869	-23.56
224.104	-23.56
224.338	-9.56
224.573	-7.56
224.808	5.44
225.042	-1.56
225.277	-9.56
225.511	-1.56
225.746	-3.56
225.98	7.44
226.215	10.44
226.449	11.44
226.683	23.44
226.918	22.44
227.152	20.44
227.387	19.44
227.621	35.44
227.856	39.44
228.09	45.44
228.324	48.44
228.559	34.44
228.793	61.44
229.027	58.44
229.262	63.44
229.496	89.44
229.73	95.44
229.964	101.44
230.199	82.44
230.433	81.44
230.667	88.44
230.901	81.44
231.136	74.44
231.37	55.44
231.604	71.44
231.838	77.44
232.072	90.44
232.306	83.44
232.541	79.44
232.775	75.44
233.009	92.44
233.243	81.44
233.477	88.44
233.711	86.44
233.945	87.44
234.179	79.44
234.413	67.44
234.647	69.44
234.881	73.44
235.115	74.44
235.349	71.44
235.583	81.44
235.817	76.44
236.051	70.44
236.285	80.44
236.519	70.44
236.753	84.44
236.987	89.44
237.221	91.44
237.455	84.44
237.689	78.44
237.922	74.44
238.156	71.44
238.39	81.44
238.624	83.44
238.858	88.44
239.091	83.44
239.325	62.44
239.559	82.44
239.793	74.44
240.027	80.44
240.26	74.44
240.494	83.44
240.728	72.44
240.961	69.44
241.195	58.44
241.429	72.44
241.662	78.44
241.896	79.44
242.13	68.44
242.363	73.44
242.597	81.44
242.83	89.44
243.064	78.44
243.298	73.44
243.531	70.44
243.765	96.44
243.998	84.44
244.232	78.44
244.465	77.44
244.699	82.44
244.932	87.44
245.166	93.44
245.399	76.44
245.633	74.44
245.866	80.44
246.099	83.44
246.333	70.44
246.566	86.44
246.8	74.44
247.033	86.44
247.266	81.44
247.5	78.44
247.733	79.44
247.966	91.44
248.2	88.44
248.433	93.44
248.666	70.44
248.899	86.44
249.133	91.44
249.366	107.44
249.599	124.44
249.832	94.44
250.066	81.44
250.299	90.44
250.532	85.44
250.765	82.44
250.998	94.44
251.231	79.44
251.465	73.44
251.698	89.44
251.931	75.44
252.164	94.44
252.397	80.44
252.63	81.44
252.863	79.44
253.096	72.44
253.329	75.44
253.562	87.44
253.795	83.44
254.028	88.44
254.261	92.44
254.494	74.44
254.727	96.44
254.96	88.44
255.193	90.44
255.426	82.44
255.659	82.44
255.892	92.44
256.124	89.44
256.357	79.44
256.59	82.44
256.823	83.44
257.056	90.44
257.289	94.44
257.521	81.44
257.754	91.44
257.987	81.44
258.22	83.44
258.452	86.44
258.685	87.44
258.918	107.44
259.151	80.44
259.383	91.44
259.616	82.44
259.849	75.44
260.081	73.44
260.314	96.44
260.547	89.44
260.779	104.44
261.012	89.44
261.244	92.44
261.477	80.44
261.71	90.44
261.942	129.44
262.175	153.44
262.407	92.44
262.64	92.44
262.872	80.44
263.105	78.44
263.337	72.44
263.57	79.44
263.802	91.44
264.035	81.44
264.267	80.44
264.499	84.44
264.732	96.44
264.964	83.44
265.197	87.44
265.429	74.44
265.661	75.44
265.894	81.44
266.126	89.44
266.358	80.44
266.591	83.44
266.823	78.44
267.055	85.44
267.287	81.44
267.52	78.44
267.752	97.44
267.984	86.44
268.216	82.44
268.448	83.44
268.681	85.44
268.913	78.44
269.145	83.44
269.377	81.44
269.609	76.44
269.841	69.44
270.073	82.44
270.306	83.44
270.538	95.44
270.77	102.44
271.002	89.44
271.234	84.44
271.466	89.44
271.698	87.44
271.93	83.44
272.162	92.44
272.394	83.44
272.626	81.44
272.858	81.44
273.09	79.44
273.322	80.44
273.553	87.44
273.785	83.44
274.017	81.44
274.249	82.44
274.481	87.44
274.713	78.44
274.945	83.44
275.176	102.44
275.408	102.44
275.64	98.44
275.872	87.44
276.104	100.44
276.335	88.44
276.567	117.44
276.799	129.44
277.031	157.44
277.262	153.44
277.494	130.44
277.726	88.44
277.957	96.44
278.189	93.44
278.421	86.44
278.652	96.44
278.884	101.44
279.115	84.44
279.347	86.44
279.579	98.44
279.81	95.44
280.042	153.44
280.273	202.44
280.505	131.44
280.736	100.44
280.968	86.44
281.199	80.44
281.431	75.44
281.662	93.44
281.894	95.44
282.125	105.44
282.356	115.44
282.588	187.44
282.819	115.44
283.051	93.44
283.282	97.44
283.513	78.44
283.745	80.44
283.976	91.44
284.207	100.44
284.439	84.44
284.67	88.44
284.901	83.44
285.132	90.44
285.364	95.44
285.595	78.44
285.826	79.44
286.057	82.44
286.288	75.44
286.52	85.44
286.751	94.44
286.982	79.44
287.213	82.44
287.444	79.44
287.675	90.44
287.906	91.44
288.138	96.44
288.369	96.44
288.6	83.44
288.831	89.44
289.062	95.44
289.293	83.44
289.524	88.44
289.755	101.44
289.986	91.44
290.217	88.44
290.448	84.44
290.679	82.44
290.91	85.44
291.141	87.44
291.371	100.44
291.602	73.44
291.833	72.44
292.064	89.44
292.295	94.44
292.526	96.44
292.757	90.44
292.987	95.44
293.218	82.44
293.449	85.44
293.68	63.44
293.91	79.44
294.141	87.44
294.372	94.44
294.603	81.44
294.833	92.44
295.064	88.44
295.295	89.44
295.525	97.44
295.756	107.44
295.987	111.44
296.217	164.44
296.448	144.44
296.679	111.44
296.909	97.44
297.14	104.44
297.37	88.44
297.601	97.44
297.831	94.44
298.062	92.44
298.292	102.44
298.523	102.44
298.753	101.44
298.984	97.44
299.214	101.44
299.445	86.44
299.675	91.44
299.905	95.44
300.136	90.44
300.366	92.44
300.597	99.44
300.827	106.44
301.057	111.44
301.288	114.44
301.518	110.44
301.748	88.44
301.979	102.44
302.209	100.44
302.439	100.44
302.669	97.44
302.9	95.44
303.13	99.44
303.36	105.44
303.59	119.44
303.82	133.44
304.051	100.44
304.281	92.44
304.511	83.44
304.741	85.44
304.971	101.44
305.201	87.44
305.431	80.44
305.661	86.44
305.891	89.44
306.121	95.44
306.352	107.44
306.582	102.44
306.812	99.44
307.042	107.44
307.272	127.44
307.502	137.44
307.731	118.44
307.961	97.44
308.191	97.44
308.421	94.44
308.651	95.44
308.881	97.44
309.111	93.44
309.341	102.44
309.571	102.44
309.8	102.44
310.03	110.44
310.26	118.44
310.49	98.44
310.72	108.44
310.949	128.44
311.179	114.44
311.409	94.44
311.639	93.44
311.868	100.44
312.098	98.44
312.328	112.44
312.557	112.44
312.787	133.44
313.017	110.44
313.246	94.44
313.476	91.44
313.706	100.44
313.935	107.44
314.165	122.44
314.394	114.44
314.624	99.44
314.853	113.44
315.083	92.44
315.312	79.44
315.542	83.44
315.771	92.44
316.001	90.44
316.23	100.44
316.46	96.44
316.689	84.44
316.919	76.44
317.148	83.44
317.377	114.44
317.607	101.44
317.836	109.44
318.065	96.44
318.295	96.44
318.524	87.44
318.753	98.44
318.983	94.44
319.212	101.44
319.441	115.44
319.67	120.44
319.9	88.44
320.129	84.44
320.358	102.44
320.587	95.44
320.816	103.44
321.046	119.44
321.275	110.44
321.504	99.44
321.733	89.44
321.962	95.44
322.191	105.44
322.42	114.44
322.649	138.44
322.878	140.44
323.108	145.44
323.337	158.44
323.566	172.44
323.795	174.44
324.024	244.44
324.253	517.44
324.482	1093.44
324.71	2331.44
324.939	3062.44
325.168	1098.44
325.397	307.44
325.626	190.44
325.855	148.44
326.084	143.44
326.313	171.44
326.542	178.44
326.77	291.44
326.999	576.44
327.228	1192.44
327.457	2221.44
327.686	1836.44
327.914	534.44
328.143	429.44
328.372	503.44
328.6	308.44
328.829	167.44
329.058	191.44
329.287	199.44
329.515	168.44
329.744	216.44
329.972	369.44
330.201	690.44
330.43	1020.44
330.658	493.44
330.887	272.44
331.115	202.44
331.344	133.44
331.572	120.44
331.801	115.44
332.03	124.44
332.258	103.44
332.486	114.44
332.715	112.44
332.943	99.44
333.172	112.44
333.4	121.44
333.629	146.44
333.857	211.44
334.085	334.44
334.314	653.44
334.542	1267.44
334.771	1196.44
334.999	328.44
335.227	155.44
335.455	120.44
335.684	111.44
335.912	107.44
336.14	108.44
336.369	107.44
336.597	98.44
336.825	112.44
337.053	86.44
337.281	114.44
337.51	96.44
337.738	96.44
337.966	89.44
338.194	116.44
338.422	111.44
338.65	93.44
338.878	94.44
339.106	86.44
339.334	80.44
339.562	78.44
339.79	92.44
340.018	87.44
340.246	90.44
340.474	98.44
340.702	77.44
340.93	88.44
341.158	93.44
341.386	114.44
341.614	112.44
341.842	91.44
342.07	92.44
342.298	99.44
342.526	90.44
342.754	76.44
342.981	102.44
343.209	104.44
343.437	93.44
343.665	82.44
343.893	79.44
344.12	93.44
344.348	85.44
344.576	90.44
344.804	84.44
345.031	100.44
345.259	106.44
345.487	107.44
345.714	113.44
345.942	113.44
346.17	104.44
346.397	102.44
346.625	92.44
346.853	92.44
347.08	86.44
347.308	107.44
347.535	97.44
347.763	104.44
347.99	100.44
348.218	115.44
348.445	134.44
348.673	119.44
348.9	92.44
349.128	102.44
349.355	85.44
349.583	98.44
349.81	104.44
350.037	95.44
350.265	107.44
350.492	100.44
350.72	106.44
350.947	111.44
351.174	106.44
351.402	128.44
351.629	120.44
351.856	116.44
352.083	109.44
352.311	111.44
352.538	109.44
352.765	107.44
352.992	127.44
353.22	111.44
353.447	102.44
353.674	113.44
353.901	90.44
354.128	96.44
354.355	99.44
354.583	114.44
354.81	89.44
355.037	93.44
355.264	89.44
355.491	90.44
355.718	93.44
355.945	85.44
356.172	104.44
356.399	95.44
356.626	87.44
356.853	104.44
357.08	97.44
357.307	92.44
357.534	88.44
357.761	90.44
357.988	95.44
358.215	88.44
358.441	102.44
358.668	64.44
358.895	93.44
359.122	83.44
359.349	89.44
359.576	104.44
359.802	121.44
360.029	150.44
360.256	137.44
360.483	126.44
360.709	105.44
360.936	87.44
361.163	95.44
361.39	91.44
361.616	107.44
361.843	93.44
362.07	109.44
362.296	100.44
362.523	96.44
362.749	97.44
362.976	94.44
363.203	106.44
363.429	98.44
363.656	98.44
363.882	98.44
364.109	91.44
364.335	82.44
364.562	79.44
364.788	93.44
365.015	103.44
365.241	89.44
365.468	110.44
365.694	116.44
365.92	94.44
366.147	101.44
366.373	86.44
366.599	87.44
366.826	104.44
367.052	83.44
367.278	85.44
367.505	99.44
367.731	69.44
367.957	84.44
368.184	93.44
368.41	108.44
368.636	129.44
368.862	140.44
369.089	120.44
369.315	108.44
369.541	88.44
369.767	92.44
369.993	110.44
370.219	101.44
370.445	92.44
370.672	89.44
370.898	83.44
371.124	81.44
371.35	94.44
371.576	76.44
371.802	98.44
372.028	89.44
372.254	97.44
372.48	108.44
372.706	83.44
372.932	100.44
373.158	95.44
373.384	92.44
373.61	104.44
373.835	97.44
374.061	92.44
374.287	84.44
374.513	97.44
374.739	91.44
374.965	98.44
375.191	93.44
375.416	86.44
375.642	90.44
375.868	107.44
376.094	85.44
376.319	90.44
376.545	97.44
376.771	96.44
376.997	109.44
377.222	88.44
377.448	97.44
377.674	96.44
377.899	108.44
378.125	83.44
378.35	103.44
378.576	89.44
378.802	89.44
379.027	94.44
379.253	104.44
379.478	90.44
379.704	95.44
379.929	94.44
380.155	118.44
380.38	103.44
380.606	106.44
380.831	113.44
381.057	98.44
381.282	107.44
381.507	99.44
381.733	97.44
381.958	103.44
382.184	103.44
382.409	109.44
382.634	107.44
382.86	99.44
383.085	119.44
383.31	122.44
383.535	104.44
383.761	103.44
383.986	101.44
384.211	110.44
384.436	103.44
384.662	106.44
384.887	119.44
385.112	125.44
385.337	145.44
385.562	120.44
385.787	114.44
386.013	150.44
386.238	145.44
386.463	126.44
386.688	123.44
386.913	119.44
387.138	120.44
387.363	124.44
387.588	113.44
387.813	109.44
388.038	129.44
388.263	145.44
388.488	125.44
388.713	96.44
388.938	76.44
389.163	88.44
389.387	83.44
389.612	83.44
389.837	91.44
390.062	94.44
390.287	87.44
390.512	86.44
390.736	86.44
390.961	89.44
391.186	95.44
391.411	99.44
391.636	93.44
391.86	78.44
392.085	73.44
392.31	90.44
392.534	79.44
392.759	91.44
392.984	91.44
393.208	88.44
393.433	103.44
393.658	92.44
393.882	91.44
394.107	88.44
394.331	91.44
394.556	86.44
394.78	90.44
395.005	86.44
395.229	77.44
395.454	79.44
395.678	95.44
395.903	100.44
396.127	103.44
396.352	90.44
396.576	94.44
396.801	79.44
397.025	94.44
397.249	82.44
397.474	85.44
397.698	85.44
397.922	79.44
398.147	96.44
398.371	103.44
398.595	79.44
398.82	83.44
399.044	91.44
399.268	87.44
399.492	99.44
399.717	89.44
399.941	94.44
400.165	98.44
400.389	107.44
400.613	90.44
400.837	107.44
401.062	98.44
401.286	100.44
401.51	84.44
401.734	102.44
401.958	108.44
402.182	146.44
402.406	189.44
402.63	141.44
402.854	110.44
403.078	92.44
403.302	87.44
403.526	84.44
403.75	94.44
403.974	77.44
404.198	78.44
404.422	83.44
404.645	100.44
404.869	114.44
405.093	105.44
405.317	131.44
405.541	127.44
405.765	141.44
405.988	129.44
406.212	205.44
406.436	301.44
406.66	198.44
406.883	123.44
407.107	96.44
407.331	105.44
407.555	117.44
407.778	109.44
408.002	93.44
408.226	87.44
408.449	93.44
408.673	91.44
408.896	104.44
409.12	110.44
409.344	90.44
409.567	75.44
409.791	91.44
410.014	87.44
410.238	88.44
410.461	98.44
410.685	97.44
410.908	100.44
411.132	101.44
411.355	101.44
411.578	98.44
411.802	93.44
412.025	95.44
412.249	105.44
412.472	111.44
412.695	126.44
412.919	103.44
413.142	94.44
413.365	89.44
413.589	91.44
413.812	92.44
414.035	92.44
414.258	88.44
414.482	93.44
414.705	83.44
414.928	98.44
415.151	107.44
415.374	87.44
415.597	82.44
415.821	104.44
416.044	106.44
416.267	94.44
416.49	90.44
416.713	99.44
416.936	87.44
417.159	82.44
417.382	86.44
417.605	94.44
417.828	104.44
418.051	90.44
418.274	107.44
418.497	82.44
418.72	88.44
418.943	82.44
419.166	88.44
419.389	91.44
419.611	104.44
419.834	92.44
420.057	96.44
420.28	97.44
420.503	83.44
420.726	74.44
420.948	92.44
421.171	103.44
421.394	104.44
421.617	92.44
421.839	88.44
422.062	83.44
422.285	98.44
422.507	106.44
422.73	108.44
422.953	88.44
423.175	99.44
423.398	77.44
423.621	81.44
423.843	96.44
424.066	94.44
424.288	84.44
424.511	91.44
424.733	107.44
424.956	127.44
425.178	98.44
425.401	115.44
425.623	102.44
425.846	92.44
426.068	102.44
426.291	92.44
426.513	109.44
426.735	95.44
426.958	91.44
427.18	122.44
427.402	180.44
427.625	253.44
427.847	244.44
428.069	199.44
428.292	105.44
428.514	91.44
428.736	87.44
428.958	87.44
429.181	93.44
429.403	94.44
429.625	96.44
429.847	98.44
430.069	119.44
430.292	82.44
430.514	88.44
430.736	74.44
430.958	84.44
431.18	87.44
431.402	93.44
431.624	83.44
431.846	84.44
432.068	86.44
432.29	74.44
432.512	83.44
432.734	87.44
432.956	90.44
433.178	104.44
433.4	104.44
433.622	93.44
433.844	86.44
434.066	89.44
434.287	76.44
434.509	84.44
434.731	95.44
434.953	87.44
435.175	107.44
435.397	99.44
435.618	106.44
435.84	114.44
436.062	147.44
436.284	128.44
436.505	104.44
436.727	108.44
436.949	90.44
437.17	108.44
437.392	105.44
437.614	96.44
437.835	129.44
438.057	146.44
438.278	132.44
438.5	134.44
438.721	147.44
438.943	105.44
439.165	99.44
439.386	87.44
439.608	100.44
439.829	113.44
440.05	170.44
440.272	188.44
440.493	115.44
440.715	107.44
440.936	107.44
441.158	81.44
441.379	101.44
441.6	99.44
441.822	99.44
442.043	111.44
442.264	108.44
442.486	108.44
442.707	113.44
442.928	128.44
443.149	179.44
443.371	182.44
443.592	136.44
443.813	120.44
444.034	112.44
444.255	93.44
444.476	91.44
444.698	86.44
444.919	99.44
445.14	138.44
445.361	132.44
445.582	138.44
445.803	208.44
446.024	196.44
446.245	178.44
446.466	141.44
446.687	83.44
446.908	91.44
447.129	113.44
447.35	103.44
447.571	92.44
447.792	92.44
448.013	113.44
448.234	131.44
448.455	110.44
448.675	148.44
448.896	145.44
449.117	110.44
449.338	114.44
449.559	154.44
449.779	151.44
450	96.44
450.221	111.44
450.442	85.44
450.662	108.44
450.883	134.44
451.104	139.44
451.324	110.44
451.545	95.44
451.766	91.44
451.986	98.44
452.207	97.44
452.428	87.44
452.648	98.44
452.869	133.44
453.089	132.44
453.31	161.44
453.53	114.44
453.751	112.44
453.971	126.44
454.192	134.44
454.412	90.44
454.633	94.44
454.853	89.44
455.073	88.44
455.294	94.44
455.514	113.44
455.734	86.44
455.955	80.44
456.175	88.44
456.395	92.44
456.616	70.44
456.836	92.44
457.056	85.44
457.276	83.44
457.497	85.44
457.717	79.44
457.937	93.44
458.157	85.44
458.377	107.44
458.598	130.44
458.818	228.44
459.038	247.44
459.258	153.44
459.478	95.44
459.698	68.44
459.918	79.44
460.138	92.44
460.358	92.44
460.578	93.44
460.798	83.44
461.018	82.44
461.238	77.44
461.458	83.44
461.678	89.44
461.898	100.44
462.118	100.44
462.338	94.44
462.558	77.44
462.777	95.44
462.997	86.44
463.217	97.44
463.437	84.44
463.657	65.44
463.876	83.44
464.096	88.44
464.316	97.44
464.536	110.44
464.755	105.44
464.975	150.44
465.195	254.44
465.414	256.44
465.634	120.44
465.854	81.44
466.073	89.44
466.293	75.44
466.512	87.44
466.732	98.44
466.951	94.44
467.171	83.44
467.391	92.44
467.61	147.44
467.829	166.44
468.049	351.44
468.268	528.44
468.488	161.44
468.707	98.44
468.927	87.44
469.146	85.44
469.365	107.44
469.585	90.44
469.804	106.44
470.023	106.44
470.243	95.44
470.462	96.44
470.681	146.44
470.901	98.44
471.12	108.44
471.339	107.44
471.558	103.44
471.777	130.44
471.997	217.44
472.216	658.44
472.435	1481.44
472.654	405.44
472.873	141.44
473.092	99.44
473.311	112.44
473.53	94.44
473.749	95.44
473.968	119.44
474.187	138.44
474.406	111.44
474.625	88.44
474.844	101.44
475.063	83.44
475.282	84.44
475.501	90.44
475.72	97.44
475.939	84.44
476.158	79.44
476.377	91.44
476.596	87.44
476.814	91.44
477.033	93.44
477.252	92.44
477.471	92.44
477.69	93.44
477.908	99.44
478.127	93.44
478.346	103.44
478.564	97.44
478.783	98.44
479.002	106.44
479.22	102.44
479.439	118.44
479.658	143.44
479.876	122.44
480.095	105.44
480.313	116.44
480.532	126.44
480.751	194.44
480.969	631.44
481.188	2588.44
481.406	1646.44
481.624	264.44
481.843	131.44
482.061	100.44
482.28	103.44
482.498	90.44
482.717	103.44
482.935	88.44
483.153	88.44
483.372	94.44
483.59	84.44
483.808	92.44
484.027	87.44
484.245	88.44
484.463	98.44
484.681	102.44
484.9	78.44
485.118	96.44
485.336	87.44
485.554	104.44
485.772	99.44
485.99	92.44
486.209	98.44
486.427	105.44
486.645	129.44
486.863	134.44
487.081	110.44
487.299	92.44
487.517	82.44
487.735	90.44
487.953	105.44
488.171	95.44
488.389	113.44
488.607	110.44
488.825	82.44
489.043	74.44
489.261	101.44
489.479	95.44
489.696	87.44
489.914	84.44
490.132	86.44
490.35	90.44
490.568	66.44
490.786	74.44
491.003	85.44
491.221	94.44
491.439	95.44
491.657	93.44
491.874	84.44
492.092	86.44
492.31	86.44
492.527	95.44
492.745	90.44
492.963	97.44
493.18	82.44
493.398	78.44
493.615	87.44
493.833	88.44
494.05	99.44
494.268	90.44
494.485	88.44
494.703	91.44
494.92	70.44
495.138	77.44
495.355	95.44
495.573	95.44
495.79	90.44
496.008	99.44
496.225	84.44
496.442	86.44
496.66	93.44
496.877	91.44
497.094	88.44
497.312	80.44
497.529	80.44
497.746	95.44
497.963	93.44
498.181	92.44
498.398	112.44
498.615	107.44
498.832	113.44
499.049	98.44
499.267	93.44
499.484	96.44
499.701	92.44
499.918	86.44
500.135	92.44
500.352	70.44
500.569	79.44
500.786	99.44
501.003	92.44
501.22	89.44
501.437	91.44
501.654	94.44
501.871	142.44
502.088	98.44
502.305	94.44
502.522	80.44
502.739	87.44
502.956	82.44
503.172	95.44
503.389	96.44
503.606	139.44
503.823	123.44
504.04	107.44
504.256	103.44
504.473	87.44
504.69	86.44
504.907	105.44
505.123	92.44
505.34	89.44
505.557	88.44
505.773	102.44
505.99	86.44
506.207	85.44
506.423	84.44
506.64	98.44
506.856	72.44
507.073	86.44
507.289	105.44
507.506	103.44
507.722	135.44
507.939	130.44
508.155	93.44
508.372	95.44
508.588	99.44
508.805	106.44
509.021	104.44
509.238	116.44
509.454	110.44
509.67	105.44
509.887	116.44
510.103	160.44
510.319	222.44
510.536	926.44
510.752	3162.44
510.968	883.44
511.184	193.44
511.401	125.44
511.617	110.44
511.833	107.44
512.049	98.44
512.265	91.44
512.481	97.44
512.698	99.44
512.914	88.44
513.13	102.44
