Data from Circ_2007_H10_HRD10591_00026.txt Node
Date: Wed Jan 03 10:22:02 EST 2024
User: Yrep
Spectrometer: HR+D1059
Trigger mode: 1
Integration Time (sec): 1.000000E-1
Scans to average: 1
Electric dark correction enabled: true
Nonlinearity correction enabled: false
Boxcar width: 0
XAxis mode: Wavelengths
Number of Pixels in Spectrum: 2048
>>>>>Begin Spectral Data<<<<<
223.165	-22.06
223.4	-22.06
223.635	-22.06
223.869	-16.06
224.104	-16.06
224.338	-16.06
224.573	-20.06
224.808	-13.06
225.042	-11.06
225.277	1.94
225.511	-7.06
225.746	-2.06
225.98	5.94
226.215	14.94
226.449	21.94
226.683	14.94
226.918	36.94
227.152	26.94
227.387	26.94
227.621	37.94
227.856	34.94
228.09	36.94
228.324	57.94
228.559	61.94
228.793	42.94
229.027	62.94
229.262	62.94
229.496	54.94
229.73	81.94
229.964	80.94
230.199	56.94
230.433	64.94
230.667	66.94
230.901	62.94
231.136	75.94
231.37	73.94
231.604	67.94
231.838	68.94
232.072	82.94
232.306	87.94
232.541	80.94
232.775	85.94
233.009	72.94
233.243	79.94
233.477	71.94
233.711	82.94
233.945	77.94
234.179	76.94
234.413	74.94
234.647	68.94
234.881	69.94
235.115	67.94
235.349	64.94
235.583	64.94
235.817	58.94
236.051	76.94
236.285	93.94
236.519	78.94
236.753	80.94
236.987	80.94
237.221	61.94
237.455	79.94
237.689	78.94
237.922	77.94
238.156	63.94
238.39	72.94
238.624	69.94
238.858	79.94
239.091	80.94
239.325	78.94
239.559	57.94
239.793	83.94
240.027	85.94
240.26	67.94
240.494	74.94
240.728	69.94
240.961	73.94
241.195	73.94
241.429	75.94
241.662	64.94
241.896	69.94
242.13	58.94
242.363	65.94
242.597	64.94
242.83	59.94
243.064	67.94
243.298	68.94
243.531	82.94
243.765	73.94
243.998	72.94
244.232	77.94
244.465	80.94
244.699	74.94
244.932	68.94
245.166	70.94
245.399	84.94
245.633	81.94
245.866	62.94
246.099	73.94
246.333	62.94
246.566	61.94
246.8	66.94
247.033	76.94
247.266	70.94
247.5	74.94
247.733	72.94
247.966	68.94
248.2	71.94
248.433	76.94
248.666	77.94
248.899	81.94
249.133	77.94
249.366	94.94
249.599	90.94
249.832	77.94
250.066	77.94
250.299	76.94
250.532	76.94
250.765	81.94
250.998	88.94
251.231	73.94
251.465	67.94
251.698	81.94
251.931	68.94
252.164	74.94
252.397	65.94
252.63	78.94
252.863	86.94
253.096	67.94
253.329	77.94
253.562	77.94
253.795	95.94
254.028	81.94
254.261	73.94
254.494	72.94
254.727	82.94
254.96	71.94
255.193	85.94
255.426	70.94
255.659	85.94
255.892	67.94
256.124	88.94
256.357	74.94
256.59	70.94
256.823	86.94
257.056	89.94
257.289	63.94
257.521	85.94
257.754	80.94
257.987	66.94
258.22	86.94
258.452	84.94
258.685	90.94
258.918	65.94
259.151	95.94
259.383	89.94
259.616	89.94
259.849	73.94
260.081	79.94
260.314	72.94
260.547	73.94
260.779	81.94
261.012	84.94
261.244	90.94
261.477	93.94
261.71	96.94
261.942	101.94
262.175	103.94
262.407	73.94
262.64	80.94
262.872	82.94
263.105	74.94
263.337	87.94
263.57	74.94
263.802	80.94
264.035	79.94
264.267	80.94
264.499	78.94
264.732	78.94
264.964	64.94
265.197	92.94
265.429	68.94
265.661	77.94
265.894	70.94
266.126	80.94
266.358	81.94
266.591	80.94
266.823	82.94
267.055	77.94
267.287	68.94
267.52	65.94
267.752	88.94
267.984	81.94
268.216	80.94
268.448	74.94
268.681	89.94
268.913	83.94
269.145	83.94
269.377	85.94
269.609	73.94
269.841	65.94
270.073	61.94
270.306	81.94
270.538	69.94
270.77	70.94
271.002	77.94
271.234	80.94
271.466	68.94
271.698	74.94
271.93	87.94
272.162	82.94
272.394	84.94
272.626	69.94
272.858	72.94
273.09	65.94
273.322	86.94
273.553	82.94
273.785	88.94
274.017	86.94
274.249	84.94
274.481	81.94
274.713	86.94
274.945	69.94
275.176	88.94
275.408	76.94
275.64	89.94
275.872	92.94
276.104	88.94
276.335	77.94
276.567	80.94
276.799	110.94
277.031	97.94
277.262	102.94
277.494	94.94
277.726	89.94
277.957	85.94
278.189	79.94
278.421	76.94
278.652	76.94
278.884	102.94
279.115	92.94
279.347	82.94
279.579	87.94
279.81	97.94
280.042	111.94
280.273	119.94
280.505	92.94
280.736	78.94
280.968	81.94
281.199	78.94
281.431	78.94
281.662	73.94
281.894	82.94
282.125	82.94
282.356	111.94
282.588	115.94
282.819	124.94
283.051	102.94
283.282	78.94
283.513	74.94
283.745	84.94
283.976	81.94
284.207	76.94
284.439	80.94
284.67	78.94
284.901	80.94
285.132	81.94
285.364	84.94
285.595	84.94
285.826	78.94
286.057	84.94
286.288	75.94
286.52	81.94
286.751	88.94
286.982	68.94
287.213	72.94
287.444	92.94
287.675	78.94
287.906	84.94
288.138	84.94
288.369	87.94
288.6	92.94
288.831	92.94
289.062	90.94
289.293	89.94
289.524	71.94
289.755	73.94
289.986	68.94
290.217	77.94
290.448	82.94
290.679	77.94
290.91	97.94
291.141	85.94
291.371	79.94
291.602	88.94
291.833	84.94
292.064	95.94
292.295	79.94
292.526	91.94
292.757	81.94
292.987	91.94
293.218	73.94
293.449	79.94
293.68	94.94
293.91	86.94
294.141	81.94
294.372	82.94
294.603	89.94
294.833	86.94
295.064	82.94
295.295	89.94
295.525	79.94
295.756	91.94
295.987	100.94
296.217	124.94
296.448	128.94
296.679	98.94
296.909	82.94
297.14	81.94
297.37	85.94
297.601	87.94
297.831	91.94
298.062	73.94
298.292	89.94
298.523	87.94
298.753	75.94
298.984	88.94
299.214	83.94
299.445	100.94
299.675	80.94
299.905	78.94
300.136	88.94
300.366	81.94
300.597	91.94
300.827	86.94
301.057	100.94
301.288	88.94
301.518	77.94
301.748	90.94
301.979	95.94
302.209	92.94
302.439	89.94
302.669	91.94
302.9	87.94
303.13	81.94
303.36	86.94
303.59	103.94
303.82	97.94
304.051	88.94
304.281	94.94
304.511	80.94
304.741	81.94
304.971	91.94
305.201	85.94
305.431	61.94
305.661	82.94
305.891	92.94
306.121	87.94
306.352	89.94
306.582	96.94
306.812	87.94
307.042	88.94
307.272	110.94
307.502	119.94
307.731	102.94
307.961	86.94
308.191	92.94
308.421	80.94
308.651	85.94
308.881	93.94
309.111	91.94
309.341	99.94
309.571	93.94
309.8	97.94
310.03	103.94
310.26	97.94
310.49	101.94
310.72	100.94
310.949	90.94
311.179	96.94
311.409	88.94
311.639	98.94
311.868	104.94
312.098	96.94
312.328	97.94
312.557	105.94
312.787	101.94
313.017	104.94
313.246	94.94
313.476	94.94
313.706	90.94
313.935	88.94
314.165	94.94
314.394	97.94
314.624	110.94
314.853	87.94
315.083	79.94
315.312	87.94
315.542	82.94
315.771	84.94
316.001	98.94
316.23	95.94
316.46	81.94
316.689	101.94
316.919	83.94
317.148	87.94
317.377	98.94
317.607	102.94
317.836	84.94
318.065	96.94
318.295	94.94
318.524	79.94
318.753	88.94
318.983	87.94
319.212	87.94
319.441	100.94
319.67	102.94
319.9	98.94
320.129	87.94
320.358	84.94
320.587	93.94
320.816	105.94
321.046	107.94
321.275	94.94
321.504	91.94
321.733	90.94
321.962	101.94
322.191	94.94
322.42	98.94
322.649	111.94
322.878	114.94
323.108	93.94
323.337	121.94
323.566	134.94
323.795	153.94
324.024	203.94
324.253	397.94
324.482	810.94
324.71	1720.94
324.939	2247.94
325.168	842.94
325.397	251.94
325.626	152.94
325.855	112.94
326.084	112.94
326.313	133.94
326.542	154.94
326.77	231.94
326.999	460.94
327.228	941.94
327.457	1724.94
327.686	1383.94
327.914	394.94
328.143	256.94
328.372	244.94
328.6	170.94
328.829	130.94
329.058	130.94
329.287	116.94
329.515	119.94
329.744	136.94
329.972	173.94
330.201	317.94
330.43	436.94
330.658	238.94
330.887	165.94
331.115	122.94
331.344	97.94
331.572	90.94
331.801	114.94
332.03	96.94
332.258	106.94
332.486	98.94
332.715	95.94
332.943	90.94
333.172	98.94
333.4	103.94
333.629	120.94
333.857	132.94
334.085	193.94
334.314	314.94
334.542	551.94
334.771	540.94
334.999	184.94
335.227	114.94
335.455	101.94
335.684	106.94
335.912	95.94
336.14	88.94
336.369	93.94
336.597	93.94
336.825	96.94
337.053	94.94
337.281	99.94
337.51	82.94
337.738	93.94
337.966	89.94
338.194	85.94
338.422	100.94
338.65	91.94
338.878	72.94
339.106	87.94
339.334	86.94
339.562	82.94
339.79	92.94
340.018	100.94
340.246	90.94
340.474	97.94
340.702	90.94
340.93	85.94
341.158	77.94
341.386	90.94
341.614	101.94
341.842	93.94
342.07	76.94
342.298	79.94
342.526	86.94
342.754	94.94
342.981	110.94
343.209	82.94
343.437	89.94
343.665	81.94
343.893	80.94
344.12	90.94
344.348	101.94
344.576	100.94
344.804	82.94
345.031	97.94
345.259	80.94
345.487	90.94
345.714	81.94
345.942	76.94
346.17	97.94
346.397	105.94
346.625	90.94
346.853	95.94
347.08	96.94
347.308	98.94
347.535	86.94
347.763	103.94
347.99	95.94
348.218	78.94
348.445	106.94
348.673	106.94
348.9	79.94
349.128	76.94
349.355	83.94
349.583	92.94
349.81	93.94
350.037	88.94
350.265	93.94
350.492	81.94
350.72	91.94
350.947	84.94
351.174	93.94
351.402	98.94
351.629	91.94
351.856	91.94
352.083	91.94
352.311	97.94
352.538	109.94
352.765	102.94
352.992	109.94
353.22	112.94
353.447	104.94
353.674	92.94
353.901	84.94
354.128	90.94
354.355	91.94
354.583	97.94
354.81	92.94
355.037	71.94
355.264	85.94
355.491	84.94
355.718	89.94
355.945	87.94
356.172	98.94
356.399	112.94
356.626	96.94
356.853	98.94
357.08	86.94
357.307	73.94
357.534	82.94
357.761	101.94
357.988	97.94
358.215	99.94
358.441	89.94
358.668	89.94
358.895	83.94
359.122	93.94
359.349	96.94
359.576	98.94
359.802	101.94
360.029	100.94
360.256	107.94
360.483	105.94
360.709	84.94
360.936	82.94
361.163	96.94
361.39	105.94
361.616	83.94
361.843	93.94
362.07	81.94
362.296	85.94
362.523	87.94
362.749	106.94
362.976	97.94
363.203	89.94
363.429	93.94
363.656	89.94
363.882	98.94
364.109	94.94
364.335	91.94
364.562	96.94
364.788	98.94
365.015	89.94
365.241	102.94
365.468	100.94
365.694	100.94
365.92	88.94
366.147	78.94
366.373	87.94
366.599	99.94
366.826	92.94
367.052	74.94
367.278	85.94
367.505	78.94
367.731	92.94
367.957	89.94
368.184	89.94
368.41	78.94
368.636	99.94
368.862	116.94
369.089	97.94
369.315	94.94
369.541	85.94
369.767	82.94
369.993	93.94
370.219	82.94
370.445	85.94
370.672	74.94
370.898	99.94
371.124	77.94
371.35	83.94
371.576	76.94
371.802	92.94
372.028	86.94
372.254	72.94
372.48	91.94
372.706	97.94
372.932	92.94
373.158	68.94
373.384	89.94
373.61	96.94
373.835	96.94
374.061	67.94
374.287	90.94
374.513	88.94
374.739	81.94
374.965	90.94
375.191	95.94
375.416	90.94
375.642	86.94
375.868	83.94
376.094	85.94
376.319	91.94
376.545	88.94
376.771	89.94
376.997	92.94
377.222	90.94
377.448	85.94
377.674	101.94
377.899	91.94
378.125	79.94
378.35	88.94
378.576	80.94
378.802	81.94
379.027	85.94
379.253	92.94
379.478	84.94
379.704	91.94
379.929	97.94
380.155	86.94
380.38	90.94
380.606	90.94
380.831	113.94
381.057	89.94
381.282	94.94
381.507	92.94
381.733	99.94
381.958	95.94
382.184	98.94
382.409	98.94
382.634	93.94
382.86	93.94
383.085	96.94
383.31	103.94
383.535	100.94
383.761	106.94
383.986	113.94
384.211	105.94
384.436	111.94
384.662	103.94
384.887	106.94
385.112	101.94
385.337	106.94
385.562	98.94
385.787	107.94
386.013	111.94
386.238	115.94
386.463	112.94
386.688	98.94
386.913	92.94
387.138	97.94
387.363	106.94
387.588	105.94
387.813	93.94
388.038	100.94
388.263	100.94
388.488	114.94
388.713	100.94
388.938	97.94
389.163	97.94
389.387	85.94
389.612	94.94
389.837	112.94
390.062	85.94
390.287	87.94
390.512	81.94
390.736	84.94
390.961	81.94
391.186	94.94
391.411	87.94
391.636	87.94
391.86	81.94
392.085	94.94
392.31	83.94
392.534	80.94
392.759	86.94
392.984	77.94
393.208	96.94
393.433	92.94
393.658	95.94
393.882	90.94
394.107	79.94
394.331	82.94
394.556	94.94
394.78	85.94
395.005	73.94
395.229	93.94
395.454	84.94
395.678	85.94
395.903	79.94
396.127	77.94
396.352	86.94
396.576	93.94
396.801	86.94
397.025	93.94
397.249	93.94
397.474	91.94
397.698	89.94
397.922	78.94
398.147	84.94
398.371	85.94
398.595	97.94
398.82	82.94
399.044	86.94
399.268	77.94
399.492	89.94
399.717	83.94
399.941	78.94
400.165	82.94
400.389	67.94
400.613	80.94
400.837	87.94
401.062	78.94
401.286	88.94
401.51	72.94
401.734	74.94
401.958	97.94
402.182	120.94
402.406	127.94
402.63	121.94
402.854	81.94
403.078	87.94
403.302	93.94
403.526	85.94
403.75	88.94
403.974	79.94
404.198	94.94
404.422	70.94
404.645	82.94
404.869	97.94
405.093	105.94
405.317	106.94
405.541	101.94
405.765	100.94
405.988	114.94
406.212	169.94
406.436	233.94
406.66	145.94
406.883	88.94
407.107	88.94
407.331	101.94
407.555	77.94
407.778	85.94
408.002	81.94
408.226	93.94
408.449	92.94
408.673	91.94
408.896	100.94
409.12	94.94
409.344	89.94
409.567	87.94
409.791	72.94
410.014	101.94
410.238	90.94
410.461	88.94
410.685	105.94
410.908	95.94
411.132	95.94
411.355	86.94
411.578	82.94
411.802	93.94
412.025	76.94
412.249	95.94
412.472	101.94
412.695	113.94
412.919	103.94
413.142	89.94
413.365	79.94
413.589	76.94
413.812	80.94
414.035	84.94
414.258	100.94
414.482	85.94
414.705	90.94
414.928	96.94
415.151	89.94
415.374	87.94
415.597	81.94
415.821	91.94
416.044	84.94
416.267	85.94
416.49	85.94
416.713	91.94
416.936	89.94
417.159	79.94
417.382	84.94
417.605	75.94
417.828	101.94
418.051	103.94
418.274	83.94
418.497	99.94
418.72	93.94
418.943	87.94
419.166	89.94
419.389	71.94
419.611	90.94
419.834	95.94
420.057	85.94
420.28	91.94
420.503	89.94
420.726	83.94
420.948	87.94
421.171	86.94
421.394	85.94
421.617	95.94
421.839	88.94
422.062	83.94
422.285	101.94
422.507	80.94
422.73	102.94
422.953	79.94
423.175	86.94
423.398	81.94
423.621	93.94
423.843	83.94
424.066	90.94
424.288	86.94
424.511	92.94
424.733	89.94
424.956	105.94
425.178	91.94
425.401	87.94
425.623	106.94
425.846	92.94
426.068	100.94
426.291	92.94
426.513	74.94
426.735	91.94
426.958	74.94
427.18	103.94
427.402	136.94
427.625	169.94
427.847	164.94
428.069	166.94
428.292	103.94
428.514	81.94
428.736	79.94
428.958	82.94
429.181	79.94
429.403	89.94
429.625	92.94
429.847	90.94
430.069	93.94
430.292	79.94
430.514	83.94
430.736	88.94
430.958	91.94
431.18	78.94
431.402	78.94
431.624	97.94
431.846	78.94
432.068	85.94
432.29	88.94
432.512	79.94
432.734	92.94
432.956	102.94
433.178	91.94
433.4	97.94
433.622	85.94
433.844	89.94
434.066	85.94
434.287	76.94
434.509	75.94
434.731	87.94
434.953	87.94
435.175	88.94
435.397	94.94
435.618	97.94
435.84	88.94
436.062	113.94
436.284	122.94
436.505	103.94
436.727	109.94
436.949	83.94
437.17	89.94
437.392	84.94
437.614	87.94
437.835	95.94
438.057	120.94
438.278	114.94
438.5	80.94
438.721	126.94
438.943	98.94
439.165	93.94
439.386	76.94
439.608	86.94
439.829	108.94
440.05	130.94
440.272	145.94
440.493	85.94
440.715	89.94
440.936	86.94
441.158	90.94
441.379	89.94
441.6	93.94
441.822	89.94
442.043	99.94
442.264	106.94
442.486	90.94
442.707	74.94
442.928	103.94
443.149	142.94
443.371	126.94
443.592	97.94
443.813	107.94
444.034	102.94
444.255	86.94
444.476	73.94
444.698	72.94
444.919	77.94
445.14	124.94
445.361	122.94
445.582	111.94
445.803	137.94
446.024	130.94
446.245	154.94
446.466	108.94
446.687	85.94
446.908	80.94
447.129	68.94
447.35	74.94
447.571	87.94
447.792	78.94
448.013	60.94
448.234	93.94
448.455	104.94
448.675	109.94
448.896	112.94
449.117	103.94
449.338	93.94
449.559	124.94
449.779	135.94
450	95.94
450.221	77.94
450.442	83.94
450.662	86.94
450.883	108.94
451.104	93.94
451.324	96.94
451.545	94.94
451.766	90.94
451.986	83.94
452.207	92.94
452.428	84.94
452.648	98.94
452.869	112.94
453.089	106.94
453.31	112.94
453.53	94.94
453.751	90.94
453.971	104.94
454.192	108.94
454.412	92.94
454.633	101.94
454.853	97.94
455.073	81.94
455.294	88.94
455.514	83.94
455.734	78.94
455.955	102.94
456.175	72.94
456.395	79.94
456.616	77.94
456.836	86.94
457.056	95.94
457.276	80.94
457.497	78.94
457.717	86.94
457.937	62.94
458.157	81.94
458.377	108.94
458.598	112.94
458.818	151.94
459.038	168.94
459.258	107.94
459.478	82.94
459.698	84.94
459.918	72.94
460.138	73.94
460.358	64.94
460.578	89.94
460.798	85.94
461.018	89.94
461.238	85.94
461.458	79.94
461.678	88.94
461.898	85.94
462.118	104.94
462.338	76.94
462.558	75.94
462.777	82.94
462.997	85.94
463.217	94.94
463.437	89.94
463.657	74.94
463.876	88.94
464.096	79.94
464.316	86.94
464.536	94.94
464.755	76.94
464.975	100.94
465.195	159.94
465.414	172.94
465.634	100.94
465.854	88.94
466.073	84.94
466.293	78.94
466.512	72.94
466.732	79.94
466.951	83.94
467.171	94.94
467.391	91.94
467.61	112.94
467.829	106.94
468.049	200.94
468.268	265.94
468.488	111.94
468.707	67.94
468.927	81.94
469.146	81.94
469.365	88.94
469.585	94.94
469.804	89.94
470.023	102.94
470.243	95.94
470.462	90.94
470.681	103.94
470.901	76.94
471.12	88.94
471.339	103.94
471.558	101.94
471.777	88.94
471.997	157.94
472.216	338.94
472.435	713.94
472.654	204.94
472.873	94.94
473.092	94.94
473.311	80.94
473.53	81.94
473.749	81.94
473.968	85.94
474.187	107.94
474.406	81.94
474.625	73.94
474.844	85.94
475.063	88.94
475.282	88.94
475.501	79.94
475.72	85.94
475.939	74.94
476.158	79.94
476.377	91.94
476.596	76.94
476.814	84.94
477.033	85.94
477.252	85.94
477.471	82.94
477.69	76.94
477.908	91.94
478.127	90.94
478.346	79.94
478.564	105.94
478.783	90.94
479.002	88.94
479.22	87.94
479.439	107.94
479.658	105.94
479.876	80.94
480.095	92.94
480.313	93.94
480.532	113.94
480.751	133.94
480.969	344.94
481.188	1164.94
481.406	729.94
481.624	154.94
481.843	103.94
482.061	86.94
482.28	94.94
482.498	88.94
482.717	85.94
482.935	79.94
483.153	67.94
483.372	74.94
483.59	81.94
483.808	85.94
484.027	97.94
484.245	85.94
484.463	102.94
484.681	85.94
484.9	94.94
485.118	87.94
485.336	99.94
485.554	102.94
485.772	101.94
485.99	116.94
486.209	92.94
486.427	96.94
486.645	98.94
486.863	98.94
487.081	104.94
487.299	98.94
487.517	82.94
487.735	83.94
487.953	84.94
488.171	92.94
488.389	96.94
488.607	88.94
488.825	94.94
489.043	105.94
489.261	80.94
489.479	84.94
489.696	85.94
489.914	69.94
490.132	81.94
490.35	85.94
490.568	86.94
490.786	78.94
491.003	84.94
491.221	93.94
491.439	85.94
491.657	93.94
491.874	79.94
492.092	76.94
492.31	88.94
492.527	90.94
492.745	95.94
492.963	80.94
493.18	95.94
493.398	97.94
493.615	93.94
493.833	96.94
494.05	88.94
494.268	81.94
494.485	86.94
494.703	74.94
494.92	83.94
495.138	89.94
495.355	95.94
495.573	81.94
495.79	91.94
496.008	97.94
496.225	84.94
496.442	78.94
496.66	97.94
496.877	84.94
497.094	89.94
497.312	85.94
497.529	88.94
497.746	77.94
497.963	98.94
498.181	96.94
498.398	80.94
498.615	111.94
498.832	95.94
499.049	94.94
499.267	104.94
499.484	73.94
499.701	89.94
499.918	95.94
500.135	83.94
500.352	77.94
500.569	90.94
500.786	91.94
501.003	90.94
501.22	88.94
501.437	90.94
501.654	80.94
501.871	110.94
502.088	77.94
502.305	97.94
502.522	74.94
502.739	87.94
502.956	85.94
503.172	91.94
503.389	78.94
503.606	92.94
503.823	89.94
504.04	81.94
504.256	87.94
504.473	79.94
504.69	82.94
504.907	71.94
505.123	88.94
505.34	88.94
505.557	82.94
505.773	82.94
505.99	86.94
506.207	88.94
506.423	85.94
506.64	75.94
506.856	86.94
507.073	88.94
507.289	91.94
507.506	103.94
507.722	116.94
507.939	104.94
508.155	101.94
508.372	87.94
508.588	95.94
508.805	97.94
509.021	94.94
509.238	100.94
509.454	88.94
509.67	99.94
509.887	95.94
510.103	138.94
510.319	193.94
510.536	722.94
510.752	2296.94
510.968	675.94
511.184	150.94
511.401	96.94
511.617	102.94
511.833	98.94
512.049	98.94
512.265	74.94
512.481	89.94
512.698	80.94
512.914	87.94
513.13	87.94
513.346	90.94
513.562	72.94
513.778	79.94
513.994	89.94
514.21	101.94
514.426	103.94
514.642	128.94
514.858	134.94
515.074	156.94
515.29	462.94
515.506	1544.94
515.721	587.94
515.937	165.94
516.153	102.94
