Data from Circ_2007_H10_HRD10591_00061.txt Node
Date: Wed Jan 03 10:22:09 EST 2024
User: Yrep
Spectrometer: HR+D1059
Trigger mode: 1
Integration Time (sec): 1.000000E-1
Scans to average: 1
Electric dark correction enabled: true
Nonlinearity correction enabled: false
Boxcar width: 0
XAxis mode: Wavelengths
Number of Pixels in Spectrum: 2048
>>>>>Begin Spectral Data<<<<<
223.165	-3.94
223.4	-3.94
223.635	-3.94
223.869	-28.94
224.104	-17.94
224.338	-15.94
224.573	-17.94
224.808	-15.94
225.042	-1.94
225.277	-6.94
225.511	-8.94
225.746	11.06
225.98	-3.94
226.215	18.06
226.449	18.06
226.683	33.06
226.918	21.06
227.152	21.06
227.387	34.06
227.621	45.06
227.856	33.06
228.09	40.06
228.324	46.06
228.559	61.06
228.793	169.06
229.027	433.06
229.262	492.06
229.496	584.06
229.73	805.06
229.964	807.06
230.199	540.06
230.433	477.06
230.667	452.06
230.901	461.06
231.136	433.06
231.37	437.06
231.604	447.06
231.838	458.06
232.072	450.06
232.306	473.06
232.541	450.06
232.775	473.06
233.009	456.06
233.243	479.06
233.477	496.06
233.711	495.06
233.945	487.06
234.179	520.06
234.413	503.06
234.647	493.06
234.881	515.06
235.115	521.06
235.349	530.06
235.583	557.06
235.817	568.06
236.051	651.06
236.285	606.06
236.519	608.06
236.753	697.06
236.987	877.06
237.221	1371.06
237.455	1519.06
237.689	876.06
237.922	728.06
238.156	699.06
238.39	667.06
238.624	648.06
238.858	649.06
239.091	658.06
239.325	668.06
239.559	690.06
239.793	725.06
240.027	773.06
240.26	903.06
240.494	966.06
240.728	959.06
240.961	880.06
241.195	810.06
241.429	778.06
241.662	744.06
241.896	777.06
242.13	783.06
242.363	781.06
242.597	779.06
242.83	812.06
243.064	836.06
243.298	827.06
243.531	847.06
243.765	860.06
243.998	879.06
244.232	889.06
244.465	909.06
244.699	919.06
244.932	903.06
245.166	915.06
245.399	922.06
245.633	907.06
245.866	925.06
246.099	925.06
246.333	936.06
246.566	962.06
246.8	990.06
247.033	1032.06
247.266	1065.06
247.5	1114.06
247.733	1155.06
247.966	1133.06
248.2	1147.06
248.433	1173.06
248.666	1240.06
248.899	1392.06
249.133	1499.06
249.366	1461.06
249.599	1427.06
249.832	1360.06
250.066	1490.06
250.299	1902.06
250.532	2427.06
250.765	2368.06
250.998	2129.06
251.231	1801.06
251.465	1599.06
251.698	1500.06
251.931	1486.06
252.164	1435.06
252.397	1430.06
252.63	1505.06
252.863	1556.06
253.096	1669.06
253.329	1731.06
253.562	1627.06
253.795	1551.06
254.028	1577.06
254.261	1656.06
254.494	1860.06
254.727	2216.06
254.96	2267.06
255.193	2050.06
255.426	2032.06
255.659	2359.06
255.892	3307.06
256.124	4255.06
256.357	3525.06
256.59	2523.06
256.823	2107.06
257.056	1906.06
257.289	1852.06
257.521	1773.06
257.754	1687.06
257.987	1655.06
258.22	1633.06
258.452	1659.06
258.685	1636.06
258.918	1662.06
259.151	1690.06
259.383	1722.06
259.616	1728.06
259.849	1787.06
260.081	1952.06
260.314	2103.06
260.547	2000.06
260.779	1833.06
261.012	1783.06
261.244	1791.06
261.477	1730.06
261.71	1715.06
261.942	1865.06
262.175	1866.06
262.407	1801.06
262.64	1693.06
262.872	1672.06
263.105	1698.06
263.337	1684.06
263.57	1645.06
263.802	1687.06
264.035	1707.06
264.267	1677.06
264.499	1675.06
264.732	1709.06
264.964	1716.06
265.197	1760.06
265.429	1730.06
265.661	1745.06
265.894	1779.06
266.126	1792.06
266.358	1809.06
266.591	1812.06
266.823	1918.06
267.055	1880.06
267.287	1878.06
267.52	1803.06
267.752	1842.06
267.984	1841.06
268.216	1891.06
268.448	1923.06
268.681	2014.06
268.913	2160.06
269.145	2343.06
269.377	2331.06
269.609	2200.06
269.841	2224.06
270.073	2356.06
270.306	2606.06
270.538	2725.06
270.77	2570.06
271.002	2420.06
271.234	2384.06
271.466	2561.06
271.698	2712.06
271.93	2701.06
272.162	2697.06
272.394	2548.06
272.626	2465.06
272.858	2380.06
273.09	2304.06
273.322	2270.06
273.553	2205.06
273.785	2261.06
274.017	2267.06
274.249	2269.06
274.481	2323.06
274.713	2317.06
274.945	2386.06
275.176	2342.06
275.408	2360.06
275.64	2455.06
275.872	2445.06
276.104	2482.06
276.335	2488.06
276.567	2575.06
276.799	2823.06
277.031	3166.06
277.262	3255.06
277.494	3083.06
277.726	2779.06
277.957	2658.06
278.189	2613.06
278.421	2546.06
278.652	2521.06
278.884	2497.06
279.115	2500.06
279.347	2521.06
279.579	2545.06
279.81	2626.06
280.042	2824.06
280.273	2978.06
280.505	2917.06
280.736	2715.06
280.968	2624.06
281.199	2588.06
281.431	2612.06
281.662	2607.06
281.894	2582.06
282.125	2601.06
282.356	2824.06
282.588	3030.06
282.819	2822.06
283.051	2668.06
283.282	2608.06
283.513	2637.06
283.745	2635.06
283.976	2711.06
284.207	2727.06
284.439	2654.06
284.67	2651.06
284.901	2643.06
285.132	2627.06
285.364	2652.06
285.595	2671.06
285.826	2707.06
286.057	2690.06
286.288	2733.06
286.52	2738.06
286.751	2757.06
286.982	2763.06
287.213	2789.06
287.444	2800.06
287.675	2841.06
287.906	2937.06
288.138	2965.06
288.369	2928.06
288.6	2935.06
288.831	2927.06
289.062	2858.06
289.293	2910.06
289.524	2885.06
289.755	2825.06
289.986	2874.06
290.217	2799.06
290.448	2814.06
290.679	2872.06
290.91	2859.06
291.141	2836.06
291.371	2859.06
291.602	2845.06
291.833	2793.06
292.064	2840.06
292.295	2883.06
292.526	2900.06
292.757	2856.06
292.987	2841.06
293.218	2852.06
293.449	2880.06
293.68	2837.06
293.91	2887.06
294.141	2854.06
294.372	2869.06
294.603	2889.06
294.833	2892.06
295.064	2918.06
295.295	2880.06
295.525	2919.06
295.756	3009.06
295.987	3052.06
296.217	3275.06
296.448	3158.06
296.679	2997.06
296.909	2957.06
297.14	2981.06
297.37	2981.06
297.601	3047.06
297.831	3018.06
298.062	3027.06
298.292	3043.06
298.523	3169.06
298.753	3154.06
298.984	3101.06
299.214	3137.06
299.445	3104.06
299.675	3097.06
299.905	3238.06
300.136	3204.06
300.366	3190.06
300.597	3218.06
300.827	3262.06
301.057	3379.06
301.288	3412.06
301.518	3403.06
301.748	3384.06
301.979	3435.06
302.209	3492.06
302.439	3477.06
302.669	3317.06
302.9	3362.06
303.13	3347.06
303.36	3389.06
303.59	3438.06
303.82	3546.06
304.051	3475.06
304.281	3406.06
304.511	3371.06
304.741	3329.06
304.971	3326.06
305.201	3286.06
305.431	3267.06
305.661	3318.06
305.891	3273.06
306.121	3299.06
306.352	3415.06
306.582	3392.06
306.812	3240.06
307.042	3432.06
307.272	3503.06
307.502	3584.06
307.731	3515.06
307.961	3413.06
308.191	3341.06
308.421	3345.06
308.651	3333.06
308.881	3370.06
309.111	3419.06
309.341	3409.06
309.571	3523.06
309.8	3593.06
310.03	3652.06
310.26	3679.06
310.49	3655.06
310.72	3783.06
310.949	3899.06
311.179	3929.06
311.409	3705.06
311.639	3785.06
311.868	3701.06
312.098	3685.06
312.328	3866.06
312.557	4079.06
312.787	4137.06
313.017	4036.06
313.246	3828.06
313.476	3738.06
313.706	3827.06
313.935	3872.06
314.165	4031.06
314.394	4040.06
314.624	4018.06
314.853	3869.06
315.083	3824.06
315.312	3801.06
315.542	3781.06
315.771	3701.06
316.001	3650.06
316.23	3769.06
316.46	3737.06
316.689	3796.06
316.919	3819.06
317.148	3854.06
317.377	3867.06
317.607	3804.06
317.836	3860.06
318.065	3807.06
318.295	3754.06
318.524	3744.06
318.753	3732.06
318.983	3759.06
319.212	3757.06
319.441	3833.06
319.67	3859.06
319.9	3791.06
320.129	3771.06
320.358	3776.06
320.587	3772.06
320.816	3915.06
321.046	3973.06
321.275	3896.06
321.504	3921.06
321.733	4000.06
321.962	4007.06
322.191	4202.06
322.42	4307.06
322.649	4332.06
322.878	4482.06
323.108	4511.06
323.337	4877.06
323.566	5033.06
323.795	5385.06
324.024	5894.06
324.253	7905.06
324.482	12126.06
324.71	15605.06
324.939	15605.06
325.168	13839.06
325.397	6903.06
325.626	5552.06
325.855	5198.06
326.084	5042.06
326.313	5131.06
326.542	5368.06
326.77	6147.06
326.999	7870.06
327.228	11677.06
327.457	15533.06
327.686	14984.06
327.914	9036.06
328.143	8372.06
328.372	8823.06
328.6	7385.06
328.829	6514.06
329.058	6626.06
329.287	6750.06
329.515	6668.06
329.744	7211.06
329.972	8855.06
330.201	11428.06
330.43	12928.06
330.658	9779.06
330.887	7986.06
331.115	6795.06
331.344	6022.06
331.572	5768.06
331.801	5866.06
332.03	5763.06
332.258	5660.06
332.486	5657.06
332.715	5877.06
332.943	6106.06
333.172	6410.06
333.4	6863.06
333.629	7319.06
333.857	8331.06
334.085	10051.06
334.314	12929.06
334.542	15072.06
334.771	14455.06
334.999	9211.06
335.227	7203.06
335.455	6397.06
335.684	6007.06
335.912	5768.06
336.14	5549.06
336.369	5445.06
336.597	5409.06
336.825	5378.06
337.053	5170.06
337.281	5069.06
337.51	4977.06
337.738	4955.06
337.966	4943.06
338.194	4953.06
338.422	4869.06
338.65	4743.06
338.878	4731.06
339.106	4628.06
339.334	4642.06
339.562	4547.06
339.79	4473.06
340.018	4508.06
340.246	4524.06
340.474	4584.06
340.702	4526.06
340.93	4496.06
341.158	4494.06
341.386	4496.06
341.614	4523.06
341.842	4495.06
342.07	4366.06
342.298	4456.06
342.526	4329.06
342.754	4340.06
342.981	4405.06
343.209	4485.06
343.437	4738.06
343.665	4971.06
343.893	5163.06
344.12	5158.06
344.348	4961.06
344.576	4864.06
344.804	4745.06
345.031	4831.06
345.259	4699.06
345.487	4575.06
345.714	4450.06
345.942	4340.06
346.17	4299.06
346.397	4240.06
346.625	4279.06
346.853	4245.06
347.08	4224.06
347.308	4304.06
347.535	4398.06
347.763	4435.06
347.99	4370.06
348.218	4428.06
348.445	4405.06
348.673	4318.06
348.9	4239.06
349.128	4186.06
349.355	4141.06
349.583	4152.06
349.81	4100.06
350.037	4125.06
350.265	4092.06
350.492	4087.06
350.72	4127.06
350.947	4193.06
351.174	4307.06
351.402	4319.06
351.629	4297.06
351.856	4219.06
352.083	4389.06
352.311	4396.06
352.538	4408.06
352.765	4336.06
352.992	4233.06
353.22	4202.06
353.447	4140.06
353.674	4120.06
353.901	4030.06
354.128	3995.06
354.355	3948.06
354.583	4038.06
354.81	3989.06
355.037	3989.06
355.264	3926.06
355.491	3931.06
355.718	3971.06
355.945	3963.06
356.172	3976.06
356.399	4011.06
356.626	3968.06
356.853	4033.06
357.08	3947.06
357.307	3952.06
357.534	3963.06
357.761	3950.06
357.988	4026.06
358.215	3940.06
358.441	3962.06
358.668	4008.06
358.895	4025.06
359.122	4052.06
359.349	4233.06
359.576	4311.06
359.802	4568.06
360.029	4838.06
360.256	4800.06
360.483	4505.06
360.709	4347.06
360.936	4182.06
361.163	4243.06
361.39	4330.06
361.616	4327.06
361.843	4207.06
362.07	4295.06
362.296	4311.06
362.523	4229.06
362.749	4201.06
362.976	4234.06
363.203	4103.06
363.429	4101.06
363.656	4129.06
363.882	4154.06
364.109	4068.06
364.335	4071.06
364.562	4117.06
364.788	4072.06
365.015	4121.06
365.241	4073.06
365.468	4145.06
365.694	4197.06
365.92	4113.06
366.147	3998.06
366.373	4147.06
366.599	4068.06
366.826	4022.06
367.052	4043.06
367.278	4070.06
367.505	4108.06
367.731	4105.06
367.957	4110.06
368.184	4109.06
368.41	4268.06
368.636	4305.06
368.862	4313.06
369.089	4172.06
369.315	4168.06
369.541	4158.06
369.767	4229.06
369.993	4188.06
370.219	4200.06
370.445	4162.06
370.672	4237.06
370.898	4260.06
371.124	4234.06
371.35	4360.06
371.576	4272.06
371.802	4246.06
372.028	4275.06
372.254	4334.06
372.48	4352.06
372.706	4452.06
372.932	4402.06
373.158	4433.06
373.384	4353.06
373.61	4308.06
373.835	4375.06
374.061	4421.06
374.287	4505.06
374.513	4522.06
374.739	4619.06
374.965	4741.06
375.191	4724.06
375.416	4668.06
375.642	4516.06
375.868	4462.06
376.094	4401.06
376.319	4324.06
376.545	4313.06
376.771	4336.06
376.997	4375.06
377.222	4289.06
377.448	4328.06
377.674	4344.06
377.899	4240.06
378.125	4253.06
378.35	4211.06
378.576	4225.06
378.802	4227.06
379.027	4272.06
379.253	4239.06
379.478	4242.06
379.704	4212.06
379.929	4298.06
380.155	4317.06
380.38	4323.06
380.606	4390.06
380.831	4319.06
381.057	4279.06
381.282	4334.06
381.507	4333.06
381.733	4364.06
381.958	4343.06
382.184	4431.06
382.409	4543.06
382.634	4554.06
382.86	4531.06
383.085	4618.06
383.31	4656.06
383.535	4744.06
383.761	4819.06
383.986	4862.06
384.211	4901.06
384.436	4954.06
384.662	5001.06
384.887	5166.06
385.112	5097.06
385.337	5171.06
385.562	5178.06
385.787	5223.06
386.013	5340.06
386.238	5320.06
386.463	5220.06
386.688	5212.06
386.913	5205.06
387.138	5137.06
387.363	5139.06
387.588	5021.06
387.813	5118.06
388.038	5075.06
388.263	5202.06
388.488	5193.06
388.713	5149.06
388.938	5068.06
389.163	5039.06
389.387	5050.06
389.612	5036.06
389.837	5066.06
390.062	5027.06
390.287	5099.06
390.512	5077.06
390.736	5208.06
390.961	5215.06
391.186	5246.06
391.411	5442.06
391.636	5527.06
391.86	5753.06
392.085	5805.06
392.31	5667.06
392.534	5515.06
392.759	5485.06
392.984	5331.06
393.208	5321.06
393.433	5316.06
393.658	5346.06
393.882	5275.06
394.107	5359.06
394.331	5421.06
394.556	5403.06
394.78	5503.06
395.005	5456.06
395.229	5527.06
395.454	5769.06
395.678	5754.06
395.903	5812.06
396.127	5844.06
396.352	5584.06
396.576	5465.06
396.801	5435.06
397.025	5510.06
397.249	5626.06
397.474	5794.06
397.698	5786.06
397.922	6006.06
398.147	5964.06
398.371	6077.06
398.595	6202.06
398.82	6564.06
399.044	7110.06
399.268	7871.06
399.492	8991.06
399.717	9509.06
399.941	9223.06
400.165	8721.06
400.389	8085.06
400.613	7234.06
400.837	6833.06
401.062	6600.06
401.286	6572.06
401.51	6533.06
401.734	6502.06
401.958	6660.06
402.182	6687.06
402.406	6896.06
402.63	6875.06
402.854	6976.06
403.078	7076.06
403.302	7261.06
403.526	7345.06
403.75	7369.06
403.974	7531.06
404.198	7491.06
404.422	7675.06
404.645	7738.06
404.869	8016.06
405.093	8595.06
405.317	9119.06
405.541	8964.06
405.765	8071.06
405.988	7668.06
406.212	7724.06
406.436	7786.06
406.66	7845.06
406.883	7730.06
407.107	8353.06
407.331	8868.06
407.555	9411.06
407.778	9027.06
408.002	8269.06
408.226	7846.06
408.449	7784.06
408.673	7684.06
408.896	7848.06
409.12	7889.06
409.344	7538.06
409.567	7203.06
409.791	7172.06
410.014	7092.06
410.238	6946.06
410.461	7071.06
410.685	7060.06
410.908	7118.06
411.132	7404.06
411.355	7468.06
411.578	7069.06
411.802	6909.06
412.025	7096.06
412.249	7545.06
412.472	8159.06
412.695	8892.06
412.919	8044.06
413.142	7548.06
413.365	7317.06
413.589	6927.06
413.812	6754.06
414.035	6574.06
414.258	6657.06
414.482	6647.06
414.705	6658.06
414.928	6536.06
415.151	6511.06
415.374	6570.06
415.597	6389.06
415.821	6298.06
416.044	6459.06
416.267	6358.06
416.49	6303.06
416.713	6263.06
416.936	6315.06
417.159	6386.06
417.382	6552.06
417.605	6704.06
417.828	6840.06
418.051	6771.06
418.274	6528.06
418.497	6426.06
418.72	6539.06
418.943	6545.06
419.166	6958.06
419.389	7406.06
419.611	7300.06
419.834	7369.06
420.057	7459.06
420.28	7720.06
420.503	7497.06
420.726	7211.06
420.948	7157.06
421.171	7359.06
421.394	7258.06
421.617	6641.06
421.839	6589.06
422.062	6687.06
422.285	6886.06
422.507	7470.06
422.73	8011.06
422.953	7195.06
423.175	6902.06
423.398	7025.06
423.621	6982.06
423.843	7201.06
424.066	7079.06
424.288	7134.06
424.511	7221.06
424.733	7833.06
424.956	8251.06
425.178	7664.06
425.401	7890.06
425.623	7669.06
425.846	6852.06
426.068	6571.06
426.291	6511.06
426.513	6596.06
426.735	6649.06
426.958	7161.06
427.18	7995.06
427.402	9258.06
427.625	9796.06
427.847	8911.06
428.069	8599.06
428.292	7217.06
428.514	6315.06
428.736	6141.06
428.958	6138.06
429.181	5801.06
429.403	5815.06
429.625	5983.06
429.847	6364.06
430.069	6868.06
430.292	6381.06
430.514	5873.06
430.736	5852.06
430.958	5791.06
431.18	5644.06
431.402	5645.06
431.624	5581.06
431.846	5670.06
432.068	5736.06
432.29	5850.06
432.512	5753.06
432.734	5760.06
432.956	5704.06
433.178	5853.06
433.4	5837.06
433.622	5739.06
433.844	5770.06
434.066	5731.06
434.287	5796.06
434.509	6096.06
434.731	6264.06
434.953	6455.06
435.175	6603.06
435.397	6672.06
435.618	6562.06
435.84	7052.06
436.062	7825.06
436.284	7788.06
436.505	6491.06
436.727	6203.06
436.949	5891.06
437.17	5750.06
437.392	5771.06
437.614	5838.06
437.835	6370.06
438.057	7348.06
438.278	8004.06
438.5	7838.06
438.721	8732.06
438.943	7476.06
439.165	6306.06
439.386	6150.06
439.608	6264.06
439.829	6371.06
440.05	6812.06
440.272	7295.06
440.493	6554.06
440.715	6134.06
440.936	6004.06
441.158	6045.06
441.379	6227.06
441.6	6580.06
441.822	6844.06
442.043	7288.06
442.264	8031.06
442.486	7753.06
442.707	6867.06
442.928	6695.06
443.149	6942.06
443.371	7167.06
443.592	7705.06
443.813	8743.06
444.034	8649.06
444.255	7453.06
444.476	7280.06
444.698	7423.06
444.919	7514.06
445.14	7334.06
445.361	7131.06
445.582	7515.06
445.803	8353.06
446.024	8987.06
446.245	8521.06
446.466	7495.06
446.687	6373.06
446.908	6118.06
447.129	5793.06
447.35	5594.06
447.571	5571.06
447.792	5464.06
448.013	5639.06
448.234	5816.06
448.455	6558.06
448.675	7683.06
448.896	8157.06
449.117	6645.06
449.338	6882.06
449.559	8303.06
449.779	8485.06
450	6397.06
450.221	5755.06
450.442	5521.06
450.662	5443.06
450.883	5605.06
451.104	5831.06
451.324	5539.06
451.545	5302.06
451.766	5162.06
451.986	4996.06
452.207	5052.06
452.428	5045.06
452.648	5127.06
452.869	5139.06
453.089	5128.06
453.31	5274.06
453.53	5093.06
453.751	5005.06
453.971	5057.06
454.192	5266.06
454.412	4974.06
454.633	4908.06
454.853	4881.06
455.073	4908.06
455.294	5306.06
455.514	5870.06
455.734	5368.06
455.955	4798.06
456.175	4731.06
456.395	4629.06
456.616	4636.06
456.836	4709.06
457.056	4607.06
457.276	4615.06
457.497	4719.06
457.717	4780.06
457.937	4881.06
458.157	4951.06
458.377	5024.06
458.598	5388.06
458.818	6145.06
459.038	6977.06
459.258	6812.06
459.478	5975.06
459.698	5845.06
459.918	5889.06
460.138	6085.06
460.358	6310.06
460.578	6255.06
460.798	6363.06
461.018	6481.06
461.238	6247.06
461.458	6266.06
461.678	6256.06
461.898	6393.06
462.118	6356.06
462.338	6711.06
462.558	6856.06
462.777	7137.06
462.997	7877.06
463.217	8205.06
463.437	7959.06
463.657	7295.06
463.876	7130.06
464.096	7231.06
464.316	7042.06
464.536	7288.06
464.755	7033.06
464.975	7002.06
465.195	7375.06
465.414	7534.06
465.634	6384.06
465.854	5960.06
466.073	5644.06
466.293	5584.06
466.512	5434.06
466.732	5273.06
466.951	5363.06
467.171	5316.06
467.391	5492.06
467.61	5594.06
467.829	5755.06
468.049	6472.06
468.268	7371.06
468.488	6140.06
468.707	5485.06
468.927	5369.06
469.146	5205.06
469.365	5287.06
469.585	5251.06
469.804	5451.06
470.023	5648.06
470.243	5541.06
470.462	5739.06
470.681	5830.06
470.901	5696.06
471.12	5577.06
471.339	5536.06
471.558	5584.06
471.777	5690.06
471.997	5868.06
472.216	8059.06
472.435	12237.06
472.654	8890.06
472.873	6715.06
473.092	6119.06
473.311	5693.06
473.53	5610.06
473.749	5632.06
473.968	6046.06
474.187	7087.06
474.406	6544.06
474.625	5550.06
474.844	5283.06
475.063	5280.06
475.282	5215.06
475.501	5269.06
475.72	5358.06
475.939	5293.06
476.158	5368.06
476.377	5339.06
476.596	5376.06
476.814	5579.06
477.033	5658.06
477.252	5699.06
477.471	5687.06
477.69	5845.06
477.908	5929.06
478.127	6132.06
478.346	6113.06
478.564	6291.06
478.783	6317.06
479.002	6489.06
479.22	6643.06
479.439	6728.06
479.658	6874.06
479.876	6892.06
480.095	7186.06
480.313	7715.06
480.532	7691.06
480.751	8145.06
480.969	10090.06
481.188	15328.06
481.406	15514.06
481.624	10675.06
481.843	8641.06
482.061	7685.06
482.28	7125.06
482.498	6884.06
482.717	6639.06
482.935	6512.06
483.153	6391.06
483.372	6411.06
483.59	6408.06
483.808	6336.06
484.027	6295.06
484.245	6370.06
484.463	6276.06
484.681	6383.06
484.9	6445.06
485.118	6504.06
485.336	6544.06
485.554	6516.06
485.772	6636.06
485.99	6525.06
486.209	6726.06
486.427	6622.06
486.645	6811.06
486.863	6910.06
487.081	6884.06
487.299	6746.06
487.517	6691.06
487.735	6636.06
