Data from Circ_2007_H10_HRD10591_00035.txt Node
Date: Wed Jan 03 10:22:04 EST 2024
User: Yrep
Spectrometer: HR+D1059
Trigger mode: 1
Integration Time (sec): 1.000000E-1
Scans to average: 1
Electric dark correction enabled: true
Nonlinearity correction enabled: false
Boxcar width: 0
XAxis mode: Wavelengths
Number of Pixels in Spectrum: 2048
>>>>>Begin Spectral Data<<<<<
223.165	-11.62
223.4	-11.62
223.635	-11.62
223.869	-16.62
224.104	-10.62
224.338	-8.62
224.573	-10.62
224.808	-16.62
225.042	-11.62
225.277	0.38
225.511	10.38
225.746	1.38
225.98	0.38
226.215	9.38
226.449	8.38
226.683	25.38
226.918	4.38
227.152	26.38
227.387	33.38
227.621	29.38
227.856	42.38
228.09	44.38
228.324	51.38
228.559	69.38
228.793	65.38
229.027	58.38
229.262	76.38
229.496	97.38
229.73	94.38
229.964	98.38
230.199	67.38
230.433	80.38
230.667	94.38
230.901	76.38
231.136	69.38
231.37	84.38
231.604	80.38
231.838	92.38
232.072	76.38
232.306	84.38
232.541	96.38
232.775	70.38
233.009	75.38
233.243	99.38
233.477	85.38
233.711	90.38
233.945	95.38
234.179	104.38
234.413	86.38
234.647	92.38
234.881	81.38
235.115	76.38
235.349	79.38
235.583	71.38
235.817	78.38
236.051	95.38
236.285	85.38
236.519	90.38
236.753	82.38
236.987	78.38
237.221	100.38
237.455	96.38
237.689	84.38
237.922	81.38
238.156	85.38
238.39	79.38
238.624	70.38
238.858	76.38
239.091	93.38
239.325	82.38
239.559	94.38
239.793	86.38
240.027	79.38
240.26	92.38
240.494	82.38
240.728	85.38
240.961	77.38
241.195	87.38
241.429	83.38
241.662	76.38
241.896	73.38
242.13	75.38
242.363	71.38
242.597	93.38
242.83	77.38
243.064	85.38
243.298	81.38
243.531	87.38
243.765	88.38
243.998	84.38
244.232	89.38
244.465	82.38
244.699	85.38
244.932	82.38
245.166	63.38
245.399	91.38
245.633	83.38
245.866	85.38
246.099	81.38
246.333	79.38
246.566	82.38
246.8	71.38
247.033	80.38
247.266	80.38
247.5	79.38
247.733	92.38
247.966	87.38
248.2	74.38
248.433	78.38
248.666	93.38
248.899	76.38
249.133	91.38
249.366	100.38
249.599	107.38
249.832	87.38
250.066	83.38
250.299	84.38
250.532	97.38
250.765	84.38
250.998	87.38
251.231	86.38
251.465	76.38
251.698	86.38
251.931	76.38
252.164	89.38
252.397	85.38
252.63	93.38
252.863	82.38
253.096	71.38
253.329	85.38
253.562	78.38
253.795	90.38
254.028	79.38
254.261	87.38
254.494	78.38
254.727	86.38
254.96	85.38
255.193	87.38
255.426	89.38
255.659	87.38
255.892	90.38
256.124	83.38
256.357	80.38
256.59	86.38
256.823	90.38
257.056	64.38
257.289	73.38
257.521	77.38
257.754	86.38
257.987	83.38
258.22	89.38
258.452	93.38
258.685	91.38
258.918	78.38
259.151	78.38
259.383	87.38
259.616	71.38
259.849	73.38
260.081	90.38
260.314	88.38
260.547	95.38
260.779	92.38
261.012	83.38
261.244	105.38
261.477	95.38
261.71	111.38
261.942	129.38
262.175	135.38
262.407	91.38
262.64	100.38
262.872	68.38
263.105	85.38
263.337	79.38
263.57	85.38
263.802	87.38
264.035	97.38
264.267	78.38
264.499	76.38
264.732	89.38
264.964	91.38
265.197	84.38
265.429	71.38
265.661	87.38
265.894	90.38
266.126	79.38
266.358	82.38
266.591	81.38
266.823	76.38
267.055	90.38
267.287	78.38
267.52	82.38
267.752	96.38
267.984	89.38
268.216	93.38
268.448	95.38
268.681	102.38
268.913	83.38
269.145	78.38
269.377	92.38
269.609	90.38
269.841	94.38
270.073	102.38
270.306	84.38
270.538	90.38
270.77	82.38
271.002	94.38
271.234	85.38
271.466	94.38
271.698	94.38
271.93	87.38
272.162	99.38
272.394	84.38
272.626	91.38
272.858	74.38
273.09	96.38
273.322	75.38
273.553	90.38
273.785	77.38
274.017	87.38
274.249	79.38
274.481	87.38
274.713	90.38
274.945	99.38
275.176	88.38
275.408	95.38
275.64	101.38
275.872	96.38
276.104	110.38
276.335	102.38
276.567	112.38
276.799	133.38
277.031	132.38
277.262	130.38
277.494	123.38
277.726	87.38
277.957	95.38
278.189	92.38
278.421	86.38
278.652	95.38
278.884	93.38
279.115	89.38
279.347	77.38
279.579	86.38
279.81	105.38
280.042	129.38
280.273	159.38
280.505	152.38
280.736	106.38
280.968	82.38
281.199	82.38
281.431	86.38
281.662	83.38
281.894	99.38
282.125	112.38
282.356	142.38
282.588	160.38
282.819	141.38
283.051	99.38
283.282	81.38
283.513	98.38
283.745	91.38
283.976	71.38
284.207	96.38
284.439	100.38
284.67	80.38
284.901	91.38
285.132	84.38
285.364	83.38
285.595	92.38
285.826	84.38
286.057	88.38
286.288	80.38
286.52	84.38
286.751	82.38
286.982	82.38
287.213	88.38
287.444	100.38
287.675	103.38
287.906	98.38
288.138	103.38
288.369	101.38
288.6	82.38
288.831	92.38
289.062	82.38
289.293	82.38
289.524	96.38
289.755	93.38
289.986	82.38
290.217	89.38
290.448	74.38
290.679	80.38
290.91	93.38
291.141	96.38
291.371	83.38
291.602	70.38
291.833	98.38
292.064	91.38
292.295	93.38
292.526	105.38
292.757	85.38
292.987	81.38
293.218	89.38
293.449	88.38
293.68	91.38
293.91	105.38
294.141	86.38
294.372	89.38
294.603	87.38
294.833	89.38
295.064	88.38
295.295	86.38
295.525	104.38
295.756	102.38
295.987	123.38
296.217	146.38
296.448	138.38
296.679	103.38
296.909	86.38
297.14	99.38
297.37	89.38
297.601	95.38
297.831	98.38
298.062	100.38
298.292	88.38
298.523	94.38
298.753	101.38
298.984	93.38
299.214	90.38
299.445	86.38
299.675	95.38
299.905	110.38
300.136	115.38
300.366	112.38
300.597	92.38
300.827	101.38
301.057	98.38
301.288	108.38
301.518	98.38
301.748	102.38
301.979	101.38
302.209	109.38
302.439	95.38
302.669	84.38
302.9	90.38
303.13	101.38
303.36	115.38
303.59	123.38
303.82	134.38
304.051	97.38
304.281	79.38
304.511	90.38
304.741	80.38
304.971	90.38
305.201	102.38
305.431	89.38
305.661	95.38
305.891	94.38
306.121	102.38
306.352	106.38
306.582	118.38
306.812	93.38
307.042	108.38
307.272	142.38
307.502	118.38
307.731	130.38
307.961	106.38
308.191	102.38
308.421	91.38
308.651	94.38
308.881	94.38
309.111	98.38
309.341	99.38
309.571	110.38
309.8	103.38
310.03	104.38
310.26	107.38
310.49	106.38
310.72	112.38
310.949	124.38
311.179	108.38
311.409	96.38
311.639	117.38
311.868	110.38
312.098	85.38
312.328	92.38
312.557	113.38
312.787	112.38
313.017	116.38
313.246	102.38
313.476	100.38
313.706	96.38
313.935	104.38
314.165	114.38
314.394	115.38
314.624	122.38
314.853	110.38
315.083	95.38
315.312	91.38
315.542	87.38
315.771	87.38
316.001	91.38
316.23	93.38
316.46	97.38
316.689	106.38
316.919	99.38
317.148	104.38
317.377	100.38
317.607	103.38
317.836	108.38
318.065	104.38
318.295	94.38
318.524	103.38
318.753	106.38
318.983	115.38
319.212	96.38
319.441	112.38
319.67	99.38
319.9	87.38
320.129	93.38
320.358	107.38
320.587	105.38
320.816	109.38
321.046	114.38
321.275	106.38
321.504	103.38
321.733	101.38
321.962	86.38
322.191	94.38
322.42	107.38
322.649	120.38
322.878	118.38
323.108	130.38
323.337	135.38
323.566	159.38
323.795	181.38
324.024	252.38
324.253	509.38
324.482	1075.38
324.71	2171.38
324.939	3027.38
325.168	1105.38
325.397	310.38
325.626	202.38
325.855	142.38
326.084	129.38
326.313	164.38
326.542	184.38
326.77	267.38
326.999	559.38
327.228	1131.38
327.457	2159.38
327.686	1796.38
327.914	516.38
328.143	370.38
328.372	404.38
328.6	248.38
328.829	160.38
329.058	170.38
329.287	166.38
329.515	149.38
329.744	180.38
329.972	261.38
330.201	497.38
330.43	743.38
330.658	404.38
330.887	240.38
331.115	188.38
331.344	136.38
331.572	113.38
331.801	142.38
332.03	127.38
332.258	115.38
332.486	91.38
332.715	108.38
332.943	111.38
333.172	131.38
333.4	123.38
333.629	139.38
333.857	171.38
334.085	286.38
334.314	456.38
334.542	916.38
334.771	898.38
334.999	271.38
335.227	134.38
335.455	117.38
335.684	118.38
335.912	101.38
336.14	119.38
336.369	109.38
336.597	124.38
336.825	114.38
337.053	100.38
337.281	100.38
337.51	107.38
337.738	114.38
337.966	106.38
338.194	103.38
338.422	96.38
338.65	96.38
338.878	90.38
339.106	97.38
339.334	96.38
339.562	88.38
339.79	101.38
340.018	93.38
340.246	106.38
340.474	114.38
340.702	103.38
340.93	99.38
341.158	95.38
341.386	114.38
341.614	116.38
341.842	98.38
342.07	84.38
342.298	102.38
342.526	106.38
342.754	71.38
342.981	98.38
343.209	82.38
343.437	91.38
343.665	93.38
343.893	101.38
344.12	101.38
344.348	99.38
344.576	74.38
344.804	95.38
345.031	102.38
345.259	107.38
345.487	85.38
345.714	93.38
345.942	97.38
346.17	98.38
346.397	93.38
346.625	92.38
346.853	105.38
347.08	99.38
347.308	98.38
347.535	114.38
347.763	107.38
347.99	110.38
348.218	91.38
348.445	121.38
348.673	114.38
348.9	107.38
349.128	98.38
349.355	93.38
349.583	95.38
349.81	102.38
350.037	98.38
350.265	98.38
350.492	102.38
350.72	97.38
350.947	111.38
351.174	126.38
351.402	126.38
351.629	110.38
351.856	100.38
352.083	110.38
352.311	110.38
352.538	117.38
352.765	126.38
352.992	124.38
353.22	114.38
353.447	112.38
353.674	97.38
353.901	108.38
354.128	103.38
354.355	97.38
354.583	103.38
354.81	97.38
355.037	92.38
355.264	89.38
355.491	94.38
355.718	87.38
355.945	87.38
356.172	91.38
356.399	95.38
356.626	88.38
356.853	103.38
357.08	92.38
357.307	92.38
357.534	95.38
357.761	93.38
357.988	90.38
358.215	92.38
358.441	96.38
358.668	84.38
358.895	85.38
359.122	102.38
359.349	87.38
359.576	102.38
359.802	123.38
360.029	134.38
360.256	138.38
360.483	112.38
360.709	91.38
360.936	98.38
361.163	102.38
361.39	114.38
361.616	101.38
361.843	102.38
362.07	100.38
362.296	98.38
362.523	89.38
362.749	90.38
362.976	98.38
363.203	96.38
363.429	102.38
363.656	92.38
363.882	86.38
364.109	97.38
364.335	99.38
364.562	110.38
364.788	105.38
365.015	95.38
365.241	87.38
365.468	98.38
365.694	111.38
365.92	108.38
366.147	94.38
366.373	92.38
366.599	88.38
366.826	111.38
367.052	99.38
367.278	97.38
367.505	98.38
367.731	81.38
367.957	94.38
368.184	91.38
368.41	93.38
368.636	136.38
368.862	131.38
369.089	123.38
369.315	104.38
369.541	107.38
369.767	99.38
369.993	96.38
370.219	101.38
370.445	90.38
370.672	97.38
370.898	91.38
371.124	89.38
371.35	102.38
371.576	93.38
371.802	94.38
372.028	95.38
372.254	97.38
372.48	89.38
372.706	87.38
372.932	102.38
373.158	91.38
373.384	80.38
373.61	96.38
373.835	105.38
374.061	100.38
374.287	109.38
374.513	88.38
374.739	102.38
374.965	85.38
375.191	83.38
375.416	80.38
375.642	88.38
375.868	105.38
376.094	90.38
376.319	101.38
376.545	87.38
376.771	77.38
376.997	107.38
377.222	94.38
377.448	90.38
377.674	94.38
377.899	83.38
378.125	90.38
378.35	94.38
378.576	92.38
378.802	76.38
379.027	77.38
379.253	100.38
379.478	92.38
379.704	94.38
379.929	89.38
380.155	97.38
380.38	96.38
380.606	102.38
380.831	93.38
381.057	101.38
381.282	108.38
381.507	96.38
381.733	93.38
381.958	108.38
382.184	84.38
382.409	116.38
382.634	95.38
382.86	111.38
383.085	106.38
383.31	102.38
383.535	101.38
383.761	107.38
383.986	100.38
384.211	109.38
384.436	107.38
384.662	107.38
384.887	96.38
385.112	113.38
385.337	107.38
385.562	90.38
385.787	102.38
386.013	105.38
386.238	128.38
386.463	95.38
386.688	133.38
386.913	110.38
387.138	125.38
387.363	95.38
387.588	107.38
387.813	102.38
388.038	115.38
388.263	114.38
388.488	115.38
388.713	97.38
388.938	102.38
389.163	95.38
389.387	82.38
389.612	90.38
389.837	87.38
390.062	88.38
390.287	86.38
390.512	88.38
390.736	86.38
390.961	98.38
391.186	102.38
391.411	93.38
391.636	94.38
391.86	102.38
392.085	101.38
392.31	90.38
392.534	88.38
392.759	81.38
392.984	89.38
393.208	87.38
393.433	119.38
393.658	98.38
393.882	101.38
394.107	94.38
394.331	85.38
394.556	92.38
394.78	90.38
395.005	94.38
395.229	88.38
395.454	71.38
395.678	83.38
395.903	85.38
396.127	93.38
396.352	88.38
396.576	83.38
396.801	101.38
397.025	105.38
397.249	94.38
397.474	92.38
397.698	94.38
397.922	108.38
398.147	84.38
398.371	92.38
398.595	100.38
398.82	93.38
399.044	74.38
399.268	93.38
399.492	101.38
399.717	101.38
399.941	84.38
400.165	108.38
400.389	101.38
400.613	94.38
400.837	98.38
401.062	74.38
401.286	87.38
401.51	94.38
401.734	98.38
401.958	116.38
402.182	129.38
402.406	193.38
402.63	148.38
402.854	107.38
403.078	104.38
403.302	91.38
403.526	93.38
403.75	99.38
403.974	106.38
404.198	108.38
404.422	95.38
404.645	92.38
404.869	84.38
405.093	85.38
405.317	130.38
405.541	147.38
405.765	142.38
405.988	149.38
406.212	207.38
406.436	304.38
406.66	203.38
406.883	126.38
407.107	107.38
407.331	109.38
407.555	118.38
407.778	102.38
408.002	90.38
408.226	89.38
408.449	97.38
408.673	85.38
408.896	104.38
409.12	94.38
409.344	76.38
409.567	79.38
409.791	86.38
410.014	93.38
410.238	108.38
410.461	92.38
410.685	103.38
410.908	95.38
411.132	107.38
411.355	109.38
411.578	83.38
411.802	87.38
412.025	94.38
412.249	103.38
412.472	113.38
412.695	123.38
412.919	113.38
413.142	87.38
413.365	93.38
413.589	95.38
413.812	84.38
414.035	106.38
414.258	94.38
414.482	96.38
414.705	87.38
414.928	98.38
415.151	95.38
415.374	86.38
415.597	83.38
415.821	99.38
416.044	97.38
416.267	96.38
416.49	99.38
416.713	94.38
416.936	108.38
417.159	85.38
417.382	79.38
417.605	102.38
417.828	100.38
418.051	100.38
418.274	91.38
418.497	90.38
418.72	90.38
418.943	80.38
419.166	91.38
419.389	100.38
419.611	110.38
419.834	102.38
420.057	75.38
420.28	84.38
420.503	85.38
420.726	87.38
420.948	105.38
421.171	106.38
421.394	98.38
421.617	80.38
421.839	88.38
422.062	90.38
422.285	106.38
422.507	106.38
422.73	109.38
422.953	100.38
423.175	94.38
423.398	96.38
423.621	99.38
423.843	91.38
424.066	78.38
424.288	89.38
424.511	90.38
424.733	114.38
424.956	114.38
425.178	106.38
425.401	113.38
425.623	107.38
425.846	92.38
426.068	101.38
426.291	97.38
426.513	104.38
426.735	94.38
426.958	100.38
427.18	110.38
427.402	183.38
427.625	253.38
427.847	227.38
428.069	195.38
428.292	111.38
428.514	102.38
428.736	109.38
428.958	82.38
429.181	97.38
429.403	96.38
429.625	100.38
429.847	84.38
430.069	117.38
430.292	89.38
430.514	83.38
430.736	79.38
430.958	100.38
431.18	82.38
431.402	83.38
431.624	87.38
431.846	90.38
432.068	94.38
432.29	79.38
432.512	83.38
432.734	88.38
432.956	109.38
433.178	104.38
433.4	107.38
433.622	96.38
433.844	78.38
434.066	100.38
434.287	95.38
434.509	93.38
434.731	97.38
434.953	90.38
435.175	81.38
435.397	104.38
435.618	85.38
435.84	117.38
436.062	154.38
436.284	130.38
436.505	123.38
436.727	116.38
436.949	99.38
437.17	94.38
437.392	102.38
437.614	112.38
437.835	114.38
438.057	160.38
438.278	130.38
438.5	125.38
438.721	136.38
438.943	111.38
439.165	98.38
439.386	105.38
439.608	94.38
439.829	116.38
440.05	164.38
440.272	195.38
440.493	118.38
440.715	98.38
440.936	88.38
441.158	83.38
441.379	106.38
441.6	103.38
441.822	108.38
442.043	98.38
442.264	116.38
442.486	115.38
442.707	100.38
442.928	134.38
443.149	162.38
443.371	164.38
443.592	149.38
443.813	142.38
444.034	142.38
444.255	104.38
444.476	95.38
444.698	93.38
444.919	102.38
445.14	144.38
445.361	139.38
445.582	132.38
445.803	202.38
446.024	181.38
446.245	181.38
446.466	139.38
446.687	90.38
446.908	101.38
447.129	101.38
447.35	80.38
447.571	82.38
447.792	102.38
448.013	112.38
448.234	124.38
448.455	101.38
448.675	140.38
448.896	136.38
449.117	115.38
449.338	122.38
449.559	162.38
449.779	167.38
450	110.38
450.221	91.38
450.442	85.38
450.662	106.38
450.883	122.38
451.104	142.38
451.324	115.38
451.545	102.38
451.766	99.38
451.986	106.38
452.207	101.38
452.428	99.38
452.648	108.38
452.869	131.38
453.089	138.38
453.31	153.38
453.53	92.38
453.751	103.38
453.971	115.38
454.192	132.38
454.412	109.38
454.633	89.38
454.853	102.38
455.073	78.38
455.294	118.38
455.514	118.38
455.734	103.38
455.955	88.38
456.175	85.38
456.395	76.38
456.616	97.38
456.836	98.38
457.056	81.38
457.276	76.38
457.497	78.38
457.717	105.38
457.937	97.38
458.157	78.38
458.377	110.38
458.598	124.38
458.818	213.38
459.038	224.38
459.258	153.38
459.478	102.38
459.698	102.38
459.918	86.38
460.138	85.38
460.358	94.38
460.578	92.38
460.798	87.38
461.018	94.38
461.238	84.38
461.458	85.38
461.678	91.38
461.898	104.38
462.118	93.38
462.338	86.38
462.558	86.38
462.777	90.38
462.997	100.38
463.217	88.38
463.437	87.38
463.657	85.38
463.876	103.38
464.096	86.38
464.316	90.38
464.536	98.38
464.755	90.38
464.975	135.38
465.195	223.38
465.414	243.38
465.634	106.38
465.854	87.38
466.073	94.38
466.293	84.38
466.512	95.38
466.732	95.38
466.951	87.38
467.171	98.38
467.391	108.38
467.61	140.38
467.829	161.38
468.049	283.38
468.268	423.38
468.488	146.38
468.707	84.38
468.927	89.38
469.146	85.38
469.365	97.38
469.585	100.38
469.804	102.38
470.023	109.38
470.243	100.38
470.462	95.38
470.681	126.38
470.901	107.38
471.12	84.38
471.339	111.38
471.558	111.38
471.777	120.38
471.997	186.38
472.216	523.38
472.435	1191.38
472.654	344.38
472.873	129.38
473.092	102.38
473.311	92.38
473.53	96.38
473.749	89.38
473.968	105.38
474.187	118.38
474.406	122.38
474.625	93.38
474.844	85.38
475.063	96.38
475.282	89.38
475.501	92.38
475.72	79.38
475.939	80.38
476.158	102.38
476.377	92.38
476.596	102.38
476.814	105.38
477.033	98.38
477.252	102.38
477.471	105.38
477.69	108.38
477.908	87.38
478.127	99.38
478.346	107.38
478.564	101.38
478.783	108.38
479.002	111.38
479.22	103.38
479.439	98.38
479.658	123.38
479.876	107.38
480.095	107.38
480.313	118.38
480.532	125.38
480.751	183.38
480.969	499.38
481.188	1956.38
481.406	1271.38
481.624	220.38
481.843	111.38
482.061	111.38
482.28	106.38
482.498	107.38
482.717	92.38
482.935	86.38
483.153	95.38
483.372	93.38
483.59	92.38
483.808	106.38
484.027	90.38
484.245	94.38
484.463	92.38
484.681	103.38
484.9	94.38
485.118	95.38
485.336	98.38
485.554	99.38
485.772	101.38
485.99	107.38
486.209	96.38
486.427	98.38
486.645	109.38
486.863	130.38
487.081	106.38
487.299	108.38
487.517	108.38
487.735	94.38
487.953	106.38
488.171	103.38
488.389	103.38
488.607	96.38
488.825	87.38
489.043	87.38
489.261	99.38
489.479	97.38
489.696	86.38
489.914	98.38
490.132	91.38
490.35	82.38
490.568	93.38
490.786	107.38
491.003	103.38
491.221	96.38
491.439	88.38
491.657	82.38
491.874	95.38
492.092	96.38
492.31	85.38
492.527	92.38
492.745	106.38
492.963	101.38
493.18	92.38
493.398	89.38
493.615	95.38
493.833	84.38
494.05	118.38
494.268	80.38
494.485	110.38
494.703	92.38
494.92	101.38
495.138	88.38
495.355	102.38
495.573	86.38
495.79	87.38
496.008	104.38
496.225	104.38
496.442	98.38
496.66	107.38
496.877	83.38
497.094	85.38
497.312	98.38
497.529	113.38
497.746	93.38
497.963	100.38
498.181	95.38
498.398	88.38
498.615	122.38
498.832	115.38
499.049	93.38
499.267	94.38
499.484	82.38
499.701	88.38
499.918	93.38
500.135	85.38
500.352	98.38
500.569	95.38
500.786	100.38
501.003	96.38
501.22	95.38
501.437	103.38
501.654	88.38
501.871	105.38
502.088	98.38
502.305	100.38
502.522	99.38
502.739	106.38
502.956	97.38
503.172	97.38
503.389	104.38
503.606	129.38
503.823	99.38
504.04	92.38
504.256	103.38
504.473	93.38
504.69	90.38
504.907	89.38
505.123	82.38
505.34	106.38
505.557	113.38
505.773	98.38
505.99	91.38
506.207	91.38
506.423	97.38
506.64	92.38
506.856	108.38
507.073	96.38
507.289	110.38
507.506	98.38
507.722	125.38
507.939	140.38
508.155	117.38
508.372	93.38
508.588	106.38
508.805	94.38
509.021	102.38
509.238	107.38
509.454	115.38
509.67	104.38
509.887	107.38
510.103	151.38
510.319	238.38
510.536	933.38
510.752	3125.38
510.968	859.38
511.184	175.38
511.401	139.38
511.617	111.38
511.833	114.38
512.049	99.38
512.265	91.38
