Data from Circ_2007_H10_HRD10591_00023.txt Node
Date: Wed Jan 03 10:22:01 EST 2024
User: Yrep
Spectrometer: HR+D1059
Trigger mode: 1
Integration Time (sec): 1.000000E-1
Scans to average: 1
Electric dark correction enabled: true
Nonlinearity correction enabled: false
Boxcar width: 0
XAxis mode: Wavelengths
Number of Pixels in Spectrum: 2048
>>>>>Begin Spectral Data<<<<<
223.165	-1.12
223.4	-1.12
223.635	-1.12
223.869	-17.12
224.104	-22.12
224.338	-21.12
224.573	-27.12
224.808	-7.12
225.042	-17.12
225.277	-16.12
225.511	-2.12
225.746	7.88
225.98	20.88
226.215	8.88
226.449	16.88
226.683	15.88
226.918	24.88
227.152	35.88
227.387	29.88
227.621	40.88
227.856	42.88
228.09	57.88
228.324	53.88
228.559	53.88
228.793	65.88
229.027	64.88
229.262	67.88
229.496	75.88
229.73	92.88
229.964	90.88
230.199	62.88
230.433	76.88
230.667	73.88
230.901	82.88
231.136	79.88
231.37	87.88
231.604	79.88
231.838	94.88
232.072	80.88
232.306	83.88
232.541	72.88
232.775	82.88
233.009	81.88
233.243	81.88
233.477	92.88
233.711	76.88
233.945	78.88
234.179	76.88
234.413	74.88
234.647	60.88
234.881	85.88
235.115	80.88
235.349	65.88
235.583	72.88
235.817	82.88
236.051	80.88
236.285	66.88
236.519	65.88
236.753	81.88
236.987	81.88
237.221	83.88
237.455	99.88
237.689	86.88
237.922	76.88
238.156	86.88
238.39	66.88
238.624	84.88
238.858	83.88
239.091	79.88
239.325	75.88
239.559	81.88
239.793	86.88
240.027	92.88
240.26	72.88
240.494	90.88
240.728	76.88
240.961	83.88
241.195	62.88
241.429	97.88
241.662	74.88
241.896	65.88
242.13	81.88
242.363	82.88
242.597	63.88
242.83	84.88
243.064	62.88
243.298	75.88
243.531	74.88
243.765	90.88
243.998	65.88
244.232	68.88
244.465	87.88
244.699	80.88
244.932	72.88
245.166	72.88
245.399	80.88
245.633	66.88
245.866	69.88
246.099	78.88
246.333	84.88
246.566	72.88
246.8	84.88
247.033	72.88
247.266	81.88
247.5	86.88
247.733	80.88
247.966	81.88
248.2	76.88
248.433	80.88
248.666	81.88
248.899	78.88
249.133	88.88
249.366	104.88
249.599	106.88
249.832	95.88
250.066	92.88
250.299	83.88
250.532	95.88
250.765	84.88
250.998	91.88
251.231	78.88
251.465	85.88
251.698	94.88
251.931	80.88
252.164	82.88
252.397	80.88
252.63	69.88
252.863	74.88
253.096	68.88
253.329	88.88
253.562	84.88
253.795	91.88
254.028	76.88
254.261	78.88
254.494	73.88
254.727	81.88
254.96	62.88
255.193	78.88
255.426	73.88
255.659	81.88
255.892	94.88
256.124	107.88
256.357	90.88
256.59	83.88
256.823	73.88
257.056	82.88
257.289	101.88
257.521	96.88
257.754	80.88
257.987	76.88
258.22	87.88
258.452	81.88
258.685	96.88
258.918	85.88
259.151	96.88
259.383	85.88
259.616	76.88
259.849	89.88
260.081	77.88
260.314	95.88
260.547	88.88
260.779	91.88
261.012	91.88
261.244	94.88
261.477	91.88
261.71	95.88
261.942	110.88
262.175	131.88
262.407	97.88
262.64	77.88
262.872	73.88
263.105	72.88
263.337	77.88
263.57	84.88
263.802	82.88
264.035	80.88
264.267	87.88
264.499	88.88
264.732	87.88
264.964	81.88
265.197	86.88
265.429	84.88
265.661	82.88
265.894	85.88
266.126	82.88
266.358	83.88
266.591	87.88
266.823	78.88
267.055	88.88
267.287	82.88
267.52	92.88
267.752	86.88
267.984	79.88
268.216	80.88
268.448	83.88
268.681	79.88
268.913	72.88
269.145	85.88
269.377	92.88
269.609	73.88
269.841	84.88
270.073	85.88
270.306	84.88
270.538	78.88
270.77	80.88
271.002	94.88
271.234	93.88
271.466	87.88
271.698	91.88
271.93	88.88
272.162	85.88
272.394	74.88
272.626	94.88
272.858	88.88
273.09	84.88
273.322	83.88
273.553	85.88
273.785	72.88
274.017	90.88
274.249	89.88
274.481	75.88
274.713	80.88
274.945	85.88
275.176	88.88
275.408	97.88
275.64	104.88
275.872	108.88
276.104	93.88
276.335	102.88
276.567	114.88
276.799	108.88
277.031	153.88
277.262	146.88
277.494	142.88
277.726	95.88
277.957	79.88
278.189	73.88
278.421	98.88
278.652	82.88
278.884	91.88
279.115	94.88
279.347	82.88
279.579	94.88
279.81	99.88
280.042	162.88
280.273	174.88
280.505	140.88
280.736	104.88
280.968	83.88
281.199	96.88
281.431	94.88
281.662	80.88
281.894	93.88
282.125	85.88
282.356	141.88
282.588	151.88
282.819	111.88
283.051	100.88
283.282	86.88
283.513	101.88
283.745	90.88
283.976	85.88
284.207	83.88
284.439	85.88
284.67	75.88
284.901	93.88
285.132	77.88
285.364	86.88
285.595	81.88
285.826	82.88
286.057	90.88
286.288	90.88
286.52	97.88
286.751	87.88
286.982	91.88
287.213	83.88
287.444	91.88
287.675	87.88
287.906	94.88
288.138	89.88
288.369	83.88
288.6	94.88
288.831	92.88
289.062	101.88
289.293	86.88
289.524	86.88
289.755	88.88
289.986	85.88
290.217	85.88
290.448	81.88
290.679	89.88
290.91	78.88
291.141	86.88
291.371	86.88
291.602	96.88
291.833	88.88
292.064	83.88
292.295	82.88
292.526	89.88
292.757	92.88
292.987	83.88
293.218	80.88
293.449	95.88
293.68	84.88
293.91	83.88
294.141	87.88
294.372	96.88
294.603	86.88
294.833	89.88
295.064	73.88
295.295	94.88
295.525	102.88
295.756	100.88
295.987	125.88
296.217	156.88
296.448	136.88
296.679	92.88
296.909	94.88
297.14	90.88
297.37	87.88
297.601	85.88
297.831	88.88
298.062	106.88
298.292	97.88
298.523	95.88
298.753	84.88
298.984	90.88
299.214	87.88
299.445	101.88
299.675	105.88
299.905	94.88
300.136	93.88
300.366	94.88
300.597	81.88
300.827	91.88
301.057	105.88
301.288	113.88
301.518	106.88
301.748	101.88
301.979	131.88
302.209	98.88
302.439	85.88
302.669	86.88
302.9	86.88
303.13	98.88
303.36	99.88
303.59	117.88
303.82	121.88
304.051	96.88
304.281	92.88
304.511	99.88
304.741	83.88
304.971	98.88
305.201	98.88
305.431	90.88
305.661	101.88
305.891	98.88
306.121	106.88
306.352	114.88
306.582	122.88
306.812	96.88
307.042	114.88
307.272	116.88
307.502	124.88
307.731	120.88
307.961	121.88
308.191	95.88
308.421	100.88
308.651	88.88
308.881	93.88
309.111	103.88
309.341	100.88
309.571	96.88
309.8	97.88
310.03	96.88
310.26	91.88
310.49	93.88
310.72	98.88
310.949	118.88
311.179	107.88
311.409	89.88
311.639	101.88
311.868	105.88
312.098	97.88
312.328	113.88
312.557	120.88
312.787	120.88
313.017	104.88
313.246	99.88
313.476	90.88
313.706	80.88
313.935	90.88
314.165	120.88
314.394	95.88
314.624	104.88
314.853	95.88
315.083	90.88
315.312	102.88
315.542	94.88
315.771	85.88
316.001	91.88
316.23	91.88
316.46	82.88
316.689	92.88
316.919	109.88
317.148	88.88
317.377	104.88
317.607	105.88
317.836	96.88
318.065	96.88
318.295	76.88
318.524	87.88
318.753	106.88
318.983	97.88
319.212	112.88
319.441	123.88
319.67	115.88
319.9	90.88
320.129	98.88
320.358	85.88
320.587	96.88
320.816	104.88
321.046	104.88
321.275	90.88
321.504	99.88
321.733	101.88
321.962	106.88
322.191	97.88
322.42	111.88
322.649	112.88
322.878	114.88
323.108	120.88
323.337	138.88
323.566	158.88
323.795	189.88
324.024	252.88
324.253	481.88
324.482	1085.88
324.71	2294.88
324.939	3066.88
325.168	1102.88
325.397	300.88
325.626	172.88
325.855	140.88
326.084	141.88
326.313	136.88
326.542	178.88
326.77	301.88
326.999	565.88
327.228	1220.88
327.457	2249.88
327.686	1861.88
327.914	528.88
328.143	400.88
328.372	423.88
328.6	265.88
328.829	169.88
329.058	192.88
329.287	172.88
329.515	152.88
329.744	178.88
329.972	309.88
330.201	552.88
330.43	811.88
330.658	413.88
330.887	247.88
331.115	171.88
331.344	116.88
331.572	111.88
331.801	101.88
332.03	120.88
332.258	104.88
332.486	106.88
332.715	116.88
332.943	104.88
333.172	105.88
333.4	122.88
333.629	127.88
333.857	156.88
334.085	287.88
334.314	533.88
334.542	1021.88
334.771	1020.88
334.999	303.88
335.227	143.88
335.455	94.88
335.684	112.88
335.912	100.88
336.14	105.88
336.369	112.88
336.597	112.88
336.825	107.88
337.053	85.88
337.281	92.88
337.51	98.88
337.738	121.88
337.966	111.88
338.194	110.88
338.422	101.88
338.65	113.88
338.878	102.88
339.106	97.88
339.334	89.88
339.562	82.88
339.79	92.88
340.018	81.88
340.246	115.88
340.474	103.88
340.702	100.88
340.93	85.88
341.158	99.88
341.386	104.88
341.614	108.88
341.842	81.88
342.07	84.88
342.298	95.88
342.526	100.88
342.754	92.88
342.981	85.88
343.209	94.88
343.437	109.88
343.665	79.88
343.893	92.88
344.12	103.88
344.348	105.88
344.576	92.88
344.804	104.88
345.031	109.88
345.259	110.88
345.487	100.88
345.714	101.88
345.942	83.88
346.17	104.88
346.397	77.88
346.625	100.88
346.853	102.88
347.08	93.88
347.308	104.88
347.535	104.88
347.763	105.88
347.99	101.88
348.218	122.88
348.445	109.88
348.673	109.88
348.9	100.88
349.128	99.88
349.355	96.88
349.583	102.88
349.81	94.88
350.037	96.88
350.265	106.88
350.492	102.88
350.72	122.88
350.947	118.88
351.174	114.88
351.402	124.88
351.629	112.88
351.856	113.88
352.083	122.88
352.311	124.88
352.538	113.88
352.765	125.88
352.992	112.88
353.22	106.88
353.447	105.88
353.674	100.88
353.901	99.88
354.128	91.88
354.355	88.88
354.583	102.88
354.81	107.88
355.037	98.88
355.264	102.88
355.491	100.88
355.718	88.88
355.945	89.88
356.172	101.88
356.399	104.88
356.626	87.88
356.853	94.88
357.08	83.88
357.307	77.88
357.534	85.88
357.761	87.88
357.988	98.88
358.215	103.88
358.441	89.88
358.668	105.88
358.895	101.88
359.122	100.88
359.349	91.88
359.576	84.88
359.802	108.88
360.029	136.88
360.256	127.88
360.483	101.88
360.709	94.88
360.936	106.88
361.163	77.88
361.39	99.88
361.616	107.88
361.843	100.88
362.07	111.88
362.296	113.88
362.523	114.88
362.749	87.88
362.976	105.88
363.203	102.88
363.429	82.88
363.656	99.88
363.882	82.88
364.109	93.88
364.335	99.88
364.562	87.88
364.788	98.88
365.015	96.88
365.241	91.88
365.468	106.88
365.694	127.88
365.92	100.88
366.147	94.88
366.373	100.88
366.599	95.88
366.826	82.88
367.052	88.88
367.278	97.88
367.505	89.88
367.731	83.88
367.957	97.88
368.184	99.88
368.41	110.88
368.636	111.88
368.862	125.88
369.089	107.88
369.315	105.88
369.541	99.88
369.767	105.88
369.993	95.88
370.219	89.88
370.445	86.88
370.672	86.88
370.898	79.88
371.124	92.88
371.35	88.88
371.576	107.88
371.802	81.88
372.028	85.88
372.254	82.88
372.48	79.88
372.706	89.88
372.932	83.88
373.158	89.88
373.384	96.88
373.61	93.88
373.835	93.88
374.061	89.88
374.287	91.88
374.513	78.88
374.739	92.88
374.965	90.88
375.191	94.88
375.416	92.88
375.642	83.88
375.868	100.88
376.094	101.88
376.319	93.88
376.545	86.88
376.771	90.88
376.997	90.88
377.222	96.88
377.448	81.88
377.674	84.88
377.899	102.88
378.125	117.88
378.35	91.88
378.576	102.88
378.802	93.88
379.027	102.88
379.253	92.88
379.478	89.88
379.704	92.88
379.929	101.88
380.155	76.88
380.38	92.88
380.606	100.88
380.831	102.88
381.057	93.88
381.282	99.88
381.507	94.88
381.733	89.88
381.958	106.88
382.184	96.88
382.409	98.88
382.634	104.88
382.86	114.88
383.085	103.88
383.31	98.88
383.535	113.88
383.761	98.88
383.986	93.88
384.211	100.88
384.436	106.88
384.662	104.88
384.887	111.88
385.112	116.88
385.337	107.88
385.562	110.88
385.787	112.88
386.013	110.88
386.238	124.88
386.463	104.88
386.688	96.88
386.913	123.88
387.138	126.88
387.363	120.88
387.588	95.88
387.813	102.88
388.038	102.88
388.263	118.88
388.488	111.88
388.713	94.88
388.938	93.88
389.163	89.88
389.387	88.88
389.612	84.88
389.837	100.88
390.062	101.88
390.287	82.88
390.512	89.88
390.736	87.88
390.961	86.88
391.186	70.88
391.411	92.88
391.636	78.88
391.86	86.88
392.085	99.88
392.31	78.88
392.534	85.88
392.759	84.88
392.984	94.88
393.208	93.88
393.433	99.88
393.658	91.88
393.882	97.88
394.107	94.88
394.331	80.88
394.556	79.88
394.78	92.88
395.005	95.88
395.229	91.88
395.454	72.88
395.678	96.88
395.903	91.88
396.127	110.88
396.352	90.88
396.576	81.88
396.801	102.88
397.025	100.88
397.249	89.88
397.474	95.88
397.698	89.88
397.922	79.88
398.147	84.88
398.371	86.88
398.595	85.88
398.82	89.88
399.044	102.88
399.268	92.88
399.492	90.88
399.717	96.88
399.941	88.88
400.165	106.88
400.389	107.88
400.613	76.88
400.837	90.88
401.062	99.88
401.286	90.88
401.51	102.88
401.734	101.88
401.958	114.88
402.182	148.88
402.406	190.88
402.63	139.88
402.854	100.88
403.078	93.88
403.302	93.88
403.526	90.88
403.75	97.88
403.974	94.88
404.198	97.88
404.422	78.88
404.645	94.88
404.869	116.88
405.093	120.88
405.317	131.88
405.541	127.88
405.765	118.88
405.988	147.88
406.212	196.88
406.436	279.88
406.66	187.88
406.883	118.88
407.107	103.88
407.331	111.88
407.555	117.88
407.778	105.88
408.002	93.88
408.226	104.88
408.449	91.88
408.673	87.88
408.896	102.88
409.12	102.88
409.344	98.88
409.567	85.88
409.791	93.88
410.014	91.88
410.238	88.88
410.461	96.88
410.685	91.88
410.908	105.88
411.132	107.88
411.355	102.88
411.578	87.88
411.802	82.88
412.025	111.88
412.249	86.88
412.472	111.88
412.695	135.88
412.919	102.88
413.142	80.88
413.365	91.88
413.589	78.88
413.812	88.88
414.035	103.88
414.258	86.88
414.482	91.88
414.705	90.88
414.928	102.88
415.151	82.88
415.374	90.88
415.597	79.88
415.821	85.88
416.044	83.88
416.267	81.88
416.49	107.88
416.713	89.88
416.936	83.88
417.159	106.88
417.382	96.88
417.605	97.88
417.828	105.88
418.051	94.88
418.274	99.88
418.497	97.88
418.72	89.88
418.943	82.88
419.166	80.88
419.389	92.88
419.611	115.88
419.834	94.88
420.057	96.88
420.28	98.88
420.503	89.88
420.726	98.88
420.948	100.88
421.171	86.88
421.394	110.88
421.617	84.88
421.839	82.88
422.062	94.88
422.285	114.88
422.507	97.88
422.73	110.88
422.953	89.88
423.175	89.88
423.398	76.88
423.621	91.88
423.843	86.88
424.066	89.88
424.288	74.88
424.511	90.88
424.733	103.88
424.956	135.88
425.178	102.88
425.401	96.88
425.623	112.88
425.846	88.88
426.068	92.88
426.291	89.88
426.513	105.88
426.735	101.88
426.958	114.88
427.18	129.88
427.402	181.88
427.625	224.88
427.847	226.88
428.069	205.88
428.292	121.88
428.514	81.88
428.736	94.88
428.958	80.88
429.181	86.88
429.403	97.88
429.625	79.88
429.847	93.88
430.069	102.88
430.292	111.88
430.514	85.88
430.736	86.88
430.958	85.88
431.18	95.88
431.402	77.88
431.624	85.88
431.846	67.88
432.068	89.88
432.29	96.88
432.512	82.88
432.734	91.88
432.956	95.88
433.178	102.88
433.4	92.88
433.622	81.88
433.844	78.88
434.066	93.88
434.287	97.88
434.509	94.88
434.731	99.88
434.953	73.88
435.175	76.88
435.397	91.88
435.618	91.88
435.84	104.88
436.062	156.88
436.284	143.88
436.505	126.88
436.727	123.88
436.949	90.88
437.17	83.88
437.392	83.88
437.614	78.88
437.835	131.88
438.057	142.88
438.278	112.88
438.5	120.88
438.721	138.88
438.943	115.88
439.165	76.88
439.386	91.88
439.608	101.88
439.829	106.88
440.05	157.88
440.272	179.88
440.493	117.88
440.715	84.88
440.936	82.88
441.158	95.88
441.379	80.88
441.6	102.88
441.822	94.88
442.043	96.88
442.264	132.88
442.486	106.88
442.707	102.88
442.928	120.88
443.149	177.88
443.371	160.88
443.592	125.88
443.813	120.88
444.034	126.88
444.255	91.88
444.476	81.88
444.698	97.88
444.919	88.88
445.14	139.88
445.361	136.88
445.582	154.88
445.803	194.88
446.024	205.88
446.245	165.88
446.466	137.88
446.687	103.88
446.908	80.88
447.129	100.88
447.35	98.88
447.571	106.88
447.792	103.88
448.013	95.88
448.234	117.88
448.455	108.88
448.675	147.88
448.896	149.88
449.117	98.88
449.338	112.88
449.559	152.88
449.779	152.88
450	111.88
450.221	97.88
450.442	104.88
450.662	84.88
450.883	116.88
451.104	128.88
451.324	100.88
451.545	93.88
451.766	79.88
451.986	92.88
452.207	90.88
452.428	93.88
452.648	121.88
452.869	132.88
453.089	142.88
453.31	147.88
453.53	102.88
453.751	89.88
453.971	121.88
454.192	121.88
454.412	92.88
454.633	95.88
454.853	97.88
455.073	86.88
455.294	98.88
455.514	111.88
455.734	98.88
455.955	99.88
456.175	90.88
456.395	84.88
456.616	81.88
456.836	80.88
457.056	84.88
457.276	83.88
457.497	74.88
457.717	81.88
457.937	80.88
458.157	101.88
458.377	86.88
458.598	115.88
458.818	194.88
459.038	214.88
459.258	150.88
459.478	92.88
459.698	82.88
459.918	97.88
460.138	91.88
460.358	75.88
460.578	79.88
460.798	86.88
461.018	93.88
461.238	96.88
461.458	89.88
461.678	85.88
461.898	91.88
462.118	85.88
462.338	71.88
462.558	96.88
462.777	94.88
462.997	91.88
463.217	103.88
463.437	95.88
463.657	78.88
463.876	102.88
464.096	92.88
464.316	85.88
464.536	100.88
464.755	108.88
464.975	124.88
465.195	219.88
465.414	215.88
465.634	99.88
465.854	91.88
466.073	91.88
466.293	101.88
466.512	82.88
466.732	90.88
466.951	73.88
467.171	107.88
467.391	107.88
467.61	126.88
467.829	138.88
468.049	282.88
468.268	419.88
468.488	151.88
468.707	96.88
468.927	81.88
469.146	91.88
469.365	97.88
469.585	89.88
469.804	112.88
470.023	114.88
470.243	105.88
470.462	113.88
470.681	111.88
470.901	105.88
471.12	108.88
471.339	89.88
471.558	110.88
471.777	99.88
471.997	196.88
472.216	554.88
472.435	1250.88
472.654	340.88
472.873	128.88
473.092	101.88
473.311	92.88
473.53	92.88
473.749	85.88
473.968	112.88
474.187	121.88
474.406	117.88
474.625	94.88
474.844	100.88
475.063	81.88
475.282	97.88
475.501	76.88
475.72	86.88
475.939	90.88
476.158	79.88
476.377	90.88
476.596	101.88
476.814	89.88
477.033	114.88
477.252	98.88
477.471	93.88
477.69	101.88
477.908	103.88
478.127	101.88
478.346	91.88
478.564	90.88
478.783	106.88
479.002	105.88
479.22	84.88
479.439	120.88
479.658	128.88
479.876	108.88
480.095	99.88
480.313	117.88
480.532	125.88
480.751	174.88
480.969	535.88
481.188	2078.88
481.406	1324.88
481.624	239.88
481.843	114.88
482.061	106.88
482.28	104.88
482.498	95.88
482.717	95.88
482.935	93.88
483.153	96.88
483.372	81.88
483.59	86.88
483.808	76.88
484.027	94.88
484.245	96.88
484.463	93.88
484.681	100.88
484.9	96.88
485.118	120.88
485.336	96.88
485.554	94.88
485.772	96.88
485.99	111.88
486.209	96.88
486.427	105.88
486.645	104.88
486.863	121.88
487.081	112.88
487.299	95.88
487.517	105.88
487.735	101.88
487.953	99.88
488.171	92.88
488.389	95.88
488.607	93.88
488.825	97.88
489.043	85.88
489.261	90.88
489.479	79.88
489.696	100.88
489.914	113.88
490.132	85.88
490.35	92.88
490.568	89.88
490.786	102.88
491.003	81.88
491.221	99.88
491.439	93.88
491.657	96.88
491.874	105.88
492.092	89.88
492.31	84.88
492.527	90.88
492.745	108.88
492.963	87.88
493.18	89.88
493.398	99.88
493.615	95.88
493.833	90.88
494.05	93.88
494.268	89.88
494.485	80.88
494.703	85.88
494.92	82.88
495.138	100.88
495.355	91.88
495.573	91.88
495.79	88.88
496.008	74.88
496.225	91.88
496.442	82.88
496.66	94.88
496.877	87.88
497.094	83.88
497.312	82.88
497.529	98.88
497.746	85.88
497.963	83.88
498.181	91.88
498.398	103.88
498.615	124.88
498.832	94.88
499.049	108.88
499.267	87.88
499.484	90.88
499.701	82.88
499.918	83.88
500.135	80.88
500.352	97.88
500.569	102.88
500.786	86.88
501.003	92.88
501.22	109.88
501.437	89.88
501.654	98.88
501.871	115.88
502.088	82.88
502.305	98.88
502.522	88.88
502.739	92.88
502.956	84.88
503.172	90.88
503.389	103.88
503.606	110.88
503.823	96.88
504.04	87.88
504.256	102.88
504.473	90.88
504.69	99.88
504.907	94.88
505.123	77.88
505.34	74.88
505.557	73.88
505.773	88.88
505.99	86.88
506.207	81.88
506.423	93.88
506.64	97.88
506.856	77.88
507.073	92.88
507.289	88.88
507.506	103.88
507.722	144.88
507.939	142.88
508.155	95.88
508.372	99.88
508.588	81.88
508.805	91.88
509.021	90.88
509.238	98.88
509.454	84.88
509.67	106.88
509.887	117.88
510.103	123.88
510.319	243.88
510.536	806.88
510.752	2851.88
510.968	780.88
511.184	177.88
511.401	120.88
511.617	112.88
511.833	119.88
512.049	101.88
512.265	97.88
512.481	93.88
512.698	92.88
512.914	108.88
513.13	98.88
513.346	93.88
