Data from Circ_2007_H10_HRD10591_00080.txt Node
Date: Wed Jan 03 10:22:13 EST 2024
User: Yrep
Spectrometer: HR+D1059
Trigger mode: 1
Integration Time (sec): 1.000000E-1
Scans to average: 1
Electric dark correction enabled: true
Nonlinearity correction enabled: false
Boxcar width: 0
XAxis mode: Wavelengths
Number of Pixels in Spectrum: 2048
>>>>>Begin Spectral Data<<<<<
223.165	-6.12
223.4	-6.12
223.635	-6.12
223.869	-26.12
224.104	-23.12
224.338	-6.12
224.573	-15.12
224.808	-31.12
225.042	-4.12
225.277	-11.12
225.511	-7.12
225.746	9.88
225.98	-6.12
226.215	-6.12
226.449	20.88
226.683	34.88
226.918	31.88
227.152	44.88
227.387	37.88
227.621	39.88
227.856	34.88
228.09	39.88
228.324	48.88
228.559	55.88
228.793	62.88
229.027	58.88
229.262	69.88
229.496	82.88
229.73	103.88
229.964	96.88
230.199	77.88
230.433	66.88
230.667	81.88
230.901	70.88
231.136	69.88
231.37	73.88
231.604	78.88
231.838	77.88
232.072	85.88
232.306	84.88
232.541	83.88
232.775	83.88
233.009	84.88
233.243	92.88
233.477	87.88
233.711	81.88
233.945	76.88
234.179	76.88
234.413	89.88
234.647	88.88
234.881	92.88
235.115	78.88
235.349	75.88
235.583	79.88
235.817	91.88
236.051	65.88
236.285	81.88
236.519	81.88
236.753	78.88
236.987	93.88
237.221	98.88
237.455	89.88
237.689	93.88
237.922	73.88
238.156	72.88
238.39	61.88
238.624	74.88
238.858	74.88
239.091	75.88
239.325	83.88
239.559	83.88
239.793	94.88
240.027	86.88
240.26	75.88
240.494	79.88
240.728	82.88
240.961	80.88
241.195	66.88
241.429	68.88
241.662	69.88
241.896	63.88
242.13	63.88
242.363	61.88
242.597	60.88
242.83	68.88
243.064	70.88
243.298	60.88
243.531	94.88
243.765	61.88
243.998	74.88
244.232	86.88
244.465	79.88
244.699	79.88
244.932	96.88
245.166	77.88
245.399	77.88
245.633	74.88
245.866	84.88
246.099	77.88
246.333	79.88
246.566	92.88
246.8	78.88
247.033	73.88
247.266	78.88
247.5	73.88
247.733	86.88
247.966	77.88
248.2	81.88
248.433	72.88
248.666	83.88
248.899	80.88
249.133	106.88
249.366	103.88
249.599	123.88
249.832	83.88
250.066	83.88
250.299	89.88
250.532	89.88
250.765	90.88
250.998	85.88
251.231	76.88
251.465	82.88
251.698	82.88
251.931	95.88
252.164	63.88
252.397	79.88
252.63	68.88
252.863	78.88
253.096	77.88
253.329	90.88
253.562	80.88
253.795	71.88
254.028	74.88
254.261	76.88
254.494	91.88
254.727	83.88
254.96	82.88
255.193	83.88
255.426	81.88
255.659	75.88
255.892	96.88
256.124	92.88
256.357	88.88
256.59	94.88
256.823	84.88
257.056	74.88
257.289	89.88
257.521	91.88
257.754	85.88
257.987	93.88
258.22	83.88
258.452	77.88
258.685	84.88
258.918	77.88
259.151	69.88
259.383	79.88
259.616	85.88
259.849	65.88
260.081	82.88
260.314	93.88
260.547	82.88
260.779	95.88
261.012	89.88
261.244	91.88
261.477	92.88
261.71	109.88
261.942	126.88
262.175	127.88
262.407	98.88
262.64	77.88
262.872	97.88
263.105	82.88
263.337	89.88
263.57	73.88
263.802	88.88
264.035	96.88
264.267	75.88
264.499	72.88
264.732	86.88
264.964	82.88
265.197	94.88
265.429	87.88
265.661	90.88
265.894	77.88
266.126	89.88
266.358	83.88
266.591	88.88
266.823	86.88
267.055	76.88
267.287	79.88
267.52	77.88
267.752	93.88
267.984	93.88
268.216	80.88
268.448	82.88
268.681	81.88
268.913	76.88
269.145	69.88
269.377	85.88
269.609	96.88
269.841	73.88
270.073	84.88
270.306	84.88
270.538	81.88
270.77	99.88
271.002	86.88
271.234	87.88
271.466	92.88
271.698	90.88
271.93	98.88
272.162	82.88
272.394	88.88
272.626	81.88
272.858	75.88
273.09	81.88
273.322	88.88
273.553	87.88
273.785	93.88
274.017	89.88
274.249	79.88
274.481	87.88
274.713	73.88
274.945	83.88
275.176	108.88
275.408	102.88
275.64	101.88
275.872	115.88
276.104	94.88
276.335	103.88
276.567	114.88
276.799	144.88
277.031	153.88
277.262	193.88
277.494	139.88
277.726	105.88
277.957	94.88
278.189	89.88
278.421	78.88
278.652	93.88
278.884	95.88
279.115	93.88
279.347	88.88
279.579	100.88
279.81	123.88
280.042	165.88
280.273	208.88
280.505	158.88
280.736	101.88
280.968	106.88
281.199	84.88
281.431	83.88
281.662	78.88
281.894	94.88
282.125	104.88
282.356	126.88
282.588	165.88
282.819	150.88
283.051	112.88
283.282	92.88
283.513	83.88
283.745	77.88
283.976	100.88
284.207	89.88
284.439	76.88
284.67	85.88
284.901	72.88
285.132	103.88
285.364	95.88
285.595	95.88
285.826	88.88
286.057	96.88
286.288	65.88
286.52	83.88
286.751	78.88
286.982	97.88
287.213	85.88
287.444	77.88
287.675	94.88
287.906	95.88
288.138	78.88
288.369	93.88
288.6	91.88
288.831	67.88
289.062	97.88
289.293	86.88
289.524	69.88
289.755	79.88
289.986	90.88
290.217	77.88
290.448	89.88
290.679	85.88
290.91	76.88
291.141	94.88
291.371	91.88
291.602	78.88
291.833	91.88
292.064	90.88
292.295	89.88
292.526	77.88
292.757	94.88
292.987	84.88
293.218	77.88
293.449	82.88
293.68	83.88
293.91	81.88
294.141	114.88
294.372	91.88
294.603	84.88
294.833	95.88
295.064	98.88
295.295	96.88
295.525	88.88
295.756	119.88
295.987	136.88
296.217	182.88
296.448	156.88
296.679	109.88
296.909	78.88
297.14	77.88
297.37	95.88
297.601	84.88
297.831	86.88
298.062	82.88
298.292	87.88
298.523	91.88
298.753	87.88
298.984	78.88
299.214	92.88
299.445	101.88
299.675	97.88
299.905	108.88
300.136	88.88
300.366	85.88
300.597	86.88
300.827	99.88
301.057	97.88
301.288	120.88
301.518	100.88
301.748	91.88
301.979	106.88
302.209	95.88
302.439	76.88
302.669	88.88
302.9	94.88
303.13	109.88
303.36	115.88
303.59	133.88
303.82	136.88
304.051	111.88
304.281	106.88
304.511	90.88
304.741	82.88
304.971	100.88
305.201	105.88
305.431	85.88
305.661	91.88
305.891	101.88
306.121	98.88
306.352	125.88
306.582	134.88
306.812	95.88
307.042	113.88
307.272	142.88
307.502	155.88
307.731	146.88
307.961	112.88
308.191	95.88
308.421	90.88
308.651	98.88
308.881	87.88
309.111	100.88
309.341	120.88
309.571	106.88
309.8	106.88
310.03	101.88
310.26	99.88
310.49	89.88
310.72	116.88
310.949	125.88
311.179	109.88
311.409	108.88
311.639	99.88
311.868	104.88
312.098	95.88
312.328	85.88
312.557	108.88
312.787	119.88
313.017	113.88
313.246	110.88
313.476	93.88
313.706	103.88
313.935	98.88
314.165	122.88
314.394	113.88
314.624	102.88
314.853	99.88
315.083	106.88
315.312	100.88
315.542	94.88
315.771	95.88
316.001	100.88
316.23	90.88
316.46	92.88
316.689	103.88
316.919	83.88
317.148	99.88
317.377	99.88
317.607	99.88
317.836	90.88
318.065	94.88
318.295	98.88
318.524	79.88
318.753	86.88
318.983	99.88
319.212	100.88
319.441	125.88
319.67	108.88
319.9	95.88
320.129	85.88
320.358	95.88
320.587	105.88
320.816	119.88
321.046	127.88
321.275	107.88
321.504	107.88
321.733	111.88
321.962	99.88
322.191	111.88
322.42	128.88
322.649	119.88
322.878	141.88
323.108	134.88
323.337	148.88
323.566	157.88
323.795	190.88
324.024	272.88
324.253	530.88
324.482	1124.88
324.71	2349.88
324.939	3148.88
325.168	1123.88
325.397	333.88
325.626	191.88
325.855	140.88
326.084	137.88
326.313	153.88
326.542	175.88
326.77	301.88
326.999	587.88
327.228	1185.88
327.457	2213.88
327.686	1772.88
327.914	575.88
328.143	511.88
328.372	596.88
328.6	332.88
328.829	190.88
329.058	186.88
329.287	205.88
329.515	189.88
329.744	220.88
329.972	405.88
330.201	822.88
330.43	1231.88
330.658	584.88
330.887	309.88
331.115	209.88
331.344	131.88
331.572	128.88
331.801	116.88
332.03	129.88
332.258	112.88
332.486	98.88
332.715	95.88
332.943	123.88
333.172	122.88
333.4	141.88
333.629	168.88
333.857	223.88
334.085	376.88
334.314	767.88
334.542	1491.88
334.771	1459.88
334.999	409.88
335.227	172.88
335.455	128.88
335.684	115.88
335.912	116.88
336.14	82.88
336.369	104.88
336.597	107.88
336.825	112.88
337.053	107.88
337.281	95.88
337.51	76.88
337.738	78.88
337.966	109.88
338.194	114.88
338.422	116.88
338.65	108.88
338.878	108.88
339.106	102.88
339.334	100.88
339.562	87.88
339.79	83.88
340.018	97.88
340.246	102.88
340.474	106.88
340.702	100.88
340.93	96.88
341.158	94.88
341.386	107.88
341.614	104.88
341.842	105.88
342.07	98.88
342.298	99.88
342.526	86.88
342.754	84.88
342.981	97.88
343.209	97.88
343.437	119.88
343.665	101.88
343.893	94.88
344.12	85.88
344.348	82.88
344.576	74.88
344.804	91.88
345.031	108.88
345.259	110.88
345.487	105.88
345.714	96.88
345.942	90.88
346.17	88.88
346.397	96.88
346.625	105.88
346.853	89.88
347.08	88.88
347.308	104.88
347.535	110.88
347.763	115.88
347.99	111.88
348.218	113.88
348.445	106.88
348.673	118.88
348.9	119.88
349.128	121.88
349.355	106.88
349.583	108.88
349.81	100.88
350.037	97.88
350.265	99.88
350.492	96.88
350.72	97.88
350.947	116.88
351.174	122.88
351.402	123.88
351.629	108.88
351.856	111.88
352.083	113.88
352.311	124.88
352.538	116.88
352.765	116.88
352.992	138.88
353.22	119.88
353.447	106.88
353.674	90.88
353.901	103.88
354.128	88.88
354.355	91.88
354.583	95.88
354.81	101.88
355.037	93.88
355.264	100.88
355.491	88.88
355.718	81.88
355.945	90.88
356.172	97.88
356.399	95.88
356.626	95.88
356.853	89.88
357.08	80.88
357.307	95.88
357.534	94.88
357.761	63.88
357.988	101.88
358.215	91.88
358.441	87.88
358.668	86.88
358.895	87.88
359.122	95.88
359.349	95.88
359.576	94.88
359.802	116.88
360.029	149.88
360.256	143.88
360.483	114.88
360.709	89.88
360.936	113.88
361.163	115.88
361.39	109.88
361.616	99.88
361.843	93.88
362.07	104.88
362.296	99.88
362.523	97.88
362.749	92.88
362.976	85.88
363.203	103.88
363.429	97.88
363.656	88.88
363.882	101.88
364.109	91.88
364.335	96.88
364.562	106.88
364.788	104.88
365.015	115.88
365.241	110.88
365.468	109.88
365.694	110.88
365.92	120.88
366.147	85.88
366.373	91.88
366.599	87.88
366.826	110.88
367.052	101.88
367.278	93.88
367.505	79.88
367.731	97.88
367.957	87.88
368.184	92.88
368.41	114.88
368.636	127.88
368.862	136.88
369.089	144.88
369.315	115.88
369.541	94.88
369.767	102.88
369.993	88.88
370.219	105.88
370.445	93.88
370.672	85.88
370.898	76.88
371.124	90.88
371.35	90.88
371.576	83.88
371.802	81.88
372.028	81.88
372.254	84.88
372.48	85.88
372.706	95.88
372.932	78.88
373.158	91.88
373.384	95.88
373.61	101.88
373.835	87.88
374.061	88.88
374.287	93.88
374.513	79.88
374.739	89.88
374.965	85.88
375.191	82.88
375.416	75.88
375.642	82.88
375.868	91.88
376.094	98.88
376.319	82.88
376.545	83.88
376.771	88.88
376.997	92.88
377.222	89.88
377.448	96.88
377.674	80.88
377.899	96.88
378.125	98.88
378.35	84.88
378.576	100.88
378.802	92.88
379.027	77.88
379.253	75.88
379.478	82.88
379.704	81.88
379.929	102.88
380.155	97.88
380.38	100.88
380.606	84.88
380.831	96.88
381.057	100.88
381.282	93.88
381.507	92.88
381.733	98.88
381.958	88.88
382.184	104.88
382.409	92.88
382.634	106.88
382.86	85.88
383.085	79.88
383.31	98.88
383.535	89.88
383.761	99.88
383.986	85.88
384.211	99.88
384.436	89.88
384.662	88.88
384.887	83.88
385.112	105.88
385.337	103.88
385.562	99.88
385.787	106.88
386.013	131.88
386.238	121.88
386.463	126.88
386.688	87.88
386.913	104.88
387.138	103.88
387.363	97.88
387.588	95.88
387.813	100.88
388.038	123.88
388.263	99.88
388.488	94.88
388.713	91.88
388.938	82.88
389.163	90.88
389.387	99.88
389.612	93.88
389.837	90.88
390.062	100.88
390.287	101.88
390.512	90.88
390.736	88.88
390.961	84.88
391.186	103.88
391.411	88.88
391.636	96.88
391.86	89.88
392.085	92.88
392.31	92.88
392.534	89.88
392.759	84.88
392.984	81.88
393.208	95.88
393.433	94.88
393.658	104.88
393.882	84.88
394.107	96.88
394.331	83.88
394.556	81.88
394.78	97.88
395.005	92.88
395.229	94.88
395.454	87.88
395.678	79.88
395.903	85.88
396.127	95.88
396.352	90.88
396.576	85.88
396.801	82.88
397.025	92.88
397.249	86.88
397.474	86.88
397.698	73.88
397.922	92.88
398.147	84.88
398.371	81.88
398.595	84.88
398.82	68.88
399.044	86.88
399.268	92.88
399.492	82.88
399.717	78.88
399.941	91.88
400.165	90.88
400.389	89.88
400.613	88.88
400.837	92.88
401.062	79.88
401.286	87.88
401.51	85.88
401.734	106.88
401.958	116.88
402.182	174.88
402.406	229.88
402.63	164.88
402.854	87.88
403.078	87.88
403.302	95.88
403.526	96.88
403.75	85.88
403.974	79.88
404.198	97.88
404.422	98.88
404.645	91.88
404.869	98.88
405.093	117.88
405.317	133.88
405.541	150.88
405.765	122.88
405.988	140.88
406.212	239.88
406.436	365.88
406.66	240.88
406.883	127.88
407.107	119.88
407.331	106.88
407.555	123.88
407.778	106.88
408.002	83.88
408.226	77.88
408.449	91.88
408.673	100.88
408.896	81.88
409.12	114.88
409.344	89.88
409.567	85.88
409.791	90.88
410.014	99.88
410.238	85.88
410.461	92.88
410.685	103.88
410.908	103.88
411.132	109.88
411.355	124.88
411.578	97.88
411.802	76.88
412.025	91.88
412.249	99.88
412.472	112.88
412.695	130.88
412.919	99.88
413.142	91.88
413.365	97.88
413.589	99.88
413.812	75.88
414.035	92.88
414.258	97.88
414.482	89.88
414.705	92.88
414.928	89.88
415.151	87.88
415.374	96.88
415.597	92.88
415.821	85.88
416.044	92.88
416.267	93.88
416.49	86.88
416.713	82.88
416.936	96.88
417.159	104.88
417.382	98.88
417.605	110.88
417.828	115.88
418.051	103.88
418.274	88.88
418.497	93.88
418.72	90.88
418.943	87.88
419.166	87.88
419.389	81.88
419.611	96.88
419.834	89.88
420.057	86.88
420.28	101.88
420.503	77.88
420.726	92.88
420.948	104.88
421.171	103.88
421.394	88.88
421.617	76.88
421.839	80.88
422.062	84.88
422.285	87.88
422.507	93.88
422.73	107.88
422.953	106.88
423.175	100.88
423.398	94.88
423.621	89.88
423.843	87.88
424.066	79.88
424.288	91.88
424.511	91.88
424.733	101.88
424.956	121.88
425.178	125.88
425.401	124.88
425.623	121.88
425.846	102.88
426.068	98.88
426.291	95.88
426.513	88.88
426.735	103.88
426.958	99.88
427.18	112.88
427.402	189.88
427.625	280.88
427.847	253.88
428.069	213.88
428.292	132.88
428.514	107.88
428.736	88.88
428.958	100.88
429.181	100.88
429.403	79.88
429.625	85.88
429.847	99.88
430.069	123.88
430.292	107.88
430.514	93.88
430.736	85.88
430.958	83.88
431.18	96.88
431.402	78.88
431.624	98.88
431.846	84.88
432.068	83.88
432.29	91.88
432.512	87.88
432.734	80.88
432.956	97.88
433.178	103.88
433.4	108.88
433.622	82.88
433.844	103.88
434.066	104.88
434.287	98.88
434.509	106.88
434.731	79.88
434.953	109.88
435.175	89.88
435.397	75.88
435.618	88.88
435.84	112.88
436.062	153.88
436.284	157.88
436.505	125.88
436.727	115.88
436.949	81.88
437.17	82.88
437.392	80.88
437.614	99.88
437.835	117.88
438.057	157.88
438.278	123.88
438.5	122.88
438.721	158.88
438.943	113.88
439.165	100.88
439.386	92.88
439.608	99.88
439.829	101.88
440.05	165.88
440.272	197.88
440.493	141.88
440.715	84.88
440.936	80.88
441.158	91.88
441.379	95.88
441.6	98.88
441.822	89.88
442.043	94.88
442.264	130.88
442.486	114.88
442.707	107.88
442.928	130.88
443.149	180.88
443.371	184.88
443.592	129.88
443.813	128.88
444.034	120.88
444.255	94.88
444.476	88.88
444.698	102.88
444.919	88.88
445.14	138.88
445.361	155.88
445.582	144.88
445.803	203.88
446.024	208.88
446.245	175.88
446.466	131.88
446.687	98.88
446.908	92.88
447.129	100.88
447.35	85.88
447.571	104.88
447.792	106.88
448.013	99.88
448.234	123.88
448.455	107.88
448.675	123.88
448.896	126.88
449.117	103.88
449.338	119.88
449.559	135.88
449.779	162.88
450	107.88
450.221	95.88
450.442	87.88
450.662	107.88
450.883	130.88
451.104	155.88
451.324	104.88
451.545	96.88
451.766	95.88
451.986	69.88
452.207	83.88
452.428	109.88
452.648	121.88
452.869	139.88
453.089	158.88
453.31	159.88
453.53	115.88
453.751	104.88
453.971	130.88
454.192	134.88
454.412	94.88
454.633	79.88
454.853	95.88
455.073	104.88
455.294	92.88
455.514	124.88
455.734	92.88
455.955	90.88
456.175	99.88
456.395	80.88
456.616	82.88
456.836	82.88
457.056	83.88
457.276	78.88
457.497	76.88
457.717	97.88
457.937	95.88
458.157	96.88
458.377	106.88
458.598	127.88
458.818	225.88
459.038	266.88
459.258	155.88
459.478	95.88
459.698	91.88
459.918	93.88
460.138	81.88
460.358	92.88
460.578	88.88
460.798	93.88
461.018	98.88
461.238	93.88
461.458	80.88
461.678	84.88
461.898	87.88
462.118	88.88
462.338	84.88
462.558	101.88
462.777	100.88
462.997	91.88
463.217	122.88
463.437	100.88
463.657	78.88
463.876	89.88
464.096	100.88
464.316	99.88
464.536	109.88
464.755	103.88
464.975	137.88
465.195	256.88
465.414	271.88
465.634	113.88
465.854	104.88
466.073	95.88
466.293	94.88
466.512	87.88
466.732	89.88
466.951	91.88
467.171	93.88
467.391	106.88
467.61	153.88
467.829	193.88
468.049	440.88
468.268	692.88
468.488	203.88
468.707	102.88
468.927	83.88
469.146	93.88
469.365	90.88
469.585	98.88
469.804	98.88
470.023	115.88
470.243	114.88
470.462	117.88
470.681	149.88
470.901	97.88
471.12	88.88
471.339	94.88
471.558	121.88
471.777	126.88
471.997	249.88
472.216	876.88
472.435	2083.88
472.654	523.88
472.873	154.88
473.092	103.88
473.311	82.88
473.53	92.88
473.749	102.88
473.968	110.88
474.187	143.88
474.406	114.88
474.625	90.88
474.844	87.88
475.063	78.88
475.282	89.88
475.501	93.88
475.72	105.88
475.939	77.88
476.158	99.88
476.377	90.88
476.596	87.88
476.814	92.88
477.033	101.88
477.252	82.88
477.471	91.88
477.69	92.88
477.908	92.88
478.127	94.88
478.346	95.88
478.564	93.88
478.783	103.88
479.002	103.88
479.22	118.88
479.439	129.88
479.658	146.88
479.876	128.88
480.095	115.88
480.313	131.88
480.532	161.88
480.751	234.88
480.969	809.88
481.188	3479.88
481.406	2142.88
481.624	319.88
481.843	142.88
482.061	113.88
482.28	95.88
482.498	96.88
482.717	85.88
482.935	88.88
483.153	95.88
483.372	101.88
483.59	98.88
483.808	89.88
484.027	84.88
484.245	87.88
484.463	96.88
484.681	89.88
484.9	93.88
485.118	98.88
485.336	106.88
485.554	98.88
485.772	115.88
485.99	95.88
486.209	112.88
486.427	113.88
486.645	134.88
486.863	120.88
487.081	108.88
487.299	97.88
487.517	91.88
487.735	92.88
487.953	82.88
488.171	104.88
488.389	90.88
488.607	90.88
488.825	94.88
489.043	101.88
489.261	87.88
489.479	89.88
489.696	94.88
489.914	84.88
490.132	74.88
490.35	88.88
490.568	96.88
490.786	80.88
491.003	83.88
491.221	97.88
491.439	104.88
491.657	92.88
491.874	85.88
492.092	99.88
492.31	85.88
492.527	104.88
492.745	83.88
492.963	91.88
493.18	98.88
493.398	92.88
493.615	104.88
493.833	87.88
494.05	83.88
494.268	84.88
494.485	100.88
494.703	103.88
494.92	84.88
495.138	94.88
495.355	97.88
495.573	94.88
495.79	89.88
496.008	97.88
496.225	93.88
496.442	85.88
496.66	90.88
496.877	85.88
497.094	89.88
497.312	102.88
497.529	80.88
497.746	84.88
497.963	85.88
498.181	94.88
498.398	91.88
498.615	123.88
498.832	104.88
499.049	94.88
499.267	85.88
499.484	92.88
499.701	81.88
499.918	93.88
500.135	87.88
500.352	100.88
500.569	109.88
500.786	99.88
501.003	85.88
501.22	93.88
501.437	87.88
501.654	103.88
501.871	140.88
502.088	108.88
502.305	93.88
502.522	86.88
502.739	82.88
502.956	100.88
503.172	94.88
503.389	111.88
503.606	133.88
503.823	120.88
504.04	89.88
504.256	89.88
504.473	89.88
504.69	90.88
504.907	80.88
505.123	88.88
505.34	84.88
505.557	90.88
505.773	79.88
505.99	93.88
506.207	92.88
506.423	93.88
506.64	98.88
506.856	96.88
507.073	82.88
507.289	88.88
507.506	104.88
507.722	133.88
507.939	151.88
508.155	95.88
508.372	101.88
508.588	90.88
508.805	101.88
509.021	105.88
509.238	84.88
509.454	96.88
509.67	112.88
509.887	107.88
510.103	151.88
510.319	258.88
510.536	1034.88
510.752	3667.88
510.968	1002.88
511.184	196.88
511.401	136.88
511.617	108.88
511.833	112.88
512.049	96.88
512.265	106.88
512.481	92.88
512.698	90.88
512.914	85.88
513.13	100.88
