Data from Circ_2007_H10_HRD10591_00040.txt Node
Date: Wed Jan 03 10:22:05 EST 2024
User: Yrep
Spectrometer: HR+D1059
Trigger mode: 1
Integration Time (sec): 1.000000E-1
Scans to average: 1
Electric dark correction enabled: true
Nonlinearity correction enabled: false
Boxcar width: 0
XAxis mode: Wavelengths
Number of Pixels in Spectrum: 2048
>>>>>Begin Spectral Data<<<<<
223.165	-6.38
223.4	-6.38
223.635	-6.38
223.869	-22.38
224.104	-30.38
224.338	-18.38
224.573	-14.38
224.808	-14.38
225.042	2.62
225.277	-2.38
225.511	5.62
225.746	2.62
225.98	-2.38
226.215	12.62
226.449	6.62
226.683	9.62
226.918	23.62
227.152	47.62
227.387	37.62
227.621	49.62
227.856	48.62
228.09	47.62
228.324	47.62
228.559	79.62
228.793	54.62
229.027	77.62
229.262	81.62
229.496	86.62
229.73	97.62
229.964	100.62
230.199	88.62
230.433	86.62
230.667	83.62
230.901	70.62
231.136	72.62
231.37	82.62
231.604	71.62
231.838	87.62
232.072	68.62
232.306	89.62
232.541	80.62
232.775	90.62
233.009	84.62
233.243	93.62
233.477	73.62
233.711	94.62
233.945	96.62
234.179	73.62
234.413	79.62
234.647	76.62
234.881	85.62
235.115	83.62
235.349	72.62
235.583	77.62
235.817	92.62
236.051	77.62
236.285	78.62
236.519	93.62
236.753	72.62
236.987	93.62
237.221	93.62
237.455	101.62
237.689	78.62
237.922	76.62
238.156	86.62
238.39	84.62
238.624	88.62
238.858	63.62
239.091	89.62
239.325	80.62
239.559	86.62
239.793	64.62
240.027	63.62
240.26	91.62
240.494	76.62
240.728	75.62
240.961	91.62
241.195	93.62
241.429	84.62
241.662	87.62
241.896	79.62
242.13	80.62
242.363	101.62
242.597	91.62
242.83	77.62
243.064	85.62
243.298	93.62
243.531	93.62
243.765	70.62
243.998	83.62
244.232	83.62
244.465	79.62
244.699	85.62
244.932	86.62
245.166	90.62
245.399	81.62
245.633	77.62
245.866	76.62
246.099	74.62
246.333	84.62
246.566	90.62
246.8	88.62
247.033	71.62
247.266	95.62
247.5	73.62
247.733	79.62
247.966	88.62
248.2	97.62
248.433	83.62
248.666	78.62
248.899	94.62
249.133	112.62
249.366	114.62
249.599	116.62
249.832	82.62
250.066	84.62
250.299	85.62
250.532	84.62
250.765	83.62
250.998	90.62
251.231	85.62
251.465	78.62
251.698	72.62
251.931	77.62
252.164	86.62
252.397	86.62
252.63	76.62
252.863	89.62
253.096	99.62
253.329	89.62
253.562	89.62
253.795	74.62
254.028	90.62
254.261	83.62
254.494	98.62
254.727	81.62
254.96	94.62
255.193	82.62
255.426	96.62
255.659	78.62
255.892	87.62
256.124	85.62
256.357	86.62
256.59	92.62
256.823	83.62
257.056	81.62
257.289	86.62
257.521	90.62
257.754	77.62
257.987	84.62
258.22	94.62
258.452	89.62
258.685	110.62
258.918	82.62
259.151	85.62
259.383	83.62
259.616	88.62
259.849	92.62
260.081	80.62
260.314	86.62
260.547	93.62
260.779	86.62
261.012	91.62
261.244	105.62
261.477	104.62
261.71	114.62
261.942	139.62
262.175	141.62
262.407	98.62
262.64	87.62
262.872	91.62
263.105	94.62
263.337	87.62
263.57	97.62
263.802	88.62
264.035	85.62
264.267	81.62
264.499	76.62
264.732	74.62
264.964	92.62
265.197	100.62
265.429	86.62
265.661	87.62
265.894	86.62
266.126	94.62
266.358	100.62
266.591	78.62
266.823	102.62
267.055	85.62
267.287	90.62
267.52	99.62
267.752	82.62
267.984	79.62
268.216	85.62
268.448	73.62
268.681	93.62
268.913	72.62
269.145	79.62
269.377	73.62
269.609	83.62
269.841	84.62
270.073	87.62
270.306	97.62
270.538	92.62
270.77	84.62
271.002	79.62
271.234	85.62
271.466	75.62
271.698	80.62
271.93	101.62
272.162	95.62
272.394	101.62
272.626	104.62
272.858	94.62
273.09	93.62
273.322	90.62
273.553	92.62
273.785	88.62
274.017	85.62
274.249	105.62
274.481	81.62
274.713	101.62
274.945	89.62
275.176	113.62
275.408	100.62
275.64	108.62
275.872	111.62
276.104	101.62
276.335	95.62
276.567	119.62
276.799	141.62
277.031	136.62
277.262	158.62
277.494	113.62
277.726	107.62
277.957	92.62
278.189	99.62
278.421	73.62
278.652	94.62
278.884	95.62
279.115	99.62
279.347	82.62
279.579	98.62
279.81	114.62
280.042	140.62
280.273	182.62
280.505	142.62
280.736	107.62
280.968	101.62
281.199	92.62
281.431	88.62
281.662	90.62
281.894	102.62
282.125	103.62
282.356	151.62
282.588	178.62
282.819	132.62
283.051	93.62
283.282	94.62
283.513	103.62
283.745	97.62
283.976	92.62
284.207	86.62
284.439	91.62
284.67	101.62
284.901	109.62
285.132	96.62
285.364	93.62
285.595	82.62
285.826	108.62
286.057	91.62
286.288	79.62
286.52	95.62
286.751	87.62
286.982	87.62
287.213	100.62
287.444	100.62
287.675	104.62
287.906	95.62
288.138	95.62
288.369	94.62
288.6	96.62
288.831	95.62
289.062	95.62
289.293	92.62
289.524	91.62
289.755	93.62
289.986	95.62
290.217	95.62
290.448	99.62
290.679	84.62
290.91	87.62
291.141	93.62
291.371	88.62
291.602	88.62
291.833	91.62
292.064	98.62
292.295	92.62
292.526	95.62
292.757	102.62
292.987	86.62
293.218	99.62
293.449	117.62
293.68	97.62
293.91	90.62
294.141	100.62
294.372	93.62
294.603	82.62
294.833	88.62
295.064	92.62
295.295	99.62
295.525	94.62
295.756	120.62
295.987	130.62
296.217	163.62
296.448	147.62
296.679	88.62
296.909	79.62
297.14	95.62
297.37	96.62
297.601	93.62
297.831	101.62
298.062	98.62
298.292	102.62
298.523	88.62
298.753	99.62
298.984	104.62
299.214	87.62
299.445	104.62
299.675	81.62
299.905	113.62
300.136	90.62
300.366	97.62
300.597	91.62
300.827	109.62
301.057	107.62
301.288	105.62
301.518	121.62
301.748	103.62
301.979	110.62
302.209	100.62
302.439	87.62
302.669	108.62
302.9	97.62
303.13	106.62
303.36	105.62
303.59	135.62
303.82	135.62
304.051	96.62
304.281	89.62
304.511	101.62
304.741	92.62
304.971	77.62
305.201	95.62
305.431	100.62
305.661	100.62
305.891	97.62
306.121	110.62
306.352	101.62
306.582	118.62
306.812	97.62
307.042	124.62
307.272	147.62
307.502	150.62
307.731	129.62
307.961	112.62
308.191	97.62
308.421	97.62
308.651	91.62
308.881	111.62
309.111	94.62
309.341	104.62
309.571	102.62
309.8	100.62
310.03	97.62
310.26	99.62
310.49	104.62
310.72	104.62
310.949	118.62
311.179	133.62
311.409	110.62
311.639	119.62
311.868	101.62
312.098	105.62
312.328	105.62
312.557	118.62
312.787	123.62
313.017	129.62
313.246	109.62
313.476	105.62
313.706	92.62
313.935	107.62
314.165	108.62
314.394	114.62
314.624	115.62
314.853	98.62
315.083	105.62
315.312	98.62
315.542	79.62
315.771	103.62
316.001	94.62
316.23	94.62
316.46	88.62
316.689	103.62
316.919	104.62
317.148	114.62
317.377	110.62
317.607	110.62
317.836	98.62
318.065	96.62
318.295	100.62
318.524	84.62
318.753	108.62
318.983	96.62
319.212	112.62
319.441	125.62
319.67	135.62
319.9	94.62
320.129	96.62
320.358	106.62
320.587	110.62
320.816	114.62
321.046	113.62
321.275	93.62
321.504	106.62
321.733	102.62
321.962	111.62
322.191	97.62
322.42	132.62
322.649	120.62
322.878	136.62
323.108	150.62
323.337	154.62
323.566	162.62
323.795	203.62
324.024	255.62
324.253	534.62
324.482	1186.62
324.71	2452.62
324.939	3415.62
325.168	1232.62
325.397	329.62
325.626	183.62
325.855	160.62
326.084	152.62
326.313	160.62
326.542	181.62
326.77	287.62
326.999	627.62
327.228	1294.62
327.457	2478.62
327.686	1999.62
327.914	588.62
328.143	422.62
328.372	469.62
328.6	301.62
328.829	177.62
329.058	196.62
329.287	203.62
329.515	167.62
329.744	194.62
329.972	299.62
330.201	607.62
330.43	917.62
330.658	471.62
330.887	289.62
331.115	215.62
331.344	136.62
331.572	123.62
331.801	117.62
332.03	113.62
332.258	106.62
332.486	101.62
332.715	107.62
332.943	108.62
333.172	120.62
333.4	125.62
333.629	146.62
333.857	201.62
334.085	307.62
334.314	583.62
334.542	1123.62
334.771	1099.62
334.999	320.62
335.227	156.62
335.455	139.62
335.684	117.62
335.912	123.62
336.14	108.62
336.369	109.62
336.597	113.62
336.825	117.62
337.053	100.62
337.281	107.62
337.51	89.62
337.738	97.62
337.966	103.62
338.194	117.62
338.422	108.62
338.65	95.62
338.878	93.62
339.106	89.62
339.334	98.62
339.562	94.62
339.79	95.62
340.018	103.62
340.246	94.62
340.474	116.62
340.702	95.62
340.93	92.62
341.158	107.62
341.386	105.62
341.614	103.62
341.842	99.62
342.07	109.62
342.298	93.62
342.526	91.62
342.754	105.62
342.981	76.62
343.209	91.62
343.437	100.62
343.665	98.62
343.893	92.62
344.12	82.62
344.348	93.62
344.576	105.62
344.804	103.62
345.031	120.62
345.259	110.62
345.487	108.62
345.714	104.62
345.942	96.62
346.17	93.62
346.397	104.62
346.625	108.62
346.853	85.62
347.08	97.62
347.308	114.62
347.535	115.62
347.763	103.62
347.99	115.62
348.218	123.62
348.445	137.62
348.673	130.62
348.9	125.62
349.128	114.62
349.355	94.62
349.583	97.62
349.81	108.62
350.037	113.62
350.265	94.62
350.492	89.62
350.72	91.62
350.947	115.62
351.174	116.62
351.402	111.62
351.629	125.62
351.856	120.62
352.083	112.62
352.311	126.62
352.538	147.62
352.765	123.62
352.992	129.62
353.22	124.62
353.447	106.62
353.674	115.62
353.901	105.62
354.128	84.62
354.355	99.62
354.583	114.62
354.81	112.62
355.037	90.62
355.264	107.62
355.491	98.62
355.718	89.62
355.945	84.62
356.172	85.62
356.399	96.62
356.626	109.62
356.853	91.62
357.08	112.62
357.307	98.62
357.534	93.62
357.761	101.62
357.988	103.62
358.215	109.62
358.441	102.62
358.668	101.62
358.895	101.62
359.122	100.62
359.349	97.62
359.576	103.62
359.802	133.62
360.029	156.62
360.256	157.62
360.483	133.62
360.709	110.62
360.936	105.62
361.163	108.62
361.39	110.62
361.616	103.62
361.843	103.62
362.07	115.62
362.296	112.62
362.523	104.62
362.749	110.62
362.976	101.62
363.203	90.62
363.429	102.62
363.656	96.62
363.882	92.62
364.109	88.62
364.335	114.62
364.562	93.62
364.788	107.62
365.015	103.62
365.241	127.62
365.468	117.62
365.694	118.62
365.92	114.62
366.147	108.62
366.373	91.62
366.599	97.62
366.826	105.62
367.052	86.62
367.278	108.62
367.505	100.62
367.731	108.62
367.957	111.62
368.184	107.62
368.41	110.62
368.636	137.62
368.862	131.62
369.089	133.62
369.315	108.62
369.541	122.62
369.767	108.62
369.993	101.62
370.219	111.62
370.445	86.62
370.672	91.62
370.898	87.62
371.124	105.62
371.35	91.62
371.576	92.62
371.802	84.62
372.028	95.62
372.254	99.62
372.48	87.62
372.706	98.62
372.932	94.62
373.158	100.62
373.384	100.62
373.61	112.62
373.835	98.62
374.061	98.62
374.287	107.62
374.513	91.62
374.739	95.62
374.965	102.62
375.191	99.62
375.416	96.62
375.642	88.62
375.868	104.62
376.094	94.62
376.319	95.62
376.545	92.62
376.771	88.62
376.997	96.62
377.222	105.62
377.448	105.62
377.674	101.62
377.899	98.62
378.125	82.62
378.35	96.62
378.576	99.62
378.802	102.62
379.027	101.62
379.253	92.62
379.478	92.62
379.704	104.62
379.929	117.62
380.155	102.62
380.38	101.62
380.606	101.62
380.831	97.62
381.057	95.62
381.282	107.62
381.507	93.62
381.733	118.62
381.958	95.62
382.184	110.62
382.409	102.62
382.634	115.62
382.86	113.62
383.085	103.62
383.31	102.62
383.535	106.62
383.761	109.62
383.986	93.62
384.211	110.62
384.436	111.62
384.662	113.62
384.887	118.62
385.112	111.62
385.337	116.62
385.562	103.62
385.787	105.62
386.013	128.62
386.238	139.62
386.463	120.62
386.688	114.62
386.913	118.62
387.138	116.62
387.363	100.62
387.588	105.62
387.813	103.62
388.038	121.62
388.263	123.62
388.488	117.62
388.713	107.62
388.938	95.62
389.163	103.62
389.387	100.62
389.612	91.62
389.837	91.62
390.062	92.62
390.287	102.62
390.512	99.62
390.736	88.62
390.961	91.62
391.186	94.62
391.411	103.62
391.636	89.62
391.86	87.62
392.085	88.62
392.31	86.62
392.534	90.62
392.759	109.62
392.984	94.62
393.208	95.62
393.433	111.62
393.658	113.62
393.882	101.62
394.107	78.62
394.331	84.62
394.556	101.62
394.78	96.62
395.005	89.62
395.229	96.62
395.454	81.62
395.678	97.62
395.903	91.62
396.127	105.62
396.352	97.62
396.576	78.62
396.801	91.62
397.025	93.62
397.249	89.62
397.474	89.62
397.698	94.62
397.922	96.62
398.147	82.62
398.371	93.62
398.595	96.62
398.82	83.62
399.044	85.62
399.268	85.62
399.492	87.62
399.717	101.62
399.941	109.62
400.165	92.62
400.389	104.62
400.613	86.62
400.837	93.62
401.062	99.62
401.286	109.62
401.51	112.62
401.734	98.62
401.958	104.62
402.182	135.62
402.406	211.62
402.63	142.62
402.854	95.62
403.078	95.62
403.302	94.62
403.526	99.62
403.75	94.62
403.974	85.62
404.198	84.62
404.422	105.62
404.645	97.62
404.869	99.62
405.093	128.62
405.317	143.62
405.541	132.62
405.765	131.62
405.988	136.62
406.212	218.62
406.436	305.62
406.66	219.62
406.883	129.62
407.107	119.62
407.331	117.62
407.555	119.62
407.778	122.62
408.002	111.62
408.226	87.62
408.449	97.62
408.673	97.62
408.896	109.62
409.12	107.62
409.344	94.62
409.567	102.62
409.791	101.62
410.014	94.62
410.238	87.62
410.461	88.62
410.685	97.62
410.908	107.62
411.132	110.62
411.355	110.62
411.578	103.62
411.802	96.62
412.025	99.62
412.249	114.62
412.472	119.62
412.695	129.62
412.919	113.62
413.142	96.62
413.365	93.62
413.589	88.62
413.812	93.62
414.035	100.62
414.258	103.62
414.482	92.62
414.705	94.62
414.928	97.62
415.151	88.62
415.374	99.62
415.597	92.62
415.821	89.62
416.044	105.62
416.267	94.62
416.49	86.62
416.713	90.62
416.936	96.62
417.159	90.62
417.382	98.62
417.605	111.62
417.828	95.62
418.051	95.62
418.274	86.62
418.497	85.62
418.72	94.62
418.943	88.62
419.166	81.62
419.389	85.62
419.611	102.62
419.834	87.62
420.057	100.62
420.28	87.62
420.503	101.62
420.726	99.62
420.948	90.62
421.171	108.62
421.394	94.62
421.617	92.62
421.839	103.62
422.062	97.62
422.285	97.62
422.507	114.62
422.73	118.62
422.953	100.62
423.175	90.62
423.398	92.62
423.621	96.62
423.843	77.62
424.066	87.62
424.288	96.62
424.511	99.62
424.733	120.62
424.956	137.62
425.178	108.62
425.401	102.62
425.623	120.62
425.846	111.62
426.068	93.62
426.291	115.62
426.513	111.62
426.735	95.62
426.958	104.62
427.18	113.62
427.402	177.62
427.625	264.62
427.847	245.62
428.069	201.62
428.292	114.62
428.514	89.62
428.736	91.62
428.958	94.62
429.181	105.62
429.403	92.62
429.625	86.62
429.847	96.62
430.069	107.62
430.292	93.62
430.514	97.62
430.736	87.62
430.958	86.62
431.18	79.62
431.402	84.62
431.624	76.62
431.846	88.62
432.068	99.62
432.29	120.62
432.512	81.62
432.734	108.62
432.956	97.62
433.178	100.62
433.4	123.62
433.622	101.62
433.844	98.62
434.066	97.62
434.287	107.62
434.509	94.62
434.731	97.62
434.953	80.62
435.175	94.62
435.397	94.62
435.618	116.62
435.84	128.62
436.062	157.62
436.284	151.62
436.505	126.62
436.727	113.62
436.949	113.62
437.17	101.62
437.392	95.62
437.614	94.62
437.835	144.62
438.057	159.62
438.278	129.62
438.5	135.62
438.721	150.62
438.943	109.62
439.165	100.62
439.386	104.62
439.608	96.62
439.829	113.62
440.05	153.62
440.272	199.62
440.493	111.62
440.715	96.62
440.936	96.62
441.158	97.62
441.379	99.62
441.6	99.62
441.822	107.62
442.043	112.62
442.264	128.62
442.486	129.62
442.707	103.62
442.928	129.62
443.149	174.62
443.371	181.62
443.592	140.62
443.813	131.62
444.034	130.62
444.255	98.62
444.476	84.62
444.698	98.62
444.919	102.62
445.14	131.62
445.361	151.62
445.582	151.62
445.803	207.62
446.024	183.62
446.245	190.62
446.466	127.62
446.687	96.62
446.908	99.62
447.129	99.62
447.35	100.62
447.571	90.62
447.792	102.62
448.013	116.62
448.234	135.62
448.455	109.62
448.675	129.62
448.896	143.62
449.117	100.62
449.338	126.62
449.559	165.62
449.779	144.62
450	107.62
450.221	90.62
450.442	88.62
450.662	99.62
450.883	137.62
451.104	142.62
451.324	116.62
451.545	93.62
451.766	98.62
451.986	85.62
452.207	104.62
452.428	112.62
452.648	109.62
452.869	139.62
453.089	130.62
453.31	147.62
453.53	113.62
453.751	112.62
453.971	131.62
454.192	135.62
454.412	105.62
454.633	94.62
454.853	89.62
455.073	86.62
455.294	104.62
455.514	121.62
455.734	100.62
455.955	93.62
456.175	88.62
456.395	87.62
456.616	100.62
456.836	95.62
457.056	84.62
457.276	88.62
457.497	106.62
457.717	97.62
457.937	93.62
458.157	91.62
458.377	108.62
458.598	124.62
458.818	226.62
459.038	238.62
459.258	153.62
459.478	115.62
459.698	99.62
459.918	102.62
460.138	73.62
460.358	96.62
460.578	103.62
460.798	89.62
461.018	88.62
461.238	92.62
461.458	96.62
461.678	91.62
461.898	99.62
462.118	93.62
462.338	87.62
462.558	84.62
462.777	85.62
462.997	92.62
463.217	102.62
463.437	91.62
463.657	92.62
463.876	101.62
464.096	92.62
464.316	97.62
464.536	95.62
464.755	101.62
464.975	139.62
465.195	257.62
465.414	251.62
465.634	132.62
465.854	95.62
466.073	95.62
466.293	87.62
466.512	102.62
466.732	82.62
466.951	98.62
467.171	96.62
467.391	112.62
467.61	140.62
467.829	174.62
468.049	345.62
468.268	504.62
468.488	160.62
468.707	100.62
468.927	97.62
469.146	89.62
469.365	78.62
469.585	97.62
469.804	112.62
470.023	109.62
470.243	105.62
470.462	120.62
470.681	136.62
470.901	125.62
471.12	88.62
471.339	100.62
471.558	112.62
471.777	124.62
471.997	187.62
472.216	620.62
472.435	1449.62
472.654	399.62
472.873	148.62
473.092	100.62
473.311	92.62
473.53	89.62
473.749	92.62
473.968	125.62
474.187	126.62
474.406	118.62
474.625	80.62
474.844	84.62
475.063	104.62
475.282	68.62
475.501	94.62
475.72	105.62
475.939	92.62
476.158	81.62
476.377	93.62
476.596	84.62
476.814	110.62
477.033	118.62
477.252	98.62
477.471	91.62
477.69	103.62
477.908	87.62
478.127	94.62
478.346	103.62
478.564	99.62
478.783	103.62
479.002	100.62
479.22	107.62
479.439	140.62
479.658	132.62
479.876	118.62
480.095	120.62
480.313	121.62
480.532	127.62
480.751	190.62
480.969	575.62
481.188	2379.62
481.406	1533.62
481.624	260.62
481.843	139.62
482.061	117.62
482.28	87.62
482.498	91.62
482.717	101.62
482.935	103.62
483.153	97.62
483.372	91.62
483.59	93.62
483.808	99.62
484.027	89.62
484.245	93.62
484.463	98.62
484.681	100.62
484.9	94.62
485.118	101.62
485.336	104.62
485.554	93.62
485.772	100.62
485.99	94.62
486.209	112.62
486.427	99.62
486.645	128.62
486.863	133.62
487.081	111.62
487.299	99.62
487.517	101.62
487.735	96.62
487.953	90.62
488.171	100.62
488.389	92.62
488.607	116.62
488.825	98.62
489.043	100.62
489.261	87.62
489.479	100.62
489.696	90.62
489.914	103.62
490.132	97.62
490.35	86.62
490.568	86.62
490.786	82.62
491.003	74.62
491.221	98.62
491.439	96.62
491.657	100.62
491.874	93.62
492.092	86.62
492.31	92.62
492.527	95.62
492.745	102.62
492.963	102.62
493.18	94.62
493.398	86.62
493.615	89.62
493.833	98.62
494.05	102.62
494.268	79.62
494.485	76.62
494.703	101.62
494.92	86.62
495.138	111.62
495.355	90.62
495.573	98.62
495.79	101.62
496.008	90.62
496.225	88.62
496.442	74.62
496.66	95.62
496.877	85.62
497.094	98.62
497.312	88.62
497.529	88.62
497.746	99.62
497.963	94.62
498.181	97.62
498.398	92.62
498.615	115.62
498.832	123.62
499.049	104.62
499.267	92.62
499.484	102.62
499.701	88.62
499.918	89.62
500.135	92.62
500.352	93.62
500.569	93.62
500.786	100.62
501.003	95.62
501.22	81.62
501.437	88.62
501.654	101.62
501.871	143.62
502.088	103.62
502.305	89.62
502.522	96.62
502.739	80.62
502.956	98.62
503.172	105.62
503.389	86.62
503.606	131.62
503.823	125.62
504.04	104.62
504.256	79.62
504.473	91.62
504.69	89.62
504.907	100.62
505.123	103.62
505.34	86.62
505.557	97.62
505.773	95.62
505.99	90.62
506.207	88.62
506.423	96.62
506.64	86.62
506.856	103.62
507.073	101.62
507.289	93.62
507.506	104.62
507.722	147.62
507.939	131.62
508.155	94.62
508.372	101.62
508.588	91.62
508.805	102.62
509.021	97.62
509.238	102.62
509.454	105.62
509.67	109.62
509.887	116.62
510.103	130.62
510.319	234.62
510.536	894.62
510.752	3235.62
510.968	888.62
511.184	184.62
511.401	131.62
