Data from Circ_2007_H10_HRD10591_00084.txt Node
Date: Wed Jan 03 10:22:14 EST 2024
User: Yrep
Spectrometer: HR+D1059
Trigger mode: 1
Integration Time (sec): 1.000000E-1
Scans to average: 1
Electric dark correction enabled: true
Nonlinearity correction enabled: false
Boxcar width: 0
XAxis mode: Wavelengths
Number of Pixels in Spectrum: 2048
>>>>>Begin Spectral Data<<<<<
223.165	-15.56
223.4	-15.56
223.635	-15.56
223.869	-19.56
224.104	-26.56
224.338	-11.56
224.573	-6.56
224.808	-5.56
225.042	2.44
225.277	-7.56
225.511	-3.56
225.746	-7.56
225.98	2.44
226.215	18.44
226.449	6.44
226.683	28.44
226.918	12.44
227.152	33.44
227.387	45.44
227.621	33.44
227.856	51.44
228.09	52.44
228.324	51.44
228.559	54.44
228.793	60.44
229.027	60.44
229.262	76.44
229.496	73.44
229.73	89.44
229.964	92.44
230.199	62.44
230.433	73.44
230.667	75.44
230.901	76.44
231.136	61.44
231.37	64.44
231.604	62.44
231.838	77.44
232.072	83.44
232.306	61.44
232.541	74.44
232.775	76.44
233.009	81.44
233.243	70.44
233.477	65.44
233.711	86.44
233.945	67.44
234.179	68.44
234.413	79.44
234.647	72.44
234.881	93.44
235.115	86.44
235.349	89.44
235.583	81.44
235.817	80.44
236.051	65.44
236.285	80.44
236.519	81.44
236.753	92.44
236.987	93.44
237.221	89.44
237.455	89.44
237.689	88.44
237.922	63.44
238.156	73.44
238.39	81.44
238.624	64.44
238.858	73.44
239.091	80.44
239.325	77.44
239.559	89.44
239.793	89.44
240.027	76.44
240.26	72.44
240.494	88.44
240.728	97.44
240.961	77.44
241.195	97.44
241.429	68.44
241.662	67.44
241.896	77.44
242.13	95.44
242.363	74.44
242.597	77.44
242.83	78.44
243.064	74.44
243.298	73.44
243.531	90.44
243.765	91.44
243.998	73.44
244.232	78.44
244.465	85.44
244.699	70.44
244.932	81.44
245.166	82.44
245.399	62.44
245.633	67.44
245.866	73.44
246.099	74.44
246.333	73.44
246.566	80.44
246.8	80.44
247.033	80.44
247.266	87.44
247.5	83.44
247.733	67.44
247.966	70.44
248.2	79.44
248.433	82.44
248.666	76.44
248.899	88.44
249.133	92.44
249.366	113.44
249.599	106.44
249.832	99.44
250.066	79.44
250.299	93.44
250.532	86.44
250.765	91.44
250.998	87.44
251.231	84.44
251.465	70.44
251.698	97.44
251.931	83.44
252.164	76.44
252.397	78.44
252.63	79.44
252.863	74.44
253.096	72.44
253.329	80.44
253.562	96.44
253.795	83.44
254.028	85.44
254.261	67.44
254.494	83.44
254.727	79.44
254.96	73.44
255.193	64.44
255.426	89.44
255.659	79.44
255.892	80.44
256.124	97.44
256.357	79.44
256.59	88.44
256.823	76.44
257.056	95.44
257.289	81.44
257.521	74.44
257.754	86.44
257.987	82.44
258.22	101.44
258.452	97.44
258.685	96.44
258.918	82.44
259.151	84.44
259.383	78.44
259.616	82.44
259.849	90.44
260.081	77.44
260.314	94.44
260.547	90.44
260.779	93.44
261.012	102.44
261.244	90.44
261.477	108.44
261.71	106.44
261.942	124.44
262.175	153.44
262.407	92.44
262.64	99.44
262.872	84.44
263.105	86.44
263.337	74.44
263.57	85.44
263.802	86.44
264.035	97.44
264.267	81.44
264.499	71.44
264.732	79.44
264.964	74.44
265.197	83.44
265.429	80.44
265.661	81.44
265.894	75.44
266.126	78.44
266.358	85.44
266.591	105.44
266.823	83.44
267.055	78.44
267.287	84.44
267.52	82.44
267.752	87.44
267.984	88.44
268.216	75.44
268.448	84.44
268.681	93.44
268.913	97.44
269.145	99.44
269.377	78.44
269.609	82.44
269.841	84.44
270.073	87.44
270.306	82.44
270.538	76.44
270.77	74.44
271.002	78.44
271.234	93.44
271.466	86.44
271.698	96.44
271.93	91.44
272.162	94.44
272.394	102.44
272.626	97.44
272.858	79.44
273.09	89.44
273.322	77.44
273.553	84.44
273.785	98.44
274.017	75.44
274.249	83.44
274.481	87.44
274.713	90.44
274.945	101.44
275.176	94.44
275.408	111.44
275.64	113.44
275.872	118.44
276.104	106.44
276.335	111.44
276.567	119.44
276.799	154.44
277.031	164.44
277.262	171.44
277.494	142.44
277.726	107.44
277.957	77.44
278.189	94.44
278.421	99.44
278.652	87.44
278.884	97.44
279.115	84.44
279.347	102.44
279.579	97.44
279.81	124.44
280.042	178.44
280.273	239.44
280.505	164.44
280.736	114.44
280.968	89.44
281.199	87.44
281.431	92.44
281.662	93.44
281.894	98.44
282.125	94.44
282.356	150.44
282.588	189.44
282.819	142.44
283.051	104.44
283.282	78.44
283.513	73.44
283.745	90.44
283.976	96.44
284.207	80.44
284.439	100.44
284.67	97.44
284.901	88.44
285.132	107.44
285.364	83.44
285.595	93.44
285.826	77.44
286.057	78.44
286.288	87.44
286.52	82.44
286.751	82.44
286.982	79.44
287.213	109.44
287.444	99.44
287.675	95.44
287.906	80.44
288.138	95.44
288.369	89.44
288.6	93.44
288.831	86.44
289.062	96.44
289.293	80.44
289.524	99.44
289.755	80.44
289.986	92.44
290.217	90.44
290.448	70.44
290.679	94.44
290.91	86.44
291.141	93.44
291.371	87.44
291.602	89.44
291.833	76.44
292.064	97.44
292.295	89.44
292.526	90.44
292.757	81.44
292.987	86.44
293.218	97.44
293.449	89.44
293.68	97.44
293.91	84.44
294.141	79.44
294.372	84.44
294.603	86.44
294.833	92.44
295.064	83.44
295.295	81.44
295.525	93.44
295.756	100.44
295.987	123.44
296.217	182.44
296.448	142.44
296.679	109.44
296.909	90.44
297.14	102.44
297.37	103.44
297.601	81.44
297.831	94.44
298.062	94.44
298.292	89.44
298.523	92.44
298.753	101.44
298.984	104.44
299.214	72.44
299.445	96.44
299.675	94.44
299.905	101.44
300.136	105.44
300.366	88.44
300.597	89.44
300.827	108.44
301.057	108.44
301.288	120.44
301.518	113.44
301.748	103.44
301.979	133.44
302.209	91.44
302.439	102.44
302.669	102.44
302.9	82.44
303.13	90.44
303.36	118.44
303.59	130.44
303.82	126.44
304.051	122.44
304.281	105.44
304.511	80.44
304.741	96.44
304.971	86.44
305.201	88.44
305.431	83.44
305.661	94.44
305.891	83.44
306.121	105.44
306.352	115.44
306.582	122.44
306.812	104.44
307.042	116.44
307.272	142.44
307.502	171.44
307.731	147.44
307.961	124.44
308.191	81.44
308.421	91.44
308.651	101.44
308.881	98.44
309.111	103.44
309.341	107.44
309.571	96.44
309.8	96.44
310.03	110.44
310.26	111.44
310.49	112.44
310.72	109.44
310.949	129.44
311.179	122.44
311.409	107.44
311.639	97.44
311.868	107.44
312.098	104.44
312.328	98.44
312.557	122.44
312.787	119.44
313.017	122.44
313.246	107.44
313.476	94.44
313.706	79.44
313.935	97.44
314.165	102.44
314.394	102.44
314.624	105.44
314.853	118.44
315.083	100.44
315.312	91.44
315.542	88.44
315.771	102.44
316.001	73.44
316.23	89.44
316.46	96.44
316.689	98.44
316.919	96.44
317.148	103.44
317.377	108.44
317.607	118.44
317.836	108.44
318.065	109.44
318.295	83.44
318.524	82.44
318.753	84.44
318.983	95.44
319.212	115.44
319.441	95.44
319.67	122.44
319.9	90.44
320.129	89.44
320.358	94.44
320.587	92.44
320.816	114.44
321.046	108.44
321.275	95.44
321.504	97.44
321.733	104.44
321.962	93.44
322.191	115.44
322.42	119.44
322.649	131.44
322.878	112.44
323.108	142.44
323.337	155.44
323.566	164.44
323.795	202.44
324.024	269.44
324.253	553.44
324.482	1149.44
324.71	2354.44
324.939	3262.44
325.168	1200.44
325.397	333.44
325.626	198.44
325.855	144.44
326.084	138.44
326.313	141.44
326.542	186.44
326.77	297.44
326.999	582.44
327.228	1237.44
327.457	2306.44
327.686	1886.44
327.914	602.44
328.143	512.44
328.372	614.44
328.6	360.44
328.829	187.44
329.058	200.44
329.287	226.44
329.515	179.44
329.744	231.44
329.972	416.44
330.201	836.44
330.43	1282.44
330.658	630.44
330.887	318.44
331.115	206.44
331.344	138.44
331.572	112.44
331.801	128.44
332.03	128.44
332.258	115.44
332.486	116.44
332.715	106.44
332.943	108.44
333.172	118.44
333.4	124.44
333.629	154.44
333.857	204.44
334.085	378.44
334.314	750.44
334.542	1524.44
334.771	1516.44
334.999	396.44
335.227	162.44
335.455	113.44
335.684	114.44
335.912	111.44
336.14	103.44
336.369	106.44
336.597	115.44
336.825	101.44
337.053	110.44
337.281	102.44
337.51	105.44
337.738	104.44
337.966	103.44
338.194	120.44
338.422	112.44
338.65	97.44
338.878	85.44
339.106	90.44
339.334	96.44
339.562	88.44
339.79	96.44
340.018	94.44
340.246	92.44
340.474	110.44
340.702	101.44
340.93	97.44
341.158	97.44
341.386	101.44
341.614	90.44
341.842	94.44
342.07	104.44
342.298	101.44
342.526	90.44
342.754	89.44
342.981	96.44
343.209	101.44
343.437	100.44
343.665	100.44
343.893	98.44
344.12	96.44
344.348	91.44
344.576	89.44
344.804	89.44
345.031	123.44
345.259	110.44
345.487	103.44
345.714	93.44
345.942	111.44
346.17	96.44
346.397	76.44
346.625	102.44
346.853	81.44
347.08	99.44
347.308	112.44
347.535	94.44
347.763	119.44
347.99	104.44
348.218	91.44
348.445	130.44
348.673	109.44
348.9	95.44
349.128	102.44
349.355	79.44
349.583	98.44
349.81	106.44
350.037	91.44
350.265	98.44
350.492	98.44
350.72	106.44
350.947	110.44
351.174	125.44
351.402	124.44
351.629	97.44
351.856	111.44
352.083	111.44
352.311	113.44
352.538	129.44
352.765	127.44
352.992	113.44
353.22	124.44
353.447	122.44
353.674	95.44
353.901	96.44
354.128	91.44
354.355	84.44
354.583	84.44
354.81	95.44
355.037	100.44
355.264	94.44
355.491	98.44
355.718	111.44
355.945	100.44
356.172	91.44
356.399	88.44
356.626	92.44
356.853	87.44
357.08	111.44
357.307	80.44
357.534	96.44
357.761	84.44
357.988	103.44
358.215	110.44
358.441	97.44
358.668	86.44
358.895	95.44
359.122	80.44
359.349	89.44
359.576	110.44
359.802	125.44
360.029	146.44
360.256	162.44
360.483	126.44
360.709	97.44
360.936	96.44
361.163	87.44
361.39	120.44
361.616	124.44
361.843	103.44
362.07	103.44
362.296	104.44
362.523	93.44
362.749	113.44
362.976	101.44
363.203	101.44
363.429	97.44
363.656	108.44
363.882	82.44
364.109	94.44
364.335	88.44
364.562	99.44
364.788	99.44
365.015	96.44
365.241	107.44
365.468	119.44
365.694	119.44
365.92	113.44
366.147	104.44
366.373	103.44
366.599	85.44
366.826	86.44
367.052	79.44
367.278	100.44
367.505	97.44
367.731	113.44
367.957	108.44
368.184	73.44
368.41	108.44
368.636	137.44
368.862	142.44
369.089	126.44
369.315	102.44
369.541	96.44
369.767	95.44
369.993	93.44
370.219	95.44
370.445	90.44
370.672	86.44
370.898	79.44
371.124	79.44
371.35	90.44
371.576	92.44
371.802	73.44
372.028	91.44
372.254	99.44
372.48	78.44
372.706	102.44
372.932	84.44
373.158	89.44
373.384	102.44
373.61	83.44
373.835	88.44
374.061	97.44
374.287	97.44
374.513	88.44
374.739	83.44
374.965	83.44
375.191	82.44
375.416	78.44
375.642	102.44
375.868	81.44
376.094	98.44
376.319	89.44
376.545	78.44
376.771	83.44
376.997	90.44
377.222	91.44
377.448	89.44
377.674	80.44
377.899	92.44
378.125	90.44
378.35	91.44
378.576	91.44
378.802	84.44
379.027	99.44
379.253	90.44
379.478	79.44
379.704	81.44
379.929	97.44
380.155	89.44
380.38	84.44
380.606	88.44
380.831	103.44
381.057	89.44
381.282	104.44
381.507	90.44
381.733	93.44
381.958	80.44
382.184	92.44
382.409	111.44
382.634	99.44
382.86	117.44
383.085	104.44
383.31	90.44
383.535	88.44
383.761	94.44
383.986	91.44
384.211	89.44
384.436	88.44
384.662	88.44
384.887	88.44
385.112	92.44
385.337	84.44
385.562	106.44
385.787	102.44
386.013	127.44
386.238	115.44
386.463	107.44
386.688	120.44
386.913	100.44
387.138	94.44
387.363	95.44
387.588	103.44
387.813	92.44
388.038	84.44
388.263	101.44
388.488	94.44
388.713	94.44
388.938	88.44
389.163	83.44
389.387	100.44
389.612	103.44
389.837	96.44
390.062	90.44
390.287	94.44
390.512	86.44
390.736	79.44
390.961	91.44
391.186	105.44
391.411	92.44
391.636	93.44
391.86	93.44
392.085	84.44
392.31	76.44
392.534	102.44
392.759	80.44
392.984	81.44
393.208	83.44
393.433	92.44
393.658	101.44
393.882	93.44
394.107	83.44
394.331	88.44
394.556	73.44
394.78	79.44
395.005	86.44
395.229	80.44
395.454	89.44
395.678	88.44
395.903	93.44
396.127	91.44
396.352	103.44
396.576	87.44
396.801	89.44
397.025	99.44
397.249	90.44
397.474	91.44
397.698	92.44
397.922	98.44
398.147	80.44
398.371	80.44
398.595	78.44
398.82	93.44
399.044	80.44
399.268	97.44
399.492	88.44
399.717	83.44
399.941	100.44
400.165	107.44
400.389	91.44
400.613	91.44
400.837	92.44
401.062	82.44
401.286	102.44
401.51	79.44
401.734	92.44
401.958	108.44
402.182	145.44
402.406	206.44
402.63	169.44
402.854	112.44
403.078	100.44
403.302	86.44
403.526	89.44
403.75	88.44
403.974	91.44
404.198	81.44
404.422	79.44
404.645	82.44
404.869	119.44
405.093	120.44
405.317	137.44
405.541	142.44
405.765	127.44
405.988	145.44
406.212	225.44
406.436	366.44
406.66	237.44
406.883	122.44
407.107	106.44
407.331	129.44
407.555	114.44
407.778	103.44
408.002	98.44
408.226	92.44
408.449	83.44
408.673	110.44
408.896	106.44
409.12	112.44
409.344	91.44
409.567	99.44
409.791	95.44
410.014	88.44
410.238	91.44
410.461	97.44
410.685	95.44
410.908	93.44
411.132	104.44
411.355	121.44
411.578	95.44
411.802	94.44
412.025	87.44
412.249	110.44
412.472	124.44
412.695	146.44
412.919	114.44
413.142	94.44
413.365	103.44
413.589	88.44
413.812	84.44
414.035	75.44
414.258	95.44
414.482	94.44
414.705	88.44
414.928	88.44
415.151	89.44
415.374	89.44
415.597	78.44
415.821	95.44
416.044	79.44
416.267	88.44
416.49	82.44
416.713	93.44
416.936	94.44
417.159	87.44
417.382	84.44
417.605	97.44
417.828	113.44
418.051	97.44
418.274	92.44
418.497	88.44
418.72	82.44
418.943	96.44
419.166	94.44
419.389	92.44
419.611	81.44
419.834	96.44
420.057	89.44
420.28	95.44
420.503	87.44
420.726	75.44
420.948	93.44
421.171	95.44
421.394	95.44
421.617	87.44
421.839	91.44
422.062	88.44
422.285	87.44
422.507	86.44
422.73	115.44
422.953	94.44
423.175	95.44
423.398	80.44
423.621	81.44
423.843	76.44
424.066	87.44
424.288	87.44
424.511	100.44
424.733	97.44
424.956	108.44
425.178	115.44
425.401	109.44
425.623	104.44
425.846	102.44
426.068	112.44
426.291	85.44
426.513	87.44
426.735	94.44
426.958	94.44
427.18	113.44
427.402	179.44
427.625	282.44
427.847	254.44
428.069	204.44
428.292	123.44
428.514	93.44
428.736	90.44
428.958	93.44
429.181	90.44
429.403	86.44
429.625	87.44
429.847	104.44
430.069	121.44
430.292	99.44
430.514	78.44
430.736	96.44
430.958	91.44
431.18	82.44
431.402	81.44
431.624	74.44
431.846	78.44
432.068	84.44
432.29	84.44
432.512	90.44
432.734	94.44
432.956	77.44
433.178	110.44
433.4	99.44
433.622	97.44
433.844	94.44
434.066	91.44
434.287	87.44
434.509	89.44
434.731	84.44
434.953	87.44
435.175	97.44
435.397	95.44
435.618	91.44
435.84	111.44
436.062	156.44
436.284	143.44
436.505	105.44
436.727	111.44
436.949	98.44
437.17	88.44
437.392	93.44
437.614	101.44
437.835	125.44
438.057	151.44
438.278	142.44
438.5	134.44
438.721	154.44
438.943	122.44
439.165	91.44
439.386	102.44
439.608	105.44
439.829	102.44
440.05	156.44
440.272	218.44
440.493	99.44
440.715	96.44
440.936	90.44
441.158	88.44
441.379	91.44
441.6	99.44
441.822	94.44
442.043	96.44
442.264	112.44
442.486	118.44
442.707	113.44
442.928	132.44
443.149	180.44
443.371	174.44
443.592	140.44
443.813	144.44
444.034	127.44
444.255	94.44
444.476	76.44
444.698	87.44
444.919	88.44
445.14	131.44
445.361	138.44
445.582	154.44
445.803	195.44
446.024	186.44
446.245	180.44
446.466	118.44
446.687	109.44
446.908	109.44
447.129	93.44
447.35	86.44
447.571	91.44
447.792	104.44
448.013	105.44
448.234	113.44
448.455	103.44
448.675	141.44
448.896	137.44
449.117	82.44
449.338	112.44
449.559	158.44
449.779	164.44
450	108.44
450.221	83.44
450.442	94.44
450.662	98.44
450.883	124.44
451.104	155.44
451.324	123.44
451.545	85.44
451.766	91.44
451.986	87.44
452.207	93.44
452.428	80.44
452.648	109.44
452.869	145.44
453.089	135.44
453.31	160.44
453.53	106.44
453.751	98.44
453.971	127.44
454.192	154.44
454.412	106.44
454.633	94.44
454.853	99.44
455.073	90.44
455.294	91.44
455.514	108.44
455.734	91.44
455.955	73.44
456.175	100.44
456.395	100.44
456.616	84.44
456.836	72.44
457.056	75.44
457.276	84.44
457.497	93.44
457.717	81.44
457.937	93.44
458.157	91.44
458.377	93.44
458.598	139.44
458.818	239.44
459.038	258.44
459.258	173.44
459.478	90.44
459.698	83.44
459.918	95.44
460.138	89.44
460.358	98.44
460.578	101.44
460.798	106.44
461.018	102.44
461.238	83.44
461.458	78.44
461.678	94.44
461.898	84.44
462.118	78.44
462.338	87.44
462.558	86.44
462.777	87.44
462.997	92.44
463.217	114.44
463.437	102.44
463.657	75.44
463.876	87.44
464.096	97.44
464.316	101.44
464.536	93.44
464.755	93.44
464.975	129.44
465.195	259.44
465.414	250.44
465.634	108.44
465.854	86.44
466.073	94.44
466.293	90.44
466.512	97.44
466.732	90.44
466.951	98.44
467.171	98.44
467.391	96.44
467.61	143.44
467.829	206.44
468.049	451.44
468.268	696.44
468.488	194.44
468.707	94.44
468.927	102.44
469.146	99.44
469.365	91.44
469.585	91.44
469.804	104.44
470.023	120.44
470.243	88.44
470.462	130.44
470.681	151.44
470.901	102.44
471.12	115.44
471.339	93.44
471.558	110.44
471.777	139.44
471.997	246.44
472.216	880.44
472.435	2086.44
472.654	523.44
472.873	148.44
473.092	109.44
473.311	95.44
473.53	95.44
473.749	96.44
473.968	97.44
474.187	126.44
474.406	120.44
474.625	92.44
474.844	76.44
475.063	77.44
475.282	79.44
475.501	91.44
475.72	92.44
475.939	93.44
476.158	83.44
476.377	99.44
476.596	86.44
476.814	102.44
477.033	102.44
477.252	90.44
477.471	92.44
477.69	95.44
477.908	79.44
478.127	93.44
478.346	95.44
478.564	98.44
478.783	96.44
479.002	90.44
479.22	119.44
479.439	118.44
479.658	139.44
479.876	110.44
480.095	100.44
480.313	126.44
480.532	167.44
480.751	258.44
480.969	816.44
481.188	3583.44
481.406	2188.44
481.624	347.44
481.843	138.44
482.061	102.44
482.28	100.44
482.498	90.44
482.717	69.44
482.935	60.44
483.153	86.44
483.372	84.44
483.59	108.44
483.808	89.44
484.027	89.44
484.245	95.44
484.463	89.44
484.681	82.44
484.9	102.44
485.118	92.44
485.336	96.44
485.554	101.44
485.772	117.44
485.99	111.44
486.209	98.44
486.427	115.44
486.645	123.44
486.863	133.44
487.081	105.44
487.299	99.44
487.517	109.44
487.735	102.44
487.953	89.44
488.171	76.44
488.389	93.44
488.607	101.44
488.825	95.44
489.043	95.44
489.261	89.44
489.479	82.44
489.696	85.44
489.914	93.44
490.132	90.44
490.35	84.44
490.568	79.44
490.786	84.44
491.003	91.44
491.221	103.44
491.439	112.44
491.657	91.44
491.874	100.44
492.092	90.44
492.31	103.44
492.527	92.44
492.745	107.44
492.963	96.44
493.18	94.44
493.398	96.44
493.615	94.44
493.833	92.44
494.05	63.44
494.268	100.44
494.485	93.44
494.703	107.44
494.92	87.44
495.138	88.44
495.355	89.44
495.573	99.44
495.79	79.44
496.008	88.44
496.225	87.44
496.442	99.44
496.66	106.44
496.877	94.44
497.094	97.44
497.312	103.44
497.529	86.44
497.746	80.44
497.963	94.44
498.181	102.44
498.398	99.44
498.615	127.44
498.832	122.44
499.049	96.44
499.267	92.44
499.484	96.44
499.701	98.44
499.918	79.44
500.135	79.44
500.352	81.44
500.569	106.44
500.786	91.44
501.003	91.44
501.22	92.44
501.437	95.44
501.654	108.44
501.871	122.44
502.088	89.44
502.305	93.44
502.522	106.44
502.739	90.44
502.956	97.44
503.172	94.44
503.389	87.44
503.606	131.44
503.823	121.44
504.04	96.44
504.256	84.44
504.473	92.44
504.69	104.44
504.907	103.44
505.123	101.44
505.34	107.44
505.557	93.44
505.773	82.44
505.99	94.44
506.207	97.44
506.423	86.44
506.64	106.44
506.856	75.44
507.073	96.44
507.289	89.44
507.506	94.44
507.722	140.44
507.939	135.44
508.155	98.44
508.372	93.44
508.588	107.44
508.805	84.44
509.021	104.44
509.238	110.44
509.454	88.44
509.67	99.44
509.887	118.44
510.103	148.44
510.319	240.44
510.536	1019.44
510.752	3670.44
510.968	1005.44
511.184	180.44
511.401	135.44
511.617	114.44
511.833	109.44
512.049	97.44
512.265	98.44
512.481	89.44
512.698	90.44
512.914	94.44
513.13	106.44
