Data from Circ_2007_H10_HRD10591_00045.txt Node
Date: Wed Jan 03 10:22:06 EST 2024
User: Yrep
Spectrometer: HR+D1059
Trigger mode: 1
Integration Time (sec): 1.000000E-1
Scans to average: 1
Electric dark correction enabled: true
Nonlinearity correction enabled: false
Boxcar width: 0
XAxis mode: Wavelengths
Number of Pixels in Spectrum: 2048
>>>>>Begin Spectral Data<<<<<
223.165	-19.06
223.4	-19.06
223.635	-19.06
223.869	-2.06
224.104	-13.06
224.338	-16.06
224.573	-0.06
224.808	-16.06
225.042	-2.06
225.277	-8.06
225.511	-10.06
225.746	-20.06
225.98	10.94
226.215	9.94
226.449	15.94
226.683	26.94
226.918	19.94
227.152	22.94
227.387	22.94
227.621	36.94
227.856	62.94
228.09	51.94
228.324	55.94
228.559	64.94
228.793	70.94
229.027	85.94
229.262	57.94
229.496	82.94
229.73	93.94
229.964	100.94
230.199	76.94
230.433	66.94
230.667	98.94
230.901	84.94
231.136	88.94
231.37	85.94
231.604	76.94
231.838	79.94
232.072	81.94
232.306	79.94
232.541	85.94
232.775	86.94
233.009	88.94
233.243	76.94
233.477	76.94
233.711	76.94
233.945	84.94
234.179	88.94
234.413	80.94
234.647	86.94
234.881	85.94
235.115	82.94
235.349	84.94
235.583	79.94
235.817	74.94
236.051	68.94
236.285	93.94
236.519	72.94
236.753	87.94
236.987	81.94
237.221	80.94
237.455	98.94
237.689	98.94
237.922	85.94
238.156	81.94
238.39	88.94
238.624	71.94
238.858	86.94
239.091	85.94
239.325	83.94
239.559	75.94
239.793	90.94
240.027	71.94
240.26	76.94
240.494	87.94
240.728	77.94
240.961	85.94
241.195	97.94
241.429	73.94
241.662	78.94
241.896	82.94
242.13	83.94
242.363	83.94
242.597	82.94
242.83	68.94
243.064	77.94
243.298	75.94
243.531	75.94
243.765	82.94
243.998	71.94
244.232	84.94
244.465	88.94
244.699	95.94
244.932	69.94
245.166	68.94
245.399	72.94
245.633	79.94
245.866	65.94
246.099	75.94
246.333	79.94
246.566	78.94
246.8	94.94
247.033	93.94
247.266	69.94
247.5	96.94
247.733	94.94
247.966	95.94
248.2	68.94
248.433	81.94
248.666	103.94
248.899	85.94
249.133	98.94
249.366	119.94
249.599	107.94
249.832	87.94
250.066	83.94
250.299	82.94
250.532	93.94
250.765	79.94
250.998	80.94
251.231	88.94
251.465	80.94
251.698	95.94
251.931	94.94
252.164	85.94
252.397	79.94
252.63	92.94
252.863	80.94
253.096	85.94
253.329	94.94
253.562	88.94
253.795	93.94
254.028	89.94
254.261	77.94
254.494	82.94
254.727	86.94
254.96	86.94
255.193	89.94
255.426	91.94
255.659	81.94
255.892	93.94
256.124	98.94
256.357	84.94
256.59	98.94
256.823	94.94
257.056	92.94
257.289	83.94
257.521	98.94
257.754	76.94
257.987	96.94
258.22	97.94
258.452	84.94
258.685	87.94
258.918	86.94
259.151	85.94
259.383	77.94
259.616	96.94
259.849	86.94
260.081	83.94
260.314	95.94
260.547	99.94
260.779	96.94
261.012	95.94
261.244	109.94
261.477	92.94
261.71	104.94
261.942	137.94
262.175	151.94
262.407	97.94
262.64	93.94
262.872	97.94
263.105	74.94
263.337	83.94
263.57	100.94
263.802	101.94
264.035	91.94
264.267	86.94
264.499	92.94
264.732	72.94
264.964	86.94
265.197	91.94
265.429	78.94
265.661	69.94
265.894	78.94
266.126	96.94
266.358	96.94
266.591	85.94
266.823	83.94
267.055	99.94
267.287	89.94
267.52	83.94
267.752	81.94
267.984	84.94
268.216	97.94
268.448	93.94
268.681	84.94
268.913	94.94
269.145	99.94
269.377	76.94
269.609	85.94
269.841	84.94
270.073	77.94
270.306	90.94
270.538	95.94
270.77	92.94
271.002	92.94
271.234	105.94
271.466	100.94
271.698	80.94
271.93	89.94
272.162	78.94
272.394	83.94
272.626	74.94
272.858	96.94
273.09	107.94
273.322	88.94
273.553	77.94
273.785	85.94
274.017	88.94
274.249	83.94
274.481	86.94
274.713	100.94
274.945	96.94
275.176	87.94
275.408	103.94
275.64	103.94
275.872	93.94
276.104	106.94
276.335	114.94
276.567	113.94
276.799	144.94
277.031	150.94
277.262	168.94
277.494	140.94
277.726	98.94
277.957	89.94
278.189	86.94
278.421	103.94
278.652	89.94
278.884	96.94
279.115	96.94
279.347	92.94
279.579	108.94
279.81	109.94
280.042	142.94
280.273	192.94
280.505	142.94
280.736	91.94
280.968	94.94
281.199	92.94
281.431	93.94
281.662	91.94
281.894	97.94
282.125	117.94
282.356	149.94
282.588	181.94
282.819	146.94
283.051	101.94
283.282	97.94
283.513	93.94
283.745	95.94
283.976	81.94
284.207	98.94
284.439	92.94
284.67	93.94
284.901	86.94
285.132	97.94
285.364	81.94
285.595	86.94
285.826	74.94
286.057	85.94
286.288	88.94
286.52	90.94
286.751	87.94
286.982	82.94
287.213	92.94
287.444	108.94
287.675	81.94
287.906	93.94
288.138	103.94
288.369	104.94
288.6	85.94
288.831	83.94
289.062	86.94
289.293	84.94
289.524	92.94
289.755	79.94
289.986	86.94
290.217	93.94
290.448	90.94
290.679	100.94
290.91	94.94
291.141	95.94
291.371	85.94
291.602	107.94
291.833	93.94
292.064	85.94
292.295	91.94
292.526	100.94
292.757	91.94
292.987	83.94
293.218	92.94
293.449	95.94
293.68	82.94
293.91	106.94
294.141	96.94
294.372	89.94
294.603	95.94
294.833	97.94
295.064	84.94
295.295	95.94
295.525	86.94
295.756	109.94
295.987	147.94
296.217	186.94
296.448	163.94
296.679	108.94
296.909	90.94
297.14	99.94
297.37	94.94
297.601	95.94
297.831	82.94
298.062	90.94
298.292	95.94
298.523	94.94
298.753	95.94
298.984	88.94
299.214	99.94
299.445	87.94
299.675	110.94
299.905	103.94
300.136	109.94
300.366	97.94
300.597	98.94
300.827	101.94
301.057	102.94
301.288	126.94
301.518	101.94
301.748	103.94
301.979	101.94
302.209	98.94
302.439	102.94
302.669	92.94
302.9	101.94
303.13	105.94
303.36	99.94
303.59	130.94
303.82	138.94
304.051	94.94
304.281	100.94
304.511	88.94
304.741	96.94
304.971	93.94
305.201	115.94
305.431	102.94
305.661	98.94
305.891	91.94
306.121	94.94
306.352	115.94
306.582	118.94
306.812	108.94
307.042	110.94
307.272	152.94
307.502	161.94
307.731	145.94
307.961	124.94
308.191	105.94
308.421	83.94
308.651	94.94
308.881	82.94
309.111	102.94
309.341	111.94
309.571	94.94
309.8	112.94
310.03	94.94
310.26	113.94
310.49	105.94
310.72	100.94
310.949	105.94
311.179	116.94
311.409	104.94
311.639	117.94
311.868	96.94
312.098	100.94
312.328	104.94
312.557	121.94
312.787	127.94
313.017	132.94
313.246	99.94
313.476	96.94
313.706	94.94
313.935	93.94
314.165	116.94
314.394	124.94
314.624	109.94
314.853	99.94
315.083	106.94
315.312	116.94
315.542	95.94
315.771	107.94
316.001	104.94
316.23	100.94
316.46	98.94
316.689	90.94
316.919	96.94
317.148	121.94
317.377	119.94
317.607	91.94
317.836	115.94
318.065	91.94
318.295	85.94
318.524	101.94
318.753	99.94
318.983	95.94
319.212	118.94
319.441	115.94
319.67	122.94
319.9	109.94
320.129	100.94
320.358	88.94
320.587	107.94
320.816	115.94
321.046	104.94
321.275	115.94
321.504	99.94
321.733	94.94
321.962	111.94
322.191	116.94
322.42	119.94
322.649	122.94
322.878	122.94
323.108	149.94
323.337	149.94
323.566	157.94
323.795	194.94
324.024	264.94
324.253	527.94
324.482	1148.94
324.71	2321.94
324.939	3080.94
325.168	1086.94
325.397	312.94
325.626	181.94
325.855	146.94
326.084	140.94
326.313	150.94
326.542	181.94
326.77	271.94
326.999	582.94
327.228	1192.94
327.457	2186.94
327.686	1778.94
327.914	561.94
328.143	464.94
328.372	511.94
328.6	305.94
328.829	174.94
329.058	201.94
329.287	199.94
329.515	164.94
329.744	200.94
329.972	351.94
330.201	684.94
330.43	1006.94
330.658	506.94
330.887	276.94
331.115	200.94
331.344	127.94
331.572	124.94
331.801	126.94
332.03	129.94
332.258	119.94
332.486	105.94
332.715	105.94
332.943	126.94
333.172	124.94
333.4	123.94
333.629	151.94
333.857	172.94
334.085	320.94
334.314	619.94
334.542	1191.94
334.771	1208.94
334.999	336.94
335.227	172.94
335.455	111.94
335.684	114.94
335.912	125.94
336.14	111.94
336.369	122.94
336.597	117.94
336.825	128.94
337.053	93.94
337.281	87.94
337.51	98.94
337.738	91.94
337.966	94.94
338.194	114.94
338.422	131.94
338.65	95.94
338.878	99.94
339.106	95.94
339.334	84.94
339.562	104.94
339.79	113.94
340.018	98.94
340.246	108.94
340.474	104.94
340.702	109.94
340.93	94.94
341.158	118.94
341.386	122.94
341.614	102.94
341.842	93.94
342.07	88.94
342.298	100.94
342.526	87.94
342.754	103.94
342.981	97.94
343.209	106.94
343.437	87.94
343.665	83.94
343.893	100.94
344.12	83.94
344.348	103.94
344.576	100.94
344.804	93.94
345.031	102.94
345.259	121.94
345.487	112.94
345.714	108.94
345.942	105.94
346.17	99.94
346.397	99.94
346.625	101.94
346.853	93.94
347.08	100.94
347.308	103.94
347.535	89.94
347.763	138.94
347.99	116.94
348.218	112.94
348.445	113.94
348.673	124.94
348.9	119.94
349.128	96.94
349.355	100.94
349.583	104.94
349.81	108.94
350.037	106.94
350.265	97.94
350.492	93.94
350.72	101.94
350.947	108.94
351.174	141.94
351.402	120.94
351.629	121.94
351.856	115.94
352.083	123.94
352.311	117.94
352.538	124.94
352.765	120.94
352.992	128.94
353.22	119.94
353.447	108.94
353.674	128.94
353.901	86.94
354.128	103.94
354.355	107.94
354.583	103.94
354.81	92.94
355.037	112.94
355.264	95.94
355.491	100.94
355.718	95.94
355.945	104.94
356.172	108.94
356.399	105.94
356.626	106.94
356.853	92.94
357.08	90.94
357.307	100.94
357.534	98.94
357.761	95.94
357.988	72.94
358.215	94.94
358.441	111.94
358.668	95.94
358.895	93.94
359.122	95.94
359.349	92.94
359.576	105.94
359.802	128.94
360.029	147.94
360.256	152.94
360.483	101.94
360.709	116.94
360.936	104.94
361.163	99.94
361.39	100.94
361.616	114.94
361.843	95.94
362.07	106.94
362.296	113.94
362.523	110.94
362.749	113.94
362.976	107.94
363.203	95.94
363.429	89.94
363.656	108.94
363.882	93.94
364.109	100.94
364.335	102.94
364.562	105.94
364.788	85.94
365.015	113.94
365.241	122.94
365.468	119.94
365.694	126.94
365.92	124.94
366.147	112.94
366.373	95.94
366.599	93.94
366.826	80.94
367.052	115.94
367.278	99.94
367.505	97.94
367.731	90.94
367.957	108.94
368.184	112.94
368.41	110.94
368.636	144.94
368.862	133.94
369.089	118.94
369.315	113.94
369.541	113.94
369.767	108.94
369.993	101.94
370.219	103.94
370.445	95.94
370.672	106.94
370.898	100.94
371.124	96.94
371.35	99.94
371.576	88.94
371.802	90.94
372.028	96.94
372.254	80.94
372.48	85.94
372.706	78.94
372.932	95.94
373.158	92.94
373.384	99.94
373.61	98.94
373.835	95.94
374.061	85.94
374.287	99.94
374.513	95.94
374.739	102.94
374.965	89.94
375.191	93.94
375.416	78.94
375.642	75.94
375.868	77.94
376.094	99.94
376.319	98.94
376.545	103.94
376.771	87.94
376.997	95.94
377.222	97.94
377.448	86.94
377.674	92.94
377.899	92.94
378.125	96.94
378.35	94.94
378.576	109.94
378.802	87.94
379.027	98.94
379.253	99.94
379.478	88.94
379.704	87.94
379.929	108.94
380.155	91.94
380.38	98.94
380.606	82.94
380.831	106.94
381.057	96.94
381.282	88.94
381.507	88.94
381.733	100.94
381.958	104.94
382.184	111.94
382.409	112.94
382.634	112.94
382.86	85.94
383.085	114.94
383.31	105.94
383.535	112.94
383.761	109.94
383.986	110.94
384.211	106.94
384.436	95.94
384.662	109.94
384.887	110.94
385.112	99.94
385.337	112.94
385.562	108.94
385.787	116.94
386.013	125.94
386.238	123.94
386.463	107.94
386.688	112.94
386.913	85.94
387.138	102.94
387.363	124.94
387.588	98.94
387.813	111.94
388.038	115.94
388.263	127.94
388.488	101.94
388.713	84.94
388.938	76.94
389.163	109.94
389.387	99.94
389.612	98.94
389.837	97.94
390.062	100.94
390.287	86.94
390.512	89.94
390.736	96.94
390.961	95.94
391.186	98.94
391.411	99.94
391.636	92.94
391.86	87.94
392.085	91.94
392.31	89.94
392.534	88.94
392.759	90.94
392.984	93.94
393.208	81.94
393.433	103.94
393.658	106.94
393.882	79.94
394.107	104.94
394.331	99.94
394.556	97.94
394.78	78.94
395.005	69.94
395.229	85.94
395.454	98.94
395.678	86.94
395.903	98.94
396.127	91.94
396.352	87.94
396.576	99.94
396.801	97.94
397.025	93.94
397.249	96.94
397.474	77.94
397.698	97.94
397.922	96.94
398.147	94.94
398.371	100.94
398.595	84.94
398.82	77.94
399.044	82.94
399.268	77.94
399.492	78.94
399.717	99.94
399.941	95.94
400.165	87.94
400.389	86.94
400.613	91.94
400.837	92.94
401.062	88.94
401.286	97.94
401.51	107.94
401.734	108.94
401.958	117.94
402.182	157.94
402.406	233.94
402.63	168.94
402.854	116.94
403.078	88.94
403.302	113.94
403.526	88.94
403.75	105.94
403.974	97.94
404.198	99.94
404.422	93.94
404.645	83.94
404.869	95.94
405.093	111.94
405.317	141.94
405.541	132.94
405.765	124.94
405.988	132.94
406.212	224.94
406.436	351.94
406.66	220.94
406.883	140.94
407.107	106.94
407.331	100.94
407.555	106.94
407.778	96.94
408.002	95.94
408.226	98.94
408.449	105.94
408.673	97.94
408.896	94.94
409.12	105.94
409.344	101.94
409.567	94.94
409.791	93.94
410.014	80.94
410.238	91.94
410.461	97.94
410.685	99.94
410.908	90.94
411.132	112.94
411.355	125.94
411.578	96.94
411.802	91.94
412.025	91.94
412.249	104.94
412.472	109.94
412.695	127.94
412.919	97.94
413.142	97.94
413.365	80.94
413.589	81.94
413.812	84.94
414.035	86.94
414.258	95.94
414.482	113.94
414.705	108.94
414.928	102.94
415.151	92.94
415.374	117.94
415.597	86.94
415.821	86.94
416.044	102.94
416.267	95.94
416.49	91.94
416.713	89.94
416.936	86.94
417.159	95.94
417.382	87.94
417.605	112.94
417.828	116.94
418.051	98.94
418.274	103.94
418.497	103.94
418.72	87.94
418.943	104.94
419.166	91.94
419.389	83.94
419.611	89.94
419.834	98.94
420.057	88.94
420.28	104.94
420.503	100.94
420.726	87.94
420.948	109.94
421.171	107.94
421.394	103.94
421.617	100.94
421.839	96.94
422.062	77.94
422.285	84.94
422.507	114.94
422.73	111.94
422.953	101.94
423.175	96.94
423.398	76.94
423.621	98.94
423.843	87.94
424.066	84.94
424.288	93.94
424.511	101.94
424.733	113.94
424.956	124.94
425.178	121.94
425.401	115.94
425.623	108.94
425.846	107.94
426.068	103.94
426.291	95.94
426.513	97.94
426.735	95.94
426.958	108.94
427.18	131.94
427.402	181.94
427.625	280.94
427.847	233.94
428.069	202.94
428.292	127.94
428.514	97.94
428.736	98.94
428.958	83.94
429.181	101.94
429.403	90.94
429.625	94.94
429.847	91.94
430.069	116.94
430.292	96.94
430.514	81.94
430.736	91.94
430.958	89.94
431.18	85.94
431.402	94.94
431.624	90.94
431.846	91.94
432.068	99.94
432.29	98.94
432.512	102.94
432.734	96.94
432.956	87.94
433.178	100.94
433.4	112.94
433.622	89.94
433.844	92.94
434.066	97.94
434.287	108.94
434.509	92.94
434.731	97.94
434.953	82.94
435.175	90.94
435.397	88.94
435.618	99.94
435.84	99.94
436.062	135.94
436.284	133.94
436.505	101.94
436.727	113.94
436.949	96.94
437.17	91.94
437.392	86.94
437.614	112.94
437.835	113.94
438.057	161.94
438.278	140.94
438.5	118.94
438.721	139.94
438.943	110.94
439.165	87.94
439.386	99.94
439.608	115.94
439.829	120.94
440.05	149.94
440.272	192.94
440.493	119.94
440.715	102.94
440.936	77.94
441.158	95.94
441.379	89.94
441.6	110.94
441.822	101.94
442.043	110.94
442.264	111.94
442.486	142.94
442.707	111.94
442.928	134.94
443.149	196.94
443.371	190.94
443.592	146.94
443.813	136.94
444.034	119.94
444.255	101.94
444.476	86.94
444.698	104.94
444.919	92.94
445.14	136.94
445.361	156.94
445.582	135.94
445.803	190.94
446.024	182.94
446.245	179.94
446.466	142.94
446.687	88.94
446.908	102.94
447.129	99.94
447.35	106.94
447.571	101.94
447.792	108.94
448.013	107.94
448.234	138.94
448.455	124.94
448.675	146.94
448.896	141.94
449.117	117.94
449.338	125.94
449.559	158.94
449.779	155.94
450	109.94
450.221	92.94
450.442	114.94
450.662	102.94
450.883	149.94
451.104	143.94
451.324	104.94
451.545	100.94
451.766	104.94
451.986	99.94
452.207	96.94
452.428	114.94
452.648	115.94
452.869	150.94
453.089	138.94
453.31	145.94
453.53	111.94
453.751	110.94
453.971	124.94
454.192	143.94
454.412	107.94
454.633	84.94
454.853	81.94
455.073	78.94
455.294	94.94
455.514	127.94
455.734	103.94
455.955	95.94
456.175	87.94
456.395	84.94
456.616	93.94
456.836	101.94
457.056	108.94
457.276	95.94
457.497	103.94
457.717	93.94
457.937	88.94
458.157	100.94
458.377	114.94
458.598	150.94
458.818	225.94
459.038	260.94
459.258	142.94
459.478	100.94
459.698	100.94
459.918	96.94
460.138	84.94
460.358	80.94
460.578	98.94
460.798	105.94
461.018	97.94
461.238	95.94
461.458	79.94
461.678	82.94
461.898	100.94
462.118	96.94
462.338	88.94
462.558	81.94
462.777	87.94
462.997	98.94
463.217	107.94
463.437	101.94
463.657	92.94
463.876	98.94
464.096	89.94
464.316	102.94
464.536	98.94
464.755	119.94
464.975	143.94
465.195	259.94
465.414	276.94
465.634	103.94
465.854	85.94
466.073	82.94
466.293	98.94
466.512	88.94
466.732	99.94
466.951	103.94
467.171	91.94
467.391	90.94
467.61	128.94
467.829	174.94
468.049	383.94
468.268	577.94
468.488	183.94
468.707	109.94
468.927	103.94
469.146	97.94
469.365	99.94
469.585	93.94
469.804	117.94
470.023	119.94
470.243	104.94
470.462	135.94
470.681	156.94
470.901	119.94
471.12	95.94
471.339	102.94
471.558	124.94
471.777	142.94
471.997	227.94
472.216	727.94
472.435	1670.94
472.654	438.94
472.873	134.94
473.092	102.94
473.311	102.94
473.53	89.94
473.749	98.94
473.968	100.94
474.187	141.94
474.406	107.94
474.625	85.94
474.844	83.94
475.063	94.94
475.282	81.94
475.501	99.94
475.72	114.94
475.939	99.94
476.158	82.94
476.377	78.94
476.596	95.94
476.814	100.94
477.033	109.94
477.252	116.94
477.471	90.94
477.69	96.94
477.908	106.94
478.127	115.94
478.346	84.94
478.564	83.94
478.783	123.94
479.002	98.94
479.22	107.94
479.439	134.94
479.658	144.94
479.876	118.94
480.095	124.94
480.313	138.94
480.532	138.94
480.751	231.94
480.969	656.94
481.188	2836.94
481.406	1730.94
481.624	279.94
481.843	124.94
482.061	97.94
482.28	96.94
482.498	94.94
482.717	97.94
482.935	105.94
483.153	94.94
483.372	107.94
483.59	98.94
483.808	99.94
484.027	93.94
484.245	87.94
484.463	102.94
484.681	113.94
484.9	99.94
485.118	85.94
485.336	108.94
485.554	99.94
485.772	108.94
485.99	104.94
486.209	109.94
486.427	107.94
486.645	130.94
486.863	146.94
487.081	107.94
487.299	108.94
487.517	95.94
487.735	93.94
487.953	84.94
488.171	104.94
488.389	108.94
488.607	120.94
488.825	107.94
489.043	98.94
489.261	99.94
489.479	106.94
489.696	86.94
489.914	86.94
490.132	91.94
490.35	86.94
490.568	92.94
490.786	110.94
491.003	99.94
491.221	99.94
491.439	92.94
491.657	88.94
491.874	91.94
492.092	95.94
492.31	95.94
492.527	102.94
492.745	108.94
492.963	108.94
493.18	96.94
493.398	89.94
493.615	107.94
493.833	102.94
494.05	86.94
494.268	101.94
494.485	107.94
494.703	93.94
494.92	106.94
495.138	89.94
495.355	103.94
495.573	90.94
495.79	88.94
496.008	102.94
496.225	102.94
496.442	94.94
496.66	91.94
496.877	102.94
497.094	99.94
497.312	85.94
497.529	92.94
497.746	95.94
497.963	104.94
498.181	100.94
498.398	98.94
498.615	111.94
498.832	119.94
499.049	87.94
499.267	96.94
499.484	95.94
499.701	105.94
499.918	95.94
500.135	94.94
500.352	94.94
500.569	99.94
500.786	91.94
501.003	86.94
501.22	105.94
501.437	93.94
501.654	98.94
501.871	136.94
502.088	92.94
502.305	97.94
502.522	87.94
502.739	103.94
502.956	92.94
503.172	89.94
503.389	106.94
503.606	134.94
503.823	123.94
504.04	110.94
504.256	102.94
504.473	78.94
504.69	94.94
504.907	93.94
505.123	89.94
505.34	91.94
505.557	97.94
505.773	93.94
505.99	100.94
506.207	101.94
506.423	99.94
506.64	98.94
506.856	95.94
507.073	94.94
507.289	95.94
507.506	111.94
507.722	143.94
507.939	138.94
508.155	110.94
508.372	93.94
508.588	115.94
508.805	111.94
509.021	99.94
509.238	109.94
509.454	96.94
509.67	108.94
509.887	113.94
510.103	145.94
510.319	269.94
510.536	1039.94
510.752	3616.94
510.968	992.94
511.184	211.94
511.401	130.94
511.617	120.94
