Data from Circ_2007_H10_HRD10591_00015.txt Node
Date: Wed Jan 03 10:22:00 EST 2024
User: Yrep
Spectrometer: HR+D1059
Trigger mode: 1
Integration Time (sec): 1.000000E-1
Scans to average: 1
Electric dark correction enabled: true
Nonlinearity correction enabled: false
Boxcar width: 0
XAxis mode: Wavelengths
Number of Pixels in Spectrum: 2048
>>>>>Begin Spectral Data<<<<<
223.165	-15.94
223.4	-15.94
223.635	-15.94
223.869	-23.94
224.104	-19.94
224.338	-10.94
224.573	-19.94
224.808	-2.94
225.042	-3.94
225.277	1.06
225.511	-12.94
225.746	-3.94
225.98	7.06
226.215	6.06
226.449	22.06
226.683	25.06
226.918	27.06
227.152	26.06
227.387	49.06
227.621	37.06
227.856	35.06
228.09	64.06
228.324	52.06
228.559	56.06
228.793	66.06
229.027	62.06
229.262	74.06
229.496	70.06
229.73	99.06
229.964	77.06
230.199	78.06
230.433	74.06
230.667	97.06
230.901	92.06
231.136	64.06
231.37	82.06
231.604	86.06
231.838	80.06
232.072	92.06
232.306	86.06
232.541	85.06
232.775	58.06
233.009	68.06
233.243	91.06
233.477	70.06
233.711	71.06
233.945	84.06
234.179	78.06
234.413	82.06
234.647	86.06
234.881	80.06
235.115	71.06
235.349	76.06
235.583	78.06
235.817	80.06
236.051	75.06
236.285	69.06
236.519	73.06
236.753	77.06
236.987	86.06
237.221	99.06
237.455	98.06
237.689	85.06
237.922	77.06
238.156	76.06
238.39	72.06
238.624	80.06
238.858	87.06
239.091	74.06
239.325	91.06
239.559	83.06
239.793	93.06
240.027	65.06
240.26	91.06
240.494	95.06
240.728	66.06
240.961	81.06
241.195	77.06
241.429	69.06
241.662	76.06
241.896	82.06
242.13	74.06
242.363	90.06
242.597	85.06
242.83	77.06
243.064	78.06
243.298	81.06
243.531	85.06
243.765	69.06
243.998	83.06
244.232	79.06
244.465	78.06
244.699	82.06
244.932	76.06
245.166	81.06
245.399	81.06
245.633	82.06
245.866	78.06
246.099	84.06
246.333	84.06
246.566	85.06
246.8	78.06
247.033	72.06
247.266	80.06
247.5	79.06
247.733	73.06
247.966	93.06
248.2	90.06
248.433	87.06
248.666	86.06
248.899	74.06
249.133	76.06
249.366	93.06
249.599	96.06
249.832	82.06
250.066	89.06
250.299	72.06
250.532	81.06
250.765	84.06
250.998	82.06
251.231	94.06
251.465	84.06
251.698	104.06
251.931	74.06
252.164	79.06
252.397	76.06
252.63	81.06
252.863	94.06
253.096	96.06
253.329	90.06
253.562	81.06
253.795	92.06
254.028	79.06
254.261	93.06
254.494	88.06
254.727	77.06
254.96	84.06
255.193	97.06
255.426	72.06
255.659	78.06
255.892	81.06
256.124	92.06
256.357	91.06
256.59	90.06
256.823	89.06
257.056	91.06
257.289	74.06
257.521	82.06
257.754	85.06
257.987	79.06
258.22	82.06
258.452	85.06
258.685	88.06
258.918	66.06
259.151	83.06
259.383	90.06
259.616	74.06
259.849	75.06
260.081	81.06
260.314	85.06
260.547	82.06
260.779	79.06
261.012	101.06
261.244	94.06
261.477	95.06
261.71	107.06
261.942	138.06
262.175	142.06
262.407	102.06
262.64	70.06
262.872	79.06
263.105	92.06
263.337	91.06
263.57	83.06
263.802	85.06
264.035	91.06
264.267	73.06
264.499	83.06
264.732	85.06
264.964	90.06
265.197	87.06
265.429	99.06
265.661	69.06
265.894	72.06
266.126	93.06
266.358	70.06
266.591	82.06
266.823	88.06
267.055	94.06
267.287	81.06
267.52	84.06
267.752	83.06
267.984	84.06
268.216	81.06
268.448	96.06
268.681	77.06
268.913	84.06
269.145	81.06
269.377	82.06
269.609	96.06
269.841	90.06
270.073	87.06
270.306	66.06
270.538	83.06
270.77	86.06
271.002	84.06
271.234	97.06
271.466	92.06
271.698	96.06
271.93	92.06
272.162	81.06
272.394	92.06
272.626	79.06
272.858	82.06
273.09	83.06
273.322	89.06
273.553	72.06
273.785	87.06
274.017	74.06
274.249	81.06
274.481	85.06
274.713	82.06
274.945	79.06
275.176	90.06
275.408	92.06
275.64	96.06
275.872	96.06
276.104	98.06
276.335	97.06
276.567	112.06
276.799	125.06
277.031	123.06
277.262	141.06
277.494	109.06
277.726	89.06
277.957	89.06
278.189	97.06
278.421	86.06
278.652	89.06
278.884	97.06
279.115	85.06
279.347	84.06
279.579	112.06
279.81	102.06
280.042	134.06
280.273	168.06
280.505	117.06
280.736	102.06
280.968	93.06
281.199	84.06
281.431	92.06
281.662	92.06
281.894	108.06
282.125	106.06
282.356	137.06
282.588	173.06
282.819	129.06
283.051	96.06
283.282	93.06
283.513	96.06
283.745	89.06
283.976	92.06
284.207	92.06
284.439	79.06
284.67	84.06
284.901	106.06
285.132	78.06
285.364	85.06
285.595	92.06
285.826	91.06
286.057	93.06
286.288	79.06
286.52	84.06
286.751	86.06
286.982	81.06
287.213	86.06
287.444	78.06
287.675	76.06
287.906	96.06
288.138	100.06
288.369	91.06
288.6	87.06
288.831	86.06
289.062	93.06
289.293	93.06
289.524	101.06
289.755	93.06
289.986	89.06
290.217	92.06
290.448	71.06
290.679	89.06
290.91	89.06
291.141	88.06
291.371	71.06
291.602	96.06
291.833	104.06
292.064	82.06
292.295	102.06
292.526	96.06
292.757	100.06
292.987	95.06
293.218	93.06
293.449	93.06
293.68	91.06
293.91	88.06
294.141	93.06
294.372	97.06
294.603	80.06
294.833	78.06
295.064	93.06
295.295	104.06
295.525	100.06
295.756	113.06
295.987	131.06
296.217	171.06
296.448	139.06
296.679	84.06
296.909	86.06
297.14	93.06
297.37	96.06
297.601	93.06
297.831	119.06
298.062	84.06
298.292	94.06
298.523	88.06
298.753	74.06
298.984	87.06
299.214	90.06
299.445	105.06
299.675	92.06
299.905	107.06
300.136	105.06
300.366	100.06
300.597	100.06
300.827	103.06
301.057	89.06
301.288	117.06
301.518	93.06
301.748	85.06
301.979	112.06
302.209	111.06
302.439	89.06
302.669	98.06
302.9	90.06
303.13	103.06
303.36	111.06
303.59	116.06
303.82	121.06
304.051	99.06
304.281	92.06
304.511	90.06
304.741	91.06
304.971	82.06
305.201	83.06
305.431	78.06
305.661	97.06
305.891	101.06
306.121	106.06
306.352	116.06
306.582	98.06
306.812	120.06
307.042	115.06
307.272	128.06
307.502	132.06
307.731	112.06
307.961	109.06
308.191	104.06
308.421	89.06
308.651	89.06
308.881	90.06
309.111	99.06
309.341	112.06
309.571	106.06
309.8	108.06
310.03	105.06
310.26	110.06
310.49	93.06
310.72	109.06
310.949	109.06
311.179	112.06
311.409	90.06
311.639	91.06
311.868	100.06
312.098	96.06
312.328	110.06
312.557	110.06
312.787	112.06
313.017	111.06
313.246	100.06
313.476	90.06
313.706	100.06
313.935	105.06
314.165	115.06
314.394	117.06
314.624	111.06
314.853	102.06
315.083	93.06
315.312	89.06
315.542	87.06
315.771	102.06
316.001	98.06
316.23	89.06
316.46	89.06
316.689	78.06
316.919	89.06
317.148	101.06
317.377	104.06
317.607	106.06
317.836	92.06
318.065	77.06
318.295	97.06
318.524	89.06
318.753	93.06
318.983	91.06
319.212	104.06
319.441	109.06
319.67	107.06
319.9	102.06
320.129	106.06
320.358	94.06
320.587	101.06
320.816	104.06
321.046	103.06
321.275	112.06
321.504	109.06
321.733	108.06
321.962	91.06
322.191	115.06
322.42	106.06
322.649	120.06
322.878	110.06
323.108	127.06
323.337	142.06
323.566	161.06
323.795	181.06
324.024	263.06
324.253	506.06
324.482	1109.06
324.71	2371.06
324.939	3122.06
325.168	1133.06
325.397	317.06
325.626	177.06
325.855	155.06
326.084	153.06
326.313	140.06
326.542	179.06
326.77	285.06
326.999	579.06
327.228	1218.06
327.457	2298.06
327.686	1807.06
327.914	552.06
328.143	382.06
328.372	397.06
328.6	266.06
328.829	154.06
329.058	195.06
329.287	201.06
329.515	149.06
329.744	184.06
329.972	282.06
330.201	524.06
330.43	774.06
330.658	394.06
330.887	243.06
331.115	174.06
331.344	115.06
331.572	115.06
331.801	120.06
332.03	125.06
332.258	106.06
332.486	108.06
332.715	100.06
332.943	113.06
333.172	98.06
333.4	124.06
333.629	138.06
333.857	178.06
334.085	288.06
334.314	500.06
334.542	946.06
334.771	964.06
334.999	301.06
335.227	154.06
335.455	109.06
335.684	99.06
335.912	97.06
336.14	113.06
336.369	106.06
336.597	107.06
336.825	100.06
337.053	97.06
337.281	89.06
337.51	99.06
337.738	103.06
337.966	104.06
338.194	96.06
338.422	102.06
338.65	105.06
338.878	100.06
339.106	104.06
339.334	103.06
339.562	89.06
339.79	100.06
340.018	102.06
340.246	107.06
340.474	79.06
340.702	92.06
340.93	92.06
341.158	112.06
341.386	106.06
341.614	106.06
341.842	112.06
342.07	101.06
342.298	99.06
342.526	85.06
342.754	89.06
342.981	83.06
343.209	84.06
343.437	92.06
343.665	75.06
343.893	84.06
344.12	106.06
344.348	93.06
344.576	96.06
344.804	88.06
345.031	94.06
345.259	104.06
345.487	92.06
345.714	98.06
345.942	99.06
346.17	80.06
346.397	100.06
346.625	91.06
346.853	103.06
347.08	104.06
347.308	114.06
347.535	112.06
347.763	105.06
347.99	96.06
348.218	105.06
348.445	118.06
348.673	111.06
348.9	101.06
349.128	113.06
349.355	99.06
349.583	98.06
349.81	90.06
350.037	92.06
350.265	86.06
350.492	94.06
350.72	89.06
350.947	107.06
351.174	137.06
351.402	126.06
351.629	104.06
351.856	109.06
352.083	113.06
352.311	110.06
352.538	126.06
352.765	104.06
352.992	125.06
353.22	120.06
353.447	109.06
353.674	95.06
353.901	88.06
354.128	90.06
354.355	98.06
354.583	108.06
354.81	116.06
355.037	109.06
355.264	92.06
355.491	96.06
355.718	87.06
355.945	91.06
356.172	94.06
356.399	95.06
356.626	86.06
356.853	92.06
357.08	102.06
357.307	100.06
357.534	90.06
357.761	83.06
357.988	86.06
358.215	99.06
358.441	90.06
358.668	96.06
358.895	111.06
359.122	98.06
359.349	93.06
359.576	95.06
359.802	116.06
360.029	142.06
360.256	146.06
360.483	110.06
360.709	92.06
360.936	86.06
361.163	90.06
361.39	109.06
361.616	102.06
361.843	97.06
362.07	94.06
362.296	109.06
362.523	93.06
362.749	97.06
362.976	93.06
363.203	102.06
363.429	90.06
363.656	94.06
363.882	94.06
364.109	78.06
364.335	106.06
364.562	91.06
364.788	90.06
365.015	97.06
365.241	104.06
365.468	131.06
365.694	122.06
365.92	102.06
366.147	92.06
366.373	90.06
366.599	85.06
366.826	97.06
367.052	90.06
367.278	90.06
367.505	100.06
367.731	92.06
367.957	98.06
368.184	99.06
368.41	111.06
368.636	127.06
368.862	130.06
369.089	108.06
369.315	109.06
369.541	96.06
369.767	93.06
369.993	105.06
370.219	103.06
370.445	83.06
370.672	85.06
370.898	90.06
371.124	82.06
371.35	73.06
371.576	90.06
371.802	88.06
372.028	82.06
372.254	96.06
372.48	75.06
372.706	97.06
372.932	92.06
373.158	84.06
373.384	92.06
373.61	101.06
373.835	83.06
374.061	70.06
374.287	92.06
374.513	105.06
374.739	99.06
374.965	93.06
375.191	97.06
375.416	103.06
375.642	102.06
375.868	97.06
376.094	85.06
376.319	97.06
376.545	72.06
376.771	100.06
376.997	86.06
377.222	90.06
377.448	97.06
377.674	93.06
377.899	93.06
378.125	90.06
378.35	100.06
378.576	104.06
378.802	80.06
379.027	109.06
379.253	102.06
379.478	106.06
379.704	96.06
379.929	92.06
380.155	94.06
380.38	101.06
380.606	95.06
380.831	97.06
381.057	86.06
381.282	100.06
381.507	103.06
381.733	98.06
381.958	102.06
382.184	96.06
382.409	97.06
382.634	117.06
382.86	108.06
383.085	106.06
383.31	102.06
383.535	101.06
383.761	111.06
383.986	109.06
384.211	98.06
384.436	98.06
384.662	91.06
384.887	113.06
385.112	106.06
385.337	120.06
385.562	107.06
385.787	115.06
386.013	139.06
386.238	140.06
386.463	116.06
386.688	125.06
386.913	112.06
387.138	110.06
387.363	106.06
387.588	106.06
387.813	94.06
388.038	109.06
388.263	116.06
388.488	124.06
388.713	107.06
388.938	90.06
389.163	73.06
389.387	86.06
389.612	86.06
389.837	98.06
390.062	92.06
390.287	99.06
390.512	97.06
390.736	79.06
390.961	94.06
391.186	109.06
391.411	108.06
391.636	104.06
391.86	85.06
392.085	98.06
392.31	76.06
392.534	91.06
392.759	99.06
392.984	92.06
393.208	90.06
393.433	108.06
393.658	113.06
393.882	84.06
394.107	76.06
394.331	82.06
394.556	88.06
394.78	98.06
395.005	88.06
395.229	86.06
395.454	89.06
395.678	96.06
395.903	84.06
396.127	96.06
396.352	97.06
396.576	89.06
396.801	91.06
397.025	79.06
397.249	89.06
397.474	84.06
397.698	101.06
397.922	102.06
398.147	100.06
398.371	73.06
398.595	88.06
398.82	85.06
399.044	85.06
399.268	81.06
399.492	102.06
399.717	98.06
399.941	93.06
400.165	105.06
400.389	104.06
400.613	97.06
400.837	86.06
401.062	103.06
401.286	85.06
401.51	84.06
401.734	93.06
401.958	116.06
402.182	155.06
402.406	204.06
402.63	153.06
402.854	107.06
403.078	94.06
403.302	86.06
403.526	89.06
403.75	99.06
403.974	93.06
404.198	99.06
404.422	80.06
404.645	94.06
404.869	94.06
405.093	110.06
405.317	138.06
405.541	140.06
405.765	114.06
405.988	122.06
406.212	213.06
406.436	302.06
406.66	197.06
406.883	129.06
407.107	102.06
407.331	95.06
407.555	120.06
407.778	99.06
408.002	90.06
408.226	110.06
408.449	106.06
408.673	91.06
408.896	101.06
409.12	100.06
409.344	100.06
409.567	96.06
409.791	94.06
410.014	99.06
410.238	105.06
410.461	102.06
410.685	90.06
410.908	112.06
411.132	101.06
411.355	126.06
411.578	94.06
411.802	84.06
412.025	93.06
412.249	113.06
412.472	114.06
412.695	122.06
412.919	92.06
413.142	87.06
413.365	92.06
413.589	92.06
413.812	97.06
414.035	104.06
414.258	84.06
414.482	93.06
414.705	98.06
414.928	91.06
415.151	92.06
415.374	103.06
415.597	96.06
415.821	99.06
416.044	103.06
416.267	86.06
416.49	84.06
416.713	94.06
416.936	90.06
417.159	86.06
417.382	104.06
417.605	99.06
417.828	104.06
418.051	101.06
418.274	89.06
418.497	86.06
418.72	84.06
418.943	91.06
419.166	96.06
419.389	84.06
419.611	80.06
419.834	86.06
420.057	94.06
420.28	90.06
420.503	89.06
420.726	100.06
420.948	82.06
421.171	99.06
421.394	85.06
421.617	96.06
421.839	76.06
422.062	87.06
422.285	101.06
422.507	114.06
422.73	121.06
422.953	104.06
423.175	89.06
423.398	92.06
423.621	110.06
423.843	94.06
424.066	84.06
424.288	96.06
424.511	85.06
424.733	122.06
424.956	124.06
425.178	120.06
425.401	112.06
425.623	102.06
425.846	92.06
426.068	114.06
426.291	95.06
426.513	89.06
426.735	84.06
426.958	100.06
427.18	130.06
427.402	170.06
427.625	258.06
427.847	226.06
428.069	204.06
428.292	124.06
428.514	92.06
428.736	83.06
428.958	92.06
429.181	95.06
429.403	90.06
429.625	85.06
429.847	103.06
430.069	106.06
430.292	102.06
430.514	76.06
430.736	85.06
430.958	91.06
431.18	77.06
431.402	85.06
431.624	78.06
431.846	94.06
432.068	77.06
432.29	75.06
432.512	84.06
432.734	91.06
432.956	85.06
433.178	105.06
433.4	100.06
433.622	104.06
433.844	101.06
434.066	94.06
434.287	92.06
434.509	94.06
434.731	94.06
434.953	99.06
435.175	102.06
435.397	95.06
435.618	81.06
435.84	101.06
436.062	135.06
436.284	140.06
436.505	111.06
436.727	99.06
436.949	105.06
437.17	103.06
437.392	94.06
437.614	94.06
437.835	121.06
438.057	155.06
438.278	138.06
438.5	108.06
438.721	144.06
438.943	103.06
439.165	104.06
439.386	92.06
439.608	82.06
439.829	109.06
440.05	141.06
440.272	198.06
440.493	134.06
440.715	95.06
440.936	89.06
441.158	92.06
441.379	89.06
441.6	95.06
441.822	100.06
442.043	91.06
442.264	124.06
442.486	107.06
442.707	108.06
442.928	115.06
443.149	161.06
443.371	172.06
443.592	120.06
443.813	133.06
444.034	114.06
444.255	107.06
444.476	90.06
444.698	90.06
444.919	76.06
445.14	135.06
445.361	137.06
445.582	122.06
445.803	202.06
446.024	170.06
446.245	158.06
446.466	107.06
446.687	83.06
446.908	82.06
447.129	94.06
447.35	88.06
447.571	98.06
447.792	80.06
448.013	120.06
448.234	118.06
448.455	122.06
448.675	136.06
448.896	140.06
449.117	93.06
449.338	117.06
449.559	149.06
449.779	162.06
450	104.06
450.221	85.06
450.442	95.06
450.662	84.06
450.883	113.06
451.104	129.06
451.324	110.06
451.545	88.06
451.766	84.06
451.986	86.06
452.207	99.06
452.428	90.06
452.648	100.06
452.869	137.06
453.089	146.06
453.31	159.06
453.53	97.06
453.751	83.06
453.971	122.06
454.192	141.06
454.412	96.06
454.633	94.06
454.853	102.06
455.073	88.06
455.294	99.06
455.514	111.06
455.734	99.06
455.955	82.06
456.175	72.06
456.395	82.06
456.616	79.06
456.836	83.06
457.056	86.06
457.276	90.06
457.497	98.06
457.717	87.06
457.937	88.06
458.157	91.06
458.377	97.06
458.598	120.06
458.818	206.06
459.038	231.06
459.258	145.06
459.478	88.06
459.698	86.06
459.918	77.06
460.138	79.06
460.358	87.06
460.578	88.06
460.798	101.06
461.018	96.06
461.238	88.06
461.458	86.06
461.678	83.06
461.898	88.06
462.118	84.06
462.338	82.06
462.558	70.06
462.777	81.06
462.997	94.06
463.217	100.06
463.437	98.06
463.657	100.06
463.876	85.06
464.096	113.06
464.316	103.06
464.536	105.06
464.755	111.06
464.975	126.06
465.195	250.06
465.414	241.06
465.634	109.06
465.854	89.06
466.073	95.06
466.293	94.06
466.512	95.06
466.732	91.06
466.951	97.06
467.171	83.06
467.391	106.06
467.61	124.06
467.829	133.06
468.049	283.06
468.268	416.06
468.488	138.06
468.707	92.06
468.927	95.06
469.146	87.06
469.365	84.06
469.585	97.06
469.804	115.06
470.023	106.06
470.243	88.06
470.462	105.06
470.681	127.06
470.901	104.06
471.12	99.06
471.339	98.06
471.558	95.06
471.777	111.06
471.997	170.06
472.216	537.06
472.435	1203.06
472.654	363.06
472.873	131.06
473.092	107.06
473.311	92.06
473.53	84.06
473.749	90.06
473.968	92.06
474.187	125.06
474.406	108.06
474.625	94.06
474.844	86.06
475.063	75.06
475.282	83.06
475.501	79.06
475.72	97.06
475.939	93.06
476.158	89.06
476.377	101.06
476.596	90.06
476.814	97.06
477.033	98.06
477.252	96.06
477.471	80.06
477.69	80.06
477.908	95.06
478.127	82.06
478.346	90.06
478.564	91.06
478.783	105.06
479.002	114.06
479.22	97.06
479.439	110.06
479.658	126.06
479.876	114.06
480.095	111.06
480.313	102.06
480.532	123.06
480.751	187.06
480.969	476.06
481.188	1992.06
481.406	1293.06
481.624	235.06
481.843	116.06
482.061	98.06
482.28	99.06
482.498	97.06
482.717	86.06
482.935	83.06
483.153	90.06
483.372	78.06
483.59	92.06
483.808	81.06
484.027	98.06
484.245	100.06
484.463	91.06
484.681	102.06
484.9	96.06
485.118	105.06
485.336	101.06
485.554	101.06
485.772	98.06
485.99	116.06
486.209	114.06
486.427	110.06
486.645	115.06
486.863	132.06
487.081	113.06
487.299	93.06
487.517	103.06
487.735	98.06
487.953	92.06
488.171	92.06
488.389	109.06
488.607	98.06
488.825	80.06
489.043	93.06
489.261	81.06
489.479	92.06
489.696	99.06
489.914	89.06
490.132	96.06
490.35	96.06
490.568	90.06
490.786	80.06
491.003	98.06
491.221	96.06
491.439	102.06
491.657	100.06
491.874	103.06
492.092	89.06
492.31	93.06
492.527	86.06
492.745	95.06
492.963	85.06
493.18	95.06
493.398	91.06
493.615	90.06
493.833	101.06
494.05	92.06
494.268	85.06
494.485	79.06
494.703	91.06
494.92	72.06
495.138	81.06
495.355	91.06
495.573	89.06
495.79	87.06
496.008	101.06
496.225	90.06
496.442	82.06
496.66	104.06
496.877	94.06
497.094	82.06
497.312	93.06
497.529	90.06
497.746	92.06
497.963	93.06
498.181	76.06
498.398	99.06
498.615	113.06
498.832	117.06
499.049	103.06
499.267	106.06
499.484	90.06
499.701	88.06
499.918	95.06
500.135	88.06
500.352	96.06
500.569	107.06
500.786	97.06
501.003	92.06
501.22	92.06
501.437	89.06
501.654	92.06
501.871	120.06
502.088	93.06
502.305	104.06
502.522	85.06
502.739	92.06
502.956	95.06
503.172	96.06
503.389	98.06
503.606	116.06
503.823	116.06
504.04	87.06
504.256	89.06
504.473	104.06
504.69	96.06
504.907	97.06
505.123	104.06
505.34	99.06
505.557	86.06
505.773	98.06
505.99	86.06
506.207	96.06
506.423	99.06
506.64	103.06
506.856	103.06
507.073	102.06
507.289	108.06
507.506	98.06
507.722	143.06
507.939	142.06
508.155	109.06
508.372	101.06
508.588	90.06
508.805	101.06
509.021	104.06
509.238	108.06
509.454	88.06
509.67	103.06
509.887	116.06
510.103	128.06
510.319	261.06
510.536	931.06
510.752	3239.06
510.968	892.06
511.184	192.06
511.401	140.06
511.617	111.06
511.833	118.06
512.049	103.06
512.265	92.06
512.481	91.06
512.698	105.06
512.914	99.06
