Data from Circ_2007_H10_HRD10591_00028.txt Node
Date: Wed Jan 03 10:22:02 EST 2024
User: Yrep
Spectrometer: HR+D1059
Trigger mode: 1
Integration Time (sec): 1.000000E-1
Scans to average: 1
Electric dark correction enabled: true
Nonlinearity correction enabled: false
Boxcar width: 0
XAxis mode: Wavelengths
Number of Pixels in Spectrum: 2048
>>>>>Begin Spectral Data<<<<<
223.165	-12.06
223.4	-12.06
223.635	-12.06
223.869	-15.06
224.104	-4.06
224.338	-32.06
224.573	-11.06
224.808	-0.06
225.042	-11.06
225.277	-21.06
225.511	-12.06
225.746	3.94
225.98	5.94
226.215	11.94
226.449	16.94
226.683	23.94
226.918	19.94
227.152	35.94
227.387	47.94
227.621	31.94
227.856	43.94
228.09	50.94
228.324	51.94
228.559	39.94
228.793	52.94
229.027	69.94
229.262	71.94
229.496	64.94
229.73	95.94
229.964	100.94
230.199	86.94
230.433	72.94
230.667	72.94
230.901	86.94
231.136	73.94
231.37	71.94
231.604	75.94
231.838	95.94
232.072	78.94
232.306	79.94
232.541	73.94
232.775	86.94
233.009	81.94
233.243	85.94
233.477	89.94
233.711	91.94
233.945	84.94
234.179	78.94
234.413	88.94
234.647	81.94
234.881	71.94
235.115	76.94
235.349	78.94
235.583	83.94
235.817	82.94
236.051	75.94
236.285	84.94
236.519	73.94
236.753	95.94
236.987	78.94
237.221	94.94
237.455	92.94
237.689	71.94
237.922	67.94
238.156	71.94
238.39	83.94
238.624	74.94
238.858	97.94
239.091	81.94
239.325	67.94
239.559	72.94
239.793	73.94
240.027	83.94
240.26	92.94
240.494	76.94
240.728	76.94
240.961	80.94
241.195	83.94
241.429	67.94
241.662	80.94
241.896	76.94
242.13	71.94
242.363	73.94
242.597	81.94
242.83	67.94
243.064	78.94
243.298	89.94
243.531	65.94
243.765	75.94
243.998	77.94
244.232	74.94
244.465	79.94
244.699	88.94
244.932	66.94
245.166	92.94
245.399	72.94
245.633	85.94
245.866	82.94
246.099	76.94
246.333	79.94
246.566	84.94
246.8	89.94
247.033	78.94
247.266	78.94
247.5	86.94
247.733	75.94
247.966	74.94
248.2	80.94
248.433	87.94
248.666	83.94
248.899	97.94
249.133	95.94
249.366	111.94
249.599	103.94
249.832	88.94
250.066	82.94
250.299	83.94
250.532	82.94
250.765	79.94
250.998	83.94
251.231	72.94
251.465	77.94
251.698	79.94
251.931	89.94
252.164	88.94
252.397	79.94
252.63	75.94
252.863	70.94
253.096	77.94
253.329	81.94
253.562	80.94
253.795	79.94
254.028	79.94
254.261	75.94
254.494	83.94
254.727	91.94
254.96	71.94
255.193	97.94
255.426	61.94
255.659	75.94
255.892	92.94
256.124	92.94
256.357	85.94
256.59	92.94
256.823	87.94
257.056	79.94
257.289	83.94
257.521	81.94
257.754	87.94
257.987	81.94
258.22	90.94
258.452	84.94
258.685	77.94
258.918	90.94
259.151	78.94
259.383	77.94
259.616	71.94
259.849	85.94
260.081	79.94
260.314	91.94
260.547	77.94
260.779	93.94
261.012	99.94
261.244	89.94
261.477	104.94
261.71	99.94
261.942	121.94
262.175	135.94
262.407	91.94
262.64	88.94
262.872	86.94
263.105	76.94
263.337	86.94
263.57	95.94
263.802	92.94
264.035	95.94
264.267	83.94
264.499	72.94
264.732	88.94
264.964	79.94
265.197	93.94
265.429	91.94
265.661	87.94
265.894	91.94
266.126	76.94
266.358	74.94
266.591	80.94
266.823	89.94
267.055	72.94
267.287	86.94
267.52	92.94
267.752	84.94
267.984	99.94
268.216	83.94
268.448	81.94
268.681	83.94
268.913	83.94
269.145	85.94
269.377	76.94
269.609	80.94
269.841	84.94
270.073	88.94
270.306	84.94
270.538	78.94
270.77	76.94
271.002	93.94
271.234	83.94
271.466	93.94
271.698	82.94
271.93	91.94
272.162	90.94
272.394	108.94
272.626	87.94
272.858	89.94
273.09	97.94
273.322	77.94
273.553	79.94
273.785	87.94
274.017	90.94
274.249	83.94
274.481	79.94
274.713	88.94
274.945	78.94
275.176	94.94
275.408	79.94
275.64	100.94
275.872	96.94
276.104	100.94
276.335	79.94
276.567	98.94
276.799	131.94
277.031	134.94
277.262	147.94
277.494	116.94
277.726	84.94
277.957	84.94
278.189	81.94
278.421	83.94
278.652	82.94
278.884	83.94
279.115	97.94
279.347	94.94
279.579	99.94
279.81	113.94
280.042	133.94
280.273	170.94
280.505	136.94
280.736	89.94
280.968	84.94
281.199	75.94
281.431	87.94
281.662	79.94
281.894	79.94
282.125	84.94
282.356	130.94
282.588	161.94
282.819	133.94
283.051	93.94
283.282	84.94
283.513	88.94
283.745	83.94
283.976	92.94
284.207	90.94
284.439	98.94
284.67	77.94
284.901	80.94
285.132	75.94
285.364	76.94
285.595	80.94
285.826	84.94
286.057	84.94
286.288	84.94
286.52	76.94
286.751	90.94
286.982	94.94
287.213	88.94
287.444	82.94
287.675	87.94
287.906	80.94
288.138	93.94
288.369	90.94
288.6	89.94
288.831	83.94
289.062	81.94
289.293	90.94
289.524	75.94
289.755	90.94
289.986	94.94
290.217	94.94
290.448	88.94
290.679	86.94
290.91	92.94
291.141	78.94
291.371	83.94
291.602	83.94
291.833	79.94
292.064	86.94
292.295	85.94
292.526	97.94
292.757	88.94
292.987	90.94
293.218	86.94
293.449	94.94
293.68	98.94
293.91	90.94
294.141	89.94
294.372	79.94
294.603	91.94
294.833	81.94
295.064	86.94
295.295	79.94
295.525	91.94
295.756	100.94
295.987	130.94
296.217	160.94
296.448	131.94
296.679	92.94
296.909	71.94
297.14	92.94
297.37	89.94
297.601	95.94
297.831	98.94
298.062	104.94
298.292	102.94
298.523	87.94
298.753	101.94
298.984	71.94
299.214	92.94
299.445	92.94
299.675	90.94
299.905	88.94
300.136	95.94
300.366	84.94
300.597	100.94
300.827	96.94
301.057	94.94
301.288	109.94
301.518	105.94
301.748	90.94
301.979	97.94
302.209	82.94
302.439	93.94
302.669	84.94
302.9	90.94
303.13	86.94
303.36	92.94
303.59	124.94
303.82	126.94
304.051	110.94
304.281	94.94
304.511	96.94
304.741	94.94
304.971	79.94
305.201	83.94
305.431	103.94
305.661	88.94
305.891	79.94
306.121	100.94
306.352	112.94
306.582	114.94
306.812	90.94
307.042	108.94
307.272	139.94
307.502	137.94
307.731	130.94
307.961	85.94
308.191	94.94
308.421	91.94
308.651	88.94
308.881	79.94
309.111	91.94
309.341	98.94
309.571	102.94
309.8	112.94
310.03	108.94
310.26	97.94
310.49	98.94
310.72	100.94
310.949	113.94
311.179	115.94
311.409	90.94
311.639	92.94
311.868	106.94
312.098	91.94
312.328	123.94
312.557	108.94
312.787	102.94
313.017	111.94
313.246	82.94
313.476	98.94
313.706	81.94
313.935	103.94
314.165	90.94
314.394	89.94
314.624	97.94
314.853	98.94
315.083	102.94
315.312	90.94
315.542	96.94
315.771	92.94
316.001	88.94
316.23	92.94
316.46	96.94
316.689	100.94
316.919	96.94
317.148	98.94
317.377	112.94
317.607	96.94
317.836	95.94
318.065	88.94
318.295	95.94
318.524	88.94
318.753	67.94
318.983	96.94
319.212	104.94
319.441	108.94
319.67	118.94
319.9	88.94
320.129	99.94
320.358	95.94
320.587	101.94
320.816	98.94
321.046	110.94
321.275	90.94
321.504	92.94
321.733	102.94
321.962	91.94
322.191	110.94
322.42	114.94
322.649	111.94
322.878	112.94
323.108	99.94
323.337	148.94
323.566	134.94
323.795	174.94
324.024	244.94
324.253	459.94
324.482	979.94
324.71	2070.94
324.939	2806.94
325.168	1022.94
325.397	279.94
325.626	166.94
325.855	142.94
326.084	146.94
326.313	143.94
326.542	158.94
326.77	262.94
326.999	512.94
327.228	1069.94
327.457	2029.94
327.686	1686.94
327.914	504.94
328.143	371.94
328.372	418.94
328.6	249.94
328.829	153.94
329.058	140.94
329.287	176.94
329.515	152.94
329.744	194.94
329.972	288.94
330.201	525.94
330.43	804.94
330.658	396.94
330.887	239.94
331.115	176.94
331.344	119.94
331.572	102.94
331.801	134.94
332.03	122.94
332.258	99.94
332.486	106.94
332.715	91.94
332.943	105.94
333.172	108.94
333.4	110.94
333.629	138.94
333.857	183.94
334.085	257.94
334.314	506.94
334.542	983.94
334.771	992.94
334.999	310.94
335.227	129.94
335.455	105.94
335.684	102.94
335.912	106.94
336.14	109.94
336.369	110.94
336.597	122.94
336.825	99.94
337.053	87.94
337.281	90.94
337.51	87.94
337.738	92.94
337.966	97.94
338.194	95.94
338.422	106.94
338.65	81.94
338.878	106.94
339.106	82.94
339.334	81.94
339.562	87.94
339.79	86.94
340.018	101.94
340.246	97.94
340.474	95.94
340.702	97.94
340.93	88.94
341.158	104.94
341.386	97.94
341.614	113.94
341.842	93.94
342.07	105.94
342.298	105.94
342.526	82.94
342.754	94.94
342.981	83.94
343.209	104.94
343.437	101.94
343.665	99.94
343.893	88.94
344.12	99.94
344.348	91.94
344.576	87.94
344.804	96.94
345.031	102.94
345.259	94.94
345.487	94.94
345.714	83.94
345.942	73.94
346.17	83.94
346.397	96.94
346.625	93.94
346.853	78.94
347.08	98.94
347.308	88.94
347.535	94.94
347.763	121.94
347.99	99.94
348.218	102.94
348.445	124.94
348.673	109.94
348.9	95.94
349.128	89.94
349.355	95.94
349.583	87.94
349.81	82.94
350.037	95.94
350.265	96.94
350.492	88.94
350.72	86.94
350.947	83.94
351.174	116.94
351.402	120.94
351.629	105.94
351.856	104.94
352.083	97.94
352.311	96.94
352.538	98.94
352.765	113.94
352.992	117.94
353.22	112.94
353.447	90.94
353.674	91.94
353.901	86.94
354.128	87.94
354.355	88.94
354.583	98.94
354.81	91.94
355.037	94.94
355.264	95.94
355.491	101.94
355.718	88.94
355.945	98.94
356.172	87.94
356.399	86.94
356.626	94.94
356.853	91.94
357.08	90.94
357.307	91.94
357.534	86.94
357.761	92.94
357.988	93.94
358.215	84.94
358.441	87.94
358.668	109.94
358.895	92.94
359.122	83.94
359.349	94.94
359.576	102.94
359.802	110.94
360.029	142.94
360.256	136.94
360.483	115.94
360.709	114.94
360.936	95.94
361.163	103.94
361.39	103.94
361.616	87.94
361.843	104.94
362.07	93.94
362.296	98.94
362.523	84.94
362.749	95.94
362.976	84.94
363.203	83.94
363.429	87.94
363.656	98.94
363.882	94.94
364.109	89.94
364.335	95.94
364.562	86.94
364.788	89.94
365.015	96.94
365.241	104.94
365.468	115.94
365.694	108.94
365.92	102.94
366.147	92.94
366.373	96.94
366.599	104.94
366.826	95.94
367.052	79.94
367.278	106.94
367.505	73.94
367.731	88.94
367.957	97.94
368.184	85.94
368.41	107.94
368.636	136.94
368.862	127.94
369.089	131.94
369.315	90.94
369.541	91.94
369.767	83.94
369.993	82.94
370.219	98.94
370.445	77.94
370.672	92.94
370.898	98.94
371.124	86.94
371.35	96.94
371.576	88.94
371.802	76.94
372.028	83.94
372.254	83.94
372.48	104.94
372.706	101.94
372.932	75.94
373.158	72.94
373.384	81.94
373.61	106.94
373.835	65.94
374.061	92.94
374.287	79.94
374.513	83.94
374.739	87.94
374.965	90.94
375.191	83.94
375.416	91.94
375.642	89.94
375.868	86.94
376.094	95.94
376.319	87.94
376.545	84.94
376.771	80.94
376.997	93.94
377.222	76.94
377.448	89.94
377.674	80.94
377.899	79.94
378.125	101.94
378.35	86.94
378.576	101.94
378.802	82.94
379.027	84.94
379.253	86.94
379.478	102.94
379.704	102.94
379.929	102.94
380.155	98.94
380.38	99.94
380.606	79.94
380.831	96.94
381.057	89.94
381.282	111.94
381.507	85.94
381.733	85.94
381.958	94.94
382.184	89.94
382.409	96.94
382.634	96.94
382.86	98.94
383.085	100.94
383.31	90.94
383.535	95.94
383.761	95.94
383.986	105.94
384.211	90.94
384.436	93.94
384.662	111.94
384.887	94.94
385.112	99.94
385.337	114.94
385.562	103.94
385.787	111.94
386.013	107.94
386.238	118.94
386.463	102.94
386.688	111.94
386.913	98.94
387.138	104.94
387.363	111.94
387.588	95.94
387.813	98.94
388.038	88.94
388.263	113.94
388.488	109.94
388.713	92.94
388.938	86.94
389.163	89.94
389.387	90.94
389.612	93.94
389.837	91.94
390.062	87.94
390.287	83.94
390.512	84.94
390.736	96.94
390.961	95.94
391.186	84.94
391.411	103.94
391.636	81.94
391.86	84.94
392.085	83.94
392.31	88.94
392.534	84.94
392.759	92.94
392.984	101.94
393.208	88.94
393.433	118.94
393.658	81.94
393.882	88.94
394.107	72.94
394.331	91.94
394.556	86.94
394.78	84.94
395.005	90.94
395.229	91.94
395.454	88.94
395.678	88.94
395.903	87.94
396.127	94.94
396.352	92.94
396.576	93.94
396.801	99.94
397.025	91.94
397.249	84.94
397.474	86.94
397.698	94.94
397.922	86.94
398.147	76.94
398.371	96.94
398.595	81.94
398.82	75.94
399.044	95.94
399.268	89.94
399.492	96.94
399.717	88.94
399.941	87.94
400.165	96.94
400.389	91.94
400.613	91.94
400.837	79.94
401.062	99.94
401.286	96.94
401.51	89.94
401.734	103.94
401.958	111.94
402.182	135.94
402.406	189.94
402.63	149.94
402.854	108.94
403.078	99.94
403.302	85.94
403.526	96.94
403.75	92.94
403.974	101.94
404.198	84.94
404.422	86.94
404.645	77.94
404.869	84.94
405.093	98.94
405.317	135.94
405.541	120.94
405.765	105.94
405.988	120.94
406.212	200.94
406.436	310.94
406.66	191.94
406.883	116.94
407.107	92.94
407.331	94.94
407.555	107.94
407.778	99.94
408.002	102.94
408.226	102.94
408.449	92.94
408.673	105.94
408.896	86.94
409.12	104.94
409.344	80.94
409.567	95.94
409.791	94.94
410.014	84.94
410.238	99.94
410.461	84.94
410.685	92.94
410.908	96.94
411.132	113.94
411.355	104.94
411.578	91.94
411.802	76.94
412.025	85.94
412.249	98.94
412.472	113.94
412.695	127.94
412.919	115.94
413.142	97.94
413.365	97.94
413.589	95.94
413.812	98.94
414.035	91.94
414.258	89.94
414.482	79.94
414.705	87.94
414.928	80.94
415.151	93.94
415.374	92.94
415.597	92.94
415.821	93.94
416.044	96.94
416.267	84.94
416.49	90.94
416.713	88.94
416.936	81.94
417.159	78.94
417.382	91.94
417.605	99.94
417.828	85.94
418.051	110.94
418.274	82.94
418.497	84.94
418.72	92.94
418.943	75.94
419.166	86.94
419.389	86.94
419.611	94.94
419.834	96.94
420.057	93.94
420.28	98.94
420.503	86.94
420.726	89.94
420.948	96.94
421.171	92.94
421.394	77.94
421.617	82.94
421.839	78.94
422.062	81.94
422.285	90.94
422.507	107.94
422.73	105.94
422.953	120.94
423.175	113.94
423.398	94.94
423.621	85.94
423.843	90.94
424.066	78.94
424.288	96.94
424.511	105.94
424.733	98.94
424.956	112.94
425.178	98.94
425.401	97.94
425.623	103.94
425.846	104.94
426.068	81.94
426.291	106.94
426.513	104.94
426.735	116.94
426.958	98.94
427.18	120.94
427.402	171.94
427.625	246.94
427.847	204.94
428.069	174.94
428.292	104.94
428.514	99.94
428.736	86.94
428.958	93.94
429.181	101.94
429.403	80.94
429.625	75.94
429.847	86.94
430.069	102.94
430.292	99.94
430.514	92.94
430.736	83.94
430.958	82.94
431.18	80.94
431.402	84.94
431.624	88.94
431.846	94.94
432.068	81.94
432.29	90.94
432.512	81.94
432.734	76.94
432.956	95.94
433.178	95.94
433.4	94.94
433.622	89.94
433.844	95.94
434.066	80.94
434.287	87.94
434.509	79.94
434.731	90.94
434.953	81.94
435.175	79.94
435.397	100.94
435.618	100.94
435.84	107.94
436.062	139.94
436.284	126.94
436.505	102.94
436.727	97.94
436.949	86.94
437.17	93.94
437.392	90.94
437.614	88.94
437.835	100.94
438.057	155.94
438.278	134.94
438.5	118.94
438.721	125.94
438.943	100.94
439.165	94.94
439.386	82.94
439.608	90.94
439.829	97.94
440.05	141.94
440.272	180.94
440.493	114.94
440.715	98.94
440.936	86.94
441.158	87.94
441.379	87.94
441.6	116.94
441.822	87.94
442.043	97.94
442.264	105.94
442.486	116.94
442.707	98.94
442.928	119.94
443.149	159.94
443.371	163.94
443.592	141.94
443.813	128.94
444.034	109.94
444.255	88.94
444.476	88.94
444.698	76.94
444.919	92.94
445.14	121.94
445.361	150.94
445.582	138.94
445.803	161.94
446.024	174.94
446.245	184.94
446.466	118.94
446.687	111.94
446.908	82.94
447.129	78.94
447.35	92.94
447.571	105.94
447.792	86.94
448.013	97.94
448.234	114.94
448.455	104.94
448.675	131.94
448.896	137.94
449.117	110.94
449.338	124.94
449.559	154.94
449.779	150.94
450	91.94
450.221	83.94
450.442	90.94
450.662	104.94
450.883	120.94
451.104	148.94
451.324	94.94
451.545	83.94
451.766	77.94
451.986	88.94
452.207	91.94
452.428	92.94
452.648	98.94
452.869	119.94
453.089	137.94
453.31	139.94
453.53	114.94
453.751	111.94
453.971	97.94
454.192	126.94
454.412	102.94
454.633	83.94
454.853	84.94
455.073	96.94
455.294	87.94
455.514	102.94
455.734	102.94
455.955	69.94
456.175	81.94
456.395	97.94
456.616	94.94
456.836	82.94
457.056	96.94
457.276	95.94
457.497	79.94
457.717	89.94
457.937	82.94
458.157	82.94
458.377	99.94
458.598	110.94
458.818	208.94
459.038	234.94
459.258	143.94
459.478	97.94
459.698	92.94
459.918	92.94
460.138	91.94
460.358	83.94
460.578	89.94
460.798	90.94
461.018	97.94
461.238	101.94
461.458	84.94
461.678	90.94
461.898	85.94
462.118	91.94
462.338	87.94
462.558	86.94
462.777	92.94
462.997	94.94
463.217	95.94
463.437	91.94
463.657	89.94
463.876	89.94
464.096	91.94
464.316	86.94
464.536	92.94
464.755	105.94
464.975	134.94
465.195	242.94
465.414	240.94
465.634	100.94
465.854	80.94
466.073	88.94
466.293	90.94
466.512	78.94
466.732	79.94
466.951	93.94
467.171	99.94
467.391	111.94
467.61	132.94
467.829	154.94
468.049	285.94
468.268	472.94
468.488	158.94
468.707	97.94
468.927	88.94
469.146	87.94
469.365	98.94
469.585	93.94
469.804	105.94
470.023	109.94
470.243	105.94
470.462	114.94
470.681	136.94
470.901	102.94
471.12	96.94
471.339	105.94
471.558	93.94
471.777	107.94
471.997	182.94
472.216	546.94
472.435	1306.94
472.654	348.94
472.873	139.94
473.092	98.94
473.311	99.94
473.53	102.94
473.749	90.94
473.968	84.94
474.187	103.94
474.406	99.94
474.625	86.94
474.844	89.94
475.063	102.94
475.282	93.94
475.501	73.94
475.72	94.94
475.939	80.94
476.158	87.94
476.377	84.94
476.596	84.94
476.814	101.94
477.033	106.94
477.252	95.94
477.471	81.94
477.69	88.94
477.908	72.94
478.127	102.94
478.346	98.94
478.564	101.94
478.783	106.94
479.002	91.94
479.22	103.94
479.439	107.94
479.658	121.94
479.876	113.94
480.095	102.94
480.313	121.94
480.532	126.94
480.751	173.94
480.969	504.94
481.188	2148.94
481.406	1402.94
481.624	250.94
481.843	117.94
482.061	96.94
482.28	91.94
482.498	101.94
482.717	90.94
482.935	96.94
483.153	85.94
483.372	82.94
483.59	100.94
483.808	98.94
484.027	96.94
484.245	89.94
484.463	97.94
484.681	78.94
484.9	76.94
485.118	96.94
485.336	92.94
485.554	90.94
485.772	100.94
485.99	127.94
486.209	115.94
486.427	102.94
486.645	126.94
486.863	140.94
487.081	97.94
487.299	100.94
487.517	78.94
487.735	93.94
487.953	91.94
488.171	99.94
488.389	93.94
488.607	113.94
488.825	92.94
489.043	94.94
489.261	88.94
489.479	91.94
489.696	92.94
489.914	77.94
490.132	73.94
490.35	82.94
490.568	88.94
490.786	78.94
491.003	88.94
491.221	87.94
491.439	94.94
491.657	106.94
491.874	99.94
492.092	83.94
492.31	104.94
492.527	89.94
492.745	77.94
492.963	89.94
493.18	91.94
493.398	84.94
493.615	104.94
493.833	96.94
494.05	82.94
494.268	80.94
494.485	83.94
494.703	93.94
494.92	90.94
495.138	82.94
495.355	94.94
495.573	87.94
495.79	85.94
496.008	87.94
496.225	93.94
496.442	89.94
496.66	111.94
496.877	87.94
497.094	95.94
497.312	98.94
497.529	85.94
497.746	86.94
497.963	94.94
498.181	71.94
498.398	100.94
498.615	118.94
498.832	103.94
499.049	88.94
499.267	104.94
499.484	91.94
499.701	99.94
499.918	84.94
500.135	90.94
500.352	100.94
500.569	109.94
500.786	94.94
501.003	97.94
501.22	94.94
501.437	87.94
501.654	90.94
501.871	127.94
502.088	94.94
502.305	80.94
502.522	81.94
502.739	87.94
502.956	80.94
503.172	98.94
503.389	99.94
503.606	123.94
503.823	113.94
504.04	96.94
504.256	97.94
504.473	97.94
504.69	87.94
504.907	99.94
505.123	94.94
505.34	90.94
505.557	98.94
505.773	99.94
505.99	86.94
506.207	77.94
506.423	100.94
506.64	84.94
506.856	95.94
507.073	86.94
507.289	99.94
507.506	84.94
507.722	126.94
507.939	121.94
508.155	98.94
508.372	94.94
508.588	90.94
508.805	83.94
509.021	98.94
509.238	92.94
509.454	94.94
509.67	108.94
509.887	108.94
510.103	138.94
510.319	216.94
510.536	910.94
510.752	3163.94
510.968	852.94
511.184	182.94
511.401	127.94
511.617	106.94
511.833	96.94
512.049	89.94
512.265	107.94
512.481	94.94
512.698	94.94
512.914	97.94
513.13	101.94
513.346	100.94
513.562	100.94
513.778	107.94
513.994	88.94
514.21	126.94
514.426	127.94
