Data from Circ_2007_H10_HRD10591_00059.txt Node
Date: Wed Jan 03 10:22:09 EST 2024
User: Yrep
Spectrometer: HR+D1059
Trigger mode: 1
Integration Time (sec): 1.000000E-1
Scans to average: 1
Electric dark correction enabled: true
Nonlinearity correction enabled: false
Boxcar width: 0
XAxis mode: Wavelengths
Number of Pixels in Spectrum: 2048
>>>>>Begin Spectral Data<<<<<
223.165	-20.88
223.4	-20.88
223.635	-20.88
223.869	-7.88
224.104	-11.88
224.338	-29.88
224.573	-12.88
224.808	-15.88
225.042	-22.88
225.277	2.12
225.511	3.12
225.746	0.12
225.98	-6.88
226.215	22.12
226.449	19.12
226.683	28.12
226.918	21.12
227.152	33.12
227.387	32.12
227.621	40.12
227.856	33.12
228.09	48.12
228.324	41.12
228.559	48.12
228.793	67.12
229.027	83.12
229.262	77.12
229.496	84.12
229.73	96.12
229.964	94.12
230.199	64.12
230.433	70.12
230.667	75.12
230.901	66.12
231.136	80.12
231.37	85.12
231.604	78.12
231.838	84.12
232.072	85.12
232.306	73.12
232.541	79.12
232.775	75.12
233.009	75.12
233.243	79.12
233.477	79.12
233.711	69.12
233.945	86.12
234.179	83.12
234.413	82.12
234.647	77.12
234.881	80.12
235.115	74.12
235.349	82.12
235.583	81.12
235.817	76.12
236.051	77.12
236.285	73.12
236.519	78.12
236.753	77.12
236.987	90.12
237.221	92.12
237.455	113.12
237.689	93.12
237.922	71.12
238.156	68.12
238.39	65.12
238.624	65.12
238.858	73.12
239.091	78.12
239.325	71.12
239.559	75.12
239.793	90.12
240.027	85.12
240.26	80.12
240.494	77.12
240.728	74.12
240.961	76.12
241.195	77.12
241.429	68.12
241.662	74.12
241.896	76.12
242.13	81.12
242.363	81.12
242.597	65.12
242.83	80.12
243.064	78.12
243.298	80.12
243.531	75.12
243.765	82.12
243.998	92.12
244.232	84.12
244.465	98.12
244.699	96.12
244.932	71.12
245.166	68.12
245.399	82.12
245.633	71.12
245.866	83.12
246.099	78.12
246.333	70.12
246.566	84.12
246.8	74.12
247.033	95.12
247.266	74.12
247.5	76.12
247.733	88.12
247.966	74.12
248.2	77.12
248.433	83.12
248.666	99.12
248.899	88.12
249.133	83.12
249.366	93.12
249.599	111.12
249.832	87.12
250.066	83.12
250.299	89.12
250.532	81.12
250.765	93.12
250.998	85.12
251.231	75.12
251.465	75.12
251.698	73.12
251.931	82.12
252.164	89.12
252.397	70.12
252.63	83.12
252.863	75.12
253.096	68.12
253.329	73.12
253.562	87.12
253.795	82.12
254.028	85.12
254.261	84.12
254.494	81.12
254.727	76.12
254.96	91.12
255.193	87.12
255.426	89.12
255.659	80.12
255.892	103.12
256.124	78.12
256.357	96.12
256.59	94.12
256.823	89.12
257.056	84.12
257.289	93.12
257.521	82.12
257.754	84.12
257.987	87.12
258.22	97.12
258.452	81.12
258.685	83.12
258.918	82.12
259.151	69.12
259.383	91.12
259.616	97.12
259.849	78.12
260.081	72.12
260.314	79.12
260.547	89.12
260.779	73.12
261.012	88.12
261.244	88.12
261.477	85.12
261.71	104.12
261.942	126.12
262.175	147.12
262.407	79.12
262.64	89.12
262.872	88.12
263.105	74.12
263.337	83.12
263.57	103.12
263.802	74.12
264.035	87.12
264.267	84.12
264.499	87.12
264.732	98.12
264.964	72.12
265.197	84.12
265.429	89.12
265.661	77.12
265.894	89.12
266.126	99.12
266.358	80.12
266.591	79.12
266.823	87.12
267.055	69.12
267.287	80.12
267.52	77.12
267.752	76.12
267.984	79.12
268.216	81.12
268.448	90.12
268.681	80.12
268.913	85.12
269.145	94.12
269.377	72.12
269.609	74.12
269.841	85.12
270.073	88.12
270.306	85.12
270.538	88.12
270.77	85.12
271.002	90.12
271.234	99.12
271.466	81.12
271.698	78.12
271.93	73.12
272.162	85.12
272.394	85.12
272.626	78.12
272.858	89.12
273.09	81.12
273.322	96.12
273.553	89.12
273.785	87.12
274.017	80.12
274.249	88.12
274.481	93.12
274.713	92.12
274.945	93.12
275.176	80.12
275.408	110.12
275.64	100.12
275.872	99.12
276.104	114.12
276.335	94.12
276.567	108.12
276.799	131.12
277.031	127.12
277.262	151.12
277.494	123.12
277.726	95.12
277.957	88.12
278.189	68.12
278.421	78.12
278.652	76.12
278.884	81.12
279.115	85.12
279.347	81.12
279.579	95.12
279.81	98.12
280.042	136.12
280.273	174.12
280.505	141.12
280.736	91.12
280.968	82.12
281.199	80.12
281.431	94.12
281.662	87.12
281.894	100.12
282.125	100.12
282.356	125.12
282.588	148.12
282.819	127.12
283.051	82.12
283.282	80.12
283.513	93.12
283.745	91.12
283.976	77.12
284.207	93.12
284.439	88.12
284.67	102.12
284.901	95.12
285.132	80.12
285.364	85.12
285.595	79.12
285.826	82.12
286.057	79.12
286.288	79.12
286.52	98.12
286.751	99.12
286.982	82.12
287.213	80.12
287.444	77.12
287.675	79.12
287.906	85.12
288.138	90.12
288.369	97.12
288.6	91.12
288.831	84.12
289.062	91.12
289.293	77.12
289.524	101.12
289.755	97.12
289.986	83.12
290.217	81.12
290.448	86.12
290.679	93.12
290.91	93.12
291.141	79.12
291.371	88.12
291.602	89.12
291.833	80.12
292.064	94.12
292.295	87.12
292.526	98.12
292.757	86.12
292.987	94.12
293.218	81.12
293.449	93.12
293.68	84.12
293.91	85.12
294.141	96.12
294.372	103.12
294.603	102.12
294.833	77.12
295.064	74.12
295.295	91.12
295.525	100.12
295.756	109.12
295.987	119.12
296.217	161.12
296.448	125.12
296.679	108.12
296.909	95.12
297.14	81.12
297.37	88.12
297.601	86.12
297.831	87.12
298.062	94.12
298.292	88.12
298.523	96.12
298.753	81.12
298.984	81.12
299.214	75.12
299.445	82.12
299.675	100.12
299.905	107.12
300.136	101.12
300.366	93.12
300.597	92.12
300.827	79.12
301.057	95.12
301.288	105.12
301.518	104.12
301.748	98.12
301.979	97.12
302.209	84.12
302.439	90.12
302.669	82.12
302.9	90.12
303.13	105.12
303.36	92.12
303.59	108.12
303.82	132.12
304.051	95.12
304.281	91.12
304.511	94.12
304.741	82.12
304.971	78.12
305.201	94.12
305.431	97.12
305.661	93.12
305.891	80.12
306.121	96.12
306.352	110.12
306.582	112.12
306.812	87.12
307.042	116.12
307.272	132.12
307.502	139.12
307.731	120.12
307.961	119.12
308.191	107.12
308.421	98.12
308.651	87.12
308.881	98.12
309.111	92.12
309.341	88.12
309.571	105.12
309.8	112.12
310.03	111.12
310.26	105.12
310.49	106.12
310.72	111.12
310.949	126.12
311.179	113.12
311.409	108.12
311.639	105.12
311.868	100.12
312.098	85.12
312.328	92.12
312.557	106.12
312.787	118.12
313.017	122.12
313.246	90.12
313.476	96.12
313.706	102.12
313.935	107.12
314.165	108.12
314.394	103.12
314.624	100.12
314.853	109.12
315.083	90.12
315.312	94.12
315.542	88.12
315.771	81.12
316.001	79.12
316.23	76.12
316.46	84.12
316.689	96.12
316.919	92.12
317.148	115.12
317.377	99.12
317.607	106.12
317.836	97.12
318.065	102.12
318.295	90.12
318.524	108.12
318.753	95.12
318.983	92.12
319.212	106.12
319.441	111.12
319.67	121.12
319.9	96.12
320.129	80.12
320.358	91.12
320.587	97.12
320.816	103.12
321.046	109.12
321.275	111.12
321.504	102.12
321.733	106.12
321.962	105.12
322.191	100.12
322.42	112.12
322.649	126.12
322.878	139.12
323.108	135.12
323.337	142.12
323.566	151.12
323.795	187.12
324.024	265.12
324.253	521.12
324.482	1226.12
324.71	2633.12
324.939	3646.12
325.168	1260.12
325.397	326.12
325.626	176.12
325.855	148.12
326.084	139.12
326.313	157.12
326.542	177.12
326.77	295.12
326.999	643.12
327.228	1387.12
327.457	2693.12
327.686	2089.12
327.914	593.12
328.143	420.12
328.372	447.12
328.6	287.12
328.829	175.12
329.058	172.12
329.287	181.12
329.515	153.12
329.744	208.12
329.972	338.12
330.201	612.12
330.43	882.12
330.658	434.12
330.887	251.12
331.115	171.12
331.344	104.12
331.572	114.12
331.801	131.12
332.03	126.12
332.258	109.12
332.486	94.12
332.715	103.12
332.943	91.12
333.172	120.12
333.4	103.12
333.629	143.12
333.857	178.12
334.085	296.12
334.314	581.12
334.542	1152.12
334.771	1079.12
334.999	320.12
335.227	147.12
335.455	119.12
335.684	119.12
335.912	97.12
336.14	108.12
336.369	115.12
336.597	112.12
336.825	98.12
337.053	91.12
337.281	99.12
337.51	87.12
337.738	103.12
337.966	100.12
338.194	99.12
338.422	95.12
338.65	91.12
338.878	88.12
339.106	91.12
339.334	89.12
339.562	96.12
339.79	99.12
340.018	96.12
340.246	96.12
340.474	103.12
340.702	85.12
340.93	92.12
341.158	99.12
341.386	100.12
341.614	111.12
341.842	98.12
342.07	93.12
342.298	96.12
342.526	93.12
342.754	63.12
342.981	100.12
343.209	91.12
343.437	87.12
343.665	82.12
343.893	85.12
344.12	104.12
344.348	91.12
344.576	93.12
344.804	98.12
345.031	92.12
345.259	112.12
345.487	102.12
345.714	96.12
345.942	85.12
346.17	97.12
346.397	97.12
346.625	102.12
346.853	93.12
347.08	79.12
347.308	98.12
347.535	116.12
347.763	112.12
347.99	104.12
348.218	107.12
348.445	115.12
348.673	111.12
348.9	105.12
349.128	100.12
349.355	103.12
349.583	96.12
349.81	75.12
350.037	99.12
350.265	95.12
350.492	91.12
350.72	90.12
350.947	116.12
351.174	121.12
351.402	139.12
351.629	119.12
351.856	104.12
352.083	103.12
352.311	123.12
352.538	124.12
352.765	119.12
352.992	102.12
353.22	135.12
353.447	102.12
353.674	111.12
353.901	90.12
354.128	95.12
354.355	106.12
354.583	96.12
354.81	101.12
355.037	88.12
355.264	92.12
355.491	80.12
355.718	97.12
355.945	92.12
356.172	79.12
356.399	91.12
356.626	93.12
356.853	101.12
357.08	82.12
357.307	98.12
357.534	99.12
357.761	85.12
357.988	90.12
358.215	94.12
358.441	98.12
358.668	89.12
358.895	89.12
359.122	96.12
359.349	105.12
359.576	96.12
359.802	109.12
360.029	129.12
360.256	140.12
360.483	110.12
360.709	85.12
360.936	96.12
361.163	106.12
361.39	99.12
361.616	111.12
361.843	100.12
362.07	93.12
362.296	107.12
362.523	100.12
362.749	95.12
362.976	94.12
363.203	93.12
363.429	96.12
363.656	96.12
363.882	98.12
364.109	93.12
364.335	94.12
364.562	92.12
364.788	109.12
365.015	102.12
365.241	119.12
365.468	97.12
365.694	110.12
365.92	87.12
366.147	100.12
366.373	96.12
366.599	85.12
366.826	100.12
367.052	97.12
367.278	102.12
367.505	97.12
367.731	92.12
367.957	83.12
368.184	105.12
368.41	84.12
368.636	131.12
368.862	129.12
369.089	105.12
369.315	101.12
369.541	113.12
369.767	96.12
369.993	90.12
370.219	94.12
370.445	91.12
370.672	83.12
370.898	81.12
371.124	70.12
371.35	90.12
371.576	85.12
371.802	73.12
372.028	92.12
372.254	92.12
372.48	94.12
372.706	94.12
372.932	95.12
373.158	103.12
373.384	101.12
373.61	98.12
373.835	100.12
374.061	82.12
374.287	72.12
374.513	102.12
374.739	75.12
374.965	75.12
375.191	93.12
375.416	68.12
375.642	101.12
375.868	102.12
376.094	106.12
376.319	98.12
376.545	91.12
376.771	109.12
376.997	84.12
377.222	89.12
377.448	104.12
377.674	96.12
377.899	84.12
378.125	86.12
378.35	96.12
378.576	74.12
378.802	79.12
379.027	92.12
379.253	96.12
379.478	79.12
379.704	87.12
379.929	103.12
380.155	105.12
380.38	94.12
380.606	85.12
380.831	101.12
381.057	92.12
381.282	105.12
381.507	76.12
381.733	95.12
381.958	95.12
382.184	91.12
382.409	92.12
382.634	96.12
382.86	111.12
383.085	113.12
383.31	101.12
383.535	116.12
383.761	107.12
383.986	106.12
384.211	101.12
384.436	95.12
384.662	104.12
384.887	111.12
385.112	95.12
385.337	108.12
385.562	98.12
385.787	105.12
386.013	121.12
386.238	115.12
386.463	129.12
386.688	110.12
386.913	102.12
387.138	95.12
387.363	85.12
387.588	105.12
387.813	91.12
388.038	102.12
388.263	112.12
388.488	107.12
388.713	97.12
388.938	108.12
389.163	95.12
389.387	98.12
389.612	88.12
389.837	95.12
390.062	91.12
390.287	98.12
390.512	90.12
390.736	83.12
390.961	101.12
391.186	83.12
391.411	78.12
391.636	89.12
391.86	84.12
392.085	80.12
392.31	81.12
392.534	81.12
392.759	90.12
392.984	90.12
393.208	87.12
393.433	91.12
393.658	86.12
393.882	94.12
394.107	81.12
394.331	83.12
394.556	73.12
394.78	105.12
395.005	96.12
395.229	80.12
395.454	83.12
395.678	89.12
395.903	88.12
396.127	94.12
396.352	88.12
396.576	85.12
396.801	90.12
397.025	92.12
397.249	77.12
397.474	93.12
397.698	85.12
397.922	85.12
398.147	90.12
398.371	89.12
398.595	80.12
398.82	84.12
399.044	88.12
399.268	92.12
399.492	84.12
399.717	82.12
399.941	95.12
400.165	100.12
400.389	104.12
400.613	81.12
400.837	92.12
401.062	99.12
401.286	92.12
401.51	93.12
401.734	95.12
401.958	117.12
402.182	137.12
402.406	191.12
402.63	135.12
402.854	107.12
403.078	90.12
403.302	88.12
403.526	95.12
403.75	87.12
403.974	90.12
404.198	100.12
404.422	88.12
404.645	111.12
404.869	97.12
405.093	105.12
405.317	148.12
405.541	137.12
405.765	112.12
405.988	135.12
406.212	215.12
406.436	278.12
406.66	186.12
406.883	117.12
407.107	94.12
407.331	121.12
407.555	106.12
407.778	107.12
408.002	101.12
408.226	91.12
408.449	91.12
408.673	96.12
408.896	108.12
409.12	84.12
409.344	100.12
409.567	103.12
409.791	95.12
410.014	96.12
410.238	97.12
410.461	96.12
410.685	89.12
410.908	99.12
411.132	102.12
411.355	117.12
411.578	95.12
411.802	83.12
412.025	100.12
412.249	113.12
412.472	108.12
412.695	144.12
412.919	105.12
413.142	99.12
413.365	74.12
413.589	99.12
413.812	101.12
414.035	98.12
414.258	80.12
414.482	95.12
414.705	89.12
414.928	89.12
415.151	68.12
415.374	94.12
415.597	94.12
415.821	83.12
416.044	95.12
416.267	97.12
416.49	78.12
416.713	88.12
416.936	85.12
417.159	96.12
417.382	85.12
417.605	104.12
417.828	107.12
418.051	89.12
418.274	83.12
418.497	98.12
418.72	83.12
418.943	84.12
419.166	95.12
419.389	101.12
419.611	92.12
419.834	93.12
420.057	85.12
420.28	91.12
420.503	91.12
420.726	83.12
420.948	97.12
421.171	115.12
421.394	90.12
421.617	85.12
421.839	67.12
422.062	88.12
422.285	99.12
422.507	104.12
422.73	116.12
422.953	112.12
423.175	97.12
423.398	92.12
423.621	94.12
423.843	84.12
424.066	84.12
424.288	102.12
424.511	91.12
424.733	98.12
424.956	132.12
425.178	118.12
425.401	126.12
425.623	106.12
425.846	100.12
426.068	100.12
426.291	103.12
426.513	94.12
426.735	94.12
426.958	99.12
427.18	123.12
427.402	191.12
427.625	266.12
427.847	239.12
428.069	218.12
428.292	120.12
428.514	105.12
428.736	84.12
428.958	85.12
429.181	77.12
429.403	81.12
429.625	100.12
429.847	105.12
430.069	109.12
430.292	96.12
430.514	95.12
430.736	91.12
430.958	85.12
431.18	88.12
431.402	85.12
431.624	85.12
431.846	84.12
432.068	83.12
432.29	81.12
432.512	84.12
432.734	101.12
432.956	97.12
433.178	112.12
433.4	109.12
433.622	105.12
433.844	88.12
434.066	84.12
434.287	89.12
434.509	67.12
434.731	85.12
434.953	79.12
435.175	79.12
435.397	71.12
435.618	108.12
435.84	123.12
436.062	163.12
436.284	158.12
436.505	121.12
436.727	111.12
436.949	89.12
437.17	81.12
437.392	81.12
437.614	99.12
437.835	109.12
438.057	147.12
438.278	145.12
438.5	138.12
438.721	160.12
438.943	146.12
439.165	97.12
439.386	94.12
439.608	96.12
439.829	115.12
440.05	164.12
440.272	206.12
440.493	123.12
440.715	98.12
440.936	99.12
441.158	85.12
441.379	98.12
441.6	98.12
441.822	108.12
442.043	103.12
442.264	114.12
442.486	119.12
442.707	102.12
442.928	119.12
443.149	167.12
443.371	169.12
443.592	142.12
443.813	116.12
444.034	132.12
444.255	88.12
444.476	74.12
444.698	88.12
444.919	103.12
445.14	137.12
445.361	137.12
445.582	157.12
445.803	195.12
446.024	191.12
446.245	187.12
446.466	149.12
446.687	100.12
446.908	104.12
447.129	86.12
447.35	77.12
447.571	95.12
447.792	103.12
448.013	100.12
448.234	123.12
448.455	121.12
448.675	135.12
448.896	164.12
449.117	116.12
449.338	107.12
449.559	158.12
449.779	161.12
450	100.12
450.221	73.12
450.442	88.12
450.662	85.12
450.883	126.12
451.104	125.12
451.324	105.12
451.545	105.12
451.766	95.12
451.986	79.12
452.207	91.12
452.428	94.12
452.648	93.12
452.869	127.12
453.089	127.12
453.31	137.12
453.53	98.12
453.751	95.12
453.971	105.12
454.192	121.12
454.412	107.12
454.633	72.12
454.853	85.12
455.073	85.12
455.294	101.12
455.514	119.12
455.734	85.12
455.955	72.12
456.175	84.12
456.395	97.12
456.616	89.12
456.836	68.12
457.056	78.12
457.276	79.12
457.497	83.12
457.717	84.12
457.937	103.12
458.157	94.12
458.377	90.12
458.598	117.12
458.818	192.12
459.038	229.12
459.258	155.12
459.478	88.12
459.698	91.12
459.918	95.12
460.138	78.12
460.358	74.12
460.578	92.12
460.798	104.12
461.018	83.12
461.238	85.12
461.458	79.12
461.678	94.12
461.898	100.12
462.118	100.12
462.338	91.12
462.558	97.12
462.777	81.12
462.997	96.12
463.217	90.12
463.437	91.12
463.657	86.12
463.876	83.12
464.096	101.12
464.316	90.12
464.536	98.12
464.755	101.12
464.975	125.12
465.195	213.12
465.414	213.12
465.634	111.12
465.854	91.12
466.073	81.12
466.293	85.12
466.512	90.12
466.732	106.12
466.951	83.12
467.171	85.12
467.391	111.12
467.61	135.12
467.829	160.12
468.049	327.12
468.268	467.12
468.488	158.12
468.707	88.12
468.927	90.12
469.146	87.12
469.365	81.12
469.585	100.12
469.804	91.12
470.023	112.12
470.243	88.12
470.462	114.12
470.681	123.12
470.901	108.12
471.12	104.12
471.339	112.12
471.558	108.12
471.777	135.12
471.997	201.12
472.216	622.12
472.435	1365.12
472.654	372.12
472.873	125.12
473.092	92.12
473.311	99.12
473.53	103.12
473.749	94.12
473.968	104.12
474.187	149.12
474.406	106.12
474.625	84.12
474.844	85.12
475.063	94.12
475.282	85.12
475.501	91.12
475.72	88.12
475.939	106.12
476.158	93.12
476.377	88.12
476.596	83.12
476.814	95.12
477.033	104.12
477.252	102.12
477.471	106.12
477.69	88.12
477.908	92.12
478.127	89.12
478.346	101.12
478.564	93.12
478.783	120.12
479.002	100.12
479.22	95.12
479.439	116.12
479.658	108.12
479.876	112.12
480.095	102.12
480.313	133.12
480.532	132.12
480.751	202.12
480.969	580.12
481.188	2337.12
481.406	1523.12
481.624	245.12
481.843	104.12
482.061	100.12
482.28	95.12
482.498	97.12
482.717	84.12
482.935	85.12
483.153	89.12
483.372	93.12
483.59	92.12
483.808	82.12
484.027	87.12
484.245	82.12
484.463	83.12
484.681	94.12
484.9	95.12
485.118	86.12
485.336	84.12
485.554	92.12
485.772	102.12
485.99	105.12
486.209	95.12
486.427	104.12
486.645	124.12
486.863	103.12
487.081	96.12
487.299	90.12
487.517	93.12
487.735	93.12
487.953	103.12
488.171	93.12
488.389	103.12
488.607	101.12
488.825	97.12
489.043	88.12
489.261	85.12
489.479	85.12
489.696	102.12
489.914	82.12
490.132	92.12
490.35	79.12
490.568	92.12
490.786	76.12
491.003	84.12
491.221	91.12
491.439	91.12
491.657	87.12
491.874	98.12
492.092	100.12
492.31	88.12
492.527	88.12
492.745	106.12
492.963	87.12
493.18	97.12
493.398	93.12
493.615	96.12
493.833	102.12
494.05	81.12
494.268	92.12
494.485	83.12
494.703	89.12
494.92	93.12
495.138	91.12
495.355	88.12
495.573	103.12
495.79	90.12
496.008	93.12
496.225	93.12
496.442	95.12
496.66	100.12
496.877	100.12
497.094	102.12
497.312	84.12
497.529	92.12
497.746	83.12
497.963	85.12
498.181	91.12
498.398	86.12
498.615	116.12
498.832	105.12
499.049	81.12
499.267	79.12
499.484	90.12
499.701	80.12
499.918	78.12
500.135	84.12
500.352	107.12
500.569	104.12
500.786	100.12
501.003	95.12
501.22	93.12
501.437	85.12
501.654	102.12
501.871	120.12
502.088	76.12
502.305	92.12
502.522	89.12
502.739	88.12
502.956	95.12
503.172	105.12
503.389	97.12
503.606	102.12
503.823	98.12
504.04	98.12
504.256	83.12
504.473	84.12
504.69	91.12
504.907	96.12
505.123	99.12
505.34	94.12
505.557	84.12
505.773	93.12
505.99	98.12
506.207	85.12
506.423	83.12
506.64	90.12
506.856	99.12
507.073	87.12
507.289	97.12
507.506	104.12
507.722	140.12
507.939	122.12
508.155	103.12
508.372	87.12
508.588	100.12
508.805	107.12
509.021	98.12
509.238	97.12
509.454	107.12
509.67	103.12
509.887	114.12
510.103	125.12
510.319	220.12
510.536	804.12
510.752	2820.12
510.968	813.12
511.184	180.12
511.401	113.12
511.617	113.12
511.833	103.12
512.049	83.12
512.265	86.12
512.481	83.12
512.698	83.12
512.914	80.12
513.13	88.12
513.346	91.12
