Data from Circ_2007_H10_HRD10591_00006.txt Node
Date: Wed Jan 03 10:21:58 EST 2024
User: Yrep
Spectrometer: HR+D1059
Trigger mode: 1
Integration Time (sec): 1.000000E-1
Scans to average: 1
Electric dark correction enabled: true
Nonlinearity correction enabled: false
Boxcar width: 0
XAxis mode: Wavelengths
Number of Pixels in Spectrum: 2048
>>>>>Begin Spectral Data<<<<<
223.165	-19.06
223.4	-19.06
223.635	-19.06
223.869	-23.06
224.104	-19.06
224.338	-25.06
224.573	-14.06
224.808	-0.06
225.042	-8.06
225.277	-16.06
225.511	-10.06
225.746	9.94
225.98	1.94
226.215	18.94
226.449	15.94
226.683	23.94
226.918	28.94
227.152	34.94
227.387	44.94
227.621	55.94
227.856	57.94
228.09	45.94
228.324	53.94
228.559	55.94
228.793	57.94
229.027	53.94
229.262	79.94
229.496	68.94
229.73	87.94
229.964	108.94
230.199	77.94
230.433	82.94
230.667	76.94
230.901	71.94
231.136	75.94
231.37	73.94
231.604	61.94
231.838	83.94
232.072	84.94
232.306	87.94
232.541	76.94
232.775	86.94
233.009	92.94
233.243	86.94
233.477	90.94
233.711	82.94
233.945	85.94
234.179	86.94
234.413	76.94
234.647	95.94
234.881	84.94
235.115	81.94
235.349	81.94
235.583	88.94
235.817	92.94
236.051	83.94
236.285	78.94
236.519	83.94
236.753	80.94
236.987	80.94
237.221	93.94
237.455	83.94
237.689	87.94
237.922	86.94
238.156	86.94
238.39	79.94
238.624	81.94
238.858	88.94
239.091	91.94
239.325	75.94
239.559	90.94
239.793	84.94
240.027	82.94
240.26	79.94
240.494	77.94
240.728	79.94
240.961	80.94
241.195	85.94
241.429	81.94
241.662	77.94
241.896	81.94
242.13	91.94
242.363	71.94
242.597	73.94
242.83	79.94
243.064	83.94
243.298	82.94
243.531	73.94
243.765	84.94
243.998	91.94
244.232	82.94
244.465	79.94
244.699	93.94
244.932	89.94
245.166	83.94
245.399	71.94
245.633	92.94
245.866	80.94
246.099	70.94
246.333	94.94
246.566	81.94
246.8	90.94
247.033	91.94
247.266	74.94
247.5	80.94
247.733	74.94
247.966	97.94
248.2	104.94
248.433	88.94
248.666	86.94
248.899	94.94
249.133	81.94
249.366	111.94
249.599	95.94
249.832	87.94
250.066	79.94
250.299	78.94
250.532	91.94
250.765	83.94
250.998	80.94
251.231	78.94
251.465	83.94
251.698	73.94
251.931	80.94
252.164	82.94
252.397	85.94
252.63	85.94
252.863	86.94
253.096	89.94
253.329	98.94
253.562	85.94
253.795	75.94
254.028	95.94
254.261	83.94
254.494	84.94
254.727	79.94
254.96	99.94
255.193	93.94
255.426	83.94
255.659	71.94
255.892	92.94
256.124	91.94
256.357	93.94
256.59	89.94
256.823	84.94
257.056	99.94
257.289	95.94
257.521	85.94
257.754	81.94
257.987	76.94
258.22	94.94
258.452	90.94
258.685	98.94
258.918	87.94
259.151	85.94
259.383	89.94
259.616	93.94
259.849	93.94
260.081	73.94
260.314	96.94
260.547	96.94
260.779	83.94
261.012	93.94
261.244	102.94
261.477	100.94
261.71	102.94
261.942	132.94
262.175	156.94
262.407	108.94
262.64	100.94
262.872	98.94
263.105	87.94
263.337	74.94
263.57	91.94
263.802	89.94
264.035	92.94
264.267	80.94
264.499	91.94
264.732	105.94
264.964	95.94
265.197	97.94
265.429	65.94
265.661	84.94
265.894	79.94
266.126	109.94
266.358	96.94
266.591	83.94
266.823	94.94
267.055	94.94
267.287	76.94
267.52	103.94
267.752	89.94
267.984	85.94
268.216	86.94
268.448	97.94
268.681	97.94
268.913	100.94
269.145	92.94
269.377	86.94
269.609	72.94
269.841	103.94
270.073	87.94
270.306	93.94
270.538	83.94
270.77	88.94
271.002	91.94
271.234	101.94
271.466	95.94
271.698	86.94
271.93	91.94
272.162	108.94
272.394	90.94
272.626	88.94
272.858	91.94
273.09	89.94
273.322	81.94
273.553	85.94
273.785	81.94
274.017	88.94
274.249	87.94
274.481	91.94
274.713	100.94
274.945	99.94
275.176	87.94
275.408	100.94
275.64	108.94
275.872	103.94
276.104	101.94
276.335	104.94
276.567	112.94
276.799	148.94
277.031	159.94
277.262	153.94
277.494	118.94
277.726	97.94
277.957	98.94
278.189	90.94
278.421	85.94
278.652	99.94
278.884	96.94
279.115	91.94
279.347	92.94
279.579	98.94
279.81	103.94
280.042	143.94
280.273	187.94
280.505	157.94
280.736	106.94
280.968	102.94
281.199	101.94
281.431	100.94
281.662	90.94
281.894	103.94
282.125	110.94
282.356	144.94
282.588	195.94
282.819	154.94
283.051	110.94
283.282	99.94
283.513	97.94
283.745	94.94
283.976	86.94
284.207	81.94
284.439	89.94
284.67	86.94
284.901	106.94
285.132	97.94
285.364	96.94
285.595	89.94
285.826	85.94
286.057	95.94
286.288	89.94
286.52	92.94
286.751	73.94
286.982	86.94
287.213	100.94
287.444	111.94
287.675	96.94
287.906	93.94
288.138	90.94
288.369	93.94
288.6	101.94
288.831	87.94
289.062	102.94
289.293	99.94
289.524	84.94
289.755	81.94
289.986	89.94
290.217	97.94
290.448	95.94
290.679	90.94
290.91	83.94
291.141	95.94
291.371	98.94
291.602	89.94
291.833	97.94
292.064	81.94
292.295	92.94
292.526	94.94
292.757	102.94
292.987	94.94
293.218	83.94
293.449	99.94
293.68	80.94
293.91	111.94
294.141	85.94
294.372	99.94
294.603	96.94
294.833	83.94
295.064	83.94
295.295	99.94
295.525	102.94
295.756	104.94
295.987	122.94
296.217	182.94
296.448	164.94
296.679	123.94
296.909	97.94
297.14	91.94
297.37	94.94
297.601	105.94
297.831	84.94
298.062	109.94
298.292	99.94
298.523	108.94
298.753	89.94
298.984	96.94
299.214	92.94
299.445	109.94
299.675	113.94
299.905	103.94
300.136	111.94
300.366	93.94
300.597	108.94
300.827	99.94
301.057	107.94
301.288	111.94
301.518	113.94
301.748	102.94
301.979	104.94
302.209	113.94
302.439	99.94
302.669	92.94
302.9	92.94
303.13	97.94
303.36	115.94
303.59	130.94
303.82	137.94
304.051	102.94
304.281	85.94
304.511	93.94
304.741	98.94
304.971	85.94
305.201	93.94
305.431	105.94
305.661	98.94
305.891	107.94
306.121	116.94
306.352	117.94
306.582	124.94
306.812	105.94
307.042	117.94
307.272	139.94
307.502	144.94
307.731	137.94
307.961	119.94
308.191	88.94
308.421	105.94
308.651	91.94
308.881	112.94
309.111	100.94
309.341	102.94
309.571	110.94
309.8	109.94
310.03	103.94
310.26	125.94
310.49	105.94
310.72	121.94
310.949	135.94
311.179	109.94
311.409	106.94
311.639	119.94
311.868	100.94
312.098	94.94
312.328	107.94
312.557	124.94
312.787	136.94
313.017	138.94
313.246	98.94
313.476	106.94
313.706	103.94
313.935	106.94
314.165	127.94
314.394	126.94
314.624	112.94
314.853	102.94
315.083	112.94
315.312	90.94
315.542	102.94
315.771	99.94
316.001	102.94
316.23	98.94
316.46	90.94
316.689	101.94
316.919	99.94
317.148	108.94
317.377	102.94
317.607	111.94
317.836	116.94
318.065	103.94
318.295	92.94
318.524	97.94
318.753	87.94
318.983	98.94
319.212	110.94
319.441	124.94
319.67	129.94
319.9	105.94
320.129	91.94
320.358	99.94
320.587	90.94
320.816	113.94
321.046	118.94
321.275	95.94
321.504	96.94
321.733	85.94
321.962	108.94
322.191	112.94
322.42	105.94
322.649	147.94
322.878	154.94
323.108	141.94
323.337	155.94
323.566	162.94
323.795	177.94
324.024	261.94
324.253	509.94
324.482	1092.94
324.71	2233.94
324.939	2964.94
325.168	1090.94
325.397	311.94
325.626	178.94
325.855	157.94
326.084	142.94
326.313	142.94
326.542	175.94
326.77	258.94
326.999	542.94
327.228	1113.94
327.457	2095.94
327.686	1676.94
327.914	518.94
328.143	413.94
328.372	469.94
328.6	303.94
328.829	171.94
329.058	193.94
329.287	203.94
329.515	169.94
329.744	194.94
329.972	307.94
330.201	616.94
330.43	863.94
330.658	483.94
330.887	296.94
331.115	200.94
331.344	130.94
331.572	117.94
331.801	124.94
332.03	128.94
332.258	115.94
332.486	110.94
332.715	109.94
332.943	117.94
333.172	110.94
333.4	132.94
333.629	151.94
333.857	189.94
334.085	301.94
334.314	523.94
334.542	1067.94
334.771	1092.94
334.999	325.94
335.227	156.94
335.455	127.94
335.684	125.94
335.912	112.94
336.14	99.94
336.369	107.94
336.597	117.94
336.825	105.94
337.053	89.94
337.281	97.94
337.51	94.94
337.738	97.94
337.966	107.94
338.194	115.94
338.422	119.94
338.65	94.94
338.878	115.94
339.106	94.94
339.334	92.94
339.562	108.94
339.79	108.94
340.018	101.94
340.246	99.94
340.474	121.94
340.702	116.94
340.93	94.94
341.158	100.94
341.386	112.94
341.614	116.94
341.842	100.94
342.07	94.94
342.298	100.94
342.526	92.94
342.754	85.94
342.981	98.94
343.209	86.94
343.437	97.94
343.665	96.94
343.893	100.94
344.12	93.94
344.348	79.94
344.576	96.94
344.804	100.94
345.031	105.94
345.259	124.94
345.487	110.94
345.714	93.94
345.942	102.94
346.17	93.94
346.397	97.94
346.625	92.94
346.853	91.94
347.08	72.94
347.308	111.94
347.535	106.94
347.763	107.94
347.99	108.94
348.218	112.94
348.445	114.94
348.673	126.94
348.9	106.94
349.128	107.94
349.355	100.94
349.583	104.94
349.81	99.94
350.037	118.94
350.265	111.94
350.492	108.94
350.72	108.94
350.947	122.94
351.174	125.94
351.402	151.94
351.629	115.94
351.856	127.94
352.083	128.94
352.311	127.94
352.538	130.94
352.765	135.94
352.992	140.94
353.22	125.94
353.447	123.94
353.674	108.94
353.901	97.94
354.128	99.94
354.355	101.94
354.583	112.94
354.81	99.94
355.037	98.94
355.264	93.94
355.491	86.94
355.718	99.94
355.945	97.94
356.172	100.94
356.399	99.94
356.626	106.94
356.853	92.94
357.08	100.94
357.307	96.94
357.534	110.94
357.761	106.94
357.988	109.94
358.215	94.94
358.441	103.94
358.668	111.94
358.895	87.94
359.122	99.94
359.349	93.94
359.576	107.94
359.802	115.94
360.029	170.94
360.256	151.94
360.483	124.94
360.709	98.94
360.936	87.94
361.163	107.94
361.39	101.94
361.616	111.94
361.843	113.94
362.07	107.94
362.296	118.94
362.523	96.94
362.749	116.94
362.976	105.94
363.203	96.94
363.429	91.94
363.656	87.94
363.882	88.94
364.109	96.94
364.335	93.94
364.562	99.94
364.788	110.94
365.015	116.94
365.241	128.94
365.468	123.94
365.694	134.94
365.92	115.94
366.147	100.94
366.373	99.94
366.599	95.94
366.826	94.94
367.052	93.94
367.278	94.94
367.505	104.94
367.731	98.94
367.957	99.94
368.184	108.94
368.41	120.94
368.636	137.94
368.862	171.94
369.089	118.94
369.315	105.94
369.541	108.94
369.767	103.94
369.993	104.94
370.219	109.94
370.445	94.94
370.672	72.94
370.898	80.94
371.124	93.94
371.35	95.94
371.576	95.94
371.802	102.94
372.028	92.94
372.254	101.94
372.48	93.94
372.706	82.94
372.932	89.94
373.158	78.94
373.384	96.94
373.61	96.94
373.835	92.94
374.061	92.94
374.287	102.94
374.513	112.94
374.739	79.94
374.965	91.94
375.191	75.94
375.416	85.94
375.642	64.94
375.868	102.94
376.094	88.94
376.319	99.94
376.545	88.94
376.771	96.94
376.997	96.94
377.222	114.94
377.448	91.94
377.674	91.94
377.899	102.94
378.125	91.94
378.35	87.94
378.576	96.94
378.802	91.94
379.027	83.94
379.253	115.94
379.478	94.94
379.704	101.94
379.929	105.94
380.155	110.94
380.38	100.94
380.606	106.94
380.831	112.94
381.057	120.94
381.282	101.94
381.507	109.94
381.733	106.94
381.958	117.94
382.184	93.94
382.409	118.94
382.634	126.94
382.86	111.94
383.085	122.94
383.31	108.94
383.535	127.94
383.761	122.94
383.986	117.94
384.211	115.94
384.436	101.94
384.662	118.94
384.887	127.94
385.112	143.94
385.337	120.94
385.562	125.94
385.787	126.94
386.013	141.94
386.238	152.94
386.463	126.94
386.688	112.94
386.913	133.94
387.138	139.94
387.363	115.94
387.588	112.94
387.813	116.94
388.038	118.94
388.263	135.94
388.488	134.94
388.713	111.94
388.938	102.94
389.163	105.94
389.387	93.94
389.612	101.94
389.837	96.94
390.062	100.94
390.287	90.94
390.512	84.94
390.736	95.94
390.961	94.94
391.186	82.94
391.411	110.94
391.636	89.94
391.86	87.94
392.085	86.94
392.31	81.94
392.534	80.94
392.759	85.94
392.984	84.94
393.208	102.94
393.433	112.94
393.658	101.94
393.882	81.94
394.107	86.94
394.331	84.94
394.556	96.94
394.78	87.94
395.005	105.94
395.229	98.94
395.454	89.94
395.678	81.94
395.903	88.94
396.127	88.94
396.352	92.94
396.576	92.94
396.801	115.94
397.025	112.94
397.249	88.94
397.474	90.94
397.698	96.94
397.922	99.94
398.147	105.94
398.371	92.94
398.595	94.94
398.82	93.94
399.044	91.94
399.268	103.94
399.492	87.94
399.717	85.94
399.941	87.94
400.165	85.94
400.389	97.94
400.613	93.94
400.837	102.94
401.062	93.94
401.286	99.94
401.51	105.94
401.734	90.94
401.958	120.94
402.182	157.94
402.406	212.94
402.63	169.94
402.854	109.94
403.078	100.94
403.302	99.94
403.526	90.94
403.75	93.94
403.974	93.94
404.198	87.94
404.422	100.94
404.645	85.94
404.869	95.94
405.093	113.94
405.317	129.94
405.541	142.94
405.765	118.94
405.988	143.94
406.212	247.94
406.436	386.94
406.66	255.94
406.883	131.94
407.107	106.94
407.331	113.94
407.555	130.94
407.778	116.94
408.002	110.94
408.226	87.94
408.449	93.94
408.673	76.94
408.896	116.94
409.12	93.94
409.344	107.94
409.567	93.94
409.791	85.94
410.014	89.94
410.238	88.94
410.461	97.94
410.685	92.94
410.908	98.94
411.132	103.94
411.355	107.94
411.578	107.94
411.802	108.94
412.025	103.94
412.249	96.94
412.472	127.94
412.695	127.94
412.919	94.94
413.142	92.94
413.365	98.94
413.589	92.94
413.812	96.94
414.035	107.94
414.258	88.94
414.482	105.94
414.705	94.94
414.928	101.94
415.151	101.94
415.374	95.94
415.597	99.94
415.821	104.94
416.044	92.94
416.267	93.94
416.49	89.94
416.713	90.94
416.936	111.94
417.159	102.94
417.382	89.94
417.605	103.94
417.828	111.94
418.051	104.94
418.274	95.94
418.497	94.94
418.72	89.94
418.943	91.94
419.166	82.94
419.389	87.94
419.611	91.94
419.834	84.94
420.057	117.94
420.28	95.94
420.503	95.94
420.726	94.94
420.948	104.94
421.171	105.94
421.394	103.94
421.617	109.94
421.839	99.94
422.062	111.94
422.285	97.94
422.507	122.94
422.73	113.94
422.953	105.94
423.175	103.94
423.398	94.94
423.621	107.94
423.843	96.94
424.066	84.94
424.288	93.94
424.511	87.94
424.733	100.94
424.956	113.94
425.178	120.94
425.401	112.94
425.623	114.94
425.846	103.94
426.068	101.94
426.291	108.94
426.513	83.94
426.735	101.94
426.958	97.94
427.18	113.94
427.402	175.94
427.625	268.94
427.847	225.94
428.069	204.94
428.292	118.94
428.514	91.94
428.736	95.94
428.958	93.94
429.181	78.94
429.403	85.94
429.625	99.94
429.847	100.94
430.069	103.94
430.292	94.94
430.514	91.94
430.736	87.94
430.958	98.94
431.18	99.94
431.402	96.94
431.624	78.94
431.846	95.94
432.068	103.94
432.29	86.94
432.512	83.94
432.734	94.94
432.956	89.94
433.178	111.94
433.4	103.94
433.622	102.94
433.844	91.94
434.066	93.94
434.287	98.94
434.509	107.94
434.731	99.94
434.953	93.94
435.175	104.94
435.397	100.94
435.618	111.94
435.84	116.94
436.062	145.94
436.284	128.94
436.505	105.94
436.727	107.94
436.949	104.94
437.17	88.94
437.392	91.94
437.614	111.94
437.835	139.94
438.057	153.94
438.278	140.94
438.5	117.94
438.721	141.94
438.943	127.94
439.165	107.94
439.386	104.94
439.608	103.94
439.829	132.94
440.05	145.94
440.272	198.94
440.493	127.94
440.715	100.94
440.936	92.94
441.158	88.94
441.379	90.94
441.6	124.94
441.822	111.94
442.043	107.94
442.264	129.94
442.486	112.94
442.707	95.94
442.928	137.94
443.149	180.94
443.371	178.94
443.592	144.94
443.813	124.94
444.034	115.94
444.255	95.94
444.476	82.94
444.698	80.94
444.919	105.94
445.14	147.94
445.361	133.94
445.582	147.94
445.803	193.94
446.024	180.94
446.245	180.94
446.466	127.94
446.687	103.94
446.908	92.94
447.129	86.94
447.35	91.94
447.571	100.94
447.792	119.94
448.013	110.94
448.234	120.94
448.455	125.94
448.675	117.94
448.896	143.94
449.117	112.94
449.338	110.94
449.559	127.94
449.779	165.94
450	96.94
450.221	105.94
450.442	106.94
450.662	116.94
450.883	128.94
451.104	140.94
451.324	109.94
451.545	80.94
451.766	97.94
451.986	93.94
452.207	104.94
452.428	110.94
452.648	108.94
452.869	160.94
453.089	150.94
453.31	160.94
453.53	104.94
453.751	103.94
453.971	120.94
454.192	146.94
454.412	120.94
454.633	97.94
454.853	88.94
455.073	85.94
455.294	104.94
455.514	104.94
455.734	85.94
455.955	100.94
456.175	94.94
456.395	87.94
456.616	91.94
456.836	81.94
457.056	93.94
457.276	104.94
457.497	88.94
457.717	88.94
457.937	104.94
458.157	99.94
458.377	103.94
458.598	143.94
458.818	239.94
459.038	231.94
459.258	158.94
459.478	88.94
459.698	100.94
459.918	96.94
460.138	99.94
460.358	95.94
460.578	99.94
460.798	95.94
461.018	71.94
461.238	89.94
461.458	87.94
461.678	85.94
461.898	82.94
462.118	86.94
462.338	107.94
462.558	103.94
462.777	88.94
462.997	71.94
463.217	97.94
463.437	89.94
463.657	78.94
463.876	89.94
464.096	104.94
464.316	98.94
464.536	120.94
464.755	101.94
464.975	118.94
465.195	248.94
465.414	284.94
465.634	115.94
465.854	99.94
466.073	95.94
466.293	80.94
466.512	100.94
466.732	89.94
466.951	88.94
467.171	100.94
467.391	93.94
467.61	134.94
467.829	177.94
468.049	356.94
468.268	516.94
468.488	153.94
468.707	113.94
468.927	100.94
469.146	88.94
469.365	94.94
469.585	101.94
469.804	105.94
470.023	102.94
470.243	91.94
470.462	112.94
470.681	144.94
470.901	95.94
471.12	93.94
471.339	122.94
471.558	98.94
471.777	120.94
471.997	190.94
472.216	614.94
472.435	1428.94
472.654	397.94
472.873	128.94
473.092	110.94
473.311	112.94
473.53	100.94
473.749	94.94
473.968	105.94
474.187	112.94
474.406	112.94
474.625	107.94
474.844	71.94
475.063	99.94
475.282	90.94
475.501	89.94
475.72	83.94
475.939	98.94
476.158	92.94
476.377	100.94
476.596	114.94
476.814	103.94
477.033	117.94
477.252	94.94
477.471	93.94
477.69	104.94
477.908	100.94
478.127	104.94
478.346	101.94
478.564	97.94
478.783	94.94
479.002	115.94
479.22	108.94
479.439	132.94
479.658	148.94
479.876	114.94
480.095	116.94
480.313	120.94
480.532	141.94
480.751	194.94
480.969	531.94
481.188	2328.94
481.406	1522.94
481.624	258.94
481.843	127.94
482.061	107.94
482.28	99.94
482.498	97.94
482.717	109.94
482.935	98.94
483.153	99.94
483.372	91.94
483.59	101.94
483.808	98.94
484.027	100.94
484.245	109.94
484.463	101.94
484.681	100.94
484.9	87.94
485.118	102.94
485.336	103.94
485.554	113.94
485.772	105.94
485.99	110.94
486.209	108.94
486.427	116.94
486.645	129.94
486.863	133.94
487.081	117.94
487.299	108.94
487.517	91.94
487.735	91.94
487.953	99.94
488.171	98.94
488.389	110.94
488.607	108.94
488.825	108.94
489.043	83.94
489.261	98.94
489.479	90.94
489.696	106.94
489.914	88.94
490.132	85.94
490.35	119.94
490.568	90.94
490.786	115.94
491.003	105.94
491.221	87.94
491.439	98.94
491.657	98.94
491.874	88.94
492.092	94.94
492.31	87.94
492.527	112.94
492.745	102.94
492.963	79.94
493.18	91.94
493.398	99.94
493.615	102.94
493.833	98.94
494.05	91.94
494.268	112.94
494.485	98.94
494.703	96.94
494.92	97.94
495.138	92.94
495.355	84.94
495.573	85.94
495.79	100.94
496.008	103.94
496.225	97.94
496.442	89.94
496.66	107.94
496.877	91.94
497.094	80.94
497.312	85.94
497.529	104.94
497.746	103.94
497.963	94.94
498.181	91.94
498.398	108.94
498.615	135.94
498.832	114.94
499.049	90.94
499.267	95.94
499.484	101.94
499.701	96.94
499.918	84.94
500.135	106.94
500.352	98.94
500.569	101.94
500.786	99.94
501.003	93.94
501.22	86.94
501.437	98.94
501.654	103.94
501.871	145.94
502.088	113.94
502.305	112.94
502.522	96.94
502.739	88.94
502.956	84.94
503.172	88.94
503.389	119.94
503.606	128.94
503.823	116.94
504.04	109.94
504.256	93.94
504.473	87.94
504.69	93.94
504.907	92.94
505.123	85.94
505.34	102.94
505.557	101.94
505.773	99.94
505.99	91.94
506.207	88.94
506.423	98.94
506.64	83.94
506.856	85.94
507.073	93.94
507.289	92.94
507.506	109.94
507.722	138.94
507.939	146.94
508.155	110.94
508.372	104.94
508.588	93.94
508.805	108.94
509.021	112.94
509.238	116.94
509.454	115.94
509.67	104.94
509.887	139.94
510.103	161.94
510.319	260.94
510.536	1057.94
510.752	3716.94
510.968	1029.94
