Data from Circ_2007_H10_HRD10591_00039.txt Node
Date: Wed Jan 03 10:22:05 EST 2024
User: Yrep
Spectrometer: HR+D1059
Trigger mode: 1
Integration Time (sec): 1.000000E-1
Scans to average: 1
Electric dark correction enabled: true
Nonlinearity correction enabled: false
Boxcar width: 0
XAxis mode: Wavelengths
Number of Pixels in Spectrum: 2048
>>>>>Begin Spectral Data<<<<<
223.165	-31
223.4	-31
223.635	-31
223.869	-10
224.104	-16
224.338	-11
224.573	-14
224.808	-12
225.042	5
225.277	1
225.511	-8
225.746	-5
225.98	1
226.215	15
226.449	14
226.683	18
226.918	21
227.152	32
227.387	44
227.621	36
227.856	40
228.09	43
228.324	44
228.559	44
228.793	59
229.027	62
229.262	70
229.496	74
229.73	88
229.964	84
230.199	73
230.433	73
230.667	64
230.901	76
231.136	76
231.37	74
231.604	70
231.838	89
232.072	73
232.306	86
232.541	88
232.775	83
233.009	87
233.243	77
233.477	76
233.711	90
233.945	81
234.179	80
234.413	107
234.647	83
234.881	81
235.115	70
235.349	77
235.583	73
235.817	71
236.051	95
236.285	76
236.519	85
236.753	81
236.987	81
237.221	76
237.455	89
237.689	83
237.922	71
238.156	66
238.39	72
238.624	79
238.858	89
239.091	72
239.325	69
239.559	75
239.793	92
240.027	88
240.26	76
240.494	86
240.728	54
240.961	78
241.195	87
241.429	80
241.662	79
241.896	82
242.13	67
242.363	68
242.597	88
242.83	75
243.064	96
243.298	80
243.531	76
243.765	81
243.998	75
244.232	82
244.465	89
244.699	85
244.932	75
245.166	90
245.399	81
245.633	84
245.866	73
246.099	79
246.333	83
246.566	83
246.8	79
247.033	71
247.266	75
247.5	71
247.733	85
247.966	71
248.2	69
248.433	79
248.666	83
248.899	96
249.133	80
249.366	111
249.599	91
249.832	80
250.066	80
250.299	87
250.532	64
250.765	79
250.998	93
251.231	90
251.465	87
251.698	83
251.931	81
252.164	72
252.397	95
252.63	78
252.863	83
253.096	78
253.329	85
253.562	75
253.795	76
254.028	85
254.261	88
254.494	79
254.727	70
254.96	68
255.193	84
255.426	79
255.659	82
255.892	92
256.124	74
256.357	84
256.59	75
256.823	85
257.056	88
257.289	75
257.521	90
257.754	73
257.987	74
258.22	79
258.452	82
258.685	72
258.918	84
259.151	75
259.383	75
259.616	74
259.849	72
260.081	83
260.314	87
260.547	86
260.779	69
261.012	91
261.244	91
261.477	79
261.71	87
261.942	129
262.175	132
262.407	96
262.64	83
262.872	88
263.105	89
263.337	80
263.57	90
263.802	86
264.035	77
264.267	84
264.499	82
264.732	84
264.964	78
265.197	86
265.429	79
265.661	80
265.894	82
266.126	88
266.358	85
266.591	83
266.823	69
267.055	74
267.287	93
267.52	86
267.752	86
267.984	88
268.216	70
268.448	81
268.681	89
268.913	85
269.145	75
269.377	96
269.609	78
269.841	87
270.073	94
270.306	90
270.538	71
270.77	84
271.002	80
271.234	76
271.466	93
271.698	92
271.93	54
272.162	88
272.394	85
272.626	85
272.858	84
273.09	82
273.322	81
273.553	94
273.785	73
274.017	78
274.249	79
274.481	76
274.713	93
274.945	77
275.176	78
275.408	94
275.64	92
275.872	101
276.104	89
276.335	98
276.567	112
276.799	127
277.031	138
277.262	161
277.494	104
277.726	93
277.957	85
278.189	76
278.421	71
278.652	93
278.884	92
279.115	92
279.347	91
279.579	90
279.81	111
280.042	148
280.273	165
280.505	135
280.736	108
280.968	95
281.199	89
281.431	77
281.662	77
281.894	89
282.125	104
282.356	125
282.588	164
282.819	117
283.051	79
283.282	93
283.513	81
283.745	86
283.976	95
284.207	73
284.439	91
284.67	87
284.901	64
285.132	97
285.364	93
285.595	74
285.826	88
286.057	70
286.288	92
286.52	93
286.751	96
286.982	91
287.213	85
287.444	93
287.675	87
287.906	94
288.138	93
288.369	97
288.6	102
288.831	92
289.062	81
289.293	92
289.524	95
289.755	79
289.986	85
290.217	83
290.448	82
290.679	91
290.91	90
291.141	88
291.371	79
291.602	78
291.833	78
292.064	100
292.295	88
292.526	96
292.757	93
292.987	99
293.218	80
293.449	88
293.68	97
293.91	98
294.141	95
294.372	84
294.603	89
294.833	76
295.064	90
295.295	84
295.525	80
295.756	110
295.987	128
296.217	161
296.448	168
296.679	99
296.909	87
297.14	90
297.37	74
297.601	104
297.831	92
298.062	85
298.292	92
298.523	83
298.753	77
298.984	87
299.214	91
299.445	75
299.675	100
299.905	102
300.136	99
300.366	83
300.597	87
300.827	95
301.057	120
301.288	132
301.518	92
301.748	95
301.979	120
302.209	91
302.439	89
302.669	79
302.9	98
303.13	78
303.36	103
303.59	115
303.82	129
304.051	104
304.281	91
304.511	105
304.741	79
304.971	95
305.201	99
305.431	88
305.661	95
305.891	80
306.121	97
306.352	119
306.582	120
306.812	93
307.042	111
307.272	116
307.502	129
307.731	130
307.961	102
308.191	98
308.421	84
308.651	95
308.881	82
309.111	88
309.341	94
309.571	102
309.8	95
310.03	97
310.26	112
310.49	106
310.72	100
310.949	119
311.179	110
311.409	100
311.639	93
311.868	100
312.098	92
312.328	99
312.557	108
312.787	110
313.017	102
313.246	107
313.476	91
313.706	104
313.935	110
314.165	97
314.394	115
314.624	102
314.853	107
315.083	88
315.312	93
315.542	91
315.771	86
316.001	107
316.23	88
316.46	90
316.689	92
316.919	83
317.148	88
317.377	88
317.607	103
317.836	102
318.065	98
318.295	97
318.524	96
318.753	92
318.983	97
319.212	107
319.441	104
319.67	129
319.9	102
320.129	100
320.358	91
320.587	86
320.816	98
321.046	107
321.275	96
321.504	99
321.733	94
321.962	92
322.191	96
322.42	106
322.649	111
322.878	126
323.108	114
323.337	138
323.566	166
323.795	206
324.024	247
324.253	488
324.482	1099
324.71	2310
324.939	3112
325.168	1112
325.397	300
325.626	157
325.855	139
326.084	140
326.313	153
326.542	176
326.77	292
326.999	572
327.228	1240
327.457	2218
327.686	1834
327.914	518
328.143	369
328.372	400
328.6	254
328.829	144
329.058	190
329.287	168
329.515	141
329.744	160
329.972	277
330.201	524
330.43	796
330.658	404
330.887	226
331.115	179
331.344	106
331.572	115
331.801	119
332.03	127
332.258	102
332.486	107
332.715	102
332.943	98
333.172	105
333.4	114
333.629	147
333.857	188
334.085	286
334.314	486
334.542	962
334.771	946
334.999	276
335.227	135
335.455	106
335.684	112
335.912	94
336.14	89
336.369	99
336.597	103
336.825	96
337.053	94
337.281	96
337.51	93
337.738	96
337.966	87
338.194	101
338.422	89
338.65	84
338.878	82
339.106	88
339.334	97
339.562	98
339.79	97
340.018	83
340.246	109
340.474	100
340.702	100
340.93	97
341.158	100
341.386	95
341.614	115
341.842	103
342.07	88
342.298	103
342.526	94
342.754	94
342.981	88
343.209	88
343.437	108
343.665	107
343.893	93
344.12	85
344.348	81
344.576	90
344.804	89
345.031	100
345.259	103
345.487	102
345.714	97
345.942	97
346.17	107
346.397	103
346.625	91
346.853	111
347.08	102
347.308	88
347.535	110
347.763	123
347.99	102
348.218	101
348.445	114
348.673	107
348.9	107
349.128	88
349.355	82
349.583	96
349.81	92
350.037	96
350.265	95
350.492	99
350.72	103
350.947	98
351.174	109
351.402	115
351.629	115
351.856	96
352.083	122
352.311	107
352.538	119
352.765	115
352.992	123
353.22	122
353.447	105
353.674	105
353.901	102
354.128	88
354.355	92
354.583	104
354.81	104
355.037	84
355.264	94
355.491	91
355.718	84
355.945	110
356.172	87
356.399	84
356.626	91
356.853	100
357.08	89
357.307	91
357.534	91
357.761	94
357.988	97
358.215	96
358.441	86
358.668	80
358.895	82
359.122	90
359.349	97
359.576	88
359.802	115
360.029	144
360.256	126
360.483	110
360.709	96
360.936	101
361.163	93
361.39	99
361.616	102
361.843	89
362.07	100
362.296	99
362.523	107
362.749	99
362.976	82
363.203	79
363.429	91
363.656	91
363.882	91
364.109	98
364.335	96
364.562	85
364.788	91
365.015	87
365.241	95
365.468	123
365.694	132
365.92	100
366.147	107
366.373	88
366.599	89
366.826	96
367.052	81
367.278	99
367.505	91
367.731	102
367.957	97
368.184	83
368.41	103
368.636	106
368.862	97
369.089	116
369.315	97
369.541	90
369.767	93
369.993	100
370.219	85
370.445	83
370.672	82
370.898	98
371.124	77
371.35	84
371.576	86
371.802	70
372.028	101
372.254	91
372.48	78
372.706	80
372.932	96
373.158	100
373.384	98
373.61	89
373.835	66
374.061	87
374.287	97
374.513	90
374.739	72
374.965	91
375.191	77
375.416	93
375.642	84
375.868	87
376.094	89
376.319	71
376.545	78
376.771	92
376.997	87
377.222	94
377.448	99
377.674	84
377.899	99
378.125	80
378.35	94
378.576	85
378.802	86
379.027	95
379.253	85
379.478	86
379.704	94
379.929	95
380.155	100
380.38	85
380.606	93
380.831	91
381.057	100
381.282	91
381.507	108
381.733	103
381.958	97
382.184	86
382.409	95
382.634	94
382.86	95
383.085	95
383.31	118
383.535	101
383.761	113
383.986	84
384.211	100
384.436	103
384.662	97
384.887	102
385.112	101
385.337	116
385.562	105
385.787	101
386.013	117
386.238	114
386.463	111
386.688	109
386.913	118
387.138	100
387.363	98
387.588	98
387.813	100
388.038	103
388.263	87
388.488	106
388.713	97
388.938	105
389.163	114
389.387	89
389.612	91
389.837	79
390.062	102
390.287	95
390.512	87
390.736	78
390.961	99
391.186	90
391.411	90
391.636	87
391.86	77
392.085	82
392.31	80
392.534	77
392.759	89
392.984	67
393.208	93
393.433	106
393.658	91
393.882	79
394.107	94
394.331	72
394.556	85
394.78	91
395.005	76
395.229	75
395.454	82
395.678	88
395.903	83
396.127	92
396.352	95
396.576	98
396.801	79
397.025	84
397.249	86
397.474	91
397.698	89
397.922	73
398.147	72
398.371	87
398.595	83
398.82	83
399.044	90
399.268	103
399.492	92
399.717	92
399.941	96
400.165	96
400.389	87
400.613	95
400.837	92
401.062	84
401.286	98
401.51	90
401.734	94
401.958	79
402.182	149
402.406	196
402.63	136
402.854	92
403.078	98
403.302	87
403.526	91
403.75	86
403.974	75
404.198	94
404.422	91
404.645	81
404.869	100
405.093	98
405.317	137
405.541	131
405.765	111
405.988	145
406.212	211
406.436	311
406.66	213
406.883	110
407.107	102
407.331	109
407.555	103
407.778	102
408.002	86
408.226	98
408.449	94
408.673	97
408.896	103
409.12	86
409.344	87
409.567	83
409.791	93
410.014	84
410.238	98
410.461	104
410.685	97
410.908	91
411.132	107
411.355	109
411.578	70
411.802	88
412.025	91
412.249	93
412.472	104
412.695	126
412.919	99
413.142	107
413.365	88
413.589	78
413.812	91
414.035	99
414.258	93
414.482	84
414.705	98
414.928	100
415.151	81
415.374	85
415.597	91
415.821	84
416.044	88
416.267	84
416.49	80
416.713	100
416.936	91
417.159	94
417.382	88
417.605	84
417.828	112
418.051	84
418.274	86
418.497	82
418.72	87
418.943	90
419.166	82
419.389	95
419.611	103
419.834	93
420.057	82
420.28	81
420.503	90
420.726	99
420.948	95
421.171	108
421.394	87
421.617	83
421.839	93
422.062	91
422.285	93
422.507	103
422.73	116
422.953	94
423.175	89
423.398	85
423.621	92
423.843	79
424.066	91
424.288	79
424.511	87
424.733	92
424.956	106
425.178	107
425.401	107
425.623	112
425.846	86
426.068	101
426.291	102
426.513	76
426.735	90
426.958	94
427.18	104
427.402	166
427.625	241
427.847	215
428.069	183
428.292	116
428.514	100
428.736	89
428.958	108
429.181	87
429.403	83
429.625	89
429.847	107
430.069	117
430.292	117
430.514	87
430.736	102
430.958	90
431.18	68
431.402	86
431.624	89
431.846	90
432.068	87
432.29	85
432.512	83
432.734	93
432.956	98
433.178	101
433.4	91
433.622	76
433.844	91
434.066	83
434.287	96
434.509	87
434.731	69
434.953	95
435.175	102
435.397	92
435.618	82
435.84	120
436.062	137
436.284	130
436.505	103
436.727	102
436.949	90
437.17	95
437.392	95
437.614	89
437.835	113
438.057	134
438.278	124
438.5	113
438.721	140
438.943	107
439.165	81
439.386	92
439.608	91
439.829	125
440.05	143
440.272	171
440.493	115
440.715	92
440.936	101
441.158	76
441.379	84
441.6	94
441.822	93
442.043	93
442.264	114
442.486	89
442.707	97
442.928	109
443.149	156
443.371	164
443.592	143
443.813	136
444.034	118
444.255	85
444.476	82
444.698	88
444.919	79
445.14	138
445.361	138
445.582	152
445.803	185
446.024	153
446.245	167
446.466	128
446.687	86
446.908	93
447.129	84
447.35	87
447.571	96
447.792	94
448.013	122
448.234	96
448.455	98
448.675	127
448.896	146
449.117	114
449.338	126
449.559	145
449.779	146
450	114
450.221	90
450.442	91
450.662	103
450.883	123
451.104	122
451.324	99
451.545	96
451.766	94
451.986	92
452.207	86
452.428	104
452.648	127
452.869	127
453.089	134
453.31	138
453.53	94
453.751	95
453.971	112
454.192	135
454.412	104
454.633	82
454.853	85
455.073	85
455.294	102
455.514	97
455.734	105
455.955	73
456.175	89
456.395	79
456.616	89
456.836	90
457.056	75
457.276	75
457.497	76
457.717	70
457.937	82
458.157	96
458.377	109
458.598	119
458.818	202
459.038	232
459.258	154
459.478	93
459.698	97
459.918	83
460.138	98
460.358	97
460.578	90
460.798	89
461.018	97
461.238	74
461.458	83
461.678	77
461.898	84
462.118	92
462.338	96
462.558	88
462.777	70
462.997	87
463.217	70
463.437	88
463.657	72
463.876	95
464.096	100
464.316	82
464.536	96
464.755	95
464.975	115
465.195	218
465.414	239
465.634	111
465.854	93
466.073	81
466.293	104
466.512	95
466.732	107
466.951	97
467.171	98
467.391	97
467.61	122
467.829	155
468.049	310
468.268	454
468.488	158
468.707	91
468.927	94
469.146	77
469.365	83
469.585	109
469.804	118
470.023	100
470.243	86
470.462	130
470.681	124
470.901	96
471.12	115
471.339	90
471.558	99
471.777	110
471.997	186
472.216	562
472.435	1243
472.654	337
472.873	120
473.092	95
473.311	80
473.53	95
473.749	90
473.968	105
474.187	124
474.406	107
474.625	99
474.844	79
475.063	81
475.282	79
475.501	69
475.72	105
475.939	92
476.158	76
476.377	79
476.596	95
476.814	73
477.033	97
477.252	85
477.471	90
477.69	90
477.908	79
478.127	90
478.346	81
478.564	82
478.783	109
479.002	103
479.22	83
479.439	113
479.658	121
479.876	121
480.095	106
480.313	137
480.532	132
480.751	186
480.969	524
481.188	2130
481.406	1364
481.624	242
481.843	120
482.061	88
482.28	83
482.498	99
482.717	99
482.935	87
483.153	94
483.372	84
483.59	84
483.808	90
484.027	90
484.245	96
484.463	89
484.681	106
484.9	105
485.118	97
485.336	86
485.554	102
485.772	98
485.99	80
486.209	105
486.427	113
486.645	120
486.863	120
487.081	95
487.299	100
487.517	88
487.735	88
487.953	98
488.171	99
488.389	97
488.607	103
488.825	90
489.043	99
489.261	93
489.479	80
489.696	101
489.914	92
490.132	80
490.35	92
490.568	100
490.786	80
491.003	95
491.221	96
491.439	92
491.657	82
491.874	91
492.092	105
492.31	95
492.527	96
492.745	84
492.963	85
493.18	85
493.398	77
493.615	97
493.833	94
494.05	74
494.268	83
494.485	100
494.703	96
494.92	90
495.138	96
495.355	88
495.573	87
495.79	80
496.008	83
496.225	90
496.442	83
496.66	76
496.877	90
497.094	93
497.312	81
497.529	72
497.746	90
497.963	96
498.181	97
498.398	99
498.615	112
498.832	100
499.049	95
499.267	102
499.484	89
499.701	88
499.918	94
500.135	92
500.352	102
500.569	103
500.786	98
501.003	83
501.22	87
501.437	89
501.654	104
501.871	124
502.088	95
502.305	98
502.522	105
502.739	98
502.956	111
503.172	106
503.389	92
503.606	124
503.823	107
504.04	105
504.256	88
504.473	96
504.69	88
504.907	96
505.123	80
505.34	92
505.557	100
505.773	89
505.99	84
506.207	87
506.423	92
506.64	94
506.856	98
507.073	99
507.289	112
507.506	108
507.722	134
507.939	125
508.155	102
508.372	99
508.588	94
508.805	113
509.021	103
509.238	114
509.454	90
509.67	99
509.887	103
510.103	144
510.319	262
510.536	924
510.752	3267
510.968	891
511.184	190
511.401	132
511.617	107
511.833	97
512.049	95
512.265	105
512.481	84
512.698	102
512.914	97
513.13	99
513.346	96
513.562	117
513.778	119
513.994	106
514.21	105
514.426	136
514.642	174
514.858	151
515.074	220
515.29	688
515.506	2503
515.721	899
515.937	214
516.153	135
516.369	125
516.585	95
516.801	106
517.016	100
517.232	109
517.448	95
517.664	91
517.879	77
518.095	83
518.311	111
518.527	91
518.742	95
518.958	96
519.173	97
519.389	100
519.605	99
519.82	101
520.036	122
520.251	156
520.467	131
520.682	127
520.898	128
521.113	140
521.329	166
521.544	278
521.76	890
521.975	4137
522.19	2553
522.406	506
522.621	156
522.836	118
523.052	107
523.267	115
523.482	111
523.698	111
523.913	148
524.128	126
524.343	96
524.559	92
524.774	103
524.989	103
525.204	111
525.419	103
525.634	103
525.849	92
526.064	99
526.28	101
526.495	87
526.71	89
526.925	99
527.14	82
527.355	89
527.57	98
527.785	81
527.999	94
528.214	99
528.429	103
528.644	92
528.859	82
529.074	100
529.289	154
529.503	270
529.718	123
529.933	105
530.148	94
530.363	96
530.577	103
530.792	87
531.007	88
531.221	86
531.436	95
531.651	74
531.865	96
532.08	92
532.295	96
532.509	99
532.724	109
532.938	79
533.153	94
533.367	94
533.582	95
533.796	96
534.011	97
534.225	97
534.44	88
534.654	91
534.868	93
535.083	106
535.297	101
535.511	106
535.726	123
535.94	95
536.154	94
536.369	86
536.583	75
536.797	81
537.011	77
537.225	87
537.44	86
537.654	83
537.868	86
538.082	88
538.296	84
538.51	104
538.724	87
538.938	88
539.153	103
539.367	116
539.581	111
539.795	97
540.009	79
540.222	84
540.436	78
540.65	83
540.864	91
541.078	110
541.292	102
541.506	105
541.72	90
541.934	76
542.147	95
542.361	82
542.575	89
542.789	83
543.002	93
543.216	105
543.43	104
543.644	106
543.857	92
544.071	99
544.285	90
544.498	101
544.712	94
544.925	89
545.139	92
545.352	92
545.566	83
545.779	92
545.993	86
546.206	92
546.42	96
546.633	91
546.847	92
547.06	84
547.274	87
547.487	89
547.7	79
547.914	83
548.127	85
548.34	90
548.554	84
548.767	78
548.98	81
549.193	92
549.407	89
549.62	85
549.833	99
550.046	87
550.259	105
550.473	97
550.686	83
550.899	77
551.112	83
551.325	97
551.538	66
551.751	90
551.964	95
552.177	90
552.39	94
552.603	90
552.816	87
553.029	90
553.242	93
553.455	92
553.667	126
553.88	114
554.093	112
554.306	121
554.519	108
554.732	78
554.944	89
555.157	82
555.37	95
555.583	98
555.795	109
556.008	89
556.221	80
556.433	93
556.646	92
556.859	89
557.071	101
557.284	88
557.496	90
557.709	99
557.921	88
558.134	78
558.346	83
558.559	88
558.771	86
558.984	91
559.196	95
559.409	88
559.621	90
559.833	82
560.046	94
560.258	94
560.47	112
560.683	93
560.895	94
561.107	104
561.32	88
561.532	87
561.744	89
561.956	99
562.168	94
562.381	82
562.593	95
562.805	100
563.017	83
563.229	108
563.441	103
563.653	96
563.865	90
564.077	83
564.289	80
564.501	80
564.713	94
564.925	96
565.137	106
565.349	86
565.561	95
565.773	87
565.985	87
566.197	72
566.408	91
566.62	74
566.832	89
567.044	78
567.255	87
567.467	98
567.679	70
567.891	66
568.102	92
568.314	87
568.526	93
568.737	91
568.949	90
569.161	86
569.372	93
569.584	97
569.795	97
570.007	126
570.218	301
570.43	148
570.641	100
570.853	97
571.064	86
571.276	83
571.487	82
571.698	103
571.91	84
572.121	79
572.333	93
572.544	103
572.755	96
572.966	76
573.178	86
573.389	92
573.6	82
573.811	79
574.023	75
574.234	80
574.445	73
574.656	86
574.867	99
575.078	99
575.289	91
575.501	84
575.712	93
575.923	91
576.134	91
576.345	91
576.556	87
576.767	77
576.978	100
577.188	99
577.399	100
577.61	96
577.821	96
578.032	120
578.243	330
578.454	1050
578.665	252
578.875	123
579.086	84
579.297	84
579.508	89
579.718	96
579.929	92
580.14	84
580.35	95
580.561	86
580.772	86
580.982	91
581.193	87
581.403	97
581.614	97
581.825	88
