Data from Circ_2007_H10_HRD10591_00100.txt Node
Date: Wed Jan 03 10:22:17 EST 2024
User: Yrep
Spectrometer: HR+D1059
Trigger mode: 1
Integration Time (sec): 1.000000E-1
Scans to average: 1
Electric dark correction enabled: true
Nonlinearity correction enabled: false
Boxcar width: 0
XAxis mode: Wavelengths
Number of Pixels in Spectrum: 2048
>>>>>Begin Spectral Data<<<<<
223.165	-24.12
223.4	-24.12
223.635	-24.12
223.869	-9.12
224.104	-24.12
224.338	-12.12
224.573	-20.12
224.808	-20.12
225.042	-11.12
225.277	-9.12
225.511	-10.12
225.746	13.88
225.98	19.88
226.215	24.88
226.449	7.88
226.683	15.88
226.918	21.88
227.152	35.88
227.387	38.88
227.621	46.88
227.856	42.88
228.09	51.88
228.324	51.88
228.559	50.88
228.793	52.88
229.027	72.88
229.262	74.88
229.496	81.88
229.73	94.88
229.964	93.88
230.199	93.88
230.433	85.88
230.667	90.88
230.901	83.88
231.136	83.88
231.37	84.88
231.604	87.88
231.838	75.88
232.072	84.88
232.306	81.88
232.541	83.88
232.775	81.88
233.009	78.88
233.243	98.88
233.477	83.88
233.711	83.88
233.945	75.88
234.179	77.88
234.413	84.88
234.647	100.88
234.881	91.88
235.115	78.88
235.349	83.88
235.583	95.88
235.817	91.88
236.051	85.88
236.285	93.88
236.519	84.88
236.753	93.88
236.987	85.88
237.221	102.88
237.455	95.88
237.689	87.88
237.922	70.88
238.156	71.88
238.39	74.88
238.624	65.88
238.858	89.88
239.091	86.88
239.325	94.88
239.559	91.88
239.793	95.88
240.027	74.88
240.26	90.88
240.494	79.88
240.728	89.88
240.961	71.88
241.195	65.88
241.429	88.88
241.662	75.88
241.896	84.88
242.13	85.88
242.363	67.88
242.597	76.88
242.83	86.88
243.064	91.88
243.298	87.88
243.531	76.88
243.765	61.88
243.998	80.88
244.232	78.88
244.465	97.88
244.699	92.88
244.932	77.88
245.166	81.88
245.399	87.88
245.633	81.88
245.866	74.88
246.099	88.88
246.333	88.88
246.566	80.88
246.8	92.88
247.033	88.88
247.266	77.88
247.5	79.88
247.733	93.88
247.966	91.88
248.2	88.88
248.433	83.88
248.666	93.88
248.899	95.88
249.133	93.88
249.366	104.88
249.599	122.88
249.832	97.88
250.066	83.88
250.299	86.88
250.532	88.88
250.765	88.88
250.998	77.88
251.231	79.88
251.465	77.88
251.698	96.88
251.931	108.88
252.164	79.88
252.397	78.88
252.63	80.88
252.863	80.88
253.096	87.88
253.329	87.88
253.562	79.88
253.795	81.88
254.028	81.88
254.261	86.88
254.494	85.88
254.727	83.88
254.96	82.88
255.193	88.88
255.426	95.88
255.659	90.88
255.892	96.88
256.124	103.88
256.357	87.88
256.59	100.88
256.823	89.88
257.056	92.88
257.289	76.88
257.521	93.88
257.754	82.88
257.987	79.88
258.22	83.88
258.452	98.88
258.685	110.88
258.918	87.88
259.151	77.88
259.383	93.88
259.616	85.88
259.849	87.88
260.081	73.88
260.314	93.88
260.547	90.88
260.779	109.88
261.012	105.88
261.244	126.88
261.477	111.88
261.71	119.88
261.942	135.88
262.175	145.88
262.407	95.88
262.64	84.88
262.872	84.88
263.105	88.88
263.337	88.88
263.57	87.88
263.802	84.88
264.035	77.88
264.267	93.88
264.499	79.88
264.732	89.88
264.964	85.88
265.197	85.88
265.429	87.88
265.661	78.88
265.894	94.88
266.126	85.88
266.358	86.88
266.591	77.88
266.823	86.88
267.055	95.88
267.287	99.88
267.52	88.88
267.752	94.88
267.984	71.88
268.216	77.88
268.448	89.88
268.681	81.88
268.913	80.88
269.145	101.88
269.377	97.88
269.609	80.88
269.841	88.88
270.073	93.88
270.306	95.88
270.538	86.88
270.77	88.88
271.002	79.88
271.234	87.88
271.466	99.88
271.698	88.88
271.93	98.88
272.162	99.88
272.394	88.88
272.626	93.88
272.858	97.88
273.09	94.88
273.322	93.88
273.553	89.88
273.785	88.88
274.017	76.88
274.249	85.88
274.481	87.88
274.713	92.88
274.945	88.88
275.176	99.88
275.408	104.88
275.64	115.88
275.872	104.88
276.104	110.88
276.335	116.88
276.567	117.88
276.799	171.88
277.031	181.88
277.262	202.88
277.494	149.88
277.726	105.88
277.957	77.88
278.189	95.88
278.421	78.88
278.652	91.88
278.884	93.88
279.115	116.88
279.347	98.88
279.579	105.88
279.81	136.88
280.042	203.88
280.273	277.88
280.505	184.88
280.736	118.88
280.968	101.88
281.199	112.88
281.431	88.88
281.662	104.88
281.894	103.88
282.125	109.88
282.356	135.88
282.588	188.88
282.819	138.88
283.051	104.88
283.282	94.88
283.513	77.88
283.745	86.88
283.976	82.88
284.207	93.88
284.439	100.88
284.67	90.88
284.901	105.88
285.132	97.88
285.364	100.88
285.595	85.88
285.826	93.88
286.057	96.88
286.288	82.88
286.52	90.88
286.751	93.88
286.982	91.88
287.213	97.88
287.444	95.88
287.675	86.88
287.906	63.88
288.138	90.88
288.369	104.88
288.6	94.88
288.831	99.88
289.062	102.88
289.293	108.88
289.524	97.88
289.755	94.88
289.986	95.88
290.217	87.88
290.448	93.88
290.679	89.88
290.91	88.88
291.141	90.88
291.371	102.88
291.602	89.88
291.833	105.88
292.064	95.88
292.295	98.88
292.526	89.88
292.757	83.88
292.987	89.88
293.218	89.88
293.449	105.88
293.68	88.88
293.91	109.88
294.141	87.88
294.372	104.88
294.603	96.88
294.833	96.88
295.064	94.88
295.295	110.88
295.525	112.88
295.756	96.88
295.987	148.88
296.217	176.88
296.448	167.88
296.679	102.88
296.909	104.88
297.14	98.88
297.37	91.88
297.601	83.88
297.831	93.88
298.062	98.88
298.292	84.88
298.523	92.88
298.753	101.88
298.984	88.88
299.214	99.88
299.445	102.88
299.675	102.88
299.905	109.88
300.136	107.88
300.366	109.88
300.597	108.88
300.827	89.88
301.057	117.88
301.288	127.88
301.518	104.88
301.748	113.88
301.979	109.88
302.209	114.88
302.439	102.88
302.669	104.88
302.9	103.88
303.13	89.88
303.36	104.88
303.59	135.88
303.82	154.88
304.051	125.88
304.281	97.88
304.511	114.88
304.741	80.88
304.971	98.88
305.201	102.88
305.431	96.88
305.661	88.88
305.891	92.88
306.121	105.88
306.352	101.88
306.582	118.88
306.812	119.88
307.042	130.88
307.272	183.88
307.502	189.88
307.731	161.88
307.961	125.88
308.191	98.88
308.421	91.88
308.651	99.88
308.881	89.88
309.111	105.88
309.341	117.88
309.571	112.88
309.8	100.88
310.03	121.88
310.26	131.88
310.49	115.88
310.72	116.88
310.949	147.88
311.179	119.88
311.409	110.88
311.639	118.88
311.868	109.88
312.098	96.88
312.328	120.88
312.557	113.88
312.787	147.88
313.017	137.88
313.246	104.88
313.476	88.88
313.706	100.88
313.935	106.88
314.165	120.88
314.394	127.88
314.624	123.88
314.853	117.88
315.083	103.88
315.312	100.88
315.542	96.88
315.771	105.88
316.001	101.88
316.23	81.88
316.46	114.88
316.689	100.88
316.919	115.88
317.148	113.88
317.377	98.88
317.607	88.88
317.836	101.88
318.065	93.88
318.295	104.88
318.524	96.88
318.753	102.88
318.983	119.88
319.212	127.88
319.441	120.88
319.67	128.88
319.9	126.88
320.129	93.88
320.358	105.88
320.587	113.88
320.816	118.88
321.046	111.88
321.275	107.88
321.504	104.88
321.733	101.88
321.962	104.88
322.191	125.88
322.42	126.88
322.649	147.88
322.878	146.88
323.108	151.88
323.337	168.88
323.566	185.88
323.795	211.88
324.024	295.88
324.253	559.88
324.482	1246.88
324.71	2590.88
324.939	3477.88
325.168	1249.88
325.397	359.88
325.626	179.88
325.855	161.88
326.084	150.88
326.313	172.88
326.542	208.88
326.77	308.88
326.999	623.88
327.228	1299.88
327.457	2418.88
327.686	1935.88
327.914	622.88
328.143	580.88
328.372	709.88
328.6	377.88
328.829	224.88
329.058	228.88
329.287	239.88
329.515	193.88
329.744	265.88
329.972	471.88
330.201	1006.88
330.43	1516.88
330.658	727.88
330.887	366.88
331.115	240.88
331.344	140.88
331.572	117.88
331.801	134.88
332.03	136.88
332.258	127.88
332.486	116.88
332.715	116.88
332.943	128.88
333.172	125.88
333.4	148.88
333.629	169.88
333.857	252.88
334.085	461.88
334.314	957.88
334.542	1866.88
334.771	1778.88
334.999	483.88
335.227	202.88
335.455	135.88
335.684	118.88
335.912	135.88
336.14	114.88
336.369	120.88
336.597	123.88
336.825	115.88
337.053	100.88
337.281	93.88
337.51	109.88
337.738	108.88
337.966	105.88
338.194	118.88
338.422	105.88
338.65	121.88
338.878	99.88
339.106	97.88
339.334	104.88
339.562	113.88
339.79	103.88
340.018	105.88
340.246	105.88
340.474	107.88
340.702	119.88
340.93	100.88
341.158	102.88
341.386	94.88
341.614	113.88
341.842	110.88
342.07	100.88
342.298	88.88
342.526	99.88
342.754	89.88
342.981	94.88
343.209	93.88
343.437	105.88
343.665	97.88
343.893	100.88
344.12	107.88
344.348	95.88
344.576	96.88
344.804	110.88
345.031	100.88
345.259	115.88
345.487	110.88
345.714	110.88
345.942	99.88
346.17	79.88
346.397	95.88
346.625	119.88
346.853	105.88
347.08	98.88
347.308	107.88
347.535	110.88
347.763	124.88
347.99	109.88
348.218	129.88
348.445	126.88
348.673	135.88
348.9	108.88
349.128	96.88
349.355	109.88
349.583	108.88
349.81	95.88
350.037	106.88
350.265	101.88
350.492	111.88
350.72	101.88
350.947	116.88
351.174	128.88
351.402	153.88
351.629	124.88
351.856	109.88
352.083	124.88
352.311	125.88
352.538	143.88
352.765	125.88
352.992	129.88
353.22	131.88
353.447	129.88
353.674	110.88
353.901	111.88
354.128	103.88
354.355	98.88
354.583	90.88
354.81	104.88
355.037	93.88
355.264	107.88
355.491	93.88
355.718	92.88
355.945	100.88
356.172	83.88
356.399	100.88
356.626	107.88
356.853	83.88
357.08	105.88
357.307	88.88
357.534	91.88
357.761	94.88
357.988	101.88
358.215	87.88
358.441	108.88
358.668	100.88
358.895	96.88
359.122	93.88
359.349	100.88
359.576	107.88
359.802	129.88
360.029	159.88
360.256	158.88
360.483	142.88
360.709	96.88
360.936	84.88
361.163	104.88
361.39	114.88
361.616	121.88
361.843	99.88
362.07	115.88
362.296	96.88
362.523	110.88
362.749	103.88
362.976	88.88
363.203	106.88
363.429	104.88
363.656	98.88
363.882	99.88
364.109	109.88
364.335	102.88
364.562	87.88
364.788	101.88
365.015	115.88
365.241	128.88
365.468	134.88
365.694	132.88
365.92	133.88
366.147	107.88
366.373	118.88
366.599	94.88
366.826	112.88
367.052	88.88
367.278	114.88
367.505	96.88
367.731	100.88
367.957	108.88
368.184	102.88
368.41	128.88
368.636	132.88
368.862	140.88
369.089	124.88
369.315	112.88
369.541	116.88
369.767	103.88
369.993	100.88
370.219	99.88
370.445	100.88
370.672	81.88
370.898	91.88
371.124	93.88
371.35	100.88
371.576	73.88
371.802	86.88
372.028	74.88
372.254	104.88
372.48	102.88
372.706	95.88
372.932	90.88
373.158	98.88
373.384	103.88
373.61	95.88
373.835	107.88
374.061	100.88
374.287	106.88
374.513	85.88
374.739	104.88
374.965	102.88
375.191	98.88
375.416	103.88
375.642	92.88
375.868	96.88
376.094	105.88
376.319	102.88
376.545	93.88
376.771	97.88
376.997	91.88
377.222	100.88
377.448	107.88
377.674	95.88
377.899	100.88
378.125	92.88
378.35	82.88
378.576	92.88
378.802	95.88
379.027	95.88
379.253	97.88
379.478	97.88
379.704	95.88
379.929	103.88
380.155	100.88
380.38	99.88
380.606	103.88
380.831	106.88
381.057	107.88
381.282	100.88
381.507	94.88
381.733	92.88
381.958	83.88
382.184	110.88
382.409	107.88
382.634	105.88
382.86	96.88
383.085	88.88
383.31	111.88
383.535	105.88
383.761	93.88
383.986	98.88
384.211	94.88
384.436	88.88
384.662	102.88
384.887	100.88
385.112	106.88
385.337	108.88
385.562	112.88
385.787	105.88
386.013	110.88
386.238	113.88
386.463	114.88
386.688	123.88
386.913	107.88
387.138	114.88
387.363	102.88
387.588	109.88
387.813	97.88
388.038	118.88
388.263	111.88
388.488	99.88
388.713	119.88
388.938	102.88
389.163	95.88
389.387	92.88
389.612	94.88
389.837	100.88
390.062	97.88
390.287	89.88
390.512	97.88
390.736	106.88
390.961	91.88
391.186	93.88
391.411	96.88
391.636	97.88
391.86	100.88
392.085	80.88
392.31	100.88
392.534	95.88
392.759	92.88
392.984	95.88
393.208	100.88
393.433	107.88
393.658	101.88
393.882	100.88
394.107	78.88
394.331	88.88
394.556	93.88
394.78	103.88
395.005	93.88
395.229	95.88
395.454	90.88
395.678	93.88
395.903	82.88
396.127	85.88
396.352	107.88
396.576	97.88
396.801	84.88
397.025	107.88
397.249	86.88
397.474	88.88
397.698	90.88
397.922	80.88
398.147	87.88
398.371	84.88
398.595	104.88
398.82	90.88
399.044	104.88
399.268	94.88
399.492	85.88
399.717	108.88
399.941	105.88
400.165	97.88
400.389	107.88
400.613	111.88
400.837	102.88
401.062	99.88
401.286	107.88
401.51	99.88
401.734	110.88
401.958	99.88
402.182	169.88
402.406	246.88
402.63	170.88
402.854	126.88
403.078	108.88
403.302	110.88
403.526	93.88
403.75	97.88
403.974	96.88
404.198	89.88
404.422	84.88
404.645	106.88
404.869	118.88
405.093	118.88
405.317	144.88
405.541	140.88
405.765	133.88
405.988	154.88
406.212	250.88
406.436	373.88
406.66	267.88
406.883	148.88
407.107	119.88
407.331	123.88
407.555	131.88
407.778	121.88
408.002	110.88
408.226	98.88
408.449	104.88
408.673	92.88
408.896	113.88
409.12	116.88
409.344	97.88
409.567	97.88
409.791	96.88
410.014	89.88
410.238	104.88
410.461	104.88
410.685	97.88
410.908	102.88
411.132	103.88
411.355	108.88
411.578	92.88
411.802	93.88
412.025	106.88
412.249	114.88
412.472	125.88
412.695	155.88
412.919	130.88
413.142	97.88
413.365	99.88
413.589	89.88
413.812	101.88
414.035	85.88
414.258	101.88
414.482	95.88
414.705	91.88
414.928	96.88
415.151	73.88
415.374	100.88
415.597	100.88
415.821	110.88
416.044	87.88
416.267	96.88
416.49	77.88
416.713	94.88
416.936	101.88
417.159	98.88
417.382	110.88
417.605	111.88
417.828	130.88
418.051	102.88
418.274	88.88
418.497	96.88
418.72	89.88
418.943	85.88
419.166	80.88
419.389	84.88
419.611	114.88
419.834	95.88
420.057	93.88
420.28	85.88
420.503	84.88
420.726	104.88
420.948	101.88
421.171	104.88
421.394	119.88
421.617	98.88
421.839	103.88
422.062	94.88
422.285	94.88
422.507	104.88
422.73	115.88
422.953	113.88
423.175	89.88
423.398	89.88
423.621	98.88
423.843	86.88
424.066	83.88
424.288	93.88
424.511	110.88
424.733	115.88
424.956	139.88
425.178	121.88
425.401	120.88
425.623	109.88
425.846	103.88
426.068	107.88
426.291	112.88
426.513	96.88
426.735	102.88
426.958	114.88
427.18	119.88
427.402	180.88
427.625	319.88
427.847	289.88
428.069	259.88
428.292	145.88
428.514	107.88
428.736	109.88
428.958	77.88
429.181	102.88
429.403	89.88
429.625	99.88
429.847	107.88
430.069	127.88
430.292	101.88
430.514	95.88
430.736	91.88
430.958	98.88
431.18	91.88
431.402	95.88
431.624	74.88
431.846	99.88
432.068	102.88
432.29	83.88
432.512	96.88
432.734	94.88
432.956	93.88
433.178	130.88
433.4	111.88
433.622	92.88
433.844	92.88
434.066	95.88
434.287	96.88
434.509	94.88
434.731	93.88
434.953	84.88
435.175	95.88
435.397	97.88
435.618	96.88
435.84	131.88
436.062	143.88
436.284	139.88
436.505	122.88
436.727	116.88
436.949	89.88
437.17	102.88
437.392	99.88
437.614	114.88
437.835	135.88
438.057	165.88
438.278	151.88
438.5	121.88
438.721	168.88
438.943	118.88
439.165	90.88
439.386	115.88
439.608	109.88
439.829	130.88
440.05	177.88
440.272	216.88
440.493	126.88
440.715	101.88
440.936	98.88
441.158	88.88
441.379	96.88
441.6	111.88
441.822	105.88
442.043	111.88
442.264	126.88
442.486	126.88
442.707	110.88
442.928	141.88
443.149	207.88
443.371	207.88
443.592	150.88
443.813	145.88
444.034	152.88
444.255	87.88
444.476	102.88
444.698	104.88
444.919	100.88
445.14	157.88
445.361	140.88
445.582	165.88
445.803	209.88
446.024	202.88
446.245	201.88
446.466	140.88
446.687	100.88
446.908	84.88
447.129	91.88
447.35	83.88
447.571	104.88
447.792	103.88
448.013	118.88
448.234	161.88
448.455	107.88
448.675	128.88
448.896	158.88
449.117	115.88
449.338	120.88
449.559	159.88
449.779	178.88
450	107.88
450.221	89.88
450.442	103.88
450.662	104.88
450.883	138.88
451.104	158.88
451.324	123.88
451.545	107.88
451.766	85.88
451.986	86.88
452.207	99.88
452.428	93.88
452.648	116.88
452.869	149.88
453.089	156.88
453.31	165.88
453.53	119.88
453.751	112.88
453.971	132.88
454.192	157.88
454.412	109.88
454.633	99.88
454.853	98.88
455.073	88.88
455.294	89.88
455.514	112.88
455.734	101.88
455.955	80.88
456.175	86.88
456.395	80.88
456.616	92.88
456.836	78.88
457.056	87.88
457.276	103.88
457.497	87.88
457.717	88.88
457.937	105.88
458.157	81.88
458.377	107.88
458.598	134.88
458.818	263.88
459.038	284.88
459.258	178.88
459.478	106.88
459.698	102.88
459.918	101.88
460.138	92.88
460.358	90.88
460.578	85.88
460.798	100.88
461.018	94.88
461.238	79.88
461.458	98.88
461.678	92.88
461.898	104.88
462.118	95.88
462.338	94.88
462.558	102.88
462.777	105.88
462.997	93.88
463.217	101.88
463.437	98.88
463.657	101.88
463.876	82.88
464.096	105.88
464.316	99.88
464.536	131.88
464.755	119.88
464.975	130.88
465.195	289.88
465.414	283.88
465.634	130.88
465.854	96.88
466.073	93.88
466.293	104.88
466.512	99.88
466.732	104.88
466.951	92.88
467.171	103.88
467.391	123.88
467.61	162.88
467.829	227.88
468.049	524.88
468.268	804.88
468.488	214.88
468.707	123.88
468.927	86.88
469.146	89.88
469.365	96.88
469.585	115.88
469.804	117.88
470.023	121.88
470.243	104.88
470.462	117.88
470.681	159.88
470.901	117.88
471.12	120.88
471.339	105.88
471.558	128.88
471.777	137.88
471.997	274.88
472.216	1027.88
472.435	2429.88
472.654	619.88
472.873	167.88
473.092	104.88
473.311	102.88
473.53	98.88
473.749	103.88
473.968	114.88
474.187	139.88
474.406	101.88
474.625	96.88
474.844	94.88
475.063	88.88
475.282	105.88
475.501	85.88
475.72	111.88
475.939	101.88
476.158	96.88
476.377	93.88
476.596	98.88
476.814	98.88
477.033	110.88
477.252	102.88
477.471	93.88
477.69	109.88
477.908	94.88
478.127	110.88
478.346	100.88
478.564	87.88
478.783	114.88
479.002	128.88
479.22	110.88
479.439	140.88
479.658	157.88
479.876	136.88
480.095	120.88
480.313	128.88
480.532	164.88
480.751	271.88
480.969	945.88
481.188	4135.88
481.406	2482.88
481.624	368.88
481.843	143.88
482.061	116.88
482.28	92.88
482.498	110.88
482.717	111.88
482.935	103.88
483.153	100.88
483.372	120.88
483.59	96.88
483.808	96.88
484.027	102.88
484.245	103.88
484.463	89.88
484.681	105.88
484.9	110.88
485.118	103.88
485.336	100.88
485.554	112.88
485.772	102.88
485.99	108.88
486.209	115.88
486.427	108.88
486.645	135.88
486.863	147.88
487.081	115.88
487.299	111.88
487.517	100.88
487.735	106.88
487.953	97.88
488.171	96.88
488.389	99.88
488.607	96.88
488.825	100.88
489.043	90.88
489.261	97.88
489.479	103.88
489.696	101.88
489.914	87.88
490.132	87.88
490.35	111.88
490.568	86.88
490.786	104.88
491.003	88.88
491.221	104.88
491.439	103.88
491.657	115.88
491.874	88.88
492.092	109.88
492.31	104.88
492.527	84.88
492.745	102.88
492.963	97.88
493.18	103.88
493.398	96.88
493.615	97.88
493.833	101.88
494.05	95.88
494.268	101.88
494.485	91.88
494.703	84.88
494.92	84.88
495.138	98.88
495.355	82.88
495.573	90.88
495.79	89.88
496.008	93.88
496.225	104.88
496.442	89.88
496.66	104.88
496.877	92.88
497.094	97.88
497.312	94.88
497.529	95.88
497.746	89.88
497.963	87.88
498.181	98.88
498.398	97.88
498.615	130.88
498.832	116.88
499.049	94.88
499.267	94.88
499.484	88.88
499.701	89.88
499.918	101.88
500.135	92.88
500.352	95.88
500.569	95.88
500.786	93.88
501.003	103.88
501.22	99.88
501.437	96.88
501.654	118.88
501.871	152.88
502.088	101.88
502.305	91.88
502.522	99.88
502.739	101.88
502.956	99.88
503.172	101.88
503.389	117.88
503.606	142.88
503.823	108.88
504.04	96.88
504.256	99.88
504.473	101.88
504.69	100.88
504.907	102.88
505.123	93.88
505.34	88.88
505.557	93.88
505.773	98.88
505.99	88.88
506.207	107.88
506.423	88.88
506.64	89.88
506.856	110.88
507.073	108.88
507.289	103.88
507.506	91.88
507.722	156.88
507.939	174.88
508.155	110.88
508.372	102.88
508.588	95.88
508.805	101.88
509.021	110.88
509.238	107.88
509.454	108.88
509.67	104.88
509.887	120.88
510.103	163.88
510.319	258.88
