Data from Circ_2007_H10_HRD10591_00058.txt Node
Date: Wed Jan 03 10:22:08 EST 2024
User: Yrep
Spectrometer: HR+D1059
Trigger mode: 1
Integration Time (sec): 1.000000E-1
Scans to average: 1
Electric dark correction enabled: true
Nonlinearity correction enabled: false
Boxcar width: 0
XAxis mode: Wavelengths
Number of Pixels in Spectrum: 2048
>>>>>Begin Spectral Data<<<<<
223.165	-14.75
223.4	-14.75
223.635	-14.75
223.869	-18.75
224.104	-42.75
224.338	-11.75
224.573	-17.75
224.808	-18.75
225.042	-10.75
225.277	-4.75
225.511	10.25
225.746	5.25
225.98	8.25
226.215	12.25
226.449	8.25
226.683	14.25
226.918	35.25
227.152	46.25
227.387	45.25
227.621	41.25
227.856	49.25
228.09	49.25
228.324	52.25
228.559	67.25
228.793	60.25
229.027	64.25
229.262	72.25
229.496	69.25
229.73	105.25
229.964	80.25
230.199	81.25
230.433	84.25
230.667	74.25
230.901	98.25
231.136	92.25
231.37	84.25
231.604	82.25
231.838	83.25
232.072	80.25
232.306	95.25
232.541	86.25
232.775	92.25
233.009	84.25
233.243	94.25
233.477	100.25
233.711	78.25
233.945	75.25
234.179	86.25
234.413	74.25
234.647	93.25
234.881	84.25
235.115	71.25
235.349	87.25
235.583	88.25
235.817	83.25
236.051	80.25
236.285	69.25
236.519	93.25
236.753	81.25
236.987	91.25
237.221	105.25
237.455	94.25
237.689	81.25
237.922	83.25
238.156	65.25
238.39	75.25
238.624	92.25
238.858	93.25
239.091	84.25
239.325	84.25
239.559	79.25
239.793	83.25
240.027	85.25
240.26	89.25
240.494	72.25
240.728	86.25
240.961	76.25
241.195	82.25
241.429	80.25
241.662	77.25
241.896	76.25
242.13	77.25
242.363	83.25
242.597	75.25
242.83	69.25
243.064	72.25
243.298	85.25
243.531	80.25
243.765	81.25
243.998	81.25
244.232	80.25
244.465	92.25
244.699	81.25
244.932	80.25
245.166	79.25
245.399	95.25
245.633	79.25
245.866	86.25
246.099	68.25
246.333	75.25
246.566	87.25
246.8	67.25
247.033	86.25
247.266	83.25
247.5	80.25
247.733	77.25
247.966	85.25
248.2	71.25
248.433	103.25
248.666	80.25
248.899	95.25
249.133	88.25
249.366	89.25
249.599	100.25
249.832	104.25
250.066	84.25
250.299	72.25
250.532	81.25
250.765	92.25
250.998	89.25
251.231	94.25
251.465	85.25
251.698	86.25
251.931	73.25
252.164	75.25
252.397	73.25
252.63	95.25
252.863	81.25
253.096	90.25
253.329	86.25
253.562	91.25
253.795	81.25
254.028	100.25
254.261	84.25
254.494	81.25
254.727	87.25
254.96	85.25
255.193	91.25
255.426	88.25
255.659	75.25
255.892	82.25
256.124	71.25
256.357	95.25
256.59	87.25
256.823	87.25
257.056	89.25
257.289	93.25
257.521	91.25
257.754	82.25
257.987	100.25
258.22	93.25
258.452	86.25
258.685	77.25
258.918	92.25
259.151	91.25
259.383	92.25
259.616	80.25
259.849	74.25
260.081	98.25
260.314	86.25
260.547	91.25
260.779	88.25
261.012	95.25
261.244	101.25
261.477	93.25
261.71	112.25
261.942	112.25
262.175	134.25
262.407	106.25
262.64	104.25
262.872	97.25
263.105	95.25
263.337	88.25
263.57	98.25
263.802	97.25
264.035	100.25
264.267	99.25
264.499	93.25
264.732	83.25
264.964	101.25
265.197	95.25
265.429	97.25
265.661	95.25
265.894	86.25
266.126	82.25
266.358	75.25
266.591	74.25
266.823	88.25
267.055	103.25
267.287	85.25
267.52	89.25
267.752	91.25
267.984	88.25
268.216	102.25
268.448	84.25
268.681	78.25
268.913	91.25
269.145	85.25
269.377	92.25
269.609	86.25
269.841	91.25
270.073	82.25
270.306	98.25
270.538	85.25
270.77	83.25
271.002	100.25
271.234	93.25
271.466	94.25
271.698	91.25
271.93	94.25
272.162	82.25
272.394	84.25
272.626	98.25
272.858	96.25
273.09	86.25
273.322	91.25
273.553	87.25
273.785	92.25
274.017	94.25
274.249	87.25
274.481	88.25
274.713	87.25
274.945	89.25
275.176	97.25
275.408	88.25
275.64	99.25
275.872	115.25
276.104	100.25
276.335	102.25
276.567	111.25
276.799	120.25
277.031	132.25
277.262	139.25
277.494	104.25
277.726	95.25
277.957	84.25
278.189	85.25
278.421	93.25
278.652	93.25
278.884	83.25
279.115	83.25
279.347	99.25
279.579	114.25
279.81	109.25
280.042	134.25
280.273	187.25
280.505	136.25
280.736	97.25
280.968	95.25
281.199	95.25
281.431	82.25
281.662	95.25
281.894	72.25
282.125	98.25
282.356	142.25
282.588	167.25
282.819	142.25
283.051	105.25
283.282	104.25
283.513	90.25
283.745	96.25
283.976	92.25
284.207	86.25
284.439	85.25
284.67	86.25
284.901	94.25
285.132	93.25
285.364	96.25
285.595	95.25
285.826	83.25
286.057	95.25
286.288	93.25
286.52	84.25
286.751	99.25
286.982	94.25
287.213	94.25
287.444	93.25
287.675	98.25
287.906	91.25
288.138	92.25
288.369	102.25
288.6	101.25
288.831	99.25
289.062	87.25
289.293	84.25
289.524	98.25
289.755	104.25
289.986	81.25
290.217	101.25
290.448	88.25
290.679	84.25
290.91	86.25
291.141	93.25
291.371	93.25
291.602	88.25
291.833	89.25
292.064	103.25
292.295	110.25
292.526	99.25
292.757	95.25
292.987	92.25
293.218	80.25
293.449	89.25
293.68	89.25
293.91	90.25
294.141	101.25
294.372	80.25
294.603	100.25
294.833	92.25
295.064	92.25
295.295	97.25
295.525	90.25
295.756	121.25
295.987	124.25
296.217	165.25
296.448	143.25
296.679	92.25
296.909	89.25
297.14	95.25
297.37	90.25
297.601	82.25
297.831	93.25
298.062	85.25
298.292	97.25
298.523	99.25
298.753	98.25
298.984	110.25
299.214	96.25
299.445	92.25
299.675	99.25
299.905	106.25
300.136	95.25
300.366	96.25
300.597	97.25
300.827	104.25
301.057	114.25
301.288	106.25
301.518	108.25
301.748	96.25
301.979	108.25
302.209	97.25
302.439	88.25
302.669	99.25
302.9	94.25
303.13	87.25
303.36	106.25
303.59	121.25
303.82	127.25
304.051	127.25
304.281	91.25
304.511	105.25
304.741	87.25
304.971	99.25
305.201	101.25
305.431	88.25
305.661	90.25
305.891	103.25
306.121	105.25
306.352	104.25
306.582	114.25
306.812	109.25
307.042	116.25
307.272	134.25
307.502	130.25
307.731	129.25
307.961	112.25
308.191	82.25
308.421	92.25
308.651	95.25
308.881	96.25
309.111	91.25
309.341	96.25
309.571	104.25
309.8	111.25
310.03	98.25
310.26	92.25
310.49	97.25
310.72	107.25
310.949	117.25
311.179	123.25
311.409	108.25
311.639	115.25
311.868	99.25
312.098	88.25
312.328	99.25
312.557	108.25
312.787	123.25
313.017	118.25
313.246	93.25
313.476	88.25
313.706	110.25
313.935	123.25
314.165	105.25
314.394	104.25
314.624	100.25
314.853	117.25
315.083	96.25
315.312	90.25
315.542	96.25
315.771	89.25
316.001	94.25
316.23	93.25
316.46	100.25
316.689	92.25
316.919	102.25
317.148	98.25
317.377	102.25
317.607	99.25
317.836	113.25
318.065	104.25
318.295	103.25
318.524	93.25
318.753	98.25
318.983	119.25
319.212	113.25
319.441	117.25
319.67	123.25
319.9	89.25
320.129	100.25
320.358	93.25
320.587	108.25
320.816	111.25
321.046	119.25
321.275	110.25
321.504	100.25
321.733	111.25
321.962	118.25
322.191	98.25
322.42	119.25
322.649	121.25
322.878	135.25
323.108	141.25
323.337	142.25
323.566	179.25
323.795	181.25
324.024	260.25
324.253	502.25
324.482	1071.25
324.71	2247.25
324.939	3017.25
325.168	1099.25
325.397	296.25
325.626	178.25
325.855	149.25
326.084	137.25
326.313	153.25
326.542	177.25
326.77	284.25
326.999	573.25
327.228	1206.25
327.457	2266.25
327.686	1799.25
327.914	533.25
328.143	377.25
328.372	409.25
328.6	238.25
328.829	169.25
329.058	179.25
329.287	181.25
329.515	143.25
329.744	177.25
329.972	285.25
330.201	525.25
330.43	784.25
330.658	400.25
330.887	234.25
331.115	187.25
331.344	120.25
331.572	130.25
331.801	126.25
332.03	127.25
332.258	123.25
332.486	114.25
332.715	90.25
332.943	110.25
333.172	104.25
333.4	111.25
333.629	148.25
333.857	171.25
334.085	262.25
334.314	489.25
334.542	938.25
334.771	888.25
334.999	279.25
335.227	125.25
335.455	121.25
335.684	107.25
335.912	102.25
336.14	97.25
336.369	103.25
336.597	109.25
336.825	100.25
337.053	96.25
337.281	100.25
337.51	88.25
337.738	116.25
337.966	110.25
338.194	105.25
338.422	118.25
338.65	91.25
338.878	95.25
339.106	113.25
339.334	95.25
339.562	88.25
339.79	102.25
340.018	92.25
340.246	109.25
340.474	110.25
340.702	111.25
340.93	99.25
341.158	105.25
341.386	107.25
341.614	100.25
341.842	101.25
342.07	100.25
342.298	95.25
342.526	87.25
342.754	97.25
342.981	103.25
343.209	100.25
343.437	93.25
343.665	102.25
343.893	102.25
344.12	87.25
344.348	99.25
344.576	89.25
344.804	116.25
345.031	100.25
345.259	107.25
345.487	108.25
345.714	107.25
345.942	102.25
346.17	104.25
346.397	104.25
346.625	92.25
346.853	111.25
347.08	93.25
347.308	113.25
347.535	110.25
347.763	103.25
347.99	105.25
348.218	102.25
348.445	113.25
348.673	113.25
348.9	116.25
349.128	111.25
349.355	86.25
349.583	104.25
349.81	102.25
350.037	109.25
350.265	100.25
350.492	108.25
350.72	110.25
350.947	100.25
351.174	119.25
351.402	111.25
351.629	110.25
351.856	123.25
352.083	105.25
352.311	105.25
352.538	118.25
352.765	130.25
352.992	120.25
353.22	111.25
353.447	91.25
353.674	99.25
353.901	99.25
354.128	88.25
354.355	95.25
354.583	109.25
354.81	102.25
355.037	104.25
355.264	107.25
355.491	86.25
355.718	99.25
355.945	90.25
356.172	98.25
356.399	102.25
356.626	92.25
356.853	93.25
357.08	103.25
357.307	100.25
357.534	97.25
357.761	89.25
357.988	109.25
358.215	98.25
358.441	92.25
358.668	104.25
358.895	95.25
359.122	100.25
359.349	95.25
359.576	111.25
359.802	116.25
360.029	138.25
360.256	155.25
360.483	121.25
360.709	110.25
360.936	104.25
361.163	101.25
361.39	100.25
361.616	106.25
361.843	102.25
362.07	102.25
362.296	104.25
362.523	96.25
362.749	95.25
362.976	121.25
363.203	101.25
363.429	87.25
363.656	88.25
363.882	102.25
364.109	81.25
364.335	92.25
364.562	94.25
364.788	95.25
365.015	112.25
365.241	108.25
365.468	137.25
365.694	115.25
365.92	119.25
366.147	93.25
366.373	96.25
366.599	102.25
366.826	102.25
367.052	89.25
367.278	89.25
367.505	96.25
367.731	97.25
367.957	107.25
368.184	97.25
368.41	101.25
368.636	122.25
368.862	126.25
369.089	115.25
369.315	104.25
369.541	111.25
369.767	100.25
369.993	107.25
370.219	104.25
370.445	118.25
370.672	102.25
370.898	84.25
371.124	93.25
371.35	96.25
371.576	101.25
371.802	92.25
372.028	94.25
372.254	99.25
372.48	97.25
372.706	102.25
372.932	84.25
373.158	85.25
373.384	82.25
373.61	95.25
373.835	94.25
374.061	101.25
374.287	99.25
374.513	98.25
374.739	88.25
374.965	102.25
375.191	91.25
375.416	95.25
375.642	89.25
375.868	88.25
376.094	109.25
376.319	86.25
376.545	101.25
376.771	88.25
376.997	111.25
377.222	102.25
377.448	112.25
377.674	96.25
377.899	104.25
378.125	88.25
378.35	86.25
378.576	92.25
378.802	92.25
379.027	99.25
379.253	83.25
379.478	99.25
379.704	88.25
379.929	96.25
380.155	96.25
380.38	97.25
380.606	100.25
380.831	99.25
381.057	101.25
381.282	101.25
381.507	86.25
381.733	98.25
381.958	91.25
382.184	105.25
382.409	100.25
382.634	98.25
382.86	118.25
383.085	101.25
383.31	96.25
383.535	99.25
383.761	94.25
383.986	94.25
384.211	105.25
384.436	108.25
384.662	98.25
384.887	97.25
385.112	114.25
385.337	102.25
385.562	96.25
385.787	98.25
386.013	105.25
386.238	118.25
386.463	119.25
386.688	111.25
386.913	112.25
387.138	108.25
387.363	105.25
387.588	90.25
387.813	103.25
388.038	113.25
388.263	112.25
388.488	103.25
388.713	103.25
388.938	95.25
389.163	97.25
389.387	91.25
389.612	90.25
389.837	78.25
390.062	103.25
390.287	96.25
390.512	95.25
390.736	95.25
390.961	89.25
391.186	107.25
391.411	103.25
391.636	91.25
391.86	86.25
392.085	89.25
392.31	86.25
392.534	94.25
392.759	108.25
392.984	81.25
393.208	101.25
393.433	103.25
393.658	98.25
393.882	94.25
394.107	87.25
394.331	95.25
394.556	96.25
394.78	87.25
395.005	95.25
395.229	95.25
395.454	98.25
395.678	88.25
395.903	95.25
396.127	85.25
396.352	84.25
396.576	92.25
396.801	90.25
397.025	87.25
397.249	109.25
397.474	92.25
397.698	86.25
397.922	91.25
398.147	103.25
398.371	92.25
398.595	95.25
398.82	83.25
399.044	97.25
399.268	80.25
399.492	83.25
399.717	71.25
399.941	89.25
400.165	91.25
400.389	100.25
400.613	91.25
400.837	116.25
401.062	100.25
401.286	93.25
401.51	99.25
401.734	96.25
401.958	98.25
402.182	143.25
402.406	195.25
402.63	141.25
402.854	99.25
403.078	103.25
403.302	101.25
403.526	94.25
403.75	92.25
403.974	79.25
404.198	86.25
404.422	102.25
404.645	85.25
404.869	109.25
405.093	121.25
405.317	121.25
405.541	141.25
405.765	116.25
405.988	125.25
406.212	197.25
406.436	286.25
406.66	198.25
406.883	129.25
407.107	93.25
407.331	112.25
407.555	114.25
407.778	101.25
408.002	105.25
408.226	97.25
408.449	99.25
408.673	95.25
408.896	106.25
409.12	100.25
409.344	101.25
409.567	87.25
409.791	101.25
410.014	100.25
410.238	106.25
410.461	100.25
410.685	98.25
410.908	97.25
411.132	104.25
411.355	98.25
411.578	97.25
411.802	95.25
412.025	95.25
412.249	98.25
412.472	112.25
412.695	141.25
412.919	111.25
413.142	95.25
413.365	103.25
413.589	85.25
413.812	102.25
414.035	94.25
414.258	93.25
414.482	91.25
414.705	91.25
414.928	94.25
415.151	108.25
415.374	85.25
415.597	85.25
415.821	96.25
416.044	85.25
416.267	94.25
416.49	96.25
416.713	93.25
416.936	88.25
417.159	87.25
417.382	87.25
417.605	102.25
417.828	105.25
418.051	110.25
418.274	97.25
418.497	78.25
418.72	99.25
418.943	83.25
419.166	93.25
419.389	104.25
419.611	94.25
419.834	92.25
420.057	107.25
420.28	90.25
420.503	110.25
420.726	86.25
420.948	107.25
421.171	99.25
421.394	107.25
421.617	88.25
421.839	90.25
422.062	98.25
422.285	85.25
422.507	108.25
422.73	110.25
422.953	107.25
423.175	97.25
423.398	98.25
423.621	96.25
423.843	94.25
424.066	82.25
424.288	91.25
424.511	109.25
424.733	106.25
424.956	114.25
425.178	105.25
425.401	109.25
425.623	101.25
425.846	104.25
426.068	100.25
426.291	89.25
426.513	94.25
426.735	99.25
426.958	104.25
427.18	144.25
427.402	174.25
427.625	227.25
427.847	202.25
428.069	192.25
428.292	99.25
428.514	90.25
428.736	93.25
428.958	101.25
429.181	87.25
429.403	95.25
429.625	94.25
429.847	102.25
430.069	120.25
430.292	115.25
430.514	77.25
430.736	93.25
430.958	72.25
431.18	85.25
431.402	91.25
431.624	81.25
431.846	85.25
432.068	87.25
432.29	100.25
432.512	89.25
432.734	87.25
432.956	97.25
433.178	112.25
433.4	108.25
433.622	112.25
433.844	96.25
434.066	103.25
434.287	96.25
434.509	84.25
434.731	83.25
434.953	97.25
435.175	91.25
435.397	97.25
435.618	100.25
435.84	129.25
436.062	164.25
436.284	144.25
436.505	119.25
436.727	95.25
436.949	96.25
437.17	101.25
437.392	102.25
437.614	93.25
437.835	131.25
438.057	148.25
438.278	133.25
438.5	127.25
438.721	141.25
438.943	127.25
439.165	94.25
439.386	88.25
439.608	91.25
439.829	111.25
440.05	146.25
440.272	200.25
440.493	101.25
440.715	101.25
440.936	76.25
441.158	87.25
441.379	88.25
441.6	100.25
441.822	105.25
442.043	107.25
442.264	106.25
442.486	110.25
442.707	109.25
442.928	126.25
443.149	177.25
443.371	172.25
443.592	139.25
443.813	138.25
444.034	127.25
444.255	91.25
444.476	84.25
444.698	87.25
444.919	89.25
445.14	149.25
445.361	152.25
445.582	144.25
445.803	177.25
446.024	177.25
446.245	156.25
446.466	133.25
446.687	98.25
446.908	89.25
447.129	90.25
447.35	97.25
447.571	95.25
447.792	96.25
448.013	112.25
448.234	113.25
448.455	103.25
448.675	128.25
448.896	157.25
449.117	123.25
449.338	119.25
449.559	149.25
449.779	158.25
450	115.25
450.221	83.25
450.442	88.25
450.662	108.25
450.883	120.25
451.104	143.25
451.324	97.25
451.545	109.25
451.766	83.25
451.986	88.25
452.207	99.25
452.428	112.25
452.648	118.25
452.869	132.25
453.089	130.25
453.31	140.25
453.53	95.25
453.751	100.25
453.971	123.25
454.192	125.25
454.412	98.25
454.633	96.25
454.853	96.25
455.073	97.25
455.294	102.25
455.514	104.25
455.734	97.25
455.955	88.25
456.175	101.25
456.395	101.25
456.616	92.25
456.836	95.25
457.056	101.25
457.276	91.25
457.497	100.25
457.717	89.25
457.937	95.25
458.157	108.25
458.377	89.25
458.598	142.25
458.818	196.25
459.038	199.25
459.258	138.25
459.478	97.25
459.698	89.25
459.918	90.25
460.138	92.25
460.358	90.25
460.578	112.25
460.798	86.25
461.018	91.25
461.238	102.25
461.458	87.25
461.678	97.25
461.898	88.25
462.118	106.25
462.338	70.25
462.558	100.25
462.777	89.25
462.997	94.25
463.217	102.25
463.437	93.25
463.657	89.25
463.876	95.25
464.096	107.25
464.316	96.25
464.536	104.25
464.755	92.25
464.975	120.25
465.195	222.25
465.414	232.25
465.634	108.25
465.854	94.25
466.073	87.25
466.293	89.25
466.512	83.25
466.732	87.25
466.951	93.25
467.171	91.25
467.391	102.25
467.61	137.25
467.829	157.25
468.049	281.25
468.268	437.25
468.488	144.25
468.707	105.25
468.927	93.25
469.146	101.25
469.365	94.25
469.585	76.25
469.804	100.25
470.023	104.25
470.243	96.25
470.462	107.25
470.681	133.25
470.901	108.25
471.12	87.25
471.339	97.25
471.558	111.25
471.777	116.25
471.997	203.25
472.216	568.25
472.435	1209.25
472.654	342.25
472.873	131.25
473.092	100.25
473.311	92.25
473.53	83.25
473.749	93.25
473.968	108.25
474.187	124.25
474.406	115.25
474.625	94.25
474.844	104.25
475.063	103.25
475.282	87.25
475.501	94.25
475.72	108.25
475.939	101.25
476.158	95.25
476.377	102.25
476.596	83.25
476.814	102.25
477.033	100.25
477.252	100.25
477.471	89.25
477.69	78.25
477.908	84.25
478.127	101.25
478.346	107.25
478.564	96.25
478.783	117.25
479.002	93.25
479.22	97.25
479.439	114.25
479.658	135.25
479.876	115.25
480.095	114.25
480.313	124.25
480.532	129.25
480.751	188.25
480.969	523.25
481.188	2081.25
481.406	1295.25
481.624	237.25
481.843	116.25
482.061	93.25
482.28	104.25
482.498	96.25
482.717	86.25
482.935	93.25
483.153	95.25
483.372	97.25
483.59	115.25
483.808	102.25
484.027	101.25
484.245	89.25
484.463	95.25
484.681	111.25
484.9	124.25
485.118	103.25
485.336	109.25
485.554	109.25
485.772	92.25
485.99	103.25
486.209	104.25
486.427	111.25
486.645	117.25
486.863	119.25
487.081	121.25
487.299	100.25
487.517	108.25
487.735	102.25
487.953	89.25
488.171	97.25
488.389	112.25
488.607	110.25
488.825	94.25
489.043	85.25
489.261	106.25
489.479	92.25
489.696	96.25
489.914	93.25
490.132	98.25
490.35	103.25
490.568	88.25
490.786	86.25
491.003	90.25
491.221	104.25
491.439	97.25
491.657	108.25
491.874	98.25
492.092	89.25
492.31	99.25
492.527	105.25
492.745	96.25
492.963	98.25
493.18	92.25
493.398	100.25
493.615	83.25
493.833	104.25
494.05	100.25
494.268	100.25
494.485	98.25
494.703	100.25
494.92	88.25
495.138	93.25
495.355	76.25
495.573	101.25
495.79	83.25
496.008	81.25
496.225	93.25
496.442	99.25
496.66	90.25
496.877	95.25
497.094	99.25
497.312	99.25
497.529	83.25
497.746	86.25
497.963	92.25
498.181	96.25
498.398	101.25
498.615	118.25
498.832	101.25
499.049	96.25
499.267	102.25
499.484	94.25
499.701	103.25
499.918	98.25
500.135	93.25
500.352	99.25
500.569	95.25
500.786	96.25
501.003	105.25
501.22	104.25
501.437	89.25
501.654	111.25
501.871	130.25
502.088	83.25
502.305	104.25
502.522	98.25
502.739	96.25
502.956	104.25
503.172	88.25
503.389	91.25
503.606	126.25
503.823	119.25
504.04	104.25
504.256	99.25
504.473	93.25
504.69	87.25
504.907	93.25
505.123	93.25
505.34	86.25
505.557	96.25
505.773	99.25
505.99	103.25
506.207	97.25
506.423	89.25
506.64	92.25
506.856	93.25
507.073	93.25
507.289	98.25
507.506	111.25
507.722	132.25
507.939	129.25
508.155	110.25
508.372	97.25
508.588	91.25
508.805	98.25
509.021	102.25
509.238	104.25
509.454	105.25
509.67	108.25
509.887	108.25
510.103	140.25
510.319	239.25
510.536	860.25
510.752	2909.25
510.968	822.25
511.184	180.25
511.401	119.25
511.617	106.25
511.833	107.25
