Data from Circ_2007_H10_HRD10591_00051.txt Node
Date: Wed Jan 03 10:22:07 EST 2024
User: Yrep
Spectrometer: HR+D1059
Trigger mode: 1
Integration Time (sec): 1.000000E-1
Scans to average: 1
Electric dark correction enabled: true
Nonlinearity correction enabled: false
Boxcar width: 0
XAxis mode: Wavelengths
Number of Pixels in Spectrum: 2048
>>>>>Begin Spectral Data<<<<<
223.165	-12.62
223.4	-12.62
223.635	-12.62
223.869	-17.62
224.104	-21.62
224.338	-11.62
224.573	-16.62
224.808	-12.62
225.042	-2.62
225.277	-4.62
225.511	-16.62
225.746	-1.62
225.98	18.38
226.215	14.38
226.449	10.38
226.683	13.38
226.918	39.38
227.152	22.38
227.387	32.38
227.621	31.38
227.856	23.38
228.09	37.38
228.324	49.38
228.559	38.38
228.793	67.38
229.027	49.38
229.262	60.38
229.496	76.38
229.73	112.38
229.964	96.38
230.199	85.38
230.433	72.38
230.667	66.38
230.901	80.38
231.136	79.38
231.37	74.38
231.604	75.38
231.838	92.38
232.072	74.38
232.306	74.38
232.541	85.38
232.775	77.38
233.009	95.38
233.243	72.38
233.477	72.38
233.711	85.38
233.945	74.38
234.179	75.38
234.413	76.38
234.647	78.38
234.881	82.38
235.115	74.38
235.349	80.38
235.583	83.38
235.817	73.38
236.051	70.38
236.285	73.38
236.519	64.38
236.753	75.38
236.987	78.38
237.221	86.38
237.455	94.38
237.689	84.38
237.922	65.38
238.156	70.38
238.39	86.38
238.624	81.38
238.858	74.38
239.091	83.38
239.325	89.38
239.559	77.38
239.793	106.38
240.027	80.38
240.26	72.38
240.494	79.38
240.728	94.38
240.961	77.38
241.195	88.38
241.429	83.38
241.662	79.38
241.896	66.38
242.13	76.38
242.363	77.38
242.597	79.38
242.83	83.38
243.064	82.38
243.298	71.38
243.531	79.38
243.765	61.38
243.998	72.38
244.232	69.38
244.465	81.38
244.699	65.38
244.932	63.38
245.166	82.38
245.399	86.38
245.633	85.38
245.866	76.38
246.099	84.38
246.333	76.38
246.566	87.38
246.8	95.38
247.033	80.38
247.266	71.38
247.5	60.38
247.733	81.38
247.966	62.38
248.2	95.38
248.433	78.38
248.666	81.38
248.899	76.38
249.133	69.38
249.366	99.38
249.599	98.38
249.832	82.38
250.066	73.38
250.299	86.38
250.532	88.38
250.765	76.38
250.998	77.38
251.231	99.38
251.465	74.38
251.698	68.38
251.931	80.38
252.164	87.38
252.397	75.38
252.63	81.38
252.863	80.38
253.096	97.38
253.329	95.38
253.562	81.38
253.795	84.38
254.028	67.38
254.261	85.38
254.494	91.38
254.727	79.38
254.96	78.38
255.193	88.38
255.426	80.38
255.659	80.38
255.892	82.38
256.124	95.38
256.357	80.38
256.59	87.38
256.823	81.38
257.056	91.38
257.289	85.38
257.521	85.38
257.754	73.38
257.987	80.38
258.22	81.38
258.452	74.38
258.685	96.38
258.918	90.38
259.151	88.38
259.383	85.38
259.616	81.38
259.849	80.38
260.081	75.38
260.314	81.38
260.547	98.38
260.779	74.38
261.012	92.38
261.244	100.38
261.477	88.38
261.71	96.38
261.942	120.38
262.175	131.38
262.407	81.38
262.64	91.38
262.872	80.38
263.105	91.38
263.337	91.38
263.57	83.38
263.802	96.38
264.035	72.38
264.267	80.38
264.499	89.38
264.732	87.38
264.964	92.38
265.197	72.38
265.429	81.38
265.661	85.38
265.894	83.38
266.126	82.38
266.358	85.38
266.591	72.38
266.823	77.38
267.055	77.38
267.287	85.38
267.52	82.38
267.752	67.38
267.984	73.38
268.216	73.38
268.448	107.38
268.681	90.38
268.913	81.38
269.145	80.38
269.377	86.38
269.609	83.38
269.841	89.38
270.073	85.38
270.306	92.38
270.538	76.38
270.77	80.38
271.002	88.38
271.234	91.38
271.466	88.38
271.698	88.38
271.93	92.38
272.162	79.38
272.394	69.38
272.626	92.38
272.858	87.38
273.09	81.38
273.322	84.38
273.553	80.38
273.785	82.38
274.017	97.38
274.249	91.38
274.481	91.38
274.713	73.38
274.945	105.38
275.176	90.38
275.408	100.38
275.64	121.38
275.872	105.38
276.104	99.38
276.335	105.38
276.567	126.38
276.799	141.38
277.031	126.38
277.262	139.38
277.494	121.38
277.726	88.38
277.957	73.38
278.189	81.38
278.421	79.38
278.652	97.38
278.884	95.38
279.115	92.38
279.347	89.38
279.579	95.38
279.81	90.38
280.042	148.38
280.273	171.38
280.505	142.38
280.736	106.38
280.968	95.38
281.199	84.38
281.431	91.38
281.662	92.38
281.894	96.38
282.125	101.38
282.356	125.38
282.588	159.38
282.819	135.38
283.051	109.38
283.282	90.38
283.513	96.38
283.745	79.38
283.976	80.38
284.207	83.38
284.439	90.38
284.67	101.38
284.901	83.38
285.132	97.38
285.364	93.38
285.595	92.38
285.826	87.38
286.057	89.38
286.288	83.38
286.52	89.38
286.751	85.38
286.982	98.38
287.213	94.38
287.444	97.38
287.675	93.38
287.906	80.38
288.138	79.38
288.369	103.38
288.6	97.38
288.831	87.38
289.062	96.38
289.293	78.38
289.524	91.38
289.755	93.38
289.986	96.38
290.217	85.38
290.448	92.38
290.679	93.38
290.91	90.38
291.141	91.38
291.371	82.38
291.602	94.38
291.833	87.38
292.064	70.38
292.295	84.38
292.526	89.38
292.757	95.38
292.987	92.38
293.218	91.38
293.449	78.38
293.68	80.38
293.91	87.38
294.141	94.38
294.372	83.38
294.603	96.38
294.833	100.38
295.064	97.38
295.295	98.38
295.525	85.38
295.756	108.38
295.987	120.38
296.217	153.38
296.448	159.38
296.679	99.38
296.909	97.38
297.14	89.38
297.37	88.38
297.601	81.38
297.831	91.38
298.062	95.38
298.292	96.38
298.523	89.38
298.753	93.38
298.984	102.38
299.214	89.38
299.445	94.38
299.675	75.38
299.905	105.38
300.136	105.38
300.366	85.38
300.597	99.38
300.827	118.38
301.057	105.38
301.288	119.38
301.518	91.38
301.748	79.38
301.979	99.38
302.209	100.38
302.439	95.38
302.669	85.38
302.9	88.38
303.13	95.38
303.36	96.38
303.59	112.38
303.82	125.38
304.051	96.38
304.281	79.38
304.511	91.38
304.741	81.38
304.971	73.38
305.201	88.38
305.431	91.38
305.661	92.38
305.891	99.38
306.121	93.38
306.352	101.38
306.582	109.38
306.812	98.38
307.042	114.38
307.272	128.38
307.502	141.38
307.731	149.38
307.961	112.38
308.191	107.38
308.421	85.38
308.651	95.38
308.881	89.38
309.111	84.38
309.341	101.38
309.571	99.38
309.8	90.38
310.03	100.38
310.26	103.38
310.49	98.38
310.72	104.38
310.949	106.38
311.179	108.38
311.409	104.38
311.639	91.38
311.868	84.38
312.098	102.38
312.328	103.38
312.557	117.38
312.787	127.38
313.017	108.38
313.246	104.38
313.476	83.38
313.706	85.38
313.935	91.38
314.165	108.38
314.394	107.38
314.624	104.38
314.853	100.38
315.083	91.38
315.312	86.38
315.542	100.38
315.771	109.38
316.001	92.38
316.23	87.38
316.46	108.38
316.689	87.38
316.919	81.38
317.148	97.38
317.377	105.38
317.607	108.38
317.836	89.38
318.065	84.38
318.295	80.38
318.524	87.38
318.753	93.38
318.983	87.38
319.212	110.38
319.441	122.38
319.67	122.38
319.9	103.38
320.129	101.38
320.358	104.38
320.587	105.38
320.816	123.38
321.046	121.38
321.275	97.38
321.504	111.38
321.733	96.38
321.962	100.38
322.191	119.38
322.42	108.38
322.649	133.38
322.878	122.38
323.108	120.38
323.337	145.38
323.566	142.38
323.795	169.38
324.024	262.38
324.253	498.38
324.482	1037.38
324.71	2203.38
324.939	2903.38
325.168	1049.38
325.397	300.38
325.626	173.38
325.855	148.38
326.084	152.38
326.313	141.38
326.542	179.38
326.77	263.38
326.999	514.38
327.228	1132.38
327.457	2129.38
327.686	1714.38
327.914	531.38
328.143	412.38
328.372	450.38
328.6	268.38
328.829	163.38
329.058	178.38
329.287	192.38
329.515	157.38
329.744	189.38
329.972	299.38
330.201	592.38
330.43	862.38
330.658	424.38
330.887	255.38
331.115	186.38
331.344	108.38
331.572	123.38
331.801	120.38
332.03	128.38
332.258	103.38
332.486	107.38
332.715	107.38
332.943	101.38
333.172	108.38
333.4	128.38
333.629	142.38
333.857	181.38
334.085	286.38
334.314	538.38
334.542	1017.38
334.771	1059.38
334.999	308.38
335.227	152.38
335.455	131.38
335.684	99.38
335.912	94.38
336.14	102.38
336.369	109.38
336.597	111.38
336.825	111.38
337.053	105.38
337.281	95.38
337.51	105.38
337.738	85.38
337.966	89.38
338.194	111.38
338.422	107.38
338.65	92.38
338.878	103.38
339.106	84.38
339.334	92.38
339.562	101.38
339.79	98.38
340.018	80.38
340.246	94.38
340.474	94.38
340.702	99.38
340.93	110.38
341.158	105.38
341.386	99.38
341.614	103.38
341.842	94.38
342.07	112.38
342.298	89.38
342.526	97.38
342.754	91.38
342.981	83.38
343.209	88.38
343.437	100.38
343.665	82.38
343.893	99.38
344.12	97.38
344.348	91.38
344.576	94.38
344.804	107.38
345.031	107.38
345.259	104.38
345.487	96.38
345.714	101.38
345.942	100.38
346.17	111.38
346.397	89.38
346.625	100.38
346.853	85.38
347.08	104.38
347.308	102.38
347.535	96.38
347.763	103.38
347.99	97.38
348.218	86.38
348.445	121.38
348.673	109.38
348.9	103.38
349.128	97.38
349.355	88.38
349.583	95.38
349.81	85.38
350.037	89.38
350.265	91.38
350.492	87.38
350.72	107.38
350.947	105.38
351.174	111.38
351.402	105.38
351.629	108.38
351.856	92.38
352.083	114.38
352.311	108.38
352.538	122.38
352.765	132.38
352.992	145.38
353.22	130.38
353.447	109.38
353.674	98.38
353.901	94.38
354.128	93.38
354.355	84.38
354.583	80.38
354.81	104.38
355.037	93.38
355.264	88.38
355.491	100.38
355.718	80.38
355.945	102.38
356.172	100.38
356.399	105.38
356.626	97.38
356.853	90.38
357.08	78.38
357.307	87.38
357.534	104.38
357.761	115.38
357.988	100.38
358.215	96.38
358.441	84.38
358.668	92.38
358.895	92.38
359.122	93.38
359.349	77.38
359.576	92.38
359.802	94.38
360.029	154.38
360.256	131.38
360.483	122.38
360.709	97.38
360.936	96.38
361.163	94.38
361.39	116.38
361.616	113.38
361.843	93.38
362.07	107.38
362.296	105.38
362.523	90.38
362.749	88.38
362.976	98.38
363.203	103.38
363.429	112.38
363.656	99.38
363.882	83.38
364.109	107.38
364.335	85.38
364.562	92.38
364.788	85.38
365.015	109.38
365.241	114.38
365.468	114.38
365.694	110.38
365.92	108.38
366.147	97.38
366.373	95.38
366.599	96.38
366.826	103.38
367.052	102.38
367.278	97.38
367.505	82.38
367.731	87.38
367.957	97.38
368.184	97.38
368.41	121.38
368.636	125.38
368.862	133.38
369.089	98.38
369.315	107.38
369.541	99.38
369.767	117.38
369.993	98.38
370.219	99.38
370.445	91.38
370.672	101.38
370.898	88.38
371.124	88.38
371.35	97.38
371.576	87.38
371.802	88.38
372.028	94.38
372.254	104.38
372.48	87.38
372.706	89.38
372.932	80.38
373.158	89.38
373.384	91.38
373.61	98.38
373.835	96.38
374.061	93.38
374.287	108.38
374.513	86.38
374.739	93.38
374.965	85.38
375.191	106.38
375.416	84.38
375.642	83.38
375.868	92.38
376.094	82.38
376.319	104.38
376.545	106.38
376.771	94.38
376.997	90.38
377.222	84.38
377.448	94.38
377.674	98.38
377.899	91.38
378.125	110.38
378.35	85.38
378.576	90.38
378.802	64.38
379.027	85.38
379.253	85.38
379.478	94.38
379.704	95.38
379.929	106.38
380.155	90.38
380.38	89.38
380.606	98.38
380.831	87.38
381.057	107.38
381.282	91.38
381.507	107.38
381.733	100.38
381.958	83.38
382.184	97.38
382.409	99.38
382.634	89.38
382.86	100.38
383.085	97.38
383.31	93.38
383.535	106.38
383.761	99.38
383.986	89.38
384.211	95.38
384.436	99.38
384.662	101.38
384.887	84.38
385.112	105.38
385.337	97.38
385.562	119.38
385.787	105.38
386.013	121.38
386.238	120.38
386.463	103.38
386.688	106.38
386.913	104.38
387.138	112.38
387.363	100.38
387.588	117.38
387.813	97.38
388.038	91.38
388.263	116.38
388.488	93.38
388.713	90.38
388.938	111.38
389.163	88.38
389.387	89.38
389.612	95.38
389.837	95.38
390.062	87.38
390.287	102.38
390.512	88.38
390.736	74.38
390.961	96.38
391.186	78.38
391.411	106.38
391.636	99.38
391.86	87.38
392.085	91.38
392.31	86.38
392.534	91.38
392.759	71.38
392.984	79.38
393.208	98.38
393.433	98.38
393.658	98.38
393.882	84.38
394.107	80.38
394.331	94.38
394.556	86.38
394.78	80.38
395.005	81.38
395.229	76.38
395.454	84.38
395.678	83.38
395.903	96.38
396.127	96.38
396.352	94.38
396.576	95.38
396.801	67.38
397.025	85.38
397.249	79.38
397.474	90.38
397.698	94.38
397.922	94.38
398.147	76.38
398.371	82.38
398.595	87.38
398.82	90.38
399.044	83.38
399.268	90.38
399.492	82.38
399.717	88.38
399.941	83.38
400.165	89.38
400.389	89.38
400.613	84.38
400.837	77.38
401.062	80.38
401.286	79.38
401.51	97.38
401.734	80.38
401.958	115.38
402.182	144.38
402.406	212.38
402.63	161.38
402.854	110.38
403.078	97.38
403.302	88.38
403.526	99.38
403.75	90.38
403.974	84.38
404.198	93.38
404.422	101.38
404.645	93.38
404.869	101.38
405.093	102.38
405.317	136.38
405.541	128.38
405.765	132.38
405.988	140.38
406.212	212.38
406.436	297.38
406.66	204.38
406.883	119.38
407.107	122.38
407.331	104.38
407.555	103.38
407.778	97.38
408.002	84.38
408.226	95.38
408.449	90.38
408.673	90.38
408.896	100.38
409.12	80.38
409.344	90.38
409.567	95.38
409.791	92.38
410.014	84.38
410.238	87.38
410.461	97.38
410.685	98.38
410.908	106.38
411.132	89.38
411.355	97.38
411.578	86.38
411.802	97.38
412.025	97.38
412.249	108.38
412.472	124.38
412.695	132.38
412.919	112.38
413.142	95.38
413.365	80.38
413.589	88.38
413.812	101.38
414.035	96.38
414.258	91.38
414.482	83.38
414.705	85.38
414.928	96.38
415.151	83.38
415.374	95.38
415.597	86.38
415.821	88.38
416.044	89.38
416.267	105.38
416.49	94.38
416.713	85.38
416.936	97.38
417.159	97.38
417.382	92.38
417.605	104.38
417.828	98.38
418.051	81.38
418.274	83.38
418.497	96.38
418.72	78.38
418.943	99.38
419.166	87.38
419.389	89.38
419.611	85.38
419.834	87.38
420.057	90.38
420.28	91.38
420.503	82.38
420.726	87.38
420.948	87.38
421.171	107.38
421.394	88.38
421.617	95.38
421.839	94.38
422.062	90.38
422.285	83.38
422.507	109.38
422.73	110.38
422.953	99.38
423.175	107.38
423.398	78.38
423.621	85.38
423.843	88.38
424.066	87.38
424.288	85.38
424.511	98.38
424.733	112.38
424.956	109.38
425.178	104.38
425.401	103.38
425.623	112.38
425.846	92.38
426.068	105.38
426.291	105.38
426.513	108.38
426.735	82.38
426.958	102.38
427.18	124.38
427.402	159.38
427.625	241.38
427.847	215.38
428.069	195.38
428.292	85.38
428.514	93.38
428.736	90.38
428.958	101.38
429.181	91.38
429.403	85.38
429.625	93.38
429.847	88.38
430.069	93.38
430.292	99.38
430.514	92.38
430.736	81.38
430.958	73.38
431.18	89.38
431.402	90.38
431.624	90.38
431.846	98.38
432.068	101.38
432.29	67.38
432.512	82.38
432.734	80.38
432.956	97.38
433.178	85.38
433.4	101.38
433.622	94.38
433.844	82.38
434.066	86.38
434.287	93.38
434.509	90.38
434.731	98.38
434.953	93.38
435.175	98.38
435.397	83.38
435.618	96.38
435.84	92.38
436.062	148.38
436.284	131.38
436.505	109.38
436.727	107.38
436.949	95.38
437.17	88.38
437.392	77.38
437.614	90.38
437.835	107.38
438.057	151.38
438.278	123.38
438.5	114.38
438.721	139.38
438.943	109.38
439.165	87.38
439.386	89.38
439.608	86.38
439.829	116.38
440.05	154.38
440.272	187.38
440.493	111.38
440.715	82.38
440.936	88.38
441.158	90.38
441.379	99.38
441.6	114.38
441.822	104.38
442.043	98.38
442.264	117.38
442.486	111.38
442.707	100.38
442.928	122.38
443.149	167.38
443.371	175.38
443.592	129.38
443.813	138.38
444.034	122.38
444.255	107.38
444.476	83.38
444.698	76.38
444.919	81.38
445.14	135.38
445.361	143.38
445.582	134.38
445.803	175.38
446.024	178.38
446.245	153.38
446.466	116.38
446.687	98.38
446.908	92.38
447.129	90.38
447.35	94.38
447.571	90.38
447.792	92.38
448.013	100.38
448.234	115.38
448.455	114.38
448.675	115.38
448.896	146.38
449.117	108.38
449.338	128.38
449.559	134.38
449.779	151.38
450	92.38
450.221	97.38
450.442	104.38
450.662	94.38
450.883	124.38
451.104	130.38
451.324	106.38
451.545	83.38
451.766	73.38
451.986	72.38
452.207	95.38
452.428	95.38
452.648	95.38
452.869	126.38
453.089	135.38
453.31	142.38
453.53	103.38
453.751	93.38
453.971	104.38
454.192	137.38
454.412	96.38
454.633	82.38
454.853	88.38
455.073	84.38
455.294	95.38
455.514	95.38
455.734	85.38
455.955	91.38
456.175	91.38
456.395	85.38
456.616	91.38
456.836	74.38
457.056	91.38
457.276	88.38
457.497	75.38
457.717	99.38
457.937	83.38
458.157	89.38
458.377	105.38
458.598	111.38
458.818	206.38
459.038	216.38
459.258	144.38
459.478	100.38
459.698	90.38
459.918	79.38
460.138	86.38
460.358	84.38
460.578	92.38
460.798	96.38
461.018	90.38
461.238	81.38
461.458	89.38
461.678	99.38
461.898	87.38
462.118	81.38
462.338	96.38
462.558	88.38
462.777	84.38
462.997	83.38
463.217	94.38
463.437	67.38
463.657	97.38
463.876	96.38
464.096	97.38
464.316	104.38
464.536	96.38
464.755	98.38
464.975	120.38
465.195	228.38
465.414	222.38
465.634	122.38
465.854	92.38
466.073	89.38
466.293	93.38
466.512	100.38
466.732	71.38
466.951	77.38
467.171	88.38
467.391	103.38
467.61	135.38
467.829	178.38
468.049	322.38
468.268	469.38
468.488	168.38
468.707	96.38
468.927	78.38
469.146	95.38
469.365	99.38
469.585	98.38
469.804	94.38
470.023	119.38
470.243	108.38
470.462	127.38
470.681	125.38
470.901	96.38
471.12	91.38
471.339	85.38
471.558	111.38
471.777	107.38
471.997	197.38
472.216	591.38
472.435	1413.38
472.654	365.38
472.873	131.38
473.092	91.38
473.311	89.38
473.53	98.38
473.749	83.38
473.968	97.38
474.187	115.38
474.406	109.38
474.625	90.38
474.844	84.38
475.063	74.38
475.282	79.38
475.501	87.38
475.72	94.38
475.939	77.38
476.158	84.38
476.377	80.38
476.596	88.38
476.814	97.38
477.033	92.38
477.252	85.38
477.471	99.38
477.69	98.38
477.908	83.38
478.127	82.38
478.346	77.38
478.564	97.38
478.783	108.38
479.002	94.38
479.22	101.38
479.439	123.38
479.658	138.38
479.876	131.38
480.095	106.38
480.313	110.38
480.532	135.38
480.751	177.38
480.969	571.38
481.188	2293.38
481.406	1492.38
481.624	266.38
481.843	119.38
482.061	107.38
482.28	87.38
482.498	96.38
482.717	103.38
482.935	101.38
483.153	91.38
483.372	99.38
483.59	92.38
483.808	82.38
484.027	90.38
484.245	114.38
484.463	101.38
484.681	98.38
484.9	84.38
485.118	106.38
485.336	91.38
485.554	97.38
485.772	101.38
485.99	105.38
486.209	101.38
486.427	95.38
486.645	127.38
486.863	129.38
487.081	112.38
487.299	103.38
487.517	111.38
487.735	103.38
487.953	93.38
488.171	98.38
488.389	98.38
488.607	106.38
488.825	97.38
489.043	74.38
489.261	98.38
489.479	84.38
489.696	96.38
489.914	100.38
490.132	104.38
490.35	84.38
490.568	96.38
490.786	82.38
491.003	83.38
491.221	91.38
491.439	91.38
491.657	84.38
491.874	90.38
492.092	88.38
492.31	94.38
492.527	90.38
492.745	92.38
492.963	99.38
493.18	90.38
493.398	93.38
493.615	83.38
493.833	90.38
494.05	95.38
494.268	87.38
494.485	83.38
494.703	104.38
494.92	97.38
495.138	84.38
495.355	86.38
495.573	100.38
495.79	90.38
496.008	103.38
496.225	86.38
496.442	82.38
496.66	87.38
496.877	103.38
497.094	93.38
497.312	80.38
497.529	91.38
497.746	92.38
497.963	95.38
498.181	87.38
498.398	92.38
498.615	95.38
498.832	99.38
499.049	85.38
499.267	77.38
499.484	93.38
499.701	79.38
499.918	95.38
500.135	93.38
500.352	86.38
500.569	93.38
500.786	96.38
501.003	91.38
501.22	94.38
501.437	99.38
501.654	102.38
501.871	127.38
502.088	95.38
502.305	91.38
502.522	90.38
502.739	100.38
502.956	80.38
503.172	86.38
503.389	100.38
503.606	113.38
503.823	99.38
504.04	89.38
504.256	88.38
504.473	92.38
504.69	83.38
504.907	84.38
505.123	88.38
505.34	78.38
505.557	81.38
505.773	100.38
505.99	88.38
506.207	84.38
506.423	92.38
506.64	89.38
506.856	89.38
507.073	85.38
507.289	91.38
507.506	98.38
507.722	144.38
507.939	135.38
508.155	99.38
508.372	94.38
508.588	98.38
508.805	98.38
509.021	94.38
509.238	97.38
509.454	107.38
509.67	106.38
509.887	113.38
510.103	134.38
510.319	234.38
510.536	927.38
510.752	3232.38
510.968	885.38
511.184	195.38
511.401	133.38
511.617	112.38
511.833	103.38
512.049	82.38
512.265	91.38
512.481	93.38
512.698	85.38
512.914	97.38
513.13	97.38
513.346	97.38
513.562	99.38
513.778	100.38
