Data from Circ_2007_H10_HRD10591_00071.txt Node
Date: Wed Jan 03 10:22:11 EST 2024
User: Yrep
Spectrometer: HR+D1059
Trigger mode: 1
Integration Time (sec): 1.000000E-1
Scans to average: 1
Electric dark correction enabled: true
Nonlinearity correction enabled: false
Boxcar width: 0
XAxis mode: Wavelengths
Number of Pixels in Spectrum: 2048
>>>>>Begin Spectral Data<<<<<
223.165	-24.19
223.4	-24.19
223.635	-24.19
223.869	-27.19
224.104	-13.19
224.338	-24.19
224.573	-15.19
224.808	-3.19
225.042	-0.19
225.277	-17.19
225.511	13.81
225.746	15.81
225.98	11.81
226.215	14.81
226.449	19.81
226.683	9.81
226.918	23.81
227.152	14.81
227.387	24.81
227.621	38.81
227.856	60.81
228.09	55.81
228.324	55.81
228.559	56.81
228.793	50.81
229.027	66.81
229.262	76.81
229.496	83.81
229.73	99.81
229.964	92.81
230.199	89.81
230.433	92.81
230.667	73.81
230.901	88.81
231.136	84.81
231.37	88.81
231.604	68.81
231.838	81.81
232.072	75.81
232.306	99.81
232.541	74.81
232.775	80.81
233.009	89.81
233.243	82.81
233.477	69.81
233.711	67.81
233.945	64.81
234.179	77.81
234.413	86.81
234.647	81.81
234.881	72.81
235.115	77.81
235.349	82.81
235.583	87.81
235.817	75.81
236.051	81.81
236.285	87.81
236.519	88.81
236.753	62.81
236.987	80.81
237.221	96.81
237.455	96.81
237.689	79.81
237.922	70.81
238.156	72.81
238.39	75.81
238.624	74.81
238.858	73.81
239.091	90.81
239.325	92.81
239.559	98.81
239.793	79.81
240.027	84.81
240.26	89.81
240.494	96.81
240.728	81.81
240.961	80.81
241.195	86.81
241.429	69.81
241.662	75.81
241.896	83.81
242.13	81.81
242.363	71.81
242.597	84.81
242.83	86.81
243.064	68.81
243.298	76.81
243.531	86.81
243.765	82.81
243.998	89.81
244.232	72.81
244.465	72.81
244.699	99.81
244.932	95.81
245.166	78.81
245.399	83.81
245.633	82.81
245.866	85.81
246.099	95.81
246.333	96.81
246.566	84.81
246.8	83.81
247.033	73.81
247.266	87.81
247.5	82.81
247.733	81.81
247.966	88.81
248.2	83.81
248.433	95.81
248.666	86.81
248.899	87.81
249.133	77.81
249.366	100.81
249.599	103.81
249.832	87.81
250.066	75.81
250.299	90.81
250.532	79.81
250.765	73.81
250.998	70.81
251.231	85.81
251.465	70.81
251.698	97.81
251.931	80.81
252.164	92.81
252.397	87.81
252.63	72.81
252.863	81.81
253.096	80.81
253.329	87.81
253.562	72.81
253.795	97.81
254.028	94.81
254.261	91.81
254.494	83.81
254.727	80.81
254.96	97.81
255.193	86.81
255.426	77.81
255.659	84.81
255.892	101.81
256.124	86.81
256.357	88.81
256.59	81.81
256.823	102.81
257.056	98.81
257.289	87.81
257.521	95.81
257.754	87.81
257.987	102.81
258.22	95.81
258.452	101.81
258.685	95.81
258.918	91.81
259.151	97.81
259.383	73.81
259.616	87.81
259.849	89.81
260.081	90.81
260.314	73.81
260.547	98.81
260.779	94.81
261.012	95.81
261.244	95.81
261.477	114.81
261.71	112.81
261.942	134.81
262.175	153.81
262.407	102.81
262.64	95.81
262.872	83.81
263.105	67.81
263.337	90.81
263.57	90.81
263.802	84.81
264.035	87.81
264.267	98.81
264.499	72.81
264.732	84.81
264.964	82.81
265.197	92.81
265.429	93.81
265.661	84.81
265.894	76.81
266.126	89.81
266.358	85.81
266.591	84.81
266.823	93.81
267.055	77.81
267.287	95.81
267.52	83.81
267.752	80.81
267.984	78.81
268.216	105.81
268.448	81.81
268.681	89.81
268.913	83.81
269.145	92.81
269.377	77.81
269.609	97.81
269.841	75.81
270.073	88.81
270.306	80.81
270.538	80.81
270.77	83.81
271.002	83.81
271.234	94.81
271.466	93.81
271.698	98.81
271.93	88.81
272.162	97.81
272.394	100.81
272.626	106.81
272.858	81.81
273.09	91.81
273.322	89.81
273.553	98.81
273.785	91.81
274.017	78.81
274.249	98.81
274.481	93.81
274.713	89.81
274.945	91.81
275.176	92.81
275.408	89.81
275.64	104.81
275.872	101.81
276.104	112.81
276.335	109.81
276.567	119.81
276.799	154.81
277.031	160.81
277.262	166.81
277.494	146.81
277.726	103.81
277.957	103.81
278.189	80.81
278.421	93.81
278.652	92.81
278.884	93.81
279.115	87.81
279.347	86.81
279.579	109.81
279.81	116.81
280.042	158.81
280.273	180.81
280.505	163.81
280.736	100.81
280.968	90.81
281.199	88.81
281.431	100.81
281.662	87.81
281.894	106.81
282.125	105.81
282.356	151.81
282.588	171.81
282.819	115.81
283.051	93.81
283.282	103.81
283.513	81.81
283.745	91.81
283.976	100.81
284.207	93.81
284.439	85.81
284.67	110.81
284.901	79.81
285.132	90.81
285.364	87.81
285.595	93.81
285.826	110.81
286.057	94.81
286.288	95.81
286.52	91.81
286.751	90.81
286.982	81.81
287.213	85.81
287.444	100.81
287.675	102.81
287.906	101.81
288.138	98.81
288.369	105.81
288.6	94.81
288.831	91.81
289.062	100.81
289.293	97.81
289.524	112.81
289.755	99.81
289.986	91.81
290.217	88.81
290.448	84.81
290.679	92.81
290.91	88.81
291.141	94.81
291.371	81.81
291.602	78.81
291.833	100.81
292.064	93.81
292.295	105.81
292.526	97.81
292.757	90.81
292.987	91.81
293.218	80.81
293.449	89.81
293.68	96.81
293.91	95.81
294.141	101.81
294.372	88.81
294.603	96.81
294.833	89.81
295.064	89.81
295.295	85.81
295.525	108.81
295.756	99.81
295.987	142.81
296.217	183.81
296.448	163.81
296.679	102.81
296.909	109.81
297.14	91.81
297.37	100.81
297.601	98.81
297.831	81.81
298.062	91.81
298.292	101.81
298.523	96.81
298.753	103.81
298.984	89.81
299.214	87.81
299.445	92.81
299.675	108.81
299.905	104.81
300.136	100.81
300.366	99.81
300.597	94.81
300.827	110.81
301.057	103.81
301.288	116.81
301.518	116.81
301.748	112.81
301.979	105.81
302.209	101.81
302.439	108.81
302.669	97.81
302.9	90.81
303.13	106.81
303.36	98.81
303.59	116.81
303.82	141.81
304.051	88.81
304.281	90.81
304.511	99.81
304.741	96.81
304.971	105.81
305.201	97.81
305.431	96.81
305.661	93.81
305.891	86.81
306.121	106.81
306.352	130.81
306.582	125.81
306.812	99.81
307.042	112.81
307.272	129.81
307.502	158.81
307.731	150.81
307.961	106.81
308.191	116.81
308.421	81.81
308.651	88.81
308.881	100.81
309.111	116.81
309.341	107.81
309.571	107.81
309.8	108.81
310.03	93.81
310.26	97.81
310.49	110.81
310.72	126.81
310.949	131.81
311.179	115.81
311.409	101.81
311.639	115.81
311.868	115.81
312.098	105.81
312.328	105.81
312.557	102.81
312.787	132.81
313.017	143.81
313.246	96.81
313.476	108.81
313.706	102.81
313.935	105.81
314.165	107.81
314.394	122.81
314.624	101.81
314.853	104.81
315.083	101.81
315.312	105.81
315.542	103.81
315.771	108.81
316.001	109.81
316.23	103.81
316.46	102.81
316.689	103.81
316.919	106.81
317.148	108.81
317.377	98.81
317.607	112.81
317.836	109.81
318.065	101.81
318.295	109.81
318.524	95.81
318.753	89.81
318.983	97.81
319.212	101.81
319.441	122.81
319.67	121.81
319.9	100.81
320.129	88.81
320.358	99.81
320.587	106.81
320.816	106.81
321.046	109.81
321.275	119.81
321.504	97.81
321.733	95.81
321.962	112.81
322.191	104.81
322.42	139.81
322.649	133.81
322.878	132.81
323.108	136.81
323.337	149.81
323.566	161.81
323.795	186.81
324.024	257.81
324.253	509.81
324.482	1075.81
324.71	2223.81
324.939	3023.81
325.168	1091.81
325.397	319.81
325.626	182.81
325.855	161.81
326.084	163.81
326.313	163.81
326.542	197.81
326.77	283.81
326.999	558.81
327.228	1215.81
327.457	2153.81
327.686	1752.81
327.914	535.81
328.143	424.81
328.372	521.81
328.6	324.81
328.829	175.81
329.058	189.81
329.287	209.81
329.515	168.81
329.744	208.81
329.972	352.81
330.201	681.81
330.43	1058.81
330.658	491.81
330.887	257.81
331.115	191.81
331.344	124.81
331.572	141.81
331.801	120.81
332.03	132.81
332.258	115.81
332.486	99.81
332.715	117.81
332.943	118.81
333.172	136.81
333.4	122.81
333.629	145.81
333.857	201.81
334.085	323.81
334.314	617.81
334.542	1232.81
334.771	1252.81
334.999	347.81
335.227	147.81
335.455	114.81
335.684	123.81
335.912	100.81
336.14	112.81
336.369	103.81
336.597	125.81
336.825	119.81
337.053	99.81
337.281	94.81
337.51	100.81
337.738	106.81
337.966	95.81
338.194	98.81
338.422	105.81
338.65	107.81
338.878	111.81
339.106	105.81
339.334	101.81
339.562	108.81
339.79	95.81
340.018	103.81
340.246	97.81
340.474	109.81
340.702	77.81
340.93	101.81
341.158	102.81
341.386	101.81
341.614	113.81
341.842	111.81
342.07	112.81
342.298	118.81
342.526	104.81
342.754	89.81
342.981	96.81
343.209	100.81
343.437	106.81
343.665	97.81
343.893	93.81
344.12	87.81
344.348	95.81
344.576	92.81
344.804	102.81
345.031	85.81
345.259	99.81
345.487	84.81
345.714	119.81
345.942	104.81
346.17	100.81
346.397	111.81
346.625	94.81
346.853	102.81
347.08	85.81
347.308	103.81
347.535	96.81
347.763	108.81
347.99	107.81
348.218	108.81
348.445	123.81
348.673	110.81
348.9	100.81
349.128	112.81
349.355	100.81
349.583	94.81
349.81	103.81
350.037	106.81
350.265	102.81
350.492	105.81
350.72	97.81
350.947	107.81
351.174	117.81
351.402	140.81
351.629	100.81
351.856	111.81
352.083	111.81
352.311	105.81
352.538	119.81
352.765	118.81
352.992	103.81
353.22	115.81
353.447	114.81
353.674	98.81
353.901	93.81
354.128	108.81
354.355	100.81
354.583	113.81
354.81	106.81
355.037	98.81
355.264	104.81
355.491	88.81
355.718	97.81
355.945	91.81
356.172	101.81
356.399	92.81
356.626	95.81
356.853	89.81
357.08	91.81
357.307	96.81
357.534	102.81
357.761	89.81
357.988	79.81
358.215	91.81
358.441	102.81
358.668	96.81
358.895	89.81
359.122	97.81
359.349	94.81
359.576	104.81
359.802	106.81
360.029	162.81
360.256	127.81
360.483	105.81
360.709	108.81
360.936	105.81
361.163	115.81
361.39	107.81
361.616	96.81
361.843	97.81
362.07	114.81
362.296	120.81
362.523	105.81
362.749	89.81
362.976	109.81
363.203	91.81
363.429	100.81
363.656	98.81
363.882	92.81
364.109	96.81
364.335	88.81
364.562	118.81
364.788	104.81
365.015	113.81
365.241	103.81
365.468	130.81
365.694	117.81
365.92	108.81
366.147	102.81
366.373	85.81
366.599	99.81
366.826	88.81
367.052	98.81
367.278	99.81
367.505	96.81
367.731	102.81
367.957	94.81
368.184	115.81
368.41	121.81
368.636	119.81
368.862	148.81
369.089	129.81
369.315	126.81
369.541	98.81
369.767	94.81
369.993	88.81
370.219	102.81
370.445	82.81
370.672	90.81
370.898	88.81
371.124	88.81
371.35	95.81
371.576	108.81
371.802	97.81
372.028	94.81
372.254	83.81
372.48	102.81
372.706	72.81
372.932	104.81
373.158	87.81
373.384	99.81
373.61	103.81
373.835	88.81
374.061	85.81
374.287	100.81
374.513	91.81
374.739	93.81
374.965	93.81
375.191	97.81
375.416	97.81
375.642	110.81
375.868	95.81
376.094	88.81
376.319	101.81
376.545	90.81
376.771	89.81
376.997	91.81
377.222	95.81
377.448	87.81
377.674	95.81
377.899	99.81
378.125	94.81
378.35	90.81
378.576	83.81
378.802	94.81
379.027	79.81
379.253	93.81
379.478	94.81
379.704	100.81
379.929	105.81
380.155	99.81
380.38	100.81
380.606	99.81
380.831	92.81
381.057	89.81
381.282	90.81
381.507	102.81
381.733	90.81
381.958	91.81
382.184	100.81
382.409	95.81
382.634	121.81
382.86	107.81
383.085	107.81
383.31	115.81
383.535	119.81
383.761	99.81
383.986	101.81
384.211	92.81
384.436	96.81
384.662	117.81
384.887	104.81
385.112	104.81
385.337	98.81
385.562	93.81
385.787	114.81
386.013	129.81
386.238	113.81
386.463	107.81
386.688	112.81
386.913	113.81
387.138	96.81
387.363	89.81
387.588	101.81
387.813	102.81
388.038	107.81
388.263	104.81
388.488	107.81
388.713	107.81
388.938	96.81
389.163	101.81
389.387	97.81
389.612	92.81
389.837	98.81
390.062	89.81
390.287	85.81
390.512	102.81
390.736	99.81
390.961	89.81
391.186	86.81
391.411	92.81
391.636	86.81
391.86	86.81
392.085	86.81
392.31	97.81
392.534	87.81
392.759	96.81
392.984	99.81
393.208	79.81
393.433	86.81
393.658	80.81
393.882	74.81
394.107	89.81
394.331	87.81
394.556	94.81
394.78	96.81
395.005	93.81
395.229	102.81
395.454	101.81
395.678	98.81
395.903	96.81
396.127	92.81
396.352	89.81
396.576	99.81
396.801	104.81
397.025	93.81
397.249	94.81
397.474	90.81
397.698	98.81
397.922	95.81
398.147	102.81
398.371	85.81
398.595	86.81
398.82	79.81
399.044	86.81
399.268	83.81
399.492	85.81
399.717	112.81
399.941	96.81
400.165	107.81
400.389	107.81
400.613	98.81
400.837	93.81
401.062	92.81
401.286	92.81
401.51	105.81
401.734	101.81
401.958	111.81
402.182	149.81
402.406	213.81
402.63	160.81
402.854	110.81
403.078	89.81
403.302	91.81
403.526	95.81
403.75	87.81
403.974	97.81
404.198	104.81
404.422	99.81
404.645	98.81
404.869	93.81
405.093	125.81
405.317	133.81
405.541	124.81
405.765	118.81
405.988	139.81
406.212	225.81
406.436	353.81
406.66	219.81
406.883	116.81
407.107	95.81
407.331	106.81
407.555	120.81
407.778	112.81
408.002	105.81
408.226	89.81
408.449	98.81
408.673	105.81
408.896	101.81
409.12	104.81
409.344	95.81
409.567	97.81
409.791	101.81
410.014	89.81
410.238	87.81
410.461	86.81
410.685	98.81
410.908	97.81
411.132	108.81
411.355	102.81
411.578	99.81
411.802	87.81
412.025	98.81
412.249	109.81
412.472	93.81
412.695	124.81
412.919	117.81
413.142	107.81
413.365	106.81
413.589	92.81
413.812	97.81
414.035	79.81
414.258	101.81
414.482	107.81
414.705	90.81
414.928	88.81
415.151	89.81
415.374	80.81
415.597	81.81
415.821	97.81
416.044	93.81
416.267	92.81
416.49	89.81
416.713	66.81
416.936	95.81
417.159	100.81
417.382	108.81
417.605	107.81
417.828	119.81
418.051	107.81
418.274	101.81
418.497	84.81
418.72	91.81
418.943	87.81
419.166	87.81
419.389	85.81
419.611	95.81
419.834	81.81
420.057	101.81
420.28	83.81
420.503	95.81
420.726	94.81
420.948	100.81
421.171	101.81
421.394	99.81
421.617	94.81
421.839	95.81
422.062	92.81
422.285	94.81
422.507	103.81
422.73	114.81
422.953	105.81
423.175	88.81
423.398	108.81
423.621	98.81
423.843	91.81
424.066	94.81
424.288	93.81
424.511	86.81
424.733	110.81
424.956	120.81
425.178	110.81
425.401	110.81
425.623	109.81
425.846	97.81
426.068	101.81
426.291	109.81
426.513	105.81
426.735	80.81
426.958	121.81
427.18	117.81
427.402	166.81
427.625	255.81
427.847	232.81
428.069	201.81
428.292	119.81
428.514	100.81
428.736	92.81
428.958	79.81
429.181	86.81
429.403	89.81
429.625	98.81
429.847	99.81
430.069	113.81
430.292	117.81
430.514	88.81
430.736	85.81
430.958	80.81
431.18	81.81
431.402	83.81
431.624	83.81
431.846	82.81
432.068	83.81
432.29	88.81
432.512	89.81
432.734	83.81
432.956	92.81
433.178	109.81
433.4	113.81
433.622	111.81
433.844	104.81
434.066	105.81
434.287	98.81
434.509	90.81
434.731	104.81
434.953	96.81
435.175	97.81
435.397	103.81
435.618	107.81
435.84	104.81
436.062	140.81
436.284	121.81
436.505	101.81
436.727	111.81
436.949	92.81
437.17	91.81
437.392	89.81
437.614	110.81
437.835	126.81
438.057	154.81
438.278	123.81
438.5	116.81
438.721	133.81
438.943	111.81
439.165	96.81
439.386	103.81
439.608	100.81
439.829	110.81
440.05	149.81
440.272	181.81
440.493	113.81
440.715	88.81
440.936	90.81
441.158	91.81
441.379	86.81
441.6	109.81
441.822	103.81
442.043	111.81
442.264	119.81
442.486	107.81
442.707	112.81
442.928	125.81
443.149	186.81
443.371	166.81
443.592	147.81
443.813	129.81
444.034	124.81
444.255	90.81
444.476	96.81
444.698	95.81
444.919	88.81
445.14	146.81
445.361	145.81
445.582	131.81
445.803	191.81
446.024	171.81
446.245	172.81
446.466	121.81
446.687	105.81
446.908	103.81
447.129	102.81
447.35	94.81
447.571	102.81
447.792	106.81
448.013	102.81
448.234	131.81
448.455	115.81
448.675	132.81
448.896	126.81
449.117	103.81
449.338	110.81
449.559	162.81
449.779	148.81
450	98.81
450.221	95.81
450.442	98.81
450.662	104.81
450.883	134.81
451.104	144.81
451.324	109.81
451.545	98.81
451.766	103.81
451.986	97.81
452.207	107.81
452.428	109.81
452.648	103.81
452.869	115.81
453.089	138.81
453.31	141.81
453.53	110.81
453.751	98.81
453.971	105.81
454.192	141.81
454.412	102.81
454.633	93.81
454.853	77.81
455.073	86.81
455.294	100.81
455.514	89.81
455.734	94.81
455.955	84.81
456.175	87.81
456.395	83.81
456.616	86.81
456.836	80.81
457.056	99.81
457.276	91.81
457.497	94.81
457.717	97.81
457.937	96.81
458.157	92.81
458.377	103.81
458.598	134.81
458.818	197.81
459.038	249.81
459.258	151.81
459.478	104.81
459.698	95.81
459.918	104.81
460.138	83.81
460.358	94.81
460.578	99.81
460.798	108.81
461.018	103.81
461.238	88.81
461.458	81.81
461.678	93.81
461.898	104.81
462.118	89.81
462.338	98.81
462.558	96.81
462.777	85.81
462.997	89.81
463.217	96.81
463.437	94.81
463.657	88.81
463.876	99.81
464.096	112.81
464.316	96.81
464.536	95.81
464.755	110.81
464.975	114.81
465.195	244.81
465.414	252.81
465.634	124.81
465.854	98.81
466.073	98.81
466.293	104.81
466.512	101.81
466.732	110.81
466.951	107.81
467.171	112.81
467.391	107.81
467.61	130.81
467.829	163.81
468.049	386.81
468.268	617.81
468.488	186.81
468.707	94.81
468.927	99.81
469.146	97.81
469.365	90.81
469.585	98.81
469.804	105.81
470.023	102.81
470.243	90.81
470.462	121.81
470.681	142.81
470.901	99.81
471.12	92.81
471.339	99.81
471.558	116.81
471.777	126.81
471.997	222.81
472.216	738.81
472.435	1748.81
472.654	447.81
472.873	151.81
473.092	108.81
473.311	93.81
473.53	83.81
473.749	82.81
473.968	109.81
474.187	125.81
474.406	100.81
474.625	108.81
474.844	91.81
475.063	90.81
475.282	107.81
475.501	92.81
475.72	100.81
475.939	97.81
476.158	90.81
476.377	78.81
476.596	104.81
476.814	95.81
477.033	108.81
477.252	93.81
477.471	92.81
477.69	107.81
477.908	88.81
478.127	99.81
478.346	87.81
478.564	89.81
478.783	104.81
479.002	109.81
479.22	125.81
479.439	131.81
479.658	145.81
479.876	134.81
480.095	102.81
480.313	135.81
480.532	142.81
480.751	233.81
480.969	685.81
481.188	2859.81
481.406	1845.81
481.624	300.81
481.843	118.81
482.061	105.81
482.28	103.81
482.498	103.81
482.717	109.81
482.935	102.81
483.153	106.81
483.372	97.81
483.59	104.81
483.808	93.81
484.027	92.81
484.245	86.81
484.463	92.81
484.681	102.81
484.9	88.81
485.118	94.81
485.336	89.81
485.554	100.81
485.772	108.81
485.99	112.81
486.209	94.81
486.427	115.81
486.645	128.81
486.863	135.81
487.081	108.81
487.299	111.81
487.517	95.81
487.735	85.81
487.953	101.81
488.171	108.81
488.389	90.81
488.607	103.81
488.825	107.81
489.043	89.81
489.261	102.81
489.479	88.81
489.696	78.81
489.914	92.81
490.132	97.81
490.35	94.81
490.568	98.81
490.786	106.81
491.003	94.81
491.221	90.81
491.439	105.81
491.657	95.81
491.874	92.81
492.092	88.81
492.31	97.81
492.527	106.81
492.745	93.81
492.963	91.81
493.18	94.81
493.398	93.81
493.615	107.81
493.833	91.81
494.05	95.81
494.268	85.81
494.485	98.81
494.703	86.81
494.92	88.81
495.138	84.81
495.355	106.81
495.573	109.81
495.79	89.81
496.008	96.81
496.225	98.81
496.442	101.81
496.66	93.81
496.877	87.81
497.094	94.81
497.312	96.81
497.529	89.81
497.746	95.81
497.963	102.81
498.181	90.81
498.398	103.81
498.615	125.81
498.832	109.81
499.049	84.81
499.267	89.81
499.484	88.81
499.701	95.81
499.918	96.81
500.135	102.81
500.352	84.81
500.569	85.81
500.786	96.81
501.003	93.81
501.22	93.81
501.437	90.81
501.654	107.81
501.871	123.81
502.088	101.81
502.305	114.81
502.522	93.81
502.739	96.81
502.956	81.81
503.172	104.81
503.389	101.81
503.606	133.81
503.823	108.81
504.04	102.81
504.256	118.81
504.473	83.81
504.69	98.81
504.907	103.81
505.123	86.81
505.34	95.81
505.557	85.81
505.773	86.81
505.99	86.81
506.207	95.81
506.423	88.81
506.64	106.81
506.856	93.81
507.073	85.81
507.289	100.81
507.506	103.81
507.722	144.81
507.939	147.81
508.155	101.81
508.372	104.81
508.588	106.81
508.805	93.81
509.021	99.81
509.238	123.81
509.454	114.81
509.67	101.81
509.887	112.81
510.103	140.81
510.319	251.81
510.536	940.81
510.752	3532.81
510.968	934.81
511.184	195.81
511.401	143.81
