Data from Circ_2007_H10_HRD10591_00030.txt Node
Date: Wed Jan 03 10:22:03 EST 2024
User: Yrep
Spectrometer: HR+D1059
Trigger mode: 1
Integration Time (sec): 1.000000E-1
Scans to average: 1
Electric dark correction enabled: true
Nonlinearity correction enabled: false
Boxcar width: 0
XAxis mode: Wavelengths
Number of Pixels in Spectrum: 2048
>>>>>Begin Spectral Data<<<<<
223.165	-18.38
223.4	-18.38
223.635	-18.38
223.869	-8.38
224.104	-8.38
224.338	-13.38
224.573	-32.38
224.808	-9.38
225.042	-6.38
225.277	9.62
225.511	12.62
225.746	2.62
225.98	2.62
226.215	-0.38
226.449	5.62
226.683	7.62
226.918	22.62
227.152	33.62
227.387	31.62
227.621	42.62
227.856	56.62
228.09	23.62
228.324	40.62
228.559	55.62
228.793	52.62
229.027	63.62
229.262	57.62
229.496	76.62
229.73	93.62
229.964	81.62
230.199	85.62
230.433	59.62
230.667	80.62
230.901	87.62
231.136	80.62
231.37	74.62
231.604	85.62
231.838	83.62
232.072	87.62
232.306	90.62
232.541	92.62
232.775	79.62
233.009	78.62
233.243	89.62
233.477	100.62
233.711	88.62
233.945	83.62
234.179	90.62
234.413	84.62
234.647	72.62
234.881	80.62
235.115	66.62
235.349	65.62
235.583	75.62
235.817	85.62
236.051	77.62
236.285	71.62
236.519	68.62
236.753	67.62
236.987	84.62
237.221	91.62
237.455	88.62
237.689	80.62
237.922	66.62
238.156	79.62
238.39	70.62
238.624	96.62
238.858	72.62
239.091	71.62
239.325	86.62
239.559	85.62
239.793	93.62
240.027	84.62
240.26	82.62
240.494	79.62
240.728	86.62
240.961	84.62
241.195	74.62
241.429	75.62
241.662	80.62
241.896	77.62
242.13	66.62
242.363	77.62
242.597	80.62
242.83	84.62
243.064	79.62
243.298	76.62
243.531	79.62
243.765	79.62
243.998	83.62
244.232	83.62
244.465	81.62
244.699	83.62
244.932	67.62
245.166	83.62
245.399	95.62
245.633	83.62
245.866	69.62
246.099	85.62
246.333	93.62
246.566	83.62
246.8	89.62
247.033	86.62
247.266	74.62
247.5	83.62
247.733	75.62
247.966	80.62
248.2	84.62
248.433	73.62
248.666	75.62
248.899	63.62
249.133	81.62
249.366	102.62
249.599	89.62
249.832	82.62
250.066	74.62
250.299	72.62
250.532	81.62
250.765	91.62
250.998	81.62
251.231	70.62
251.465	76.62
251.698	107.62
251.931	92.62
252.164	90.62
252.397	62.62
252.63	77.62
252.863	83.62
253.096	71.62
253.329	90.62
253.562	74.62
253.795	85.62
254.028	79.62
254.261	84.62
254.494	73.62
254.727	84.62
254.96	82.62
255.193	75.62
255.426	76.62
255.659	71.62
255.892	78.62
256.124	82.62
256.357	93.62
256.59	101.62
256.823	83.62
257.056	88.62
257.289	77.62
257.521	80.62
257.754	76.62
257.987	83.62
258.22	96.62
258.452	76.62
258.685	88.62
258.918	84.62
259.151	77.62
259.383	84.62
259.616	68.62
259.849	76.62
260.081	89.62
260.314	85.62
260.547	80.62
260.779	93.62
261.012	92.62
261.244	91.62
261.477	101.62
261.71	96.62
261.942	126.62
262.175	131.62
262.407	85.62
262.64	87.62
262.872	85.62
263.105	91.62
263.337	73.62
263.57	65.62
263.802	95.62
264.035	82.62
264.267	70.62
264.499	83.62
264.732	86.62
264.964	81.62
265.197	71.62
265.429	86.62
265.661	78.62
265.894	80.62
266.126	84.62
266.358	73.62
266.591	82.62
266.823	71.62
267.055	88.62
267.287	98.62
267.52	100.62
267.752	101.62
267.984	84.62
268.216	71.62
268.448	106.62
268.681	85.62
268.913	86.62
269.145	88.62
269.377	88.62
269.609	87.62
269.841	64.62
270.073	98.62
270.306	80.62
270.538	79.62
270.77	87.62
271.002	87.62
271.234	60.62
271.466	80.62
271.698	81.62
271.93	88.62
272.162	84.62
272.394	94.62
272.626	94.62
272.858	83.62
273.09	86.62
273.322	76.62
273.553	83.62
273.785	75.62
274.017	79.62
274.249	90.62
274.481	84.62
274.713	81.62
274.945	99.62
275.176	99.62
275.408	94.62
275.64	96.62
275.872	101.62
276.104	95.62
276.335	82.62
276.567	100.62
276.799	125.62
277.031	118.62
277.262	127.62
277.494	106.62
277.726	91.62
277.957	88.62
278.189	79.62
278.421	82.62
278.652	96.62
278.884	97.62
279.115	95.62
279.347	82.62
279.579	95.62
279.81	95.62
280.042	126.62
280.273	149.62
280.505	115.62
280.736	100.62
280.968	81.62
281.199	85.62
281.431	76.62
281.662	85.62
281.894	81.62
282.125	110.62
282.356	128.62
282.588	163.62
282.819	110.62
283.051	84.62
283.282	77.62
283.513	89.62
283.745	76.62
283.976	81.62
284.207	95.62
284.439	91.62
284.67	89.62
284.901	91.62
285.132	77.62
285.364	81.62
285.595	89.62
285.826	84.62
286.057	88.62
286.288	85.62
286.52	85.62
286.751	91.62
286.982	84.62
287.213	88.62
287.444	89.62
287.675	83.62
287.906	85.62
288.138	84.62
288.369	90.62
288.6	98.62
288.831	86.62
289.062	90.62
289.293	89.62
289.524	90.62
289.755	84.62
289.986	88.62
290.217	96.62
290.448	69.62
290.679	90.62
290.91	73.62
291.141	90.62
291.371	97.62
291.602	83.62
291.833	91.62
292.064	77.62
292.295	95.62
292.526	105.62
292.757	83.62
292.987	85.62
293.218	82.62
293.449	92.62
293.68	80.62
293.91	74.62
294.141	84.62
294.372	80.62
294.603	83.62
294.833	88.62
295.064	73.62
295.295	95.62
295.525	93.62
295.756	109.62
295.987	106.62
296.217	164.62
296.448	134.62
296.679	88.62
296.909	76.62
297.14	75.62
297.37	84.62
297.601	91.62
297.831	100.62
298.062	89.62
298.292	89.62
298.523	88.62
298.753	98.62
298.984	87.62
299.214	88.62
299.445	94.62
299.675	85.62
299.905	106.62
300.136	79.62
300.366	89.62
300.597	92.62
300.827	95.62
301.057	104.62
301.288	97.62
301.518	112.62
301.748	83.62
301.979	89.62
302.209	77.62
302.439	96.62
302.669	85.62
302.9	93.62
303.13	93.62
303.36	99.62
303.59	116.62
303.82	118.62
304.051	94.62
304.281	94.62
304.511	99.62
304.741	77.62
304.971	88.62
305.201	80.62
305.431	101.62
305.661	88.62
305.891	80.62
306.121	92.62
306.352	101.62
306.582	108.62
306.812	96.62
307.042	100.62
307.272	125.62
307.502	128.62
307.731	108.62
307.961	94.62
308.191	89.62
308.421	87.62
308.651	90.62
308.881	101.62
309.111	114.62
309.341	100.62
309.571	97.62
309.8	106.62
310.03	99.62
310.26	100.62
310.49	87.62
310.72	103.62
310.949	106.62
311.179	103.62
311.409	92.62
311.639	88.62
311.868	111.62
312.098	90.62
312.328	100.62
312.557	112.62
312.787	123.62
313.017	103.62
313.246	91.62
313.476	101.62
313.706	89.62
313.935	106.62
314.165	108.62
314.394	111.62
314.624	90.62
314.853	104.62
315.083	99.62
315.312	87.62
315.542	90.62
315.771	99.62
316.001	85.62
316.23	88.62
316.46	79.62
316.689	106.62
316.919	87.62
317.148	93.62
317.377	94.62
317.607	97.62
317.836	88.62
318.065	105.62
318.295	81.62
318.524	91.62
318.753	92.62
318.983	95.62
319.212	95.62
319.441	124.62
319.67	103.62
319.9	81.62
320.129	80.62
320.358	105.62
320.587	86.62
320.816	88.62
321.046	93.62
321.275	106.62
321.504	93.62
321.733	104.62
321.962	94.62
322.191	114.62
322.42	115.62
322.649	113.62
322.878	124.62
323.108	122.62
323.337	133.62
323.566	153.62
323.795	153.62
324.024	248.62
324.253	473.62
324.482	991.62
324.71	2068.62
324.939	2779.62
325.168	987.62
325.397	294.62
325.626	163.62
325.855	128.62
326.084	132.62
326.313	154.62
326.542	143.62
326.77	276.62
326.999	542.62
327.228	1124.62
327.457	2090.62
327.686	1699.62
327.914	486.62
328.143	331.62
328.372	348.62
328.6	229.62
328.829	143.62
329.058	164.62
329.287	161.62
329.515	144.62
329.744	152.62
329.972	251.62
330.201	426.62
330.43	648.62
330.658	352.62
330.887	218.62
331.115	162.62
331.344	115.62
331.572	115.62
331.801	116.62
332.03	116.62
332.258	103.62
332.486	96.62
332.715	97.62
332.943	97.62
333.172	112.62
333.4	113.62
333.629	120.62
333.857	159.62
334.085	230.62
334.314	411.62
334.542	793.62
334.771	777.62
334.999	244.62
335.227	126.62
335.455	111.62
335.684	87.62
335.912	81.62
336.14	102.62
336.369	100.62
336.597	109.62
336.825	97.62
337.053	101.62
337.281	99.62
337.51	86.62
337.738	94.62
337.966	100.62
338.194	108.62
338.422	97.62
338.65	100.62
338.878	98.62
339.106	92.62
339.334	88.62
339.562	100.62
339.79	89.62
340.018	91.62
340.246	86.62
340.474	108.62
340.702	104.62
340.93	85.62
341.158	85.62
341.386	100.62
341.614	81.62
341.842	94.62
342.07	92.62
342.298	85.62
342.526	95.62
342.754	86.62
342.981	90.62
343.209	89.62
343.437	100.62
343.665	95.62
343.893	98.62
344.12	82.62
344.348	97.62
344.576	99.62
344.804	83.62
345.031	102.62
345.259	94.62
345.487	96.62
345.714	105.62
345.942	105.62
346.17	92.62
346.397	84.62
346.625	86.62
346.853	100.62
347.08	85.62
347.308	94.62
347.535	96.62
347.763	91.62
347.99	92.62
348.218	114.62
348.445	107.62
348.673	100.62
348.9	97.62
349.128	112.62
349.355	87.62
349.583	100.62
349.81	102.62
350.037	107.62
350.265	101.62
350.492	100.62
350.72	99.62
350.947	104.62
351.174	136.62
351.402	123.62
351.629	108.62
351.856	89.62
352.083	108.62
352.311	113.62
352.538	105.62
352.765	114.62
352.992	118.62
353.22	104.62
353.447	117.62
353.674	99.62
353.901	84.62
354.128	83.62
354.355	87.62
354.583	80.62
354.81	94.62
355.037	94.62
355.264	84.62
355.491	92.62
355.718	93.62
355.945	87.62
356.172	99.62
356.399	103.62
356.626	88.62
356.853	91.62
357.08	105.62
357.307	83.62
357.534	89.62
357.761	85.62
357.988	85.62
358.215	94.62
358.441	83.62
358.668	89.62
358.895	95.62
359.122	96.62
359.349	91.62
359.576	105.62
359.802	91.62
360.029	131.62
360.256	136.62
360.483	114.62
360.709	88.62
360.936	104.62
361.163	91.62
361.39	79.62
361.616	88.62
361.843	96.62
362.07	92.62
362.296	88.62
362.523	97.62
362.749	85.62
362.976	97.62
363.203	104.62
363.429	80.62
363.656	73.62
363.882	74.62
364.109	86.62
364.335	100.62
364.562	112.62
364.788	100.62
365.015	119.62
365.241	99.62
365.468	105.62
365.694	100.62
365.92	96.62
366.147	81.62
366.373	84.62
366.599	82.62
366.826	95.62
367.052	108.62
367.278	100.62
367.505	91.62
367.731	94.62
367.957	85.62
368.184	93.62
368.41	115.62
368.636	107.62
368.862	134.62
369.089	115.62
369.315	103.62
369.541	101.62
369.767	101.62
369.993	93.62
370.219	87.62
370.445	102.62
370.672	92.62
370.898	75.62
371.124	92.62
371.35	82.62
371.576	95.62
371.802	90.62
372.028	77.62
372.254	99.62
372.48	93.62
372.706	81.62
372.932	77.62
373.158	74.62
373.384	86.62
373.61	93.62
373.835	95.62
374.061	93.62
374.287	80.62
374.513	94.62
374.739	77.62
374.965	93.62
375.191	91.62
375.416	90.62
375.642	101.62
375.868	83.62
376.094	93.62
376.319	89.62
376.545	88.62
376.771	92.62
376.997	85.62
377.222	86.62
377.448	91.62
377.674	84.62
377.899	95.62
378.125	88.62
378.35	107.62
378.576	90.62
378.802	82.62
379.027	92.62
379.253	92.62
379.478	85.62
379.704	82.62
379.929	99.62
380.155	89.62
380.38	99.62
380.606	92.62
380.831	102.62
381.057	96.62
381.282	89.62
381.507	101.62
381.733	100.62
381.958	100.62
382.184	109.62
382.409	123.62
382.634	100.62
382.86	101.62
383.085	101.62
383.31	93.62
383.535	77.62
383.761	89.62
383.986	101.62
384.211	96.62
384.436	107.62
384.662	98.62
384.887	98.62
385.112	100.62
385.337	103.62
385.562	103.62
385.787	107.62
386.013	102.62
386.238	122.62
386.463	113.62
386.688	118.62
386.913	114.62
387.138	113.62
387.363	86.62
387.588	97.62
387.813	106.62
388.038	113.62
388.263	115.62
388.488	105.62
388.713	85.62
388.938	89.62
389.163	90.62
389.387	106.62
389.612	90.62
389.837	85.62
390.062	87.62
390.287	79.62
390.512	85.62
390.736	94.62
390.961	80.62
391.186	93.62
391.411	85.62
391.636	75.62
391.86	67.62
392.085	74.62
392.31	92.62
392.534	83.62
392.759	91.62
392.984	85.62
393.208	85.62
393.433	102.62
393.658	101.62
393.882	88.62
394.107	89.62
394.331	81.62
394.556	88.62
394.78	68.62
395.005	85.62
395.229	94.62
395.454	90.62
395.678	84.62
395.903	95.62
396.127	94.62
396.352	85.62
396.576	74.62
396.801	88.62
397.025	77.62
397.249	80.62
397.474	71.62
397.698	82.62
397.922	87.62
398.147	90.62
398.371	84.62
398.595	90.62
398.82	95.62
399.044	74.62
399.268	90.62
399.492	89.62
399.717	91.62
399.941	85.62
400.165	99.62
400.389	85.62
400.613	89.62
400.837	104.62
401.062	100.62
401.286	106.62
401.51	96.62
401.734	89.62
401.958	108.62
402.182	128.62
402.406	172.62
402.63	131.62
402.854	98.62
403.078	87.62
403.302	85.62
403.526	103.62
403.75	87.62
403.974	77.62
404.198	90.62
404.422	99.62
404.645	101.62
404.869	94.62
405.093	114.62
405.317	129.62
405.541	118.62
405.765	104.62
405.988	105.62
406.212	184.62
406.436	277.62
406.66	182.62
406.883	109.62
407.107	99.62
407.331	106.62
407.555	105.62
407.778	107.62
408.002	103.62
408.226	81.62
408.449	90.62
408.673	88.62
408.896	102.62
409.12	97.62
409.344	92.62
409.567	88.62
409.791	79.62
410.014	93.62
410.238	93.62
410.461	71.62
410.685	95.62
410.908	85.62
411.132	88.62
411.355	88.62
411.578	77.62
411.802	87.62
412.025	86.62
412.249	99.62
412.472	119.62
412.695	129.62
412.919	108.62
413.142	101.62
413.365	100.62
413.589	109.62
413.812	79.62
414.035	77.62
414.258	88.62
414.482	92.62
414.705	75.62
414.928	93.62
415.151	89.62
415.374	88.62
415.597	88.62
415.821	93.62
416.044	107.62
416.267	89.62
416.49	96.62
416.713	85.62
416.936	85.62
417.159	82.62
417.382	95.62
417.605	97.62
417.828	108.62
418.051	85.62
418.274	75.62
418.497	99.62
418.72	95.62
418.943	81.62
419.166	100.62
419.389	91.62
419.611	93.62
419.834	94.62
420.057	86.62
420.28	81.62
420.503	73.62
420.726	93.62
420.948	90.62
421.171	104.62
421.394	92.62
421.617	88.62
421.839	78.62
422.062	99.62
422.285	93.62
422.507	113.62
422.73	104.62
422.953	81.62
423.175	94.62
423.398	77.62
423.621	101.62
423.843	93.62
424.066	92.62
424.288	83.62
424.511	79.62
424.733	117.62
424.956	121.62
425.178	114.62
425.401	129.62
425.623	103.62
425.846	89.62
426.068	104.62
426.291	98.62
426.513	96.62
426.735	91.62
426.958	90.62
427.18	115.62
427.402	161.62
427.625	233.62
427.847	201.62
428.069	178.62
428.292	98.62
428.514	87.62
428.736	90.62
428.958	78.62
429.181	84.62
429.403	90.62
429.625	89.62
429.847	98.62
430.069	105.62
430.292	91.62
430.514	97.62
430.736	102.62
430.958	85.62
431.18	89.62
431.402	81.62
431.624	88.62
431.846	89.62
432.068	93.62
432.29	92.62
432.512	89.62
432.734	87.62
432.956	96.62
433.178	91.62
433.4	96.62
433.622	81.62
433.844	80.62
434.066	77.62
434.287	94.62
434.509	75.62
434.731	81.62
434.953	74.62
435.175	96.62
435.397	74.62
435.618	77.62
435.84	109.62
436.062	143.62
436.284	121.62
436.505	114.62
436.727	97.62
436.949	86.62
437.17	75.62
437.392	86.62
437.614	96.62
437.835	107.62
438.057	133.62
438.278	130.62
438.5	124.62
438.721	142.62
438.943	92.62
439.165	93.62
439.386	94.62
439.608	84.62
439.829	96.62
440.05	139.62
440.272	168.62
440.493	98.62
440.715	89.62
440.936	73.62
441.158	95.62
441.379	71.62
441.6	88.62
441.822	97.62
442.043	99.62
442.264	96.62
442.486	110.62
442.707	105.62
442.928	116.62
443.149	146.62
443.371	153.62
443.592	119.62
443.813	112.62
444.034	107.62
444.255	111.62
444.476	107.62
444.698	96.62
444.919	91.62
445.14	135.62
445.361	120.62
445.582	131.62
445.803	171.62
446.024	168.62
446.245	163.62
446.466	143.62
446.687	96.62
446.908	80.62
447.129	93.62
447.35	89.62
447.571	96.62
447.792	104.62
448.013	107.62
448.234	122.62
448.455	107.62
448.675	117.62
448.896	136.62
449.117	104.62
449.338	105.62
449.559	158.62
449.779	148.62
450	90.62
450.221	73.62
450.442	99.62
450.662	107.62
450.883	120.62
451.104	123.62
451.324	112.62
451.545	89.62
451.766	80.62
451.986	93.62
452.207	93.62
452.428	96.62
452.648	107.62
452.869	115.62
453.089	124.62
453.31	138.62
453.53	105.62
453.751	108.62
453.971	122.62
454.192	142.62
454.412	81.62
454.633	92.62
454.853	96.62
455.073	93.62
455.294	87.62
455.514	89.62
455.734	90.62
455.955	82.62
456.175	78.62
456.395	102.62
456.616	81.62
456.836	76.62
457.056	86.62
457.276	85.62
457.497	81.62
457.717	86.62
457.937	78.62
458.157	84.62
458.377	92.62
458.598	121.62
458.818	193.62
459.038	209.62
459.258	141.62
459.478	95.62
459.698	82.62
459.918	80.62
460.138	93.62
460.358	77.62
460.578	100.62
460.798	92.62
461.018	90.62
461.238	78.62
461.458	82.62
461.678	88.62
461.898	74.62
462.118	90.62
462.338	87.62
462.558	82.62
462.777	87.62
462.997	79.62
463.217	88.62
463.437	96.62
463.657	89.62
463.876	83.62
464.096	83.62
464.316	101.62
464.536	98.62
464.755	104.62
464.975	119.62
465.195	189.62
465.414	221.62
465.634	108.62
465.854	99.62
466.073	79.62
466.293	92.62
466.512	78.62
466.732	96.62
466.951	96.62
467.171	94.62
467.391	103.62
467.61	119.62
467.829	125.62
468.049	272.62
468.268	367.62
468.488	139.62
468.707	87.62
468.927	85.62
469.146	93.62
469.365	84.62
469.585	77.62
469.804	85.62
470.023	104.62
470.243	105.62
470.462	99.62
470.681	123.62
470.901	103.62
471.12	87.62
471.339	81.62
471.558	91.62
471.777	91.62
471.997	170.62
472.216	465.62
472.435	1035.62
472.654	294.62
472.873	119.62
473.092	98.62
473.311	84.62
473.53	95.62
473.749	103.62
473.968	101.62
474.187	115.62
474.406	112.62
474.625	93.62
474.844	92.62
475.063	87.62
475.282	93.62
475.501	96.62
475.72	87.62
475.939	77.62
476.158	91.62
476.377	89.62
476.596	93.62
476.814	99.62
477.033	97.62
477.252	80.62
477.471	96.62
477.69	88.62
477.908	80.62
478.127	87.62
478.346	86.62
478.564	106.62
478.783	108.62
479.002	92.62
479.22	84.62
479.439	119.62
479.658	106.62
479.876	107.62
480.095	115.62
480.313	109.62
480.532	117.62
480.751	172.62
480.969	449.62
481.188	1704.62
481.406	1132.62
481.624	209.62
481.843	108.62
482.061	99.62
482.28	106.62
482.498	86.62
482.717	74.62
482.935	89.62
483.153	89.62
483.372	97.62
483.59	80.62
483.808	91.62
484.027	86.62
484.245	91.62
484.463	89.62
484.681	94.62
484.9	76.62
485.118	80.62
485.336	77.62
485.554	104.62
485.772	101.62
485.99	102.62
486.209	107.62
486.427	92.62
486.645	111.62
486.863	120.62
487.081	105.62
487.299	90.62
487.517	99.62
487.735	93.62
487.953	92.62
488.171	88.62
488.389	109.62
488.607	90.62
488.825	98.62
489.043	91.62
489.261	87.62
489.479	83.62
489.696	74.62
489.914	85.62
490.132	88.62
490.35	87.62
490.568	90.62
490.786	99.62
491.003	95.62
491.221	93.62
491.439	97.62
491.657	103.62
491.874	81.62
492.092	88.62
492.31	82.62
492.527	89.62
492.745	91.62
492.963	90.62
493.18	87.62
493.398	93.62
493.615	98.62
493.833	88.62
494.05	98.62
494.268	86.62
494.485	88.62
494.703	89.62
494.92	87.62
495.138	89.62
495.355	94.62
495.573	92.62
495.79	89.62
496.008	84.62
496.225	90.62
496.442	81.62
496.66	100.62
496.877	93.62
497.094	91.62
497.312	95.62
497.529	94.62
497.746	73.62
497.963	81.62
498.181	91.62
498.398	99.62
498.615	112.62
498.832	111.62
499.049	85.62
499.267	79.62
499.484	93.62
499.701	67.62
499.918	91.62
500.135	80.62
500.352	88.62
500.569	82.62
500.786	116.62
501.003	91.62
501.22	99.62
501.437	96.62
501.654	94.62
501.871	112.62
502.088	101.62
502.305	82.62
502.522	86.62
502.739	90.62
502.956	98.62
503.172	96.62
503.389	94.62
503.606	120.62
503.823	91.62
504.04	100.62
504.256	91.62
504.473	83.62
504.69	106.62
504.907	88.62
505.123	95.62
505.34	80.62
505.557	97.62
505.773	94.62
505.99	85.62
506.207	93.62
506.423	80.62
506.64	84.62
506.856	89.62
507.073	89.62
507.289	101.62
507.506	80.62
507.722	124.62
507.939	125.62
508.155	102.62
508.372	87.62
508.588	93.62
508.805	80.62
509.021	82.62
509.238	83.62
509.454	107.62
509.67	94.62
509.887	99.62
510.103	137.62
510.319	233.62
510.536	850.62
510.752	2891.62
510.968	790.62
511.184	177.62
511.401	124.62
511.617	122.62
511.833	101.62
512.049	92.62
512.265	95.62
512.481	98.62
512.698	92.62
512.914	89.62
513.13	85.62
513.346	87.62
513.562	90.62
513.778	105.62
513.994	91.62
514.21	117.62
514.426	131.62
