Data from Circ_2007_H10_HRD10591_00096.txt Node
Date: Wed Jan 03 10:22:16 EST 2024
User: Yrep
Spectrometer: HR+D1059
Trigger mode: 1
Integration Time (sec): 1.000000E-1
Scans to average: 1
Electric dark correction enabled: true
Nonlinearity correction enabled: false
Boxcar width: 0
XAxis mode: Wavelengths
Number of Pixels in Spectrum: 2048
>>>>>Begin Spectral Data<<<<<
223.165	-9
223.4	-9
223.635	-9
223.869	-29
224.104	-22
224.338	-36
224.573	-4
224.808	-21
225.042	-4
225.277	-7
225.511	12
225.746	-3
225.98	16
226.215	15
226.449	24
226.683	27
226.918	12
227.152	29
227.387	31
227.621	28
227.856	43
228.09	43
228.324	55
228.559	67
228.793	59
229.027	67
229.262	60
229.496	85
229.73	105
229.964	99
230.199	83
230.433	80
230.667	79
230.901	75
231.136	86
231.37	78
231.604	77
231.838	63
232.072	71
232.306	72
232.541	86
232.775	79
233.009	80
233.243	76
233.477	90
233.711	78
233.945	99
234.179	73
234.413	74
234.647	89
234.881	91
235.115	92
235.349	80
235.583	90
235.817	90
236.051	80
236.285	73
236.519	83
236.753	80
236.987	81
237.221	84
237.455	88
237.689	76
237.922	88
238.156	88
238.39	81
238.624	83
238.858	72
239.091	84
239.325	84
239.559	77
239.793	85
240.027	80
240.26	80
240.494	73
240.728	80
240.961	88
241.195	82
241.429	75
241.662	91
241.896	71
242.13	76
242.363	71
242.597	79
242.83	83
243.064	79
243.298	75
243.531	69
243.765	81
243.998	75
244.232	83
244.465	79
244.699	88
244.932	87
245.166	67
245.399	77
245.633	87
245.866	67
246.099	73
246.333	82
246.566	76
246.8	73
247.033	75
247.266	79
247.5	77
247.733	58
247.966	85
248.2	75
248.433	88
248.666	75
248.899	93
249.133	95
249.366	110
249.599	109
249.832	97
250.066	76
250.299	94
250.532	84
250.765	82
250.998	82
251.231	88
251.465	88
251.698	90
251.931	82
252.164	90
252.397	85
252.63	73
252.863	77
253.096	81
253.329	68
253.562	69
253.795	81
254.028	87
254.261	97
254.494	89
254.727	88
254.96	77
255.193	83
255.426	85
255.659	89
255.892	95
256.124	92
256.357	74
256.59	90
256.823	89
257.056	90
257.289	87
257.521	85
257.754	88
257.987	81
258.22	98
258.452	82
258.685	90
258.918	80
259.151	80
259.383	70
259.616	97
259.849	80
260.081	83
260.314	80
260.547	91
260.779	104
261.012	110
261.244	105
261.477	92
261.71	109
261.942	130
262.175	143
262.407	107
262.64	77
262.872	99
263.105	82
263.337	85
263.57	89
263.802	85
264.035	88
264.267	86
264.499	80
264.732	79
264.964	74
265.197	81
265.429	95
265.661	88
265.894	88
266.126	85
266.358	94
266.591	97
266.823	81
267.055	80
267.287	79
267.52	84
267.752	81
267.984	97
268.216	91
268.448	79
268.681	104
268.913	97
269.145	84
269.377	91
269.609	85
269.841	99
270.073	72
270.306	81
270.538	84
270.77	94
271.002	83
271.234	94
271.466	104
271.698	100
271.93	93
272.162	101
272.394	95
272.626	83
272.858	75
273.09	100
273.322	88
273.553	85
273.785	90
274.017	78
274.249	88
274.481	102
274.713	103
274.945	96
275.176	94
275.408	100
275.64	92
275.872	113
276.104	96
276.335	101
276.567	124
276.799	164
277.031	170
277.262	192
277.494	156
277.726	91
277.957	83
278.189	99
278.421	85
278.652	88
278.884	83
279.115	87
279.347	98
279.579	97
279.81	143
280.042	180
280.273	248
280.505	170
280.736	99
280.968	89
281.199	91
281.431	96
281.662	92
281.894	103
282.125	103
282.356	152
282.588	187
282.819	137
283.051	87
283.282	96
283.513	78
283.745	94
283.976	83
284.207	87
284.439	80
284.67	86
284.901	93
285.132	75
285.364	82
285.595	96
285.826	85
286.057	81
286.288	100
286.52	91
286.751	99
286.982	86
287.213	91
287.444	97
287.675	79
287.906	90
288.138	99
288.369	98
288.6	95
288.831	88
289.062	72
289.293	91
289.524	84
289.755	92
289.986	106
290.217	91
290.448	81
290.679	92
290.91	84
291.141	88
291.371	106
291.602	93
291.833	93
292.064	86
292.295	102
292.526	100
292.757	85
292.987	92
293.218	96
293.449	95
293.68	99
293.91	84
294.141	97
294.372	92
294.603	81
294.833	81
295.064	100
295.295	91
295.525	94
295.756	120
295.987	124
296.217	165
296.448	154
296.679	97
296.909	88
297.14	92
297.37	91
297.601	91
297.831	81
298.062	108
298.292	92
298.523	105
298.753	90
298.984	95
299.214	91
299.445	95
299.675	100
299.905	105
300.136	96
300.366	84
300.597	103
300.827	93
301.057	107
301.288	113
301.518	111
301.748	100
301.979	113
302.209	111
302.439	79
302.669	104
302.9	112
303.13	85
303.36	118
303.59	139
303.82	144
304.051	117
304.281	90
304.511	102
304.741	88
304.971	81
305.201	94
305.431	93
305.661	91
305.891	96
306.121	104
306.352	119
306.582	114
306.812	102
307.042	126
307.272	159
307.502	177
307.731	165
307.961	120
308.191	91
308.421	106
308.651	91
308.881	116
309.111	91
309.341	95
309.571	96
309.8	110
310.03	104
310.26	128
310.49	95
310.72	111
310.949	139
311.179	117
311.409	99
311.639	100
311.868	90
312.098	104
312.328	120
312.557	115
312.787	143
313.017	120
313.246	111
313.476	95
313.706	109
313.935	97
314.165	109
314.394	124
314.624	126
314.853	98
315.083	96
315.312	96
315.542	99
315.771	85
316.001	94
316.23	100
316.46	93
316.689	95
316.919	93
317.148	119
317.377	89
317.607	83
317.836	110
318.065	81
318.295	96
318.524	81
318.753	96
318.983	119
319.212	106
319.441	114
319.67	126
319.9	104
320.129	99
320.358	82
320.587	106
320.816	104
321.046	107
321.275	113
321.504	105
321.733	125
321.962	106
322.191	109
322.42	111
322.649	123
322.878	113
323.108	137
323.337	157
323.566	172
323.795	205
324.024	242
324.253	491
324.482	1057
324.71	2085
324.939	2757
325.168	1055
325.397	306
325.626	172
325.855	153
326.084	145
326.313	152
326.542	178
326.77	257
326.999	543
327.228	1028
327.457	1894
327.686	1605
327.914	577
328.143	547
328.372	635
328.6	396
328.829	196
329.058	217
329.287	225
329.515	180
329.744	259
329.972	448
330.201	927
330.43	1396
330.658	663
330.887	321
331.115	205
331.344	144
331.572	119
331.801	132
332.03	144
332.258	123
332.486	111
332.715	124
332.943	115
333.172	126
333.4	130
333.629	153
333.857	232
334.085	427
334.314	880
334.542	1727
334.771	1593
334.999	445
335.227	173
335.455	136
335.684	117
335.912	109
336.14	113
336.369	112
336.597	129
336.825	129
337.053	98
337.281	95
337.51	105
337.738	109
337.966	101
338.194	96
338.422	97
338.65	96
338.878	89
339.106	109
339.334	105
339.562	82
339.79	93
340.018	93
340.246	96
340.474	106
340.702	98
340.93	92
341.158	95
341.386	111
341.614	107
341.842	105
342.07	99
342.298	109
342.526	103
342.754	94
342.981	74
343.209	100
343.437	104
343.665	99
343.893	101
344.12	96
344.348	100
344.576	96
344.804	88
345.031	112
345.259	109
345.487	124
345.714	99
345.942	98
346.17	101
346.397	106
346.625	107
346.853	109
347.08	108
347.308	111
347.535	129
347.763	108
347.99	94
348.218	114
348.445	127
348.673	116
348.9	103
349.128	93
349.355	97
349.583	97
349.81	97
350.037	98
350.265	95
350.492	108
350.72	110
350.947	116
351.174	127
351.402	133
351.629	125
351.856	110
352.083	116
352.311	142
352.538	134
352.765	142
352.992	133
353.22	125
353.447	101
353.674	103
353.901	103
354.128	91
354.355	96
354.583	100
354.81	106
355.037	104
355.264	101
355.491	114
355.718	93
355.945	89
356.172	89
356.399	91
356.626	82
356.853	87
357.08	92
357.307	101
357.534	97
357.761	95
357.988	96
358.215	105
358.441	92
358.668	91
358.895	87
359.122	98
359.349	91
359.576	104
359.802	120
360.029	154
360.256	164
360.483	127
360.709	120
360.936	110
361.163	114
361.39	107
361.616	114
361.843	94
362.07	104
362.296	108
362.523	115
362.749	104
362.976	93
363.203	87
363.429	108
363.656	108
363.882	95
364.109	100
364.335	89
364.562	91
364.788	98
365.015	103
365.241	111
365.468	128
365.694	117
365.92	105
366.147	85
366.373	93
366.599	98
366.826	90
367.052	103
367.278	107
367.505	88
367.731	108
367.957	99
368.184	106
368.41	116
368.636	131
368.862	147
369.089	126
369.315	119
369.541	98
369.767	102
369.993	92
370.219	93
370.445	100
370.672	94
370.898	80
371.124	79
371.35	94
371.576	90
371.802	85
372.028	83
372.254	96
372.48	89
372.706	92
372.932	72
373.158	86
373.384	96
373.61	83
373.835	100
374.061	105
374.287	98
374.513	88
374.739	83
374.965	99
375.191	89
375.416	87
375.642	95
375.868	95
376.094	90
376.319	106
376.545	106
376.771	102
376.997	87
377.222	80
377.448	92
377.674	82
377.899	80
378.125	84
378.35	80
378.576	76
378.802	96
379.027	88
379.253	87
379.478	91
379.704	99
379.929	88
380.155	105
380.38	89
380.606	103
380.831	92
381.057	89
381.282	83
381.507	99
381.733	106
381.958	96
382.184	97
382.409	91
382.634	93
382.86	89
383.085	103
383.31	107
383.535	83
383.761	97
383.986	88
384.211	89
384.436	108
384.662	98
384.887	107
385.112	86
385.337	86
385.562	102
385.787	99
386.013	111
386.238	119
386.463	115
386.688	110
386.913	88
387.138	90
387.363	98
387.588	91
387.813	85
388.038	90
388.263	94
388.488	99
388.713	94
388.938	93
389.163	105
389.387	84
389.612	96
389.837	103
390.062	102
390.287	76
390.512	86
390.736	89
390.961	86
391.186	73
391.411	86
391.636	85
391.86	92
392.085	90
392.31	89
392.534	88
392.759	90
392.984	80
393.208	83
393.433	94
393.658	103
393.882	87
394.107	92
394.331	80
394.556	92
394.78	98
395.005	90
395.229	100
395.454	81
395.678	85
395.903	101
396.127	106
396.352	93
396.576	73
396.801	78
397.025	88
397.249	97
397.474	93
397.698	81
397.922	85
398.147	81
398.371	95
398.595	80
398.82	95
399.044	93
399.268	89
399.492	88
399.717	90
399.941	90
400.165	95
400.389	88
400.613	80
400.837	81
401.062	82
401.286	91
401.51	92
401.734	101
401.958	106
402.182	147
402.406	217
402.63	173
402.854	101
403.078	93
403.302	98
403.526	94
403.75	105
403.974	89
404.198	88
404.422	97
404.645	89
404.869	108
405.093	109
405.317	160
405.541	127
405.765	129
405.988	144
406.212	252
406.436	363
406.66	222
406.883	129
407.107	115
407.331	102
407.555	115
407.778	127
408.002	99
408.226	100
408.449	112
408.673	89
408.896	103
409.12	97
409.344	90
409.567	81
409.791	85
410.014	90
410.238	93
410.461	100
410.685	106
410.908	99
411.132	105
411.355	117
411.578	72
411.802	95
412.025	92
412.249	104
412.472	108
412.695	121
412.919	106
413.142	79
413.365	99
413.589	92
413.812	86
414.035	91
414.258	80
414.482	91
414.705	82
414.928	82
415.151	92
415.374	97
415.597	84
415.821	86
416.044	86
416.267	89
416.49	74
416.713	79
416.936	92
417.159	98
417.382	84
417.605	103
417.828	125
418.051	119
418.274	98
418.497	91
418.72	92
418.943	95
419.166	82
419.389	84
419.611	85
419.834	93
420.057	90
420.28	89
420.503	88
420.726	96
420.948	100
421.171	97
421.394	106
421.617	92
421.839	88
422.062	91
422.285	105
422.507	99
422.73	113
422.953	90
423.175	87
423.398	79
423.621	94
423.843	80
424.066	83
424.288	87
424.511	93
424.733	121
424.956	132
425.178	111
425.401	111
425.623	124
425.846	102
426.068	107
426.291	108
426.513	87
426.735	103
426.958	94
427.18	135
427.402	189
427.625	299
427.847	244
428.069	196
428.292	137
428.514	109
428.736	89
428.958	78
429.181	84
429.403	86
429.625	101
429.847	106
430.069	110
430.292	94
430.514	96
430.736	88
430.958	104
431.18	89
431.402	73
431.624	89
431.846	85
432.068	76
432.29	87
432.512	74
432.734	92
432.956	108
433.178	99
433.4	87
433.622	84
433.844	84
434.066	93
434.287	99
434.509	79
434.731	89
434.953	87
435.175	80
435.397	91
435.618	103
435.84	113
436.062	126
436.284	128
436.505	107
436.727	98
436.949	100
437.17	85
437.392	86
437.614	99
437.835	141
438.057	171
438.278	139
438.5	123
438.721	120
438.943	122
439.165	100
439.386	85
439.608	106
439.829	112
440.05	160
440.272	195
440.493	116
440.715	96
440.936	100
441.158	106
441.379	99
441.6	84
441.822	100
442.043	96
442.264	110
442.486	125
442.707	106
442.928	133
443.149	191
443.371	186
443.592	147
443.813	158
444.034	120
444.255	92
444.476	95
444.698	87
444.919	82
445.14	128
445.361	128
445.582	143
445.803	190
446.024	180
446.245	158
446.466	133
446.687	92
446.908	96
447.129	90
447.35	102
447.571	71
447.792	99
448.013	126
448.234	143
448.455	126
448.675	128
448.896	141
449.117	114
449.338	98
449.559	138
449.779	170
450	88
450.221	82
450.442	103
450.662	111
450.883	152
451.104	159
451.324	121
451.545	81
451.766	97
451.986	89
452.207	81
452.428	99
452.648	106
452.869	135
453.089	144
453.31	174
453.53	118
453.751	101
453.971	135
454.192	141
454.412	103
454.633	95
454.853	85
455.073	98
455.294	91
455.514	124
455.734	92
455.955	93
456.175	85
456.395	84
456.616	94
456.836	82
457.056	83
457.276	76
457.497	89
457.717	95
457.937	95
458.157	107
458.377	105
458.598	133
458.818	247
459.038	256
459.258	175
459.478	107
459.698	104
459.918	86
460.138	82
460.358	87
460.578	84
460.798	95
461.018	97
461.238	88
461.458	85
461.678	85
461.898	83
462.118	90
462.338	99
462.558	92
462.777	84
462.997	90
463.217	100
463.437	105
463.657	100
463.876	88
464.096	89
464.316	99
464.536	95
464.755	110
464.975	140
465.195	285
465.414	290
465.634	113
465.854	92
466.073	94
466.293	100
466.512	97
466.732	92
466.951	95
467.171	111
467.391	128
467.61	149
467.829	194
468.049	496
468.268	805
468.488	220
468.707	112
468.927	95
469.146	89
469.365	81
469.585	97
469.804	113
470.023	111
470.243	106
470.462	137
470.681	148
470.901	104
471.12	100
471.339	93
471.558	125
471.777	153
471.997	273
472.216	1009
472.435	2331
472.654	582
472.873	164
473.092	117
473.311	90
473.53	96
473.749	81
473.968	90
474.187	140
474.406	111
474.625	84
474.844	80
475.063	95
475.282	86
475.501	93
475.72	93
475.939	97
476.158	93
476.377	94
476.596	97
476.814	114
477.033	114
477.252	96
477.471	112
477.69	97
477.908	105
478.127	95
478.346	104
478.564	102
478.783	109
479.002	108
479.22	111
479.439	133
479.658	144
479.876	119
480.095	115
480.313	152
480.532	164
480.751	258
480.969	897
481.188	3932
481.406	2342
481.624	350
481.843	137
482.061	104
482.28	93
482.498	81
482.717	78
482.935	92
483.153	80
483.372	84
483.59	110
483.808	90
484.027	93
484.245	90
484.463	97
484.681	107
484.9	96
485.118	83
485.336	86
485.554	97
485.772	100
485.99	101
486.209	112
486.427	112
486.645	126
486.863	123
487.081	113
487.299	103
487.517	87
487.735	99
487.953	106
488.171	112
488.389	98
488.607	91
488.825	85
489.043	95
489.261	87
489.479	89
489.696	105
489.914	91
490.132	92
490.35	92
490.568	78
490.786	97
491.003	95
491.221	97
491.439	92
491.657	95
491.874	94
492.092	95
492.31	100
492.527	108
492.745	79
492.963	87
493.18	85
493.398	84
493.615	95
493.833	98
494.05	91
494.268	80
494.485	82
494.703	95
494.92	91
495.138	91
495.355	103
495.573	92
495.79	99
496.008	103
496.225	85
496.442	103
496.66	81
496.877	88
497.094	98
497.312	85
497.529	95
497.746	97
497.963	81
498.181	99
498.398	102
498.615	116
498.832	117
499.049	91
499.267	103
499.484	84
499.701	90
499.918	81
500.135	85
500.352	90
500.569	87
500.786	95
501.003	93
501.22	94
501.437	87
501.654	100
501.871	153
502.088	107
502.305	89
502.522	104
502.739	89
502.956	88
503.172	93
503.389	95
503.606	139
503.823	104
504.04	96
504.256	108
504.473	94
504.69	79
504.907	89
505.123	89
505.34	101
505.557	86
505.773	98
505.99	84
506.207	101
506.423	84
506.64	84
506.856	92
507.073	98
507.289	81
507.506	103
507.722	150
507.939	142
508.155	104
508.372	105
508.588	90
508.805	103
509.021	86
509.238	98
509.454	100
509.67	103
509.887	129
510.103	152
510.319	266
510.536	1055
510.752	3833
510.968	1029
511.184	185
511.401	143
511.617	124
511.833	100
512.049	87
512.265	92
512.481	108
512.698	97
512.914	103
513.13	90
513.346	96
513.562	101
513.778	108
513.994	98
514.21	122
514.426	146
514.642	208
514.858	185
515.074	267
515.29	875
515.506	3224
515.721	1138
515.937	258
516.153	135
516.369	122
516.585	103
516.801	121
517.016	106
517.232	102
517.448	101
517.664	103
517.879	92
518.095	95
518.311	112
518.527	108
518.742	96
518.958	93
519.173	91
519.389	101
519.605	101
519.82	112
520.036	128
520.251	169
520.467	154
520.682	126
520.898	125
521.113	152
521.329	197
521.544	354
521.76	1147
521.975	5236
522.19	3233
522.406	616
522.621	187
522.836	135
523.052	119
523.267	100
523.482	95
523.698	111
523.913	159
524.128	145
524.343	102
524.559	96
524.774	110
524.989	109
525.204	127
525.419	118
525.634	99
525.849	89
526.064	79
526.28	85
526.495	104
526.71	90
526.925	98
527.14	100
527.355	89
527.57	85
527.785	83
527.999	98
528.214	79
528.429	103
528.644	91
528.859	86
529.074	103
529.289	174
529.503	343
529.718	139
529.933	92
530.148	105
530.363	84
530.577	97
530.792	91
531.007	101
531.221	103
531.436	71
531.651	85
531.865	78
532.08	93
532.295	95
532.509	90
532.724	96
532.938	106
533.153	101
533.367	91
533.582	75
533.796	87
534.011	95
534.225	90
534.44	78
534.654	98
534.868	87
535.083	100
535.297	101
535.511	120
535.726	112
535.94	112
536.154	93
536.369	91
536.583	78
536.797	91
537.011	101
537.225	79
537.44	92
537.654	94
537.868	96
538.082	89
538.296	91
538.51	95
538.724	98
538.938	82
539.153	98
539.367	114
539.581	107
539.795	104
540.009	87
540.222	80
540.436	92
540.65	96
540.864	92
541.078	114
541.292	111
541.506	101
541.72	89
541.934	82
542.147	83
542.361	97
542.575	86
542.789	110
543.002	100
543.216	90
543.43	95
543.644	92
543.857	97
544.071	91
544.285	90
544.498	88
544.712	92
544.925	77
545.139	87
545.352	86
545.566	84
545.779	82
545.993	70
546.206	98
546.42	86
546.633	105
546.847	88
547.06	108
547.274	90
547.487	95
547.7	89
547.914	72
548.127	96
548.34	80
548.554	78
548.767	82
548.98	85
549.193	91
549.407	78
549.62	94
549.833	93
550.046	95
550.259	89
550.473	96
550.686	82
550.899	83
551.112	95
551.325	94
551.538	104
551.751	91
551.964	80
552.177	78
552.39	81
552.603	90
552.816	93
553.029	100
553.242	84
553.455	108
553.667	139
553.88	135
554.093	106
554.306	113
554.519	107
554.732	87
554.944	100
555.157	103
555.37	96
555.583	99
555.795	96
556.008	94
556.221	95
556.433	95
556.646	107
556.859	105
557.071	94
557.284	97
557.496	91
557.709	96
557.921	89
558.134	90
558.346	115
558.559	90
558.771	91
558.984	89
559.196	71
559.409	91
559.621	82
559.833	85
560.046	87
560.258	111
560.47	140
560.683	105
560.895	87
561.107	87
561.32	98
561.532	82
561.744	95
561.956	94
562.168	89
562.381	88
562.593	96
562.805	84
563.017	98
563.229	90
563.441	115
563.653	88
563.865	101
564.077	85
564.289	95
564.501	100
564.713	97
564.925	98
565.137	107
565.349	95
565.561	92
565.773	92
565.985	92
566.197	96
566.408	80
566.62	79
566.832	92
567.044	80
567.255	84
567.467	93
567.679	99
567.891	80
568.102	91
568.314	107
568.526	74
568.737	86
568.949	79
569.161	97
569.372	79
569.584	89
569.795	101
570.007	143
570.218	345
570.43	163
570.641	96
570.853	102
571.064	99
571.276	85
571.487	79
571.698	80
571.91	83
572.121	73
572.333	79
572.544	84
572.755	88
572.966	92
573.178	74
573.389	94
573.6	80
573.811	81
574.023	92
574.234	86
574.445	90
574.656	83
574.867	108
575.078	91
575.289	81
575.501	88
575.712	104
575.923	81
576.134	85
576.345	103
576.556	93
576.767	85
576.978	105
577.188	103
577.399	98
577.61	108
577.821	110
578.032	109
578.243	381
578.454	1195
578.665	282
578.875	114
579.086	87
579.297	104
579.508	90
