Data from StdC_HRD10591_025.txt Node
Date: Fri May 16 15:28:53 EDT 2025
User: Yrep
Spectrometer: HR+D1059
Trigger mode: 1
Integration Time (sec): 1.000000E-1
Scans to average: 1
Electric dark correction enabled: true
Nonlinearity correction enabled: false
Boxcar width: 0
XAxis mode: Wavelengths
Number of Pixels in Spectrum: 2048
>>>>>Begin Spectral Data<<<<<
223.165	-11.56
223.4	-11.56
223.635	-11.56
223.869	-22.56
224.104	-29.56
224.338	-9.56
224.573	-8.56
224.808	-0.56
225.042	-10.56
225.277	-4.56
225.511	2.44
225.746	-14.56
225.98	2.44
226.215	9.44
226.449	18.44
226.683	22.44
226.918	16.44
227.152	40.44
227.387	42.44
227.621	26.44
227.856	51.44
228.09	41.44
228.324	51.44
228.559	54.44
228.793	51.44
229.027	60.44
229.262	73.44
229.496	55.44
229.73	71.44
229.964	83.44
230.199	64.44
230.433	82.44
230.667	84.44
230.901	85.44
231.136	89.44
231.37	85.44
231.604	82.44
231.838	85.44
232.072	95.44
232.306	75.44
232.541	67.44
232.775	84.44
233.009	80.44
233.243	89.44
233.477	94.44
233.711	84.44
233.945	94.44
234.179	82.44
234.413	90.44
234.647	93.44
234.881	92.44
235.115	97.44
235.349	97.44
235.583	94.44
235.817	86.44
236.051	77.44
236.285	99.44
236.519	83.44
236.753	84.44
236.987	83.44
237.221	91.44
237.455	87.44
237.689	107.44
237.922	102.44
238.156	94.44
238.39	88.44
238.624	87.44
238.858	81.44
239.091	83.44
239.325	87.44
239.559	85.44
239.793	98.44
240.027	92.44
240.26	83.44
240.494	90.44
240.728	93.44
240.961	102.44
241.195	84.44
241.429	90.44
241.662	80.44
241.896	87.44
242.13	85.44
242.363	97.44
242.597	93.44
242.83	101.44
243.064	87.44
243.298	106.44
243.531	92.44
243.765	91.44
243.998	88.44
244.232	96.44
244.465	114.44
244.699	89.44
244.932	99.44
245.166	108.44
245.399	85.44
245.633	92.44
245.866	107.44
246.099	98.44
246.333	109.44
246.566	107.44
246.8	89.44
247.033	87.44
247.266	106.44
247.5	91.44
247.733	103.44
247.966	107.44
248.2	99.44
248.433	115.44
248.666	104.44
248.899	102.44
249.133	103.44
249.366	116.44
249.599	109.44
249.832	111.44
250.066	135.44
250.299	150.44
250.532	198.44
250.765	169.44
250.998	131.44
251.231	127.44
251.465	129.44
251.698	125.44
251.931	130.44
252.164	127.44
252.397	124.44
252.63	115.44
252.863	105.44
253.096	124.44
253.329	115.44
253.562	131.44
253.795	113.44
254.028	128.44
254.261	143.44
254.494	130.44
254.727	122.44
254.96	128.44
255.193	127.44
255.426	163.44
255.659	205.44
255.892	232.44
256.124	292.44
256.357	233.44
256.59	188.44
256.823	179.44
257.056	143.44
257.289	137.44
257.521	151.44
257.754	151.44
257.987	147.44
258.22	160.44
258.452	141.44
258.685	137.44
258.918	134.44
259.151	127.44
259.383	133.44
259.616	123.44
259.849	140.44
260.081	131.44
260.314	144.44
260.547	121.44
260.779	134.44
261.012	135.44
261.244	136.44
261.477	122.44
261.71	131.44
261.942	124.44
262.175	108.44
262.407	118.44
262.64	125.44
262.872	117.44
263.105	119.44
263.337	126.44
263.57	127.44
263.802	126.44
264.035	126.44
264.267	115.44
264.499	110.44
264.732	139.44
264.964	124.44
265.197	113.44
265.429	128.44
265.661	117.44
265.894	118.44
266.126	124.44
266.358	121.44
266.591	126.44
266.823	136.44
267.055	134.44
267.287	118.44
267.52	122.44
267.752	139.44
267.984	120.44
268.216	122.44
268.448	143.44
268.681	134.44
268.913	137.44
269.145	131.44
269.377	132.44
269.609	131.44
269.841	123.44
270.073	135.44
270.306	145.44
270.538	137.44
270.77	126.44
271.002	123.44
271.234	136.44
271.466	138.44
271.698	147.44
271.93	126.44
272.162	131.44
272.394	132.44
272.626	139.44
272.858	133.44
273.09	145.44
273.322	149.44
273.553	134.44
273.785	148.44
274.017	141.44
274.249	153.44
274.481	145.44
274.713	148.44
274.945	150.44
275.176	150.44
275.408	164.44
275.64	168.44
275.872	167.44
276.104	185.44
276.335	167.44
276.567	164.44
276.799	179.44
277.031	188.44
277.262	217.44
277.494	171.44
277.726	189.44
277.957	190.44
278.189	178.44
278.421	177.44
278.652	167.44
278.884	187.44
279.115	166.44
279.347	170.44
279.579	185.44
279.81	207.44
280.042	248.44
280.273	267.44
280.505	239.44
280.736	207.44
280.968	198.44
281.199	169.44
281.431	162.44
281.662	169.44
281.894	171.44
282.125	167.44
282.356	162.44
282.588	151.44
282.819	142.44
283.051	156.44
283.282	137.44
283.513	158.44
283.745	152.44
283.976	145.44
284.207	157.44
284.439	164.44
284.67	158.44
284.901	157.44
285.132	152.44
285.364	147.44
285.595	153.44
285.826	154.44
286.057	158.44
286.288	166.44
286.52	161.44
286.751	149.44
286.982	156.44
287.213	148.44
287.444	156.44
287.675	156.44
287.906	139.44
288.138	166.44
288.369	154.44
288.6	146.44
288.831	146.44
289.062	158.44
289.293	143.44
289.524	156.44
289.755	142.44
289.986	149.44
290.217	166.44
290.448	168.44
290.679	159.44
290.91	148.44
291.141	149.44
291.371	150.44
291.602	156.44
291.833	156.44
292.064	143.44
292.295	154.44
292.526	159.44
292.757	151.44
292.987	158.44
293.218	133.44
293.449	137.44
293.68	147.44
293.91	157.44
294.141	166.44
294.372	144.44
294.603	148.44
294.833	161.44
295.064	151.44
295.295	149.44
295.525	158.44
295.756	147.44
295.987	165.44
296.217	153.44
296.448	156.44
296.679	160.44
296.909	145.44
297.14	144.44
297.37	149.44
297.601	149.44
297.831	168.44
298.062	153.44
298.292	175.44
298.523	140.44
298.753	172.44
298.984	180.44
299.214	146.44
299.445	160.44
299.675	152.44
299.905	163.44
300.136	137.44
300.366	157.44
300.597	154.44
300.827	156.44
301.057	156.44
301.288	174.44
301.518	166.44
301.748	168.44
301.979	179.44
302.209	181.44
302.439	167.44
302.669	147.44
302.9	157.44
303.13	171.44
303.36	187.44
303.59	174.44
303.82	194.44
304.051	182.44
304.281	168.44
304.511	167.44
304.741	177.44
304.971	170.44
305.201	178.44
305.431	162.44
305.661	158.44
305.891	154.44
306.121	143.44
306.352	160.44
306.582	174.44
306.812	175.44
307.042	189.44
307.272	210.44
307.502	212.44
307.731	211.44
307.961	198.44
308.191	165.44
308.421	157.44
308.651	165.44
308.881	174.44
309.111	173.44
309.341	180.44
309.571	159.44
309.8	150.44
310.03	167.44
310.26	177.44
310.49	165.44
310.72	154.44
310.949	177.44
311.179	164.44
311.409	169.44
311.639	180.44
311.868	167.44
312.098	168.44
312.328	157.44
312.557	164.44
312.787	162.44
313.017	175.44
313.246	179.44
313.476	185.44
313.706	179.44
313.935	176.44
314.165	183.44
314.394	185.44
314.624	167.44
314.853	181.44
315.083	173.44
315.312	179.44
315.542	155.44
315.771	186.44
316.001	164.44
316.23	167.44
316.46	178.44
316.689	179.44
316.919	180.44
317.148	174.44
317.377	165.44
317.607	182.44
317.836	173.44
318.065	183.44
318.295	174.44
318.524	165.44
318.753	191.44
318.983	182.44
319.212	183.44
319.441	190.44
319.67	177.44
319.9	183.44
320.129	180.44
320.358	187.44
320.587	179.44
320.816	174.44
321.046	165.44
321.275	209.44
321.504	187.44
321.733	181.44
321.962	195.44
322.191	198.44
322.42	197.44
322.649	187.44
322.878	203.44
323.108	189.44
323.337	204.44
323.566	220.44
323.795	225.44
324.024	221.44
324.253	218.44
324.482	211.44
324.71	215.44
324.939	222.44
325.168	207.44
325.397	219.44
325.626	234.44
325.855	232.44
326.084	235.44
326.313	236.44
326.542	253.44
326.77	251.44
326.999	266.44
327.228	270.44
327.457	320.44
327.686	394.44
327.914	501.44
328.143	653.44
328.372	680.44
328.6	515.44
328.829	388.44
329.058	361.44
329.287	385.44
329.515	475.44
329.744	627.44
329.972	888.44
330.201	1187.44
330.43	1233.44
330.658	733.44
330.887	469.44
331.115	356.44
331.344	315.44
331.572	319.44
331.801	317.44
332.03	305.44
332.258	326.44
332.486	320.44
332.715	326.44
332.943	338.44
333.172	380.44
333.4	417.44
333.629	498.44
333.857	694.44
334.085	979.44
334.314	1388.44
334.542	1721.44
334.771	1358.44
334.999	736.44
335.227	482.44
335.455	401.44
335.684	337.44
335.912	317.44
336.14	297.44
336.369	288.44
336.597	280.44
336.825	255.44
337.053	263.44
337.281	239.44
337.51	218.44
337.738	237.44
337.966	241.44
338.194	212.44
338.422	236.44
338.65	202.44
338.878	210.44
339.106	227.44
339.334	202.44
339.562	206.44
339.79	205.44
340.018	205.44
340.246	187.44
340.474	194.44
340.702	197.44
340.93	185.44
341.158	189.44
341.386	201.44
341.614	211.44
341.842	199.44
342.07	191.44
342.298	182.44
342.526	198.44
342.754	196.44
342.981	201.44
343.209	189.44
343.437	206.44
343.665	202.44
343.893	200.44
344.12	207.44
344.348	184.44
344.576	178.44
344.804	191.44
345.031	191.44
345.259	205.44
345.487	179.44
345.714	183.44
345.942	189.44
346.17	186.44
346.397	191.44
346.625	197.44
346.853	192.44
347.08	182.44
347.308	189.44
347.535	182.44
347.763	190.44
347.99	191.44
348.218	195.44
348.445	198.44
348.673	184.44
348.9	167.44
349.128	175.44
349.355	177.44
349.583	183.44
349.81	185.44
350.037	197.44
350.265	170.44
350.492	179.44
350.72	183.44
350.947	182.44
351.174	205.44
351.402	187.44
351.629	189.44
351.856	183.44
352.083	193.44
352.311	197.44
352.538	164.44
352.765	192.44
352.992	180.44
353.22	187.44
353.447	188.44
353.674	179.44
353.901	178.44
354.128	185.44
354.355	181.44
354.583	180.44
354.81	196.44
355.037	191.44
355.264	175.44
355.491	186.44
355.718	178.44
355.945	188.44
356.172	194.44
356.399	169.44
356.626	177.44
356.853	186.44
357.08	177.44
357.307	155.44
357.534	183.44
357.761	183.44
357.988	183.44
358.215	170.44
358.441	177.44
358.668	191.44
358.895	173.44
359.122	174.44
359.349	160.44
359.576	179.44
359.802	172.44
360.029	179.44
360.256	181.44
360.483	169.44
360.709	171.44
360.936	175.44
361.163	188.44
361.39	163.44
361.616	178.44
361.843	177.44
362.07	185.44
362.296	177.44
362.523	181.44
362.749	172.44
362.976	168.44
363.203	175.44
363.429	157.44
363.656	184.44
363.882	152.44
364.109	180.44
364.335	175.44
364.562	183.44
364.788	175.44
365.015	189.44
365.241	179.44
365.468	183.44
365.694	177.44
365.92	193.44
366.147	197.44
366.373	156.44
366.599	187.44
366.826	169.44
367.052	169.44
367.278	193.44
367.505	178.44
367.731	201.44
367.957	190.44
368.184	158.44
368.41	181.44
368.636	189.44
368.862	170.44
369.089	168.44
369.315	173.44
369.541	188.44
369.767	193.44
369.993	188.44
370.219	187.44
370.445	188.44
370.672	184.44
370.898	187.44
371.124	179.44
371.35	182.44
371.576	181.44
371.802	198.44
372.028	194.44
372.254	202.44
372.48	202.44
372.706	195.44
372.932	180.44
373.158	185.44
373.384	202.44
373.61	177.44
373.835	188.44
374.061	186.44
374.287	193.44
374.513	193.44
374.739	189.44
374.965	195.44
375.191	180.44
375.416	198.44
375.642	203.44
375.868	200.44
376.094	180.44
376.319	184.44
376.545	185.44
376.771	185.44
376.997	189.44
377.222	185.44
377.448	184.44
377.674	167.44
377.899	168.44
378.125	191.44
378.35	191.44
378.576	190.44
378.802	171.44
379.027	193.44
379.253	209.44
379.478	180.44
379.704	174.44
379.929	194.44
380.155	188.44
380.38	193.44
380.606	179.44
380.831	183.44
381.057	192.44
381.282	169.44
381.507	178.44
381.733	197.44
381.958	197.44
382.184	188.44
382.409	205.44
382.634	186.44
382.86	177.44
383.085	197.44
383.31	187.44
383.535	193.44
383.761	197.44
383.986	202.44
384.211	201.44
384.436	204.44
384.662	213.44
384.887	196.44
385.112	207.44
385.337	206.44
385.562	206.44
385.787	215.44
386.013	211.44
386.238	206.44
386.463	191.44
386.688	208.44
386.913	202.44
387.138	207.44
387.363	204.44
387.588	192.44
387.813	201.44
388.038	205.44
388.263	202.44
388.488	209.44
388.713	205.44
388.938	198.44
389.163	192.44
389.387	190.44
389.612	197.44
389.837	211.44
390.062	193.44
390.287	189.44
390.512	183.44
390.736	198.44
390.961	201.44
391.186	203.44
391.411	197.44
391.636	230.44
391.86	204.44
392.085	204.44
392.31	210.44
392.534	191.44
392.759	215.44
392.984	217.44
393.208	205.44
393.433	215.44
393.658	222.44
393.882	203.44
394.107	209.44
394.331	188.44
394.556	210.44
394.78	220.44
395.005	220.44
395.229	228.44
395.454	226.44
395.678	220.44
395.903	202.44
396.127	200.44
396.352	218.44
396.576	220.44
396.801	205.44
397.025	213.44
397.249	221.44
397.474	226.44
397.698	219.44
397.922	216.44
398.147	228.44
398.371	226.44
398.595	230.44
398.82	246.44
399.044	254.44
399.268	253.44
399.492	269.44
399.717	271.44
399.941	252.44
400.165	259.44
400.389	272.44
400.613	229.44
400.837	239.44
401.062	235.44
401.286	232.44
401.51	213.44
401.734	235.44
401.958	225.44
402.182	237.44
402.406	245.44
402.63	244.44
402.854	243.44
403.078	243.44
403.302	256.44
403.526	261.44
403.75	242.44
403.974	243.44
404.198	242.44
404.422	258.44
404.645	268.44
404.869	274.44
405.093	296.44
405.317	327.44
405.541	294.44
405.765	280.44
405.988	279.44
406.212	256.44
406.436	259.44
406.66	268.44
406.883	239.44
407.107	267.44
407.331	244.44
407.555	263.44
407.778	270.44
408.002	258.44
408.226	279.44
408.449	264.44
408.673	246.44
408.896	233.44
409.12	246.44
409.344	251.44
409.567	245.44
409.791	256.44
410.014	252.44
410.238	243.44
410.461	238.44
410.685	227.44
410.908	239.44
411.132	230.44
411.355	241.44
411.578	250.44
411.802	235.44
412.025	264.44
412.249	284.44
412.472	305.44
412.695	323.44
412.919	318.44
413.142	280.44
413.365	291.44
413.589	260.44
413.812	268.44
414.035	246.44
414.258	259.44
414.482	268.44
414.705	253.44
414.928	247.44
415.151	242.44
415.374	250.44
415.597	231.44
415.821	228.44
416.044	247.44
416.267	236.44
416.49	240.44
416.713	230.44
416.936	246.44
417.159	234.44
417.382	245.44
417.605	253.44
417.828	268.44
418.051	244.44
418.274	238.44
418.497	250.44
418.72	249.44
418.943	252.44
419.166	238.44
419.389	268.44
419.611	262.44
419.834	266.44
420.057	273.44
420.28	294.44
420.503	287.44
420.726	289.44
420.948	259.44
421.171	259.44
421.394	255.44
421.617	239.44
421.839	242.44
422.062	252.44
422.285	239.44
422.507	243.44
422.73	247.44
422.953	226.44
423.175	238.44
423.398	244.44
423.621	235.44
423.843	247.44
424.066	233.44
424.288	249.44
424.511	252.44
424.733	250.44
424.956	239.44
425.178	237.44
425.401	229.44
425.623	222.44
425.846	215.44
426.068	231.44
426.291	247.44
426.513	237.44
426.735	226.44
426.958	247.44
427.18	238.44
427.402	259.44
427.625	277.44
427.847	325.44
428.069	328.44
428.292	293.44
428.514	262.44
428.736	261.44
428.958	254.44
429.181	226.44
429.403	231.44
429.625	222.44
429.847	236.44
430.069	233.44
430.292	225.44
430.514	244.44
430.736	221.44
430.958	229.44
431.18	227.44
431.402	242.44
431.624	225.44
431.846	217.44
432.068	225.44
432.29	219.44
432.512	206.44
432.734	231.44
432.956	222.44
433.178	246.44
433.4	244.44
433.622	232.44
433.844	216.44
434.066	215.44
434.287	221.44
434.509	225.44
434.731	234.44
434.953	236.44
435.175	213.44
435.397	213.44
435.618	216.44
435.84	219.44
436.062	205.44
436.284	213.44
436.505	233.44
436.727	222.44
436.949	225.44
437.17	227.44
437.392	223.44
437.614	210.44
437.835	215.44
438.057	203.44
438.278	219.44
438.5	213.44
438.721	217.44
438.943	201.44
439.165	205.44
439.386	210.44
439.608	210.44
439.829	214.44
440.05	229.44
440.272	225.44
440.493	219.44
440.715	231.44
440.936	226.44
441.158	239.44
441.379	226.44
441.6	235.44
441.822	226.44
442.043	225.44
442.264	214.44
442.486	227.44
442.707	213.44
442.928	221.44
443.149	218.44
443.371	224.44
443.592	234.44
443.813	217.44
444.034	235.44
444.255	230.44
444.476	241.44
444.698	249.44
444.919	255.44
445.14	314.44
445.361	275.44
445.582	233.44
445.803	233.44
446.024	204.44
446.245	227.44
446.466	223.44
446.687	229.44
446.908	238.44
447.129	219.44
447.35	222.44
447.571	229.44
447.792	206.44
448.013	197.44
448.234	205.44
448.455	201.44
448.675	197.44
448.896	215.44
449.117	214.44
449.338	217.44
449.559	217.44
449.779	217.44
450	200.44
450.221	209.44
450.442	219.44
450.662	206.44
450.883	223.44
451.104	215.44
451.324	205.44
451.545	205.44
451.766	215.44
451.986	205.44
452.207	192.44
452.428	215.44
452.648	199.44
452.869	207.44
453.089	190.44
453.31	197.44
453.53	188.44
453.751	209.44
453.971	188.44
454.192	193.44
454.412	199.44
454.633	200.44
454.853	197.44
455.073	195.44
455.294	200.44
455.514	189.44
455.734	208.44
455.955	195.44
456.175	189.44
456.395	196.44
456.616	189.44
456.836	220.44
457.056	214.44
457.276	209.44
457.497	201.44
457.717	221.44
457.937	205.44
458.157	209.44
458.377	207.44
458.598	229.44
458.818	212.44
459.038	208.44
459.258	218.44
459.478	225.44
459.698	220.44
459.918	227.44
460.138	214.44
460.358	237.44
460.578	216.44
460.798	239.44
461.018	238.44
461.238	222.44
461.458	239.44
461.678	238.44
461.898	234.44
462.118	244.44
462.338	249.44
462.558	258.44
462.777	261.44
462.997	263.44
463.217	272.44
463.437	269.44
463.657	260.44
463.876	239.44
464.096	236.44
464.316	260.44
464.536	241.44
464.755	254.44
464.975	240.44
465.195	242.44
465.414	229.44
465.634	213.44
465.854	225.44
466.073	227.44
466.293	236.44
466.512	228.44
466.732	226.44
466.951	244.44
467.171	250.44
467.391	247.44
467.61	296.44
467.829	335.44
468.049	629.44
468.268	770.44
468.488	457.44
468.707	337.44
468.927	308.44
469.146	274.44
469.365	285.44
469.585	249.44
469.804	249.44
470.023	256.44
470.243	261.44
470.462	253.44
470.681	251.44
470.901	266.44
471.12	263.44
471.339	256.44
471.558	299.44
471.777	354.44
471.997	507.44
472.216	1015.44
472.435	1563.44
472.654	894.44
472.873	537.44
473.092	401.44
473.311	363.44
473.53	329.44
473.749	310.44
473.968	292.44
474.187	276.44
474.406	268.44
474.625	268.44
474.844	263.44
475.063	249.44
475.282	253.44
475.501	242.44
475.72	257.44
475.939	264.44
476.158	259.44
476.377	252.44
476.596	259.44
476.814	259.44
477.033	251.44
477.252	244.44
477.471	256.44
477.69	254.44
477.908	260.44
478.127	280.44
478.346	273.44
478.564	263.44
478.783	284.44
479.002	284.44
479.22	297.44
479.439	296.44
479.658	302.44
479.876	320.44
480.095	340.44
480.313	362.44
480.532	421.44
480.751	575.44
480.969	1133.44
481.188	2455.44
481.406	1987.44
481.624	998.44
481.843	660.44
482.061	524.44
482.28	448.44
482.498	399.44
482.717	383.44
482.935	371.44
483.153	335.44
483.372	345.44
483.59	332.44
483.808	330.44
484.027	308.44
484.245	303.44
484.463	318.44
484.681	307.44
484.9	298.44
485.118	297.44
485.336	287.44
485.554	297.44
485.772	293.44
485.99	294.44
486.209	269.44
486.427	299.44
486.645	289.44
486.863	297.44
487.081	294.44
487.299	286.44
487.517	282.44
487.735	289.44
487.953	298.44
488.171	303.44
488.389	295.44
488.607	300.44
488.825	294.44
489.043	300.44
489.261	309.44
489.479	333.44
489.696	325.44
489.914	318.44
490.132	322.44
490.35	332.44
490.568	347.44
490.786	381.44
491.003	393.44
491.221	417.44
491.439	478.44
491.657	447.44
491.874	481.44
492.092	460.44
492.31	498.44
492.527	509.44
492.745	549.44
492.963	516.44
493.18	471.44
493.398	454.44
493.615	436.44
493.833	406.44
494.05	404.44
494.268	409.44
494.485	387.44
494.703	378.44
494.92	371.44
495.138	372.44
495.355	353.44
495.573	347.44
495.79	337.44
496.008	334.44
496.225	330.44
496.442	333.44
496.66	375.44
496.877	342.44
497.094	331.44
497.312	340.44
497.529	340.44
497.746	337.44
497.963	333.44
498.181	331.44
498.398	333.44
498.615	361.44
498.832	353.44
499.049	350.44
499.267	379.44
499.484	386.44
499.701	399.44
499.918	420.44
500.135	424.44
500.352	463.44
500.569	501.44
500.786	508.44
501.003	476.44
501.22	391.44
501.437	415.44
501.654	367.44
501.871	354.44
502.088	342.44
502.305	330.44
502.522	341.44
502.739	331.44
502.956	329.44
503.172	322.44
503.389	323.44
503.606	296.44
