Data from StdC_HRD10591_010.txt Node
Date: Fri May 16 15:28:45 EDT 2025
User: Yrep
Spectrometer: HR+D1059
Trigger mode: 1
Integration Time (sec): 1.000000E-1
Scans to average: 1
Electric dark correction enabled: true
Nonlinearity correction enabled: false
Boxcar width: 0
XAxis mode: Wavelengths
Number of Pixels in Spectrum: 2048
>>>>>Begin Spectral Data<<<<<
223.165	-11.19
223.4	-11.19
223.635	-11.19
223.869	-24.19
224.104	-11.19
224.338	-18.19
224.573	-17.19
224.808	-7.19
225.042	-12.19
225.277	-10.19
225.511	-5.19
225.746	16.81
225.98	-2.19
226.215	9.81
226.449	11.81
226.683	25.81
226.918	25.81
227.152	28.81
227.387	30.81
227.621	35.81
227.856	37.81
228.09	42.81
228.324	58.81
228.559	49.81
228.793	63.81
229.027	70.81
229.262	66.81
229.496	80.81
229.73	82.81
229.964	80.81
230.199	75.81
230.433	66.81
230.667	62.81
230.901	79.81
231.136	65.81
231.37	75.81
231.604	66.81
231.838	71.81
232.072	80.81
232.306	90.81
232.541	78.81
232.775	92.81
233.009	87.81
233.243	86.81
233.477	76.81
233.711	70.81
233.945	80.81
234.179	75.81
234.413	83.81
234.647	89.81
234.881	87.81
235.115	77.81
235.349	76.81
235.583	82.81
235.817	82.81
236.051	86.81
236.285	70.81
236.519	80.81
236.753	82.81
236.987	72.81
237.221	76.81
237.455	79.81
237.689	79.81
237.922	73.81
238.156	77.81
238.39	68.81
238.624	74.81
238.858	82.81
239.091	79.81
239.325	66.81
239.559	75.81
239.793	78.81
240.027	88.81
240.26	83.81
240.494	72.81
240.728	82.81
240.961	79.81
241.195	71.81
241.429	63.81
241.662	68.81
241.896	68.81
242.13	70.81
242.363	68.81
242.597	77.81
242.83	78.81
243.064	89.81
243.298	75.81
243.531	68.81
243.765	72.81
243.998	60.81
244.232	68.81
244.465	85.81
244.699	79.81
244.932	78.81
245.166	82.81
245.399	74.81
245.633	70.81
245.866	87.81
246.099	85.81
246.333	83.81
246.566	81.81
246.8	74.81
247.033	92.81
247.266	77.81
247.5	82.81
247.733	68.81
247.966	80.81
248.2	65.81
248.433	72.81
248.666	81.81
248.899	67.81
249.133	92.81
249.366	78.81
249.599	71.81
249.832	69.81
250.066	72.81
250.299	69.81
250.532	83.81
250.765	77.81
250.998	77.81
251.231	73.81
251.465	90.81
251.698	74.81
251.931	78.81
252.164	72.81
252.397	79.81
252.63	92.81
252.863	78.81
253.096	79.81
253.329	90.81
253.562	90.81
253.795	76.81
254.028	98.81
254.261	85.81
254.494	71.81
254.727	76.81
254.96	86.81
255.193	80.81
255.426	85.81
255.659	68.81
255.892	70.81
256.124	76.81
256.357	73.81
256.59	76.81
256.823	78.81
257.056	100.81
257.289	101.81
257.521	77.81
257.754	82.81
257.987	89.81
258.22	78.81
258.452	75.81
258.685	74.81
258.918	77.81
259.151	68.81
259.383	80.81
259.616	66.81
259.849	85.81
260.081	87.81
260.314	88.81
260.547	79.81
260.779	61.81
261.012	84.81
261.244	90.81
261.477	85.81
261.71	90.81
261.942	85.81
262.175	85.81
262.407	72.81
262.64	68.81
262.872	85.81
263.105	88.81
263.337	80.81
263.57	90.81
263.802	60.81
264.035	74.81
264.267	84.81
264.499	84.81
264.732	68.81
264.964	79.81
265.197	74.81
265.429	87.81
265.661	70.81
265.894	76.81
266.126	94.81
266.358	82.81
266.591	82.81
266.823	73.81
267.055	80.81
267.287	76.81
267.52	94.81
267.752	85.81
267.984	94.81
268.216	85.81
268.448	81.81
268.681	84.81
268.913	84.81
269.145	80.81
269.377	89.81
269.609	88.81
269.841	90.81
270.073	94.81
270.306	81.81
270.538	77.81
270.77	72.81
271.002	84.81
271.234	90.81
271.466	92.81
271.698	94.81
271.93	70.81
272.162	84.81
272.394	72.81
272.626	88.81
272.858	74.81
273.09	72.81
273.322	81.81
273.553	74.81
273.785	64.81
274.017	80.81
274.249	74.81
274.481	85.81
274.713	80.81
274.945	79.81
275.176	79.81
275.408	72.81
275.64	88.81
275.872	90.81
276.104	92.81
276.335	85.81
276.567	80.81
276.799	82.81
277.031	93.81
277.262	80.81
277.494	80.81
277.726	90.81
277.957	88.81
278.189	83.81
278.421	82.81
278.652	74.81
278.884	80.81
279.115	83.81
279.347	75.81
279.579	81.81
279.81	92.81
280.042	85.81
280.273	107.81
280.505	91.81
280.736	88.81
280.968	93.81
281.199	84.81
281.431	88.81
281.662	92.81
281.894	75.81
282.125	84.81
282.356	82.81
282.588	73.81
282.819	85.81
283.051	94.81
283.282	80.81
283.513	78.81
283.745	87.81
283.976	84.81
284.207	92.81
284.439	89.81
284.67	82.81
284.901	77.81
285.132	75.81
285.364	70.81
285.595	83.81
285.826	87.81
286.057	95.81
286.288	73.81
286.52	93.81
286.751	84.81
286.982	68.81
287.213	82.81
287.444	76.81
287.675	76.81
287.906	94.81
288.138	80.81
288.369	75.81
288.6	104.81
288.831	79.81
289.062	78.81
289.293	81.81
289.524	85.81
289.755	80.81
289.986	80.81
290.217	79.81
290.448	76.81
290.679	88.81
290.91	98.81
291.141	94.81
291.371	79.81
291.602	74.81
291.833	86.81
292.064	80.81
292.295	88.81
292.526	95.81
292.757	76.81
292.987	92.81
293.218	68.81
293.449	88.81
293.68	81.81
293.91	82.81
294.141	87.81
294.372	85.81
294.603	69.81
294.833	91.81
295.064	92.81
295.295	86.81
295.525	82.81
295.756	77.81
295.987	95.81
296.217	82.81
296.448	76.81
296.679	82.81
296.909	82.81
297.14	79.81
297.37	85.81
297.601	89.81
297.831	80.81
298.062	82.81
298.292	84.81
298.523	78.81
298.753	90.81
298.984	81.81
299.214	78.81
299.445	68.81
299.675	79.81
299.905	84.81
300.136	80.81
300.366	89.81
300.597	73.81
300.827	91.81
301.057	96.81
301.288	86.81
301.518	91.81
301.748	84.81
301.979	90.81
302.209	80.81
302.439	87.81
302.669	86.81
302.9	82.81
303.13	89.81
303.36	95.81
303.59	87.81
303.82	103.81
304.051	86.81
304.281	86.81
304.511	101.81
304.741	88.81
304.971	89.81
305.201	91.81
305.431	89.81
305.661	83.81
305.891	87.81
306.121	80.81
306.352	76.81
306.582	74.81
306.812	82.81
307.042	87.81
307.272	96.81
307.502	94.81
307.731	100.81
307.961	90.81
308.191	80.81
308.421	89.81
308.651	88.81
308.881	79.81
309.111	89.81
309.341	62.81
309.571	81.81
309.8	69.81
310.03	82.81
310.26	76.81
310.49	75.81
310.72	84.81
310.949	94.81
311.179	90.81
311.409	72.81
311.639	73.81
311.868	84.81
312.098	87.81
312.328	89.81
312.557	81.81
312.787	81.81
313.017	93.81
313.246	85.81
313.476	84.81
313.706	97.81
313.935	91.81
314.165	77.81
314.394	88.81
314.624	80.81
314.853	83.81
315.083	88.81
315.312	92.81
315.542	77.81
315.771	79.81
316.001	79.81
316.23	87.81
316.46	97.81
316.689	82.81
316.919	73.81
317.148	96.81
317.377	90.81
317.607	90.81
317.836	81.81
318.065	77.81
318.295	74.81
318.524	80.81
318.753	72.81
318.983	89.81
319.212	96.81
319.441	72.81
319.67	67.81
319.9	83.81
320.129	79.81
320.358	93.81
320.587	90.81
320.816	74.81
321.046	92.81
321.275	84.81
321.504	89.81
321.733	80.81
321.962	86.81
322.191	86.81
322.42	99.81
322.649	96.81
322.878	87.81
323.108	79.81
323.337	89.81
323.566	90.81
323.795	64.81
324.024	94.81
324.253	81.81
324.482	90.81
324.71	92.81
324.939	90.81
325.168	89.81
325.397	69.81
325.626	95.81
325.855	88.81
326.084	83.81
326.313	94.81
326.542	85.81
326.77	83.81
326.999	71.81
327.228	83.81
327.457	85.81
327.686	86.81
327.914	102.81
328.143	130.81
328.372	139.81
328.6	96.81
328.829	110.81
329.058	86.81
329.287	88.81
329.515	91.81
329.744	105.81
329.972	160.81
330.201	181.81
330.43	195.81
330.658	128.81
330.887	85.81
331.115	82.81
331.344	89.81
331.572	94.81
331.801	93.81
332.03	64.81
332.258	65.81
332.486	82.81
332.715	82.81
332.943	92.81
333.172	85.81
333.4	84.81
333.629	106.81
333.857	94.81
334.085	132.81
334.314	187.81
334.542	236.81
334.771	202.81
334.999	97.81
335.227	89.81
335.455	92.81
335.684	90.81
335.912	88.81
336.14	85.81
336.369	70.81
336.597	89.81
336.825	72.81
337.053	95.81
337.281	87.81
337.51	93.81
337.738	89.81
337.966	94.81
338.194	88.81
338.422	64.81
338.65	86.81
338.878	78.81
339.106	96.81
339.334	109.81
339.562	84.81
339.79	94.81
340.018	85.81
340.246	81.81
340.474	90.81
340.702	78.81
340.93	81.81
341.158	80.81
341.386	85.81
341.614	84.81
341.842	89.81
342.07	85.81
342.298	84.81
342.526	104.81
342.754	66.81
342.981	89.81
343.209	92.81
343.437	88.81
343.665	96.81
343.893	77.81
344.12	86.81
344.348	72.81
344.576	103.81
344.804	73.81
345.031	90.81
345.259	95.81
345.487	81.81
345.714	90.81
345.942	96.81
346.17	81.81
346.397	81.81
346.625	94.81
346.853	88.81
347.08	82.81
347.308	80.81
347.535	84.81
347.763	80.81
347.99	89.81
348.218	90.81
348.445	92.81
348.673	87.81
348.9	79.81
349.128	82.81
349.355	74.81
349.583	80.81
349.81	97.81
350.037	95.81
350.265	77.81
350.492	87.81
350.72	86.81
350.947	79.81
351.174	74.81
351.402	100.81
351.629	86.81
351.856	87.81
352.083	87.81
352.311	88.81
352.538	81.81
352.765	92.81
352.992	85.81
353.22	101.81
353.447	84.81
353.674	84.81
353.901	99.81
354.128	89.81
354.355	76.81
354.583	82.81
354.81	75.81
355.037	93.81
355.264	73.81
355.491	76.81
355.718	92.81
355.945	92.81
356.172	87.81
356.399	82.81
356.626	74.81
356.853	89.81
357.08	78.81
357.307	78.81
357.534	84.81
357.761	85.81
357.988	70.81
358.215	85.81
358.441	87.81
358.668	81.81
358.895	89.81
359.122	94.81
359.349	80.81
359.576	96.81
359.802	94.81
360.029	90.81
360.256	80.81
360.483	78.81
360.709	71.81
360.936	90.81
361.163	79.81
361.39	88.81
361.616	87.81
361.843	77.81
362.07	89.81
362.296	94.81
362.523	82.81
362.749	84.81
362.976	87.81
363.203	74.81
363.429	79.81
363.656	92.81
363.882	83.81
364.109	87.81
364.335	84.81
364.562	88.81
364.788	66.81
365.015	88.81
365.241	77.81
365.468	84.81
365.694	81.81
365.92	83.81
366.147	91.81
366.373	101.81
366.599	71.81
366.826	78.81
367.052	85.81
367.278	80.81
367.505	78.81
367.731	89.81
367.957	91.81
368.184	96.81
368.41	87.81
368.636	90.81
368.862	87.81
369.089	87.81
369.315	78.81
369.541	87.81
369.767	81.81
369.993	64.81
370.219	79.81
370.445	88.81
370.672	86.81
370.898	82.81
371.124	75.81
371.35	84.81
371.576	74.81
371.802	81.81
372.028	76.81
372.254	95.81
372.48	78.81
372.706	89.81
372.932	84.81
373.158	71.81
373.384	66.81
373.61	91.81
373.835	84.81
374.061	82.81
374.287	85.81
374.513	81.81
374.739	80.81
374.965	80.81
375.191	90.81
375.416	75.81
375.642	88.81
375.868	72.81
376.094	79.81
376.319	85.81
376.545	86.81
376.771	64.81
376.997	79.81
377.222	78.81
377.448	86.81
377.674	97.81
377.899	85.81
378.125	94.81
378.35	86.81
378.576	70.81
378.802	75.81
379.027	86.81
379.253	85.81
379.478	86.81
379.704	94.81
379.929	97.81
380.155	97.81
380.38	87.81
380.606	77.81
380.831	80.81
381.057	77.81
381.282	89.81
381.507	88.81
381.733	76.81
381.958	76.81
382.184	84.81
382.409	66.81
382.634	80.81
382.86	90.81
383.085	95.81
383.31	81.81
383.535	81.81
383.761	81.81
383.986	86.81
384.211	86.81
384.436	90.81
384.662	82.81
384.887	92.81
385.112	69.81
385.337	90.81
385.562	76.81
385.787	84.81
386.013	97.81
386.238	90.81
386.463	71.81
386.688	90.81
386.913	86.81
387.138	87.81
387.363	81.81
387.588	95.81
387.813	73.81
388.038	93.81
388.263	92.81
388.488	95.81
388.713	92.81
388.938	74.81
389.163	76.81
389.387	88.81
389.612	89.81
389.837	88.81
390.062	91.81
390.287	85.81
390.512	78.81
390.736	74.81
390.961	84.81
391.186	86.81
391.411	81.81
391.636	84.81
391.86	88.81
392.085	82.81
392.31	78.81
392.534	82.81
392.759	79.81
392.984	85.81
393.208	81.81
393.433	79.81
393.658	104.81
393.882	67.81
394.107	82.81
394.331	88.81
394.556	95.81
394.78	89.81
395.005	77.81
395.229	80.81
395.454	81.81
395.678	82.81
395.903	78.81
396.127	80.81
396.352	93.81
396.576	92.81
396.801	84.81
397.025	81.81
397.249	92.81
397.474	74.81
397.698	80.81
397.922	77.81
398.147	104.81
398.371	87.81
398.595	83.81
398.82	69.81
399.044	89.81
399.268	80.81
399.492	78.81
399.717	83.81
399.941	98.81
400.165	81.81
400.389	66.81
400.613	84.81
400.837	97.81
401.062	84.81
401.286	74.81
401.51	84.81
401.734	81.81
401.958	80.81
402.182	87.81
402.406	93.81
402.63	92.81
402.854	74.81
403.078	81.81
403.302	79.81
403.526	78.81
403.75	85.81
403.974	82.81
404.198	84.81
404.422	88.81
404.645	95.81
404.869	86.81
405.093	97.81
405.317	75.81
405.541	86.81
405.765	77.81
405.988	92.81
406.212	94.81
406.436	80.81
406.66	76.81
406.883	73.81
407.107	77.81
407.331	82.81
407.555	104.81
407.778	84.81
408.002	89.81
408.226	93.81
408.449	79.81
408.673	88.81
408.896	80.81
409.12	84.81
409.344	74.81
409.567	77.81
409.791	94.81
410.014	89.81
410.238	80.81
410.461	82.81
410.685	87.81
410.908	92.81
411.132	89.81
411.355	76.81
411.578	88.81
411.802	84.81
412.025	84.81
412.249	89.81
412.472	86.81
412.695	77.81
412.919	96.81
413.142	102.81
413.365	92.81
413.589	80.81
413.812	85.81
414.035	84.81
414.258	86.81
414.482	74.81
414.705	87.81
414.928	92.81
415.151	93.81
415.374	80.81
415.597	85.81
415.821	66.81
416.044	84.81
416.267	71.81
416.49	83.81
416.713	92.81
416.936	85.81
417.159	108.81
417.382	72.81
417.605	72.81
417.828	81.81
418.051	71.81
418.274	81.81
418.497	87.81
418.72	88.81
418.943	74.81
419.166	87.81
419.389	86.81
419.611	89.81
419.834	106.81
420.057	81.81
420.28	81.81
420.503	78.81
420.726	95.81
420.948	93.81
421.171	84.81
421.394	87.81
421.617	72.81
421.839	84.81
422.062	78.81
422.285	80.81
422.507	70.81
422.73	81.81
422.953	72.81
423.175	87.81
423.398	82.81
423.621	85.81
423.843	97.81
424.066	90.81
424.288	91.81
424.511	81.81
424.733	93.81
424.956	73.81
425.178	71.81
425.401	99.81
425.623	88.81
425.846	81.81
426.068	92.81
426.291	74.81
426.513	94.81
426.735	84.81
426.958	72.81
427.18	83.81
427.402	70.81
427.625	86.81
427.847	105.81
428.069	86.81
428.292	93.81
428.514	98.81
428.736	85.81
428.958	94.81
429.181	77.81
429.403	77.81
429.625	88.81
429.847	78.81
430.069	93.81
430.292	104.81
430.514	78.81
430.736	98.81
430.958	79.81
431.18	78.81
431.402	72.81
431.624	85.81
431.846	90.81
432.068	80.81
432.29	87.81
432.512	84.81
432.734	77.81
432.956	91.81
433.178	95.81
433.4	95.81
433.622	88.81
433.844	73.81
434.066	80.81
434.287	86.81
434.509	82.81
434.731	90.81
434.953	89.81
435.175	74.81
435.397	81.81
435.618	96.81
435.84	90.81
436.062	79.81
436.284	85.81
436.505	92.81
436.727	96.81
436.949	90.81
437.17	83.81
437.392	78.81
437.614	84.81
437.835	92.81
438.057	87.81
438.278	95.81
438.5	84.81
438.721	86.81
438.943	83.81
439.165	86.81
439.386	76.81
439.608	95.81
439.829	88.81
440.05	75.81
440.272	61.81
440.493	100.81
440.715	93.81
440.936	84.81
441.158	88.81
441.379	82.81
441.6	87.81
441.822	84.81
442.043	78.81
442.264	88.81
442.486	81.81
442.707	85.81
442.928	83.81
443.149	85.81
443.371	71.81
443.592	82.81
443.813	90.81
444.034	87.81
444.255	74.81
444.476	80.81
444.698	93.81
444.919	66.81
445.14	165.81
445.361	112.81
445.582	92.81
445.803	90.81
446.024	99.81
446.245	86.81
446.466	93.81
446.687	89.81
446.908	67.81
447.129	77.81
447.35	99.81
447.571	86.81
447.792	94.81
448.013	89.81
448.234	84.81
448.455	77.81
448.675	95.81
448.896	96.81
449.117	94.81
449.338	88.81
449.559	95.81
449.779	85.81
450	88.81
450.221	70.81
450.442	90.81
450.662	84.81
450.883	78.81
451.104	82.81
451.324	85.81
451.545	101.81
451.766	78.81
451.986	85.81
452.207	81.81
452.428	64.81
452.648	77.81
452.869	78.81
453.089	77.81
453.31	83.81
453.53	73.81
453.751	72.81
453.971	85.81
454.192	78.81
454.412	72.81
454.633	88.81
454.853	93.81
455.073	86.81
455.294	87.81
455.514	88.81
455.734	82.81
455.955	89.81
456.175	89.81
456.395	70.81
456.616	75.81
456.836	72.81
457.056	84.81
457.276	72.81
457.497	78.81
457.717	88.81
457.937	88.81
458.157	85.81
458.377	93.81
458.598	76.81
458.818	87.81
459.038	75.81
459.258	90.81
459.478	85.81
459.698	82.81
459.918	82.81
460.138	78.81
460.358	73.81
460.578	65.81
460.798	86.81
461.018	76.81
461.238	70.81
461.458	82.81
461.678	88.81
461.898	84.81
462.118	97.81
462.338	79.81
462.558	73.81
462.777	78.81
462.997	82.81
463.217	99.81
463.437	98.81
463.657	74.81
463.876	93.81
464.096	82.81
464.316	87.81
464.536	98.81
464.755	88.81
464.975	104.81
465.195	84.81
465.414	81.81
465.634	96.81
465.854	89.81
466.073	116.81
466.293	90.81
466.512	86.81
466.732	90.81
466.951	78.81
467.171	82.81
467.391	109.81
467.61	100.81
467.829	113.81
468.049	161.81
468.268	176.81
468.488	118.81
468.707	92.81
468.927	76.81
469.146	101.81
469.365	92.81
469.585	90.81
469.804	86.81
470.023	90.81
470.243	88.81
470.462	104.81
470.681	94.81
470.901	92.81
471.12	82.81
471.339	97.81
471.558	93.81
471.777	99.81
471.997	125.81
472.216	229.81
472.435	328.81
472.654	122.81
472.873	94.81
473.092	84.81
473.311	89.81
473.53	88.81
473.749	75.81
473.968	88.81
474.187	66.81
474.406	80.81
474.625	82.81
474.844	85.81
475.063	74.81
475.282	77.81
475.501	84.81
475.72	91.81
475.939	76.81
476.158	70.81
476.377	86.81
476.596	77.81
476.814	92.81
477.033	90.81
477.252	81.81
477.471	67.81
477.69	89.81
477.908	87.81
478.127	81.81
478.346	66.81
478.564	88.81
478.783	80.81
479.002	76.81
479.22	94.81
479.439	82.81
479.658	86.81
479.876	73.81
480.095	72.81
480.313	78.81
480.532	102.81
480.751	114.81
480.969	231.81
481.188	498.81
481.406	279.81
481.624	104.81
481.843	84.81
482.061	85.81
482.28	85.81
482.498	95.81
482.717	97.81
482.935	95.81
483.153	90.81
483.372	85.81
483.59	77.81
483.808	88.81
484.027	79.81
484.245	82.81
484.463	96.81
484.681	76.81
484.9	80.81
485.118	89.81
485.336	84.81
485.554	89.81
485.772	82.81
485.99	86.81
486.209	80.81
486.427	88.81
486.645	79.81
486.863	88.81
487.081	100.81
487.299	93.81
487.517	78.81
487.735	81.81
487.953	83.81
488.171	82.81
488.389	103.81
488.607	89.81
488.825	82.81
489.043	82.81
489.261	96.81
489.479	84.81
489.696	76.81
489.914	81.81
490.132	80.81
490.35	79.81
490.568	87.81
490.786	86.81
491.003	93.81
491.221	89.81
491.439	88.81
491.657	72.81
491.874	82.81
492.092	97.81
492.31	86.81
492.527	95.81
492.745	93.81
492.963	97.81
493.18	73.81
493.398	75.81
493.615	71.81
493.833	80.81
494.05	79.81
494.268	78.81
494.485	95.81
494.703	92.81
494.92	88.81
495.138	88.81
495.355	101.81
495.573	87.81
495.79	72.81
496.008	86.81
496.225	82.81
496.442	79.81
496.66	89.81
496.877	95.81
497.094	88.81
497.312	78.81
497.529	89.81
497.746	77.81
497.963	90.81
498.181	96.81
498.398	77.81
498.615	74.81
498.832	92.81
499.049	85.81
499.267	82.81
499.484	87.81
499.701	69.81
499.918	88.81
500.135	80.81
500.352	79.81
500.569	88.81
500.786	91.81
501.003	89.81
501.22	65.81
501.437	80.81
501.654	85.81
501.871	90.81
502.088	86.81
502.305	91.81
502.522	80.81
502.739	86.81
502.956	86.81
503.172	84.81
503.389	89.81
503.606	70.81
503.823	85.81
504.04	91.81
504.256	89.81
504.473	79.81
504.69	92.81
504.907	76.81
505.123	93.81
505.34	95.81
505.557	78.81
505.773	75.81
505.99	85.81
506.207	89.81
506.423	71.81
506.64	84.81
506.856	80.81
507.073	81.81
507.289	70.81
507.506	71.81
507.722	84.81
507.939	81.81
508.155	74.81
508.372	84.81
508.588	89.81
508.805	82.81
509.021	87.81
509.238	87.81
509.454	93.81
509.67	76.81
509.887	77.81
510.103	93.81
510.319	81.81
510.536	93.81
510.752	84.81
510.968	91.81
511.184	84.81
511.401	81.81
511.617	89.81
511.833	81.81
512.049	84.81
512.265	87.81
512.481	75.81
512.698	62.81
512.914	81.81
513.13	80.81
513.346	79.81
513.562	88.81
513.778	80.81
513.994	73.81
514.21	84.81
514.426	80.81
514.642	87.81
514.858	80.81
515.074	86.81
515.29	73.81
515.506	102.81
515.721	80.81
515.937	90.81
516.153	83.81
516.369	88.81
516.585	90.81
516.801	81.81
517.016	88.81
517.232	78.81
517.448	80.81
517.664	86.81
517.879	84.81
518.095	79.81
518.311	82.81
518.527	89.81
518.742	76.81
518.958	78.81
519.173	96.81
519.389	81.81
