Data from StdC_HRD10591_097.txt Node
Date: Fri May 16 15:29:29 EDT 2025
User: Yrep
Spectrometer: HR+D1059
Trigger mode: 1
Integration Time (sec): 1.000000E-1
Scans to average: 1
Electric dark correction enabled: true
Nonlinearity correction enabled: false
Boxcar width: 0
XAxis mode: Wavelengths
Number of Pixels in Spectrum: 2048
>>>>>Begin Spectral Data<<<<<
223.165	-14.81
223.4	-14.81
223.635	-14.81
223.869	-25.81
224.104	-22.81
224.338	-10.81
224.573	-30.81
224.808	-1.81
225.042	-8.81
225.277	-12.81
225.511	-5.81
225.746	25.19
225.98	16.19
226.215	9.19
226.449	15.19
226.683	22.19
226.918	20.19
227.152	26.19
227.387	33.19
227.621	43.19
227.856	34.19
228.09	34.19
228.324	38.19
228.559	57.19
228.793	50.19
229.027	74.19
229.262	77.19
229.496	78.19
229.73	85.19
229.964	82.19
230.199	81.19
230.433	78.19
230.667	91.19
230.901	82.19
231.136	81.19
231.37	89.19
231.604	100.19
231.838	89.19
232.072	91.19
232.306	108.19
232.541	91.19
232.775	74.19
233.009	91.19
233.243	88.19
233.477	85.19
233.711	91.19
233.945	95.19
234.179	85.19
234.413	94.19
234.647	87.19
234.881	99.19
235.115	94.19
235.349	79.19
235.583	79.19
235.817	97.19
236.051	92.19
236.285	94.19
236.519	88.19
236.753	74.19
236.987	90.19
237.221	92.19
237.455	91.19
237.689	89.19
237.922	79.19
238.156	91.19
238.39	109.19
238.624	105.19
238.858	96.19
239.091	82.19
239.325	90.19
239.559	94.19
239.793	92.19
240.027	81.19
240.26	83.19
240.494	96.19
240.728	95.19
240.961	89.19
241.195	103.19
241.429	88.19
241.662	87.19
241.896	87.19
242.13	94.19
242.363	92.19
242.597	86.19
242.83	102.19
243.064	99.19
243.298	86.19
243.531	101.19
243.765	86.19
243.998	101.19
244.232	109.19
244.465	98.19
244.699	112.19
244.932	101.19
245.166	108.19
245.399	94.19
245.633	99.19
245.866	109.19
246.099	126.19
246.333	113.19
246.566	101.19
246.8	87.19
247.033	100.19
247.266	114.19
247.5	120.19
247.733	105.19
247.966	104.19
248.2	102.19
248.433	94.19
248.666	113.19
248.899	110.19
249.133	98.19
249.366	120.19
249.599	122.19
249.832	134.19
250.066	135.19
250.299	174.19
250.532	209.19
250.765	178.19
250.998	154.19
251.231	127.19
251.465	136.19
251.698	138.19
251.931	129.19
252.164	120.19
252.397	122.19
252.63	125.19
252.863	118.19
253.096	133.19
253.329	129.19
253.562	130.19
253.795	135.19
254.028	129.19
254.261	130.19
254.494	117.19
254.727	137.19
254.96	123.19
255.193	145.19
255.426	155.19
255.659	196.19
255.892	265.19
256.124	310.19
256.357	251.19
256.59	201.19
256.823	161.19
257.056	152.19
257.289	146.19
257.521	176.19
257.754	142.19
257.987	128.19
258.22	141.19
258.452	139.19
258.685	138.19
258.918	134.19
259.151	132.19
259.383	133.19
259.616	144.19
259.849	126.19
260.081	115.19
260.314	147.19
260.547	133.19
260.779	153.19
261.012	133.19
261.244	136.19
261.477	135.19
261.71	144.19
261.942	127.19
262.175	141.19
262.407	126.19
262.64	124.19
262.872	141.19
263.105	129.19
263.337	141.19
263.57	119.19
263.802	137.19
264.035	122.19
264.267	130.19
264.499	123.19
264.732	121.19
264.964	125.19
265.197	121.19
265.429	129.19
265.661	129.19
265.894	125.19
266.126	140.19
266.358	121.19
266.591	135.19
266.823	125.19
267.055	133.19
267.287	129.19
267.52	122.19
267.752	128.19
267.984	145.19
268.216	143.19
268.448	125.19
268.681	141.19
268.913	139.19
269.145	131.19
269.377	142.19
269.609	136.19
269.841	138.19
270.073	139.19
270.306	143.19
270.538	139.19
270.77	144.19
271.002	136.19
271.234	141.19
271.466	147.19
271.698	150.19
271.93	144.19
272.162	142.19
272.394	146.19
272.626	131.19
272.858	125.19
273.09	155.19
273.322	159.19
273.553	167.19
273.785	149.19
274.017	149.19
274.249	148.19
274.481	158.19
274.713	135.19
274.945	150.19
275.176	153.19
275.408	175.19
275.64	171.19
275.872	190.19
276.104	182.19
276.335	174.19
276.567	183.19
276.799	200.19
277.031	233.19
277.262	243.19
277.494	222.19
277.726	208.19
277.957	189.19
278.189	183.19
278.421	182.19
278.652	165.19
278.884	171.19
279.115	184.19
279.347	180.19
279.579	190.19
279.81	218.19
280.042	254.19
280.273	286.19
280.505	269.19
280.736	205.19
280.968	182.19
281.199	197.19
281.431	185.19
281.662	174.19
281.894	172.19
282.125	165.19
282.356	165.19
282.588	166.19
282.819	157.19
283.051	161.19
283.282	158.19
283.513	154.19
283.745	170.19
283.976	172.19
284.207	168.19
284.439	161.19
284.67	163.19
284.901	171.19
285.132	163.19
285.364	176.19
285.595	156.19
285.826	154.19
286.057	143.19
286.288	165.19
286.52	181.19
286.751	169.19
286.982	152.19
287.213	159.19
287.444	161.19
287.675	156.19
287.906	168.19
288.138	156.19
288.369	159.19
288.6	161.19
288.831	141.19
289.062	157.19
289.293	171.19
289.524	172.19
289.755	177.19
289.986	166.19
290.217	151.19
290.448	166.19
290.679	153.19
290.91	150.19
291.141	175.19
291.371	152.19
291.602	162.19
291.833	170.19
292.064	163.19
292.295	187.19
292.526	143.19
292.757	146.19
292.987	150.19
293.218	155.19
293.449	142.19
293.68	162.19
293.91	157.19
294.141	146.19
294.372	147.19
294.603	131.19
294.833	157.19
295.064	167.19
295.295	163.19
295.525	162.19
295.756	160.19
295.987	160.19
296.217	166.19
296.448	170.19
296.679	166.19
296.909	158.19
297.14	175.19
297.37	153.19
297.601	163.19
297.831	149.19
298.062	168.19
298.292	160.19
298.523	155.19
298.753	160.19
298.984	167.19
299.214	168.19
299.445	164.19
299.675	166.19
299.905	166.19
300.136	160.19
300.366	178.19
300.597	162.19
300.827	173.19
301.057	155.19
301.288	166.19
301.518	158.19
301.748	171.19
301.979	166.19
302.209	184.19
302.439	177.19
302.669	159.19
302.9	172.19
303.13	176.19
303.36	186.19
303.59	191.19
303.82	203.19
304.051	185.19
304.281	167.19
304.511	176.19
304.741	175.19
304.971	163.19
305.201	182.19
305.431	168.19
305.661	171.19
305.891	177.19
306.121	154.19
306.352	181.19
306.582	170.19
306.812	199.19
307.042	220.19
307.272	237.19
307.502	224.19
307.731	217.19
307.961	193.19
308.191	175.19
308.421	182.19
308.651	166.19
308.881	190.19
309.111	154.19
309.341	166.19
309.571	153.19
309.8	181.19
310.03	172.19
310.26	172.19
310.49	171.19
310.72	192.19
310.949	176.19
311.179	183.19
311.409	174.19
311.639	177.19
311.868	179.19
312.098	162.19
312.328	165.19
312.557	181.19
312.787	170.19
313.017	169.19
313.246	200.19
313.476	170.19
313.706	170.19
313.935	169.19
314.165	166.19
314.394	173.19
314.624	178.19
314.853	161.19
315.083	175.19
315.312	185.19
315.542	181.19
315.771	182.19
316.001	177.19
316.23	179.19
316.46	166.19
316.689	185.19
316.919	193.19
317.148	177.19
317.377	188.19
317.607	182.19
317.836	183.19
318.065	182.19
318.295	179.19
318.524	183.19
318.753	190.19
318.983	181.19
319.212	186.19
319.441	201.19
319.67	185.19
319.9	188.19
320.129	181.19
320.358	179.19
320.587	185.19
320.816	203.19
321.046	205.19
321.275	201.19
321.504	188.19
321.733	198.19
321.962	194.19
322.191	197.19
322.42	205.19
322.649	212.19
322.878	201.19
323.108	231.19
323.337	208.19
323.566	213.19
323.795	215.19
324.024	207.19
324.253	214.19
324.482	221.19
324.71	209.19
324.939	239.19
325.168	226.19
325.397	231.19
325.626	219.19
325.855	241.19
326.084	236.19
326.313	244.19
326.542	243.19
326.77	271.19
326.999	280.19
327.228	298.19
327.457	333.19
327.686	415.19
327.914	544.19
328.143	730.19
328.372	784.19
328.6	553.19
328.829	402.19
329.058	400.19
329.287	415.19
329.515	507.19
329.744	694.19
329.972	993.19
330.201	1345.19
330.43	1377.19
330.658	786.19
330.887	495.19
331.115	407.19
331.344	355.19
331.572	327.19
331.801	311.19
332.03	315.19
332.258	329.19
332.486	339.19
332.715	343.19
332.943	367.19
333.172	397.19
333.4	461.19
333.629	543.19
333.857	752.19
334.085	1081.19
334.314	1562.19
334.542	1869.19
334.771	1520.19
334.999	794.19
335.227	508.19
335.455	405.19
335.684	354.19
335.912	330.19
336.14	301.19
336.369	274.19
336.597	275.19
336.825	272.19
337.053	271.19
337.281	258.19
337.51	263.19
337.738	239.19
337.966	217.19
338.194	226.19
338.422	203.19
338.65	222.19
338.878	221.19
339.106	227.19
339.334	208.19
339.562	218.19
339.79	192.19
340.018	195.19
340.246	202.19
340.474	216.19
340.702	216.19
340.93	197.19
341.158	195.19
341.386	203.19
341.614	197.19
341.842	205.19
342.07	178.19
342.298	188.19
342.526	194.19
342.754	192.19
342.981	201.19
343.209	203.19
343.437	190.19
343.665	201.19
343.893	185.19
344.12	207.19
344.348	189.19
344.576	200.19
344.804	186.19
345.031	204.19
345.259	196.19
345.487	196.19
345.714	204.19
345.942	191.19
346.17	201.19
346.397	193.19
346.625	198.19
346.853	185.19
347.08	181.19
347.308	195.19
347.535	207.19
347.763	190.19
347.99	183.19
348.218	173.19
348.445	183.19
348.673	193.19
348.9	177.19
349.128	207.19
349.355	173.19
349.583	193.19
349.81	174.19
350.037	186.19
350.265	180.19
350.492	199.19
350.72	169.19
350.947	184.19
351.174	185.19
351.402	187.19
351.629	185.19
351.856	187.19
352.083	184.19
352.311	206.19
352.538	185.19
352.765	185.19
352.992	194.19
353.22	199.19
353.447	194.19
353.674	173.19
353.901	186.19
354.128	210.19
354.355	185.19
354.583	182.19
354.81	193.19
355.037	185.19
355.264	172.19
355.491	179.19
355.718	184.19
355.945	200.19
356.172	186.19
356.399	175.19
356.626	185.19
356.853	193.19
357.08	185.19
357.307	191.19
357.534	197.19
357.761	186.19
357.988	197.19
358.215	192.19
358.441	177.19
358.668	178.19
358.895	188.19
359.122	182.19
359.349	187.19
359.576	178.19
359.802	182.19
360.029	199.19
360.256	174.19
360.483	186.19
360.709	184.19
360.936	194.19
361.163	179.19
361.39	171.19
361.616	186.19
361.843	174.19
362.07	178.19
362.296	176.19
362.523	202.19
362.749	181.19
362.976	175.19
363.203	181.19
363.429	169.19
363.656	191.19
363.882	184.19
364.109	184.19
364.335	171.19
364.562	180.19
364.788	182.19
365.015	193.19
365.241	184.19
365.468	176.19
365.694	181.19
365.92	181.19
366.147	192.19
366.373	184.19
366.599	190.19
366.826	186.19
367.052	185.19
367.278	172.19
367.505	191.19
367.731	183.19
367.957	183.19
368.184	190.19
368.41	189.19
368.636	176.19
368.862	185.19
369.089	193.19
369.315	173.19
369.541	189.19
369.767	168.19
369.993	176.19
370.219	185.19
370.445	193.19
370.672	170.19
370.898	197.19
371.124	178.19
371.35	188.19
371.576	177.19
371.802	195.19
372.028	194.19
372.254	182.19
372.48	178.19
372.706	182.19
372.932	189.19
373.158	179.19
373.384	202.19
373.61	193.19
373.835	197.19
374.061	181.19
374.287	189.19
374.513	192.19
374.739	200.19
374.965	196.19
375.191	198.19
375.416	190.19
375.642	189.19
375.868	190.19
376.094	184.19
376.319	199.19
376.545	181.19
376.771	181.19
376.997	184.19
377.222	194.19
377.448	198.19
377.674	204.19
377.899	199.19
378.125	188.19
378.35	176.19
378.576	194.19
378.802	191.19
379.027	186.19
379.253	191.19
379.478	204.19
379.704	188.19
379.929	193.19
380.155	200.19
380.38	178.19
380.606	195.19
380.831	186.19
381.057	195.19
381.282	182.19
381.507	185.19
381.733	186.19
381.958	189.19
382.184	179.19
382.409	184.19
382.634	197.19
382.86	183.19
383.085	213.19
383.31	184.19
383.535	194.19
383.761	205.19
383.986	193.19
384.211	191.19
384.436	211.19
384.662	201.19
384.887	181.19
385.112	210.19
385.337	196.19
385.562	199.19
385.787	213.19
386.013	226.19
386.238	213.19
386.463	210.19
386.688	214.19
386.913	208.19
387.138	209.19
387.363	194.19
387.588	195.19
387.813	202.19
388.038	213.19
388.263	213.19
388.488	206.19
388.713	218.19
388.938	206.19
389.163	208.19
389.387	204.19
389.612	211.19
389.837	222.19
390.062	211.19
390.287	206.19
390.512	213.19
390.736	223.19
390.961	200.19
391.186	200.19
391.411	224.19
391.636	213.19
391.86	203.19
392.085	223.19
392.31	220.19
392.534	218.19
392.759	202.19
392.984	218.19
393.208	209.19
393.433	213.19
393.658	222.19
393.882	225.19
394.107	218.19
394.331	201.19
394.556	221.19
394.78	218.19
395.005	210.19
395.229	213.19
395.454	220.19
395.678	214.19
395.903	234.19
396.127	214.19
396.352	209.19
396.576	229.19
396.801	205.19
397.025	221.19
397.249	212.19
397.474	216.19
397.698	235.19
397.922	222.19
398.147	225.19
398.371	240.19
398.595	240.19
398.82	242.19
399.044	239.19
399.268	273.19
399.492	269.19
399.717	288.19
399.941	273.19
400.165	283.19
400.389	255.19
400.613	245.19
400.837	237.19
401.062	226.19
401.286	230.19
401.51	239.19
401.734	241.19
401.958	241.19
402.182	237.19
402.406	243.19
402.63	241.19
402.854	245.19
403.078	224.19
403.302	250.19
403.526	254.19
403.75	265.19
403.974	269.19
404.198	277.19
404.422	257.19
404.645	274.19
404.869	288.19
405.093	313.19
405.317	312.19
405.541	319.19
405.765	297.19
405.988	281.19
406.212	256.19
406.436	254.19
406.66	281.19
406.883	264.19
407.107	274.19
407.331	257.19
407.555	262.19
407.778	266.19
408.002	254.19
408.226	268.19
408.449	263.19
408.673	255.19
408.896	265.19
409.12	261.19
409.344	249.19
409.567	248.19
409.791	257.19
410.014	245.19
410.238	258.19
410.461	253.19
410.685	243.19
410.908	255.19
411.132	251.19
411.355	249.19
411.578	262.19
411.802	267.19
412.025	271.19
412.249	288.19
412.472	327.19
412.695	333.19
412.919	320.19
413.142	289.19
413.365	281.19
413.589	283.19
413.812	284.19
414.035	259.19
414.258	270.19
414.482	258.19
414.705	257.19
414.928	255.19
415.151	250.19
415.374	242.19
415.597	244.19
415.821	243.19
416.044	245.19
416.267	245.19
416.49	242.19
416.713	245.19
416.936	241.19
417.159	262.19
417.382	278.19
417.605	274.19
417.828	259.19
418.051	247.19
418.274	231.19
418.497	238.19
418.72	246.19
418.943	230.19
419.166	259.19
419.389	264.19
419.611	272.19
419.834	269.19
420.057	305.19
420.28	305.19
420.503	302.19
420.726	288.19
420.948	266.19
421.171	275.19
421.394	255.19
421.617	257.19
421.839	248.19
422.062	245.19
422.285	241.19
422.507	249.19
422.73	254.19
422.953	243.19
423.175	250.19
423.398	235.19
423.621	249.19
423.843	258.19
424.066	246.19
424.288	245.19
424.511	224.19
424.733	230.19
424.956	249.19
425.178	250.19
425.401	250.19
425.623	261.19
425.846	238.19
426.068	240.19
426.291	249.19
426.513	239.19
426.735	231.19
426.958	254.19
427.18	264.19
427.402	259.19
427.625	273.19
427.847	333.19
428.069	352.19
428.292	309.19
428.514	261.19
428.736	251.19
428.958	255.19
429.181	239.19
429.403	222.19
429.625	223.19
429.847	236.19
430.069	245.19
430.292	241.19
430.514	233.19
430.736	214.19
430.958	237.19
431.18	223.19
431.402	219.19
431.624	237.19
431.846	219.19
432.068	214.19
432.29	231.19
432.512	231.19
432.734	215.19
432.956	230.19
433.178	229.19
433.4	233.19
433.622	218.19
433.844	237.19
434.066	223.19
434.287	230.19
434.509	218.19
434.731	216.19
434.953	240.19
435.175	217.19
435.397	242.19
435.618	218.19
435.84	222.19
436.062	204.19
436.284	229.19
436.505	217.19
436.727	226.19
436.949	220.19
437.17	231.19
437.392	209.19
437.614	207.19
437.835	210.19
438.057	211.19
438.278	207.19
438.5	218.19
438.721	210.19
438.943	226.19
439.165	228.19
439.386	210.19
439.608	223.19
439.829	237.19
440.05	226.19
440.272	221.19
440.493	221.19
440.715	219.19
440.936	242.19
441.158	241.19
441.379	231.19
441.6	218.19
441.822	237.19
442.043	237.19
442.264	230.19
442.486	227.19
442.707	252.19
442.928	235.19
443.149	239.19
443.371	242.19
443.592	233.19
443.813	240.19
444.034	222.19
444.255	226.19
444.476	252.19
444.698	225.19
444.919	259.19
445.14	323.19
445.361	273.19
445.582	239.19
445.803	220.19
446.024	225.19
446.245	218.19
446.466	236.19
446.687	233.19
446.908	208.19
447.129	221.19
447.35	213.19
447.571	225.19
447.792	211.19
448.013	219.19
448.234	208.19
448.455	203.19
448.675	206.19
448.896	210.19
449.117	208.19
449.338	226.19
449.559	221.19
449.779	219.19
450	212.19
450.221	215.19
450.442	222.19
450.662	202.19
450.883	222.19
451.104	212.19
451.324	205.19
451.545	221.19
451.766	216.19
451.986	223.19
452.207	217.19
452.428	228.19
452.648	205.19
452.869	201.19
453.089	214.19
453.31	202.19
453.53	206.19
453.751	217.19
453.971	185.19
454.192	204.19
454.412	186.19
454.633	210.19
454.853	205.19
455.073	183.19
455.294	195.19
455.514	216.19
455.734	204.19
455.955	206.19
456.175	201.19
456.395	193.19
456.616	205.19
456.836	202.19
457.056	202.19
457.276	201.19
457.497	208.19
457.717	196.19
457.937	195.19
458.157	210.19
458.377	214.19
458.598	214.19
458.818	208.19
459.038	211.19
459.258	207.19
459.478	211.19
459.698	220.19
459.918	222.19
460.138	224.19
460.358	233.19
460.578	248.19
460.798	233.19
461.018	246.19
461.238	239.19
461.458	237.19
461.678	237.19
461.898	243.19
462.118	248.19
462.338	240.19
462.558	256.19
462.777	250.19
462.997	277.19
463.217	267.19
463.437	274.19
463.657	269.19
463.876	265.19
464.096	257.19
464.316	243.19
464.536	252.19
464.755	255.19
464.975	255.19
465.195	232.19
465.414	226.19
465.634	236.19
465.854	237.19
466.073	239.19
466.293	234.19
466.512	242.19
466.732	244.19
466.951	247.19
467.171	242.19
467.391	269.19
467.61	294.19
467.829	392.19
468.049	698.19
468.268	821.19
468.488	483.19
468.707	370.19
468.927	323.19
469.146	288.19
469.365	272.19
469.585	284.19
469.804	269.19
470.023	272.19
470.243	253.19
470.462	265.19
470.681	255.19
470.901	289.19
471.12	283.19
471.339	291.19
471.558	313.19
471.777	353.19
471.997	514.19
472.216	1155.19
472.435	1751.19
472.654	978.19
472.873	579.19
473.092	459.19
473.311	379.19
473.53	345.19
473.749	307.19
473.968	303.19
474.187	300.19
474.406	302.19
474.625	283.19
474.844	267.19
475.063	260.19
475.282	276.19
475.501	269.19
475.72	252.19
475.939	249.19
476.158	257.19
476.377	255.19
476.596	250.19
476.814	262.19
477.033	250.19
477.252	260.19
477.471	262.19
477.69	260.19
477.908	286.19
478.127	286.19
478.346	275.19
478.564	285.19
478.783	305.19
479.002	302.19
479.22	294.19
479.439	309.19
479.658	309.19
479.876	314.19
480.095	355.19
480.313	383.19
480.532	456.19
480.751	622.19
480.969	1234.19
481.188	2776.19
481.406	2256.19
481.624	1057.19
481.843	713.19
482.061	547.19
482.28	478.19
482.498	416.19
482.717	385.19
482.935	387.19
483.153	382.19
483.372	359.19
483.59	358.19
483.808	344.19
484.027	335.19
484.245	313.19
484.463	306.19
484.681	302.19
484.9	304.19
485.118	315.19
485.336	288.19
485.554	305.19
485.772	283.19
485.99	297.19
486.209	296.19
486.427	299.19
486.645	289.19
486.863	295.19
487.081	309.19
487.299	294.19
487.517	306.19
487.735	295.19
487.953	295.19
488.171	314.19
488.389	305.19
488.607	296.19
488.825	291.19
489.043	297.19
489.261	313.19
489.479	300.19
489.696	309.19
489.914	323.19
490.132	337.19
490.35	350.19
490.568	389.19
490.786	364.19
491.003	400.19
491.221	433.19
491.439	468.19
491.657	456.19
491.874	465.19
492.092	483.19
492.31	496.19
492.527	530.19
492.745	537.19
492.963	536.19
493.18	490.19
493.398	474.19
493.615	449.19
493.833	427.19
494.05	399.19
494.268	379.19
494.485	385.19
494.703	383.19
494.92	384.19
495.138	362.19
495.355	359.19
495.573	359.19
495.79	365.19
496.008	360.19
496.225	342.19
496.442	361.19
496.66	337.19
496.877	357.19
497.094	348.19
497.312	341.19
497.529	340.19
497.746	314.19
497.963	357.19
498.181	333.19
498.398	354.19
498.615	350.19
498.832	349.19
499.049	365.19
499.267	396.19
499.484	358.19
499.701	419.19
499.918	430.19
500.135	456.19
500.352	481.19
500.569	506.19
500.786	493.19
501.003	464.19
501.22	432.19
501.437	399.19
501.654	374.19
501.871	368.19
502.088	370.19
502.305	358.19
502.522	337.19
502.739	333.19
502.956	334.19
503.172	307.19
503.389	291.19
