Data from StdC_HRD10591_071.txt Node
Date: Fri May 16 15:29:16 EDT 2025
User: Yrep
Spectrometer: HR+D1059
Trigger mode: 1
Integration Time (sec): 1.000000E-1
Scans to average: 1
Electric dark correction enabled: true
Nonlinearity correction enabled: false
Boxcar width: 0
XAxis mode: Wavelengths
Number of Pixels in Spectrum: 2048
>>>>>Begin Spectral Data<<<<<
223.165	-9.25
223.4	-9.25
223.635	-9.25
223.869	-4.25
224.104	-20.25
224.338	-20.25
224.573	-17.25
224.808	-11.25
225.042	-5.25
225.277	-15.25
225.511	-10.25
225.746	9.75
225.98	3.75
226.215	22.75
226.449	11.75
226.683	12.75
226.918	19.75
227.152	32.75
227.387	36.75
227.621	38.75
227.856	47.75
228.09	39.75
228.324	42.75
228.559	61.75
228.793	62.75
229.027	68.75
229.262	72.75
229.496	83.75
229.73	90.75
229.964	64.75
230.199	95.75
230.433	88.75
230.667	95.75
230.901	87.75
231.136	84.75
231.37	88.75
231.604	89.75
231.838	90.75
232.072	80.75
232.306	90.75
232.541	81.75
232.775	93.75
233.009	87.75
233.243	90.75
233.477	92.75
233.711	100.75
233.945	81.75
234.179	84.75
234.413	88.75
234.647	72.75
234.881	87.75
235.115	96.75
235.349	104.75
235.583	92.75
235.817	86.75
236.051	79.75
236.285	78.75
236.519	93.75
236.753	100.75
236.987	94.75
237.221	95.75
237.455	100.75
237.689	73.75
237.922	79.75
238.156	99.75
238.39	91.75
238.624	81.75
238.858	91.75
239.091	83.75
239.325	86.75
239.559	83.75
239.793	86.75
240.027	89.75
240.26	77.75
240.494	83.75
240.728	97.75
240.961	98.75
241.195	87.75
241.429	95.75
241.662	92.75
241.896	90.75
242.13	86.75
242.363	95.75
242.597	86.75
242.83	109.75
243.064	113.75
243.298	98.75
243.531	104.75
243.765	102.75
243.998	92.75
244.232	108.75
244.465	88.75
244.699	104.75
244.932	94.75
245.166	104.75
245.399	118.75
245.633	95.75
245.866	100.75
246.099	100.75
246.333	100.75
246.566	83.75
246.8	108.75
247.033	105.75
247.266	100.75
247.5	99.75
247.733	107.75
247.966	117.75
248.2	109.75
248.433	98.75
248.666	101.75
248.899	106.75
249.133	109.75
249.366	110.75
249.599	109.75
249.832	127.75
250.066	153.75
250.299	162.75
250.532	222.75
250.765	184.75
250.998	147.75
251.231	136.75
251.465	129.75
251.698	124.75
251.931	119.75
252.164	118.75
252.397	110.75
252.63	122.75
252.863	109.75
253.096	115.75
253.329	126.75
253.562	118.75
253.795	122.75
254.028	111.75
254.261	133.75
254.494	122.75
254.727	143.75
254.96	133.75
255.193	151.75
255.426	153.75
255.659	216.75
255.892	255.75
256.124	304.75
256.357	256.75
256.59	200.75
256.823	171.75
257.056	174.75
257.289	145.75
257.521	158.75
257.754	145.75
257.987	159.75
258.22	134.75
258.452	143.75
258.685	137.75
258.918	134.75
259.151	124.75
259.383	127.75
259.616	127.75
259.849	130.75
260.081	123.75
260.314	134.75
260.547	134.75
260.779	131.75
261.012	144.75
261.244	127.75
261.477	127.75
261.71	115.75
261.942	132.75
262.175	141.75
262.407	123.75
262.64	118.75
262.872	116.75
263.105	123.75
263.337	136.75
263.57	124.75
263.802	124.75
264.035	128.75
264.267	142.75
264.499	134.75
264.732	129.75
264.964	124.75
265.197	137.75
265.429	129.75
265.661	123.75
265.894	126.75
266.126	133.75
266.358	136.75
266.591	134.75
266.823	143.75
267.055	141.75
267.287	140.75
267.52	130.75
267.752	137.75
267.984	144.75
268.216	142.75
268.448	146.75
268.681	126.75
268.913	116.75
269.145	138.75
269.377	123.75
269.609	128.75
269.841	133.75
270.073	131.75
270.306	138.75
270.538	129.75
270.77	135.75
271.002	123.75
271.234	144.75
271.466	136.75
271.698	135.75
271.93	146.75
272.162	150.75
272.394	141.75
272.626	147.75
272.858	138.75
273.09	144.75
273.322	139.75
273.553	146.75
273.785	143.75
274.017	150.75
274.249	157.75
274.481	158.75
274.713	166.75
274.945	158.75
275.176	150.75
275.408	159.75
275.64	179.75
275.872	185.75
276.104	157.75
276.335	186.75
276.567	186.75
276.799	189.75
277.031	221.75
277.262	259.75
277.494	229.75
277.726	226.75
277.957	191.75
278.189	192.75
278.421	184.75
278.652	177.75
278.884	183.75
279.115	180.75
279.347	196.75
279.579	217.75
279.81	232.75
280.042	270.75
280.273	281.75
280.505	266.75
280.736	205.75
280.968	191.75
281.199	190.75
281.431	190.75
281.662	178.75
281.894	167.75
282.125	165.75
282.356	164.75
282.588	163.75
282.819	163.75
283.051	179.75
283.282	171.75
283.513	153.75
283.745	170.75
283.976	164.75
284.207	176.75
284.439	173.75
284.67	167.75
284.901	155.75
285.132	158.75
285.364	172.75
285.595	174.75
285.826	155.75
286.057	156.75
286.288	155.75
286.52	158.75
286.751	159.75
286.982	172.75
287.213	157.75
287.444	162.75
287.675	182.75
287.906	153.75
288.138	147.75
288.369	162.75
288.6	184.75
288.831	149.75
289.062	153.75
289.293	170.75
289.524	163.75
289.755	154.75
289.986	154.75
290.217	176.75
290.448	158.75
290.679	151.75
290.91	152.75
291.141	150.75
291.371	158.75
291.602	171.75
291.833	148.75
292.064	142.75
292.295	147.75
292.526	170.75
292.757	160.75
292.987	169.75
293.218	139.75
293.449	160.75
293.68	155.75
293.91	164.75
294.141	162.75
294.372	153.75
294.603	139.75
294.833	150.75
295.064	171.75
295.295	150.75
295.525	151.75
295.756	160.75
295.987	156.75
296.217	146.75
296.448	137.75
296.679	148.75
296.909	166.75
297.14	168.75
297.37	165.75
297.601	164.75
297.831	151.75
298.062	156.75
298.292	148.75
298.523	149.75
298.753	161.75
298.984	150.75
299.214	167.75
299.445	157.75
299.675	158.75
299.905	156.75
300.136	161.75
300.366	139.75
300.597	148.75
300.827	169.75
301.057	162.75
301.288	165.75
301.518	168.75
301.748	182.75
301.979	189.75
302.209	179.75
302.439	180.75
302.669	170.75
302.9	160.75
303.13	188.75
303.36	167.75
303.59	208.75
303.82	221.75
304.051	198.75
304.281	174.75
304.511	182.75
304.741	171.75
304.971	174.75
305.201	173.75
305.431	169.75
305.661	176.75
305.891	173.75
306.121	167.75
306.352	167.75
306.582	160.75
306.812	172.75
307.042	196.75
307.272	218.75
307.502	234.75
307.731	215.75
307.961	198.75
308.191	171.75
308.421	180.75
308.651	175.75
308.881	165.75
309.111	166.75
309.341	167.75
309.571	176.75
309.8	182.75
310.03	171.75
310.26	175.75
310.49	175.75
310.72	174.75
310.949	174.75
311.179	171.75
311.409	178.75
311.639	171.75
311.868	190.75
312.098	178.75
312.328	184.75
312.557	173.75
312.787	167.75
313.017	185.75
313.246	192.75
313.476	162.75
313.706	166.75
313.935	153.75
314.165	178.75
314.394	174.75
314.624	165.75
314.853	176.75
315.083	176.75
315.312	181.75
315.542	181.75
315.771	160.75
316.001	166.75
316.23	166.75
316.46	169.75
316.689	175.75
316.919	162.75
317.148	180.75
317.377	189.75
317.607	192.75
317.836	186.75
318.065	190.75
318.295	170.75
318.524	175.75
318.753	167.75
318.983	159.75
319.212	192.75
319.441	187.75
319.67	183.75
319.9	172.75
320.129	184.75
320.358	188.75
320.587	191.75
320.816	192.75
321.046	192.75
321.275	179.75
321.504	197.75
321.733	182.75
321.962	176.75
322.191	195.75
322.42	188.75
322.649	211.75
322.878	217.75
323.108	214.75
323.337	206.75
323.566	226.75
323.795	217.75
324.024	213.75
324.253	219.75
324.482	210.75
324.71	220.75
324.939	228.75
325.168	234.75
325.397	230.75
325.626	242.75
325.855	256.75
326.084	251.75
326.313	250.75
326.542	258.75
326.77	254.75
326.999	292.75
327.228	289.75
327.457	315.75
327.686	438.75
327.914	568.75
328.143	720.75
328.372	785.75
328.6	566.75
328.829	406.75
329.058	395.75
329.287	414.75
329.515	503.75
329.744	700.75
329.972	1007.75
330.201	1334.75
330.43	1392.75
330.658	796.75
330.887	486.75
331.115	399.75
331.344	362.75
331.572	341.75
331.801	304.75
332.03	324.75
332.258	310.75
332.486	347.75
332.715	351.75
332.943	386.75
333.172	391.75
333.4	462.75
333.629	539.75
333.857	740.75
334.085	1095.75
334.314	1611.75
334.542	1977.75
334.771	1554.75
334.999	792.75
335.227	516.75
335.455	418.75
335.684	352.75
335.912	325.75
336.14	311.75
336.369	286.75
336.597	280.75
336.825	274.75
337.053	266.75
337.281	263.75
337.51	242.75
337.738	246.75
337.966	226.75
338.194	228.75
338.422	211.75
338.65	216.75
338.878	209.75
339.106	209.75
339.334	222.75
339.562	217.75
339.79	205.75
340.018	214.75
340.246	212.75
340.474	192.75
340.702	187.75
340.93	207.75
341.158	196.75
341.386	197.75
341.614	183.75
341.842	190.75
342.07	198.75
342.298	188.75
342.526	196.75
342.754	210.75
342.981	188.75
343.209	167.75
343.437	190.75
343.665	180.75
343.893	184.75
344.12	214.75
344.348	200.75
344.576	205.75
344.804	200.75
345.031	212.75
345.259	188.75
345.487	190.75
345.714	177.75
345.942	196.75
346.17	191.75
346.397	195.75
346.625	187.75
346.853	178.75
347.08	208.75
347.308	184.75
347.535	180.75
347.763	186.75
347.99	190.75
348.218	180.75
348.445	187.75
348.673	183.75
348.9	196.75
349.128	186.75
349.355	197.75
349.583	188.75
349.81	178.75
350.037	176.75
350.265	168.75
350.492	182.75
350.72	183.75
350.947	191.75
351.174	184.75
351.402	181.75
351.629	193.75
351.856	192.75
352.083	180.75
352.311	184.75
352.538	171.75
352.765	198.75
352.992	186.75
353.22	200.75
353.447	202.75
353.674	191.75
353.901	199.75
354.128	179.75
354.355	192.75
354.583	174.75
354.81	184.75
355.037	197.75
355.264	198.75
355.491	185.75
355.718	185.75
355.945	186.75
356.172	198.75
356.399	182.75
356.626	191.75
356.853	182.75
357.08	195.75
357.307	169.75
357.534	200.75
357.761	189.75
357.988	199.75
358.215	185.75
358.441	180.75
358.668	184.75
358.895	178.75
359.122	181.75
359.349	178.75
359.576	191.75
359.802	199.75
360.029	192.75
360.256	172.75
360.483	188.75
360.709	183.75
360.936	186.75
361.163	195.75
361.39	178.75
361.616	165.75
361.843	182.75
362.07	174.75
362.296	171.75
362.523	188.75
362.749	172.75
362.976	172.75
363.203	175.75
363.429	175.75
363.656	191.75
363.882	192.75
364.109	180.75
364.335	186.75
364.562	182.75
364.788	189.75
365.015	172.75
365.241	194.75
365.468	171.75
365.694	168.75
365.92	182.75
366.147	186.75
366.373	185.75
366.599	187.75
366.826	185.75
367.052	196.75
367.278	192.75
367.505	187.75
367.731	191.75
367.957	180.75
368.184	188.75
368.41	185.75
368.636	180.75
368.862	188.75
369.089	184.75
369.315	186.75
369.541	171.75
369.767	175.75
369.993	181.75
370.219	189.75
370.445	192.75
370.672	178.75
370.898	185.75
371.124	183.75
371.35	182.75
371.576	192.75
371.802	188.75
372.028	196.75
372.254	192.75
372.48	184.75
372.706	182.75
372.932	192.75
373.158	207.75
373.384	194.75
373.61	172.75
373.835	171.75
374.061	191.75
374.287	183.75
374.513	188.75
374.739	206.75
374.965	226.75
375.191	188.75
375.416	184.75
375.642	196.75
375.868	186.75
376.094	198.75
376.319	208.75
376.545	178.75
376.771	192.75
376.997	182.75
377.222	193.75
377.448	184.75
377.674	183.75
377.899	174.75
378.125	199.75
378.35	207.75
378.576	180.75
378.802	184.75
379.027	197.75
379.253	197.75
379.478	198.75
379.704	180.75
379.929	180.75
380.155	182.75
380.38	189.75
380.606	196.75
380.831	191.75
381.057	204.75
381.282	197.75
381.507	186.75
381.733	182.75
381.958	205.75
382.184	204.75
382.409	207.75
382.634	197.75
382.86	190.75
383.085	198.75
383.31	180.75
383.535	202.75
383.761	189.75
383.986	203.75
384.211	206.75
384.436	188.75
384.662	221.75
384.887	196.75
385.112	214.75
385.337	220.75
385.562	209.75
385.787	219.75
386.013	197.75
386.238	208.75
386.463	212.75
386.688	218.75
386.913	200.75
387.138	190.75
387.363	212.75
387.588	204.75
387.813	222.75
388.038	210.75
388.263	190.75
388.488	215.75
388.713	212.75
388.938	208.75
389.163	219.75
389.387	207.75
389.612	192.75
389.837	226.75
390.062	190.75
390.287	207.75
390.512	193.75
390.736	207.75
390.961	202.75
391.186	220.75
391.411	217.75
391.636	192.75
391.86	215.75
392.085	219.75
392.31	220.75
392.534	206.75
392.759	199.75
392.984	206.75
393.208	212.75
393.433	205.75
393.658	206.75
393.882	214.75
394.107	200.75
394.331	206.75
394.556	222.75
394.78	223.75
395.005	217.75
395.229	219.75
395.454	224.75
395.678	217.75
395.903	227.75
396.127	236.75
396.352	221.75
396.576	218.75
396.801	223.75
397.025	212.75
397.249	207.75
397.474	212.75
397.698	227.75
397.922	212.75
398.147	239.75
398.371	254.75
398.595	238.75
398.82	237.75
399.044	257.75
399.268	263.75
399.492	262.75
399.717	279.75
399.941	267.75
400.165	269.75
400.389	253.75
400.613	240.75
400.837	256.75
401.062	259.75
401.286	232.75
401.51	257.75
401.734	251.75
401.958	231.75
402.182	232.75
402.406	231.75
402.63	245.75
402.854	244.75
403.078	244.75
403.302	263.75
403.526	254.75
403.75	247.75
403.974	251.75
404.198	262.75
404.422	274.75
404.645	284.75
404.869	299.75
405.093	283.75
405.317	340.75
405.541	326.75
405.765	274.75
405.988	263.75
406.212	264.75
406.436	261.75
406.66	275.75
406.883	258.75
407.107	277.75
407.331	267.75
407.555	266.75
407.778	255.75
408.002	256.75
408.226	258.75
408.449	261.75
408.673	248.75
408.896	259.75
409.12	245.75
409.344	242.75
409.567	246.75
409.791	236.75
410.014	236.75
410.238	240.75
410.461	247.75
410.685	255.75
410.908	248.75
411.132	248.75
411.355	254.75
411.578	267.75
411.802	267.75
412.025	261.75
412.249	296.75
412.472	328.75
412.695	347.75
412.919	322.75
413.142	308.75
413.365	290.75
413.589	280.75
413.812	260.75
414.035	256.75
414.258	277.75
414.482	254.75
414.705	251.75
414.928	255.75
415.151	262.75
415.374	264.75
415.597	251.75
415.821	242.75
416.044	251.75
416.267	261.75
416.49	259.75
416.713	231.75
416.936	262.75
417.159	245.75
417.382	264.75
417.605	265.75
417.828	271.75
418.051	261.75
418.274	270.75
418.497	239.75
418.72	239.75
418.943	269.75
419.166	246.75
419.389	258.75
419.611	277.75
419.834	270.75
420.057	298.75
420.28	312.75
420.503	303.75
420.726	279.75
420.948	281.75
421.171	262.75
421.394	248.75
421.617	236.75
421.839	264.75
422.062	234.75
422.285	260.75
422.507	242.75
422.73	244.75
422.953	239.75
423.175	237.75
423.398	251.75
423.621	243.75
423.843	238.75
424.066	242.75
424.288	240.75
424.511	249.75
424.733	234.75
424.956	250.75
425.178	252.75
425.401	240.75
425.623	234.75
425.846	224.75
426.068	235.75
426.291	235.75
426.513	227.75
426.735	243.75
426.958	252.75
427.18	264.75
427.402	270.75
427.625	279.75
427.847	318.75
428.069	336.75
428.292	285.75
428.514	266.75
428.736	260.75
428.958	239.75
429.181	234.75
429.403	234.75
429.625	252.75
429.847	233.75
430.069	240.75
430.292	235.75
430.514	233.75
430.736	221.75
430.958	223.75
431.18	215.75
431.402	216.75
431.624	227.75
431.846	232.75
432.068	227.75
432.29	219.75
432.512	234.75
432.734	232.75
432.956	215.75
433.178	217.75
433.4	231.75
433.622	233.75
433.844	215.75
434.066	221.75
434.287	214.75
434.509	226.75
434.731	232.75
434.953	234.75
435.175	238.75
435.397	228.75
435.618	234.75
435.84	228.75
436.062	215.75
436.284	222.75
436.505	220.75
436.727	230.75
436.949	205.75
437.17	220.75
437.392	196.75
437.614	216.75
437.835	201.75
438.057	210.75
438.278	208.75
438.5	226.75
438.721	224.75
438.943	232.75
439.165	215.75
439.386	221.75
439.608	224.75
439.829	211.75
440.05	238.75
440.272	223.75
440.493	226.75
440.715	224.75
440.936	238.75
441.158	219.75
441.379	228.75
441.6	244.75
441.822	233.75
442.043	247.75
442.264	231.75
442.486	248.75
442.707	231.75
442.928	232.75
443.149	221.75
443.371	224.75
443.592	233.75
443.813	228.75
444.034	224.75
444.255	230.75
444.476	237.75
444.698	241.75
444.919	235.75
445.14	330.75
445.361	274.75
445.582	247.75
445.803	226.75
446.024	228.75
446.245	218.75
446.466	239.75
446.687	206.75
446.908	219.75
447.129	237.75
447.35	238.75
447.571	213.75
447.792	219.75
448.013	213.75
448.234	209.75
448.455	204.75
448.675	218.75
448.896	191.75
449.117	216.75
449.338	214.75
449.559	226.75
449.779	206.75
450	210.75
450.221	211.75
450.442	215.75
450.662	216.75
450.883	222.75
451.104	212.75
451.324	196.75
451.545	223.75
451.766	226.75
451.986	212.75
452.207	215.75
452.428	205.75
452.648	220.75
452.869	214.75
453.089	204.75
453.31	202.75
453.53	199.75
453.751	203.75
453.971	207.75
454.192	209.75
454.412	202.75
454.633	200.75
454.853	200.75
455.073	218.75
455.294	194.75
455.514	223.75
455.734	216.75
455.955	213.75
456.175	198.75
456.395	199.75
456.616	204.75
456.836	222.75
457.056	210.75
457.276	206.75
457.497	206.75
457.717	229.75
457.937	202.75
458.157	201.75
458.377	218.75
458.598	203.75
458.818	201.75
459.038	206.75
459.258	232.75
459.478	224.75
459.698	227.75
459.918	227.75
460.138	226.75
460.358	232.75
460.578	248.75
460.798	238.75
461.018	234.75
461.238	228.75
461.458	232.75
461.678	240.75
461.898	247.75
462.118	260.75
462.338	245.75
462.558	256.75
462.777	250.75
462.997	263.75
463.217	282.75
463.437	278.75
463.657	287.75
463.876	247.75
464.096	269.75
464.316	274.75
464.536	261.75
464.755	245.75
464.975	239.75
465.195	230.75
465.414	240.75
465.634	242.75
465.854	246.75
466.073	237.75
466.293	246.75
466.512	235.75
466.732	239.75
466.951	242.75
467.171	271.75
467.391	255.75
467.61	287.75
467.829	389.75
468.049	692.75
468.268	858.75
468.488	491.75
468.707	337.75
468.927	313.75
469.146	274.75
469.365	291.75
469.585	274.75
469.804	269.75
470.023	265.75
470.243	275.75
470.462	268.75
470.681	269.75
470.901	268.75
471.12	264.75
471.339	281.75
471.558	305.75
471.777	384.75
471.997	551.75
472.216	1210.75
472.435	1803.75
472.654	980.75
472.873	568.75
473.092	427.75
473.311	371.75
473.53	342.75
473.749	334.75
473.968	295.75
474.187	294.75
474.406	271.75
474.625	275.75
474.844	274.75
475.063	275.75
475.282	258.75
475.501	267.75
475.72	273.75
475.939	253.75
476.158	258.75
476.377	287.75
476.596	260.75
476.814	266.75
477.033	258.75
477.252	253.75
477.471	256.75
477.69	260.75
477.908	278.75
478.127	247.75
478.346	275.75
478.564	295.75
478.783	285.75
479.002	277.75
479.22	283.75
479.439	322.75
479.658	300.75
479.876	334.75
480.095	361.75
480.313	384.75
480.532	441.75
480.751	629.75
480.969	1263.75
481.188	2839.75
481.406	2273.75
481.624	1119.75
481.843	708.75
482.061	538.75
482.28	493.75
482.498	438.75
482.717	421.75
482.935	390.75
483.153	365.75
483.372	360.75
483.59	348.75
483.808	339.75
484.027	328.75
484.245	332.75
484.463	306.75
484.681	309.75
484.9	311.75
485.118	311.75
485.336	320.75
485.554	325.75
485.772	287.75
485.99	272.75
486.209	283.75
486.427	269.75
486.645	276.75
486.863	318.75
487.081	298.75
487.299	296.75
487.517	298.75
487.735	302.75
487.953	295.75
488.171	300.75
488.389	297.75
488.607	312.75
488.825	306.75
489.043	301.75
489.261	304.75
489.479	335.75
489.696	310.75
489.914	312.75
490.132	314.75
490.35	351.75
490.568	358.75
490.786	380.75
491.003	414.75
491.221	435.75
491.439	450.75
491.657	494.75
491.874	471.75
492.092	475.75
492.31	488.75
492.527	520.75
492.745	527.75
492.963	523.75
493.18	491.75
493.398	442.75
493.615	463.75
493.833	440.75
494.05	442.75
494.268	424.75
494.485	392.75
494.703	403.75
494.92	390.75
495.138	361.75
495.355	362.75
495.573	382.75
495.79	371.75
496.008	367.75
496.225	356.75
496.442	331.75
496.66	345.75
496.877	337.75
497.094	335.75
497.312	337.75
497.529	340.75
497.746	316.75
497.963	348.75
498.181	348.75
498.398	348.75
498.615	351.75
498.832	366.75
499.049	391.75
499.267	383.75
499.484	400.75
499.701	413.75
499.918	426.75
500.135	430.75
500.352	477.75
500.569	505.75
500.786	513.75
501.003	478.75
501.22	462.75
501.437	421.75
501.654	378.75
501.871	371.75
502.088	341.75
502.305	337.75
502.522	343.75
502.739	332.75
502.956	308.75
503.172	303.75
503.389	303.75
