Data from StdC_HRD10591_015.txt Node
Date: Fri May 16 15:28:48 EDT 2025
User: Yrep
Spectrometer: HR+D1059
Trigger mode: 1
Integration Time (sec): 1.000000E-1
Scans to average: 1
Electric dark correction enabled: true
Nonlinearity correction enabled: false
Boxcar width: 0
XAxis mode: Wavelengths
Number of Pixels in Spectrum: 2048
>>>>>Begin Spectral Data<<<<<
223.165	-36.06
223.4	-36.06
223.635	-36.06
223.869	-17.06
224.104	-22.06
224.338	-17.06
224.573	-14.06
224.808	-3.06
225.042	-0.06
225.277	-12.06
225.511	0.94
225.746	11.94
225.98	8.94
226.215	-1.06
226.449	14.94
226.683	13.94
226.918	28.94
227.152	42.94
227.387	39.94
227.621	41.94
227.856	54.94
228.09	42.94
228.324	41.94
228.559	62.94
228.793	55.94
229.027	72.94
229.262	70.94
229.496	69.94
229.73	64.94
229.964	74.94
230.199	94.94
230.433	63.94
230.667	79.94
230.901	93.94
231.136	74.94
231.37	85.94
231.604	88.94
231.838	75.94
232.072	74.94
232.306	92.94
232.541	94.94
232.775	101.94
233.009	94.94
233.243	83.94
233.477	99.94
233.711	98.94
233.945	101.94
234.179	93.94
234.413	100.94
234.647	84.94
234.881	86.94
235.115	89.94
235.349	86.94
235.583	98.94
235.817	95.94
236.051	90.94
236.285	76.94
236.519	84.94
236.753	90.94
236.987	95.94
237.221	78.94
237.455	80.94
237.689	88.94
237.922	78.94
238.156	66.94
238.39	78.94
238.624	82.94
238.858	88.94
239.091	103.94
239.325	86.94
239.559	82.94
239.793	82.94
240.027	78.94
240.26	83.94
240.494	91.94
240.728	90.94
240.961	96.94
241.195	96.94
241.429	89.94
241.662	80.94
241.896	94.94
242.13	90.94
242.363	93.94
242.597	86.94
242.83	77.94
243.064	114.94
243.298	91.94
243.531	100.94
243.765	91.94
243.998	100.94
244.232	104.94
244.465	96.94
244.699	100.94
244.932	109.94
245.166	87.94
245.399	98.94
245.633	106.94
245.866	107.94
246.099	98.94
246.333	100.94
246.566	100.94
246.8	109.94
247.033	98.94
247.266	116.94
247.5	108.94
247.733	101.94
247.966	108.94
248.2	102.94
248.433	85.94
248.666	100.94
248.899	100.94
249.133	103.94
249.366	99.94
249.599	106.94
249.832	122.94
250.066	144.94
250.299	152.94
250.532	192.94
250.765	180.94
250.998	150.94
251.231	146.94
251.465	120.94
251.698	115.94
251.931	123.94
252.164	132.94
252.397	116.94
252.63	130.94
252.863	127.94
253.096	121.94
253.329	106.94
253.562	110.94
253.795	109.94
254.028	132.94
254.261	125.94
254.494	124.94
254.727	125.94
254.96	139.94
255.193	151.94
255.426	159.94
255.659	192.94
255.892	241.94
256.124	296.94
256.357	252.94
256.59	176.94
256.823	162.94
257.056	155.94
257.289	163.94
257.521	133.94
257.754	141.94
257.987	139.94
258.22	131.94
258.452	139.94
258.685	128.94
258.918	138.94
259.151	132.94
259.383	135.94
259.616	117.94
259.849	138.94
260.081	135.94
260.314	125.94
260.547	135.94
260.779	126.94
261.012	131.94
261.244	123.94
261.477	130.94
261.71	107.94
261.942	122.94
262.175	117.94
262.407	124.94
262.64	125.94
262.872	121.94
263.105	122.94
263.337	141.94
263.57	134.94
263.802	133.94
264.035	141.94
264.267	119.94
264.499	112.94
264.732	125.94
264.964	117.94
265.197	126.94
265.429	126.94
265.661	131.94
265.894	122.94
266.126	137.94
266.358	136.94
266.591	124.94
266.823	142.94
267.055	117.94
267.287	122.94
267.52	133.94
267.752	124.94
267.984	123.94
268.216	125.94
268.448	143.94
268.681	132.94
268.913	125.94
269.145	132.94
269.377	125.94
269.609	116.94
269.841	140.94
270.073	139.94
270.306	132.94
270.538	137.94
270.77	134.94
271.002	137.94
271.234	142.94
271.466	137.94
271.698	136.94
271.93	128.94
272.162	133.94
272.394	139.94
272.626	149.94
272.858	138.94
273.09	137.94
273.322	140.94
273.553	140.94
273.785	134.94
274.017	146.94
274.249	148.94
274.481	154.94
274.713	173.94
274.945	153.94
275.176	147.94
275.408	152.94
275.64	168.94
275.872	173.94
276.104	186.94
276.335	177.94
276.567	177.94
276.799	182.94
277.031	205.94
277.262	212.94
277.494	209.94
277.726	195.94
277.957	184.94
278.189	189.94
278.421	169.94
278.652	184.94
278.884	166.94
279.115	171.94
279.347	190.94
279.579	187.94
279.81	211.94
280.042	229.94
280.273	242.94
280.505	250.94
280.736	201.94
280.968	175.94
281.199	165.94
281.431	196.94
281.662	147.94
281.894	180.94
282.125	151.94
282.356	158.94
282.588	169.94
282.819	165.94
283.051	150.94
283.282	149.94
283.513	161.94
283.745	178.94
283.976	152.94
284.207	141.94
284.439	157.94
284.67	158.94
284.901	154.94
285.132	168.94
285.364	163.94
285.595	154.94
285.826	152.94
286.057	150.94
286.288	164.94
286.52	161.94
286.751	159.94
286.982	162.94
287.213	134.94
287.444	168.94
287.675	156.94
287.906	167.94
288.138	161.94
288.369	156.94
288.6	154.94
288.831	156.94
289.062	175.94
289.293	180.94
289.524	156.94
289.755	153.94
289.986	158.94
290.217	141.94
290.448	158.94
290.679	153.94
290.91	152.94
291.141	154.94
291.371	136.94
291.602	150.94
291.833	160.94
292.064	153.94
292.295	164.94
292.526	145.94
292.757	167.94
292.987	143.94
293.218	147.94
293.449	148.94
293.68	153.94
293.91	136.94
294.141	154.94
294.372	155.94
294.603	145.94
294.833	163.94
295.064	164.94
295.295	175.94
295.525	143.94
295.756	170.94
295.987	165.94
296.217	156.94
296.448	150.94
296.679	156.94
296.909	155.94
297.14	166.94
297.37	165.94
297.601	137.94
297.831	151.94
298.062	152.94
298.292	148.94
298.523	142.94
298.753	150.94
298.984	158.94
299.214	175.94
299.445	162.94
299.675	158.94
299.905	164.94
300.136	155.94
300.366	149.94
300.597	157.94
300.827	158.94
301.057	162.94
301.288	157.94
301.518	160.94
301.748	172.94
301.979	178.94
302.209	167.94
302.439	156.94
302.669	176.94
302.9	171.94
303.13	158.94
303.36	166.94
303.59	183.94
303.82	198.94
304.051	165.94
304.281	159.94
304.511	164.94
304.741	164.94
304.971	166.94
305.201	187.94
305.431	187.94
305.661	168.94
305.891	151.94
306.121	165.94
306.352	166.94
306.582	168.94
306.812	175.94
307.042	189.94
307.272	209.94
307.502	226.94
307.731	211.94
307.961	184.94
308.191	176.94
308.421	182.94
308.651	180.94
308.881	179.94
309.111	175.94
309.341	164.94
309.571	170.94
309.8	163.94
310.03	156.94
310.26	161.94
310.49	168.94
310.72	191.94
310.949	172.94
311.179	174.94
311.409	168.94
311.639	174.94
311.868	156.94
312.098	157.94
312.328	155.94
312.557	172.94
312.787	179.94
313.017	162.94
313.246	170.94
313.476	154.94
313.706	166.94
313.935	170.94
314.165	188.94
314.394	169.94
314.624	182.94
314.853	180.94
315.083	165.94
315.312	167.94
315.542	162.94
315.771	175.94
316.001	171.94
316.23	169.94
316.46	158.94
316.689	168.94
316.919	175.94
317.148	174.94
317.377	176.94
317.607	181.94
317.836	179.94
318.065	180.94
318.295	191.94
318.524	182.94
318.753	167.94
318.983	178.94
319.212	179.94
319.441	187.94
319.67	187.94
319.9	179.94
320.129	182.94
320.358	163.94
320.587	168.94
320.816	184.94
321.046	197.94
321.275	198.94
321.504	198.94
321.733	190.94
321.962	191.94
322.191	190.94
322.42	188.94
322.649	200.94
322.878	193.94
323.108	199.94
323.337	227.94
323.566	208.94
323.795	206.94
324.024	231.94
324.253	204.94
324.482	223.94
324.71	196.94
324.939	219.94
325.168	210.94
325.397	223.94
325.626	243.94
325.855	242.94
326.084	222.94
326.313	239.94
326.542	243.94
326.77	251.94
326.999	264.94
327.228	293.94
327.457	330.94
327.686	420.94
327.914	519.94
328.143	681.94
328.372	707.94
328.6	505.94
328.829	378.94
329.058	380.94
329.287	417.94
329.515	466.94
329.744	613.94
329.972	900.94
330.201	1198.94
330.43	1260.94
330.658	737.94
330.887	460.94
331.115	356.94
331.344	334.94
331.572	314.94
331.801	307.94
332.03	324.94
332.258	312.94
332.486	318.94
332.715	328.94
332.943	339.94
333.172	378.94
333.4	423.94
333.629	506.94
333.857	670.94
334.085	969.94
334.314	1394.94
334.542	1708.94
334.771	1373.94
334.999	713.94
335.227	481.94
335.455	396.94
335.684	358.94
335.912	320.94
336.14	285.94
336.369	290.94
336.597	259.94
336.825	246.94
337.053	240.94
337.281	236.94
337.51	239.94
337.738	238.94
337.966	228.94
338.194	234.94
338.422	228.94
338.65	214.94
338.878	220.94
339.106	206.94
339.334	219.94
339.562	206.94
339.79	198.94
340.018	186.94
340.246	187.94
340.474	199.94
340.702	195.94
340.93	198.94
341.158	195.94
341.386	191.94
341.614	203.94
341.842	196.94
342.07	197.94
342.298	204.94
342.526	185.94
342.754	180.94
342.981	202.94
343.209	192.94
343.437	198.94
343.665	205.94
343.893	187.94
344.12	202.94
344.348	214.94
344.576	193.94
344.804	200.94
345.031	191.94
345.259	173.94
345.487	196.94
345.714	201.94
345.942	187.94
346.17	188.94
346.397	188.94
346.625	182.94
346.853	171.94
347.08	184.94
347.308	178.94
347.535	189.94
347.763	195.94
347.99	191.94
348.218	196.94
348.445	189.94
348.673	178.94
348.9	184.94
349.128	191.94
349.355	184.94
349.583	181.94
349.81	172.94
350.037	190.94
350.265	188.94
350.492	178.94
350.72	180.94
350.947	182.94
351.174	168.94
351.402	182.94
351.629	191.94
351.856	188.94
352.083	195.94
352.311	188.94
352.538	182.94
352.765	187.94
352.992	180.94
353.22	181.94
353.447	175.94
353.674	198.94
353.901	189.94
354.128	170.94
354.355	180.94
354.583	175.94
354.81	186.94
355.037	171.94
355.264	178.94
355.491	182.94
355.718	158.94
355.945	178.94
356.172	193.94
356.399	165.94
356.626	182.94
356.853	191.94
357.08	183.94
357.307	180.94
357.534	177.94
357.761	194.94
357.988	172.94
358.215	187.94
358.441	168.94
358.668	178.94
358.895	170.94
359.122	185.94
359.349	191.94
359.576	190.94
359.802	171.94
360.029	170.94
360.256	173.94
360.483	174.94
360.709	171.94
360.936	184.94
361.163	170.94
361.39	156.94
361.616	178.94
361.843	172.94
362.07	169.94
362.296	180.94
362.523	169.94
362.749	185.94
362.976	194.94
363.203	178.94
363.429	164.94
363.656	195.94
363.882	191.94
364.109	175.94
364.335	190.94
364.562	176.94
364.788	187.94
365.015	169.94
365.241	182.94
365.468	176.94
365.694	189.94
365.92	178.94
366.147	190.94
366.373	195.94
366.599	186.94
366.826	174.94
367.052	172.94
367.278	173.94
367.505	180.94
367.731	174.94
367.957	167.94
368.184	167.94
368.41	181.94
368.636	183.94
368.862	183.94
369.089	182.94
369.315	174.94
369.541	168.94
369.767	167.94
369.993	188.94
370.219	168.94
370.445	178.94
370.672	166.94
370.898	206.94
371.124	182.94
371.35	183.94
371.576	169.94
371.802	186.94
372.028	194.94
372.254	175.94
372.48	195.94
372.706	174.94
372.932	192.94
373.158	167.94
373.384	179.94
373.61	180.94
373.835	182.94
374.061	177.94
374.287	202.94
374.513	186.94
374.739	198.94
374.965	199.94
375.191	188.94
375.416	198.94
375.642	208.94
375.868	197.94
376.094	183.94
376.319	182.94
376.545	190.94
376.771	192.94
376.997	183.94
377.222	190.94
377.448	194.94
377.674	176.94
377.899	188.94
378.125	182.94
378.35	189.94
378.576	179.94
378.802	180.94
379.027	187.94
379.253	192.94
379.478	191.94
379.704	193.94
379.929	184.94
380.155	198.94
380.38	179.94
380.606	166.94
380.831	190.94
381.057	194.94
381.282	179.94
381.507	183.94
381.733	184.94
381.958	184.94
382.184	199.94
382.409	195.94
382.634	179.94
382.86	199.94
383.085	188.94
383.31	173.94
383.535	188.94
383.761	230.94
383.986	199.94
384.211	196.94
384.436	197.94
384.662	201.94
384.887	198.94
385.112	211.94
385.337	205.94
385.562	182.94
385.787	205.94
386.013	210.94
386.238	204.94
386.463	198.94
386.688	221.94
386.913	216.94
387.138	218.94
387.363	202.94
387.588	190.94
387.813	198.94
388.038	213.94
388.263	202.94
388.488	212.94
388.713	189.94
388.938	200.94
389.163	198.94
389.387	203.94
389.612	194.94
389.837	204.94
390.062	216.94
390.287	202.94
390.512	201.94
390.736	200.94
390.961	183.94
391.186	204.94
391.411	198.94
391.636	219.94
391.86	228.94
392.085	219.94
392.31	228.94
392.534	228.94
392.759	208.94
392.984	212.94
393.208	221.94
393.433	217.94
393.658	191.94
393.882	190.94
394.107	220.94
394.331	214.94
394.556	206.94
394.78	209.94
395.005	218.94
395.229	215.94
395.454	227.94
395.678	216.94
395.903	218.94
396.127	223.94
396.352	226.94
396.576	216.94
396.801	220.94
397.025	211.94
397.249	228.94
397.474	229.94
397.698	220.94
397.922	217.94
398.147	206.94
398.371	219.94
398.595	224.94
398.82	245.94
399.044	242.94
399.268	255.94
399.492	257.94
399.717	254.94
399.941	267.94
400.165	256.94
400.389	244.94
400.613	254.94
400.837	269.94
401.062	235.94
401.286	237.94
401.51	224.94
401.734	241.94
401.958	212.94
402.182	239.94
402.406	254.94
402.63	230.94
402.854	228.94
403.078	226.94
403.302	235.94
403.526	244.94
403.75	233.94
403.974	254.94
404.198	258.94
404.422	263.94
404.645	275.94
404.869	264.94
405.093	302.94
405.317	304.94
405.541	323.94
405.765	285.94
405.988	251.94
406.212	257.94
406.436	248.94
406.66	258.94
406.883	264.94
407.107	260.94
407.331	271.94
407.555	270.94
407.778	269.94
408.002	283.94
408.226	267.94
408.449	253.94
408.673	259.94
408.896	259.94
409.12	264.94
409.344	243.94
409.567	238.94
409.791	243.94
410.014	246.94
410.238	247.94
410.461	258.94
410.685	241.94
410.908	247.94
411.132	244.94
411.355	250.94
411.578	252.94
411.802	244.94
412.025	281.94
412.249	275.94
412.472	318.94
412.695	322.94
412.919	299.94
413.142	286.94
413.365	271.94
413.589	265.94
413.812	259.94
414.035	259.94
414.258	269.94
414.482	272.94
414.705	220.94
414.928	256.94
415.151	252.94
415.374	249.94
415.597	248.94
415.821	240.94
416.044	237.94
416.267	247.94
416.49	240.94
416.713	237.94
416.936	253.94
417.159	254.94
417.382	245.94
417.605	264.94
417.828	252.94
418.051	260.94
418.274	236.94
418.497	243.94
418.72	234.94
418.943	242.94
419.166	256.94
419.389	272.94
419.611	270.94
419.834	292.94
420.057	297.94
420.28	294.94
420.503	284.94
420.726	281.94
420.948	253.94
421.171	283.94
421.394	248.94
421.617	253.94
421.839	246.94
422.062	238.94
422.285	245.94
422.507	231.94
422.73	236.94
422.953	250.94
423.175	245.94
423.398	248.94
423.621	247.94
423.843	254.94
424.066	249.94
424.288	232.94
424.511	248.94
424.733	241.94
424.956	232.94
425.178	236.94
425.401	238.94
425.623	234.94
425.846	231.94
426.068	230.94
426.291	230.94
426.513	227.94
426.735	226.94
426.958	247.94
427.18	253.94
427.402	247.94
427.625	263.94
427.847	342.94
428.069	331.94
428.292	282.94
428.514	247.94
428.736	244.94
428.958	248.94
429.181	237.94
429.403	238.94
429.625	247.94
429.847	238.94
430.069	241.94
430.292	236.94
430.514	234.94
430.736	214.94
430.958	232.94
431.18	210.94
431.402	227.94
431.624	222.94
431.846	207.94
432.068	220.94
432.29	221.94
432.512	216.94
432.734	207.94
432.956	216.94
433.178	224.94
433.4	238.94
433.622	232.94
433.844	215.94
434.066	221.94
434.287	206.94
434.509	222.94
434.731	216.94
434.953	220.94
435.175	236.94
435.397	231.94
435.618	214.94
435.84	212.94
436.062	230.94
436.284	222.94
436.505	196.94
436.727	230.94
436.949	222.94
437.17	202.94
437.392	221.94
437.614	230.94
437.835	212.94
438.057	215.94
438.278	227.94
438.5	209.94
438.721	204.94
438.943	202.94
439.165	226.94
439.386	217.94
439.608	227.94
439.829	219.94
440.05	214.94
440.272	228.94
440.493	213.94
440.715	214.94
440.936	211.94
441.158	228.94
441.379	217.94
441.6	232.94
441.822	246.94
442.043	227.94
442.264	219.94
442.486	228.94
442.707	220.94
442.928	217.94
443.149	229.94
443.371	230.94
443.592	226.94
443.813	244.94
444.034	231.94
444.255	230.94
444.476	231.94
444.698	245.94
444.919	247.94
445.14	338.94
445.361	262.94
445.582	232.94
445.803	230.94
446.024	243.94
446.245	230.94
446.466	213.94
446.687	213.94
446.908	206.94
447.129	224.94
447.35	219.94
447.571	222.94
447.792	196.94
448.013	209.94
448.234	221.94
448.455	216.94
448.675	211.94
448.896	223.94
449.117	228.94
449.338	218.94
449.559	207.94
449.779	218.94
450	232.94
450.221	201.94
450.442	201.94
450.662	218.94
450.883	203.94
451.104	200.94
451.324	210.94
451.545	208.94
451.766	201.94
451.986	198.94
452.207	214.94
452.428	197.94
452.648	196.94
452.869	201.94
453.089	194.94
453.31	187.94
453.53	186.94
453.751	197.94
453.971	202.94
454.192	195.94
454.412	221.94
454.633	194.94
454.853	198.94
455.073	213.94
455.294	194.94
455.514	210.94
455.734	206.94
455.955	181.94
456.175	203.94
456.395	218.94
456.616	186.94
456.836	194.94
457.056	200.94
457.276	202.94
457.497	206.94
457.717	204.94
457.937	201.94
458.157	204.94
458.377	201.94
458.598	205.94
458.818	202.94
459.038	207.94
459.258	205.94
459.478	214.94
459.698	216.94
459.918	226.94
460.138	232.94
460.358	235.94
460.578	231.94
460.798	240.94
461.018	227.94
461.238	242.94
461.458	237.94
461.678	222.94
461.898	247.94
462.118	247.94
462.338	235.94
462.558	241.94
462.777	269.94
462.997	265.94
463.217	266.94
463.437	273.94
463.657	245.94
463.876	251.94
464.096	263.94
464.316	260.94
464.536	256.94
464.755	246.94
464.975	252.94
465.195	241.94
465.414	240.94
465.634	229.94
465.854	248.94
466.073	208.94
466.293	221.94
466.512	238.94
466.732	232.94
466.951	246.94
467.171	238.94
467.391	255.94
467.61	271.94
467.829	374.94
468.049	626.94
468.268	748.94
468.488	474.94
468.707	334.94
468.927	309.94
469.146	275.94
469.365	262.94
469.585	248.94
469.804	246.94
470.023	259.94
470.243	261.94
470.462	268.94
470.681	265.94
470.901	282.94
471.12	249.94
471.339	274.94
471.558	285.94
471.777	343.94
471.997	494.94
472.216	1040.94
472.435	1562.94
472.654	878.94
472.873	548.94
473.092	419.94
473.311	359.94
473.53	327.94
473.749	314.94
473.968	302.94
474.187	307.94
474.406	265.94
474.625	277.94
474.844	255.94
475.063	259.94
475.282	254.94
475.501	266.94
475.72	259.94
475.939	254.94
476.158	237.94
476.377	254.94
476.596	249.94
476.814	262.94
477.033	263.94
477.252	243.94
477.471	258.94
477.69	254.94
477.908	262.94
478.127	275.94
478.346	272.94
478.564	281.94
478.783	285.94
479.002	283.94
479.22	289.94
479.439	310.94
479.658	297.94
479.876	312.94
480.095	335.94
480.313	370.94
480.532	441.94
480.751	603.94
480.969	1164.94
481.188	2500.94
481.406	2015.94
481.624	978.94
481.843	658.94
482.061	544.94
482.28	461.94
482.498	405.94
482.717	374.94
482.935	371.94
483.153	344.94
483.372	348.94
483.59	330.94
483.808	336.94
484.027	316.94
484.245	310.94
484.463	296.94
484.681	315.94
484.9	298.94
485.118	300.94
485.336	291.94
485.554	286.94
485.772	280.94
485.99	283.94
486.209	286.94
486.427	296.94
486.645	292.94
486.863	290.94
487.081	274.94
487.299	295.94
487.517	297.94
487.735	295.94
487.953	290.94
488.171	302.94
488.389	294.94
488.607	277.94
488.825	287.94
489.043	316.94
489.261	292.94
489.479	310.94
489.696	323.94
489.914	330.94
490.132	342.94
490.35	330.94
490.568	366.94
490.786	359.94
491.003	402.94
491.221	420.94
491.439	484.94
491.657	478.94
491.874	459.94
492.092	473.94
492.31	492.94
492.527	524.94
492.745	537.94
492.963	516.94
493.18	482.94
493.398	456.94
493.615	453.94
493.833	420.94
494.05	420.94
494.268	377.94
494.485	383.94
494.703	382.94
494.92	379.94
495.138	355.94
495.355	379.94
495.573	353.94
495.79	349.94
496.008	366.94
496.225	335.94
496.442	344.94
496.66	373.94
496.877	359.94
497.094	331.94
497.312	342.94
497.529	327.94
497.746	328.94
497.963	348.94
498.181	332.94
498.398	318.94
498.615	339.94
498.832	361.94
499.049	366.94
499.267	373.94
499.484	395.94
499.701	412.94
499.918	404.94
500.135	456.94
500.352	474.94
500.569	493.94
500.786	516.94
501.003	454.94
501.22	459.94
501.437	426.94
501.654	393.94
501.871	343.94
502.088	349.94
502.305	340.94
502.522	320.94
502.739	327.94
502.956	332.94
503.172	326.94
503.389	319.94
503.606	274.94
