Data from StdC_HRD10591_080.txt Node
Date: Fri May 16 15:29:20 EDT 2025
User: Yrep
Spectrometer: HR+D1059
Trigger mode: 1
Integration Time (sec): 1.000000E-1
Scans to average: 1
Electric dark correction enabled: true
Nonlinearity correction enabled: false
Boxcar width: 0
XAxis mode: Wavelengths
Number of Pixels in Spectrum: 2048
>>>>>Begin Spectral Data<<<<<
223.165	-22.06
223.4	-22.06
223.635	-22.06
223.869	-26.06
224.104	-25.06
224.338	-21.06
224.573	-18.06
224.808	-8.06
225.042	-7.06
225.277	-18.06
225.511	6.94
225.746	9.94
225.98	-1.06
226.215	9.94
226.449	20.94
226.683	26.94
226.918	30.94
227.152	40.94
227.387	38.94
227.621	45.94
227.856	47.94
228.09	37.94
228.324	52.94
228.559	51.94
228.793	54.94
229.027	61.94
229.262	64.94
229.496	77.94
229.73	70.94
229.964	84.94
230.199	92.94
230.433	104.94
230.667	74.94
230.901	76.94
231.136	90.94
231.37	79.94
231.604	90.94
231.838	89.94
232.072	90.94
232.306	78.94
232.541	92.94
232.775	93.94
233.009	80.94
233.243	100.94
233.477	88.94
233.711	85.94
233.945	98.94
234.179	90.94
234.413	100.94
234.647	85.94
234.881	89.94
235.115	100.94
235.349	84.94
235.583	96.94
235.817	96.94
236.051	99.94
236.285	80.94
236.519	76.94
236.753	87.94
236.987	79.94
237.221	70.94
237.455	84.94
237.689	86.94
237.922	93.94
238.156	103.94
238.39	90.94
238.624	89.94
238.858	97.94
239.091	96.94
239.325	91.94
239.559	92.94
239.793	102.94
240.027	97.94
240.26	90.94
240.494	91.94
240.728	103.94
240.961	97.94
241.195	82.94
241.429	100.94
241.662	92.94
241.896	105.94
242.13	92.94
242.363	92.94
242.597	109.94
242.83	102.94
243.064	95.94
243.298	91.94
243.531	89.94
243.765	105.94
243.998	108.94
244.232	117.94
244.465	108.94
244.699	113.94
244.932	95.94
245.166	108.94
245.399	102.94
245.633	103.94
245.866	93.94
246.099	110.94
246.333	108.94
246.566	109.94
246.8	86.94
247.033	107.94
247.266	110.94
247.5	96.94
247.733	102.94
247.966	110.94
248.2	117.94
248.433	114.94
248.666	98.94
248.899	103.94
249.133	110.94
249.366	123.94
249.599	104.94
249.832	138.94
250.066	138.94
250.299	180.94
250.532	217.94
250.765	192.94
250.998	142.94
251.231	128.94
251.465	130.94
251.698	141.94
251.931	118.94
252.164	130.94
252.397	128.94
252.63	119.94
252.863	119.94
253.096	119.94
253.329	128.94
253.562	120.94
253.795	123.94
254.028	116.94
254.261	126.94
254.494	142.94
254.727	127.94
254.96	125.94
255.193	134.94
255.426	157.94
255.659	185.94
255.892	248.94
256.124	310.94
256.357	245.94
256.59	198.94
256.823	153.94
257.056	161.94
257.289	158.94
257.521	146.94
257.754	147.94
257.987	160.94
258.22	139.94
258.452	134.94
258.685	138.94
258.918	116.94
259.151	127.94
259.383	132.94
259.616	129.94
259.849	131.94
260.081	137.94
260.314	126.94
260.547	129.94
260.779	137.94
261.012	139.94
261.244	140.94
261.477	147.94
261.71	134.94
261.942	138.94
262.175	140.94
262.407	111.94
262.64	145.94
262.872	124.94
263.105	121.94
263.337	107.94
263.57	130.94
263.802	127.94
264.035	130.94
264.267	120.94
264.499	125.94
264.732	130.94
264.964	135.94
265.197	143.94
265.429	124.94
265.661	134.94
265.894	148.94
266.126	130.94
266.358	128.94
266.591	146.94
266.823	139.94
267.055	127.94
267.287	125.94
267.52	122.94
267.752	143.94
267.984	120.94
268.216	134.94
268.448	140.94
268.681	135.94
268.913	134.94
269.145	136.94
269.377	133.94
269.609	145.94
269.841	145.94
270.073	135.94
270.306	126.94
270.538	135.94
270.77	126.94
271.002	141.94
271.234	157.94
271.466	135.94
271.698	111.94
271.93	135.94
272.162	136.94
272.394	139.94
272.626	152.94
272.858	130.94
273.09	150.94
273.322	147.94
273.553	145.94
273.785	156.94
274.017	149.94
274.249	158.94
274.481	144.94
274.713	160.94
274.945	164.94
275.176	151.94
275.408	172.94
275.64	189.94
275.872	168.94
276.104	176.94
276.335	167.94
276.567	183.94
276.799	197.94
277.031	216.94
277.262	245.94
277.494	211.94
277.726	195.94
277.957	182.94
278.189	191.94
278.421	178.94
278.652	176.94
278.884	174.94
279.115	168.94
279.347	188.94
279.579	198.94
279.81	236.94
280.042	242.94
280.273	290.94
280.505	256.94
280.736	196.94
280.968	182.94
281.199	186.94
281.431	164.94
281.662	172.94
281.894	168.94
282.125	173.94
282.356	152.94
282.588	180.94
282.819	164.94
283.051	151.94
283.282	169.94
283.513	158.94
283.745	152.94
283.976	149.94
284.207	157.94
284.439	166.94
284.67	166.94
284.901	156.94
285.132	169.94
285.364	160.94
285.595	168.94
285.826	165.94
286.057	175.94
286.288	150.94
286.52	166.94
286.751	147.94
286.982	141.94
287.213	160.94
287.444	142.94
287.675	159.94
287.906	173.94
288.138	160.94
288.369	152.94
288.6	145.94
288.831	168.94
289.062	169.94
289.293	143.94
289.524	176.94
289.755	166.94
289.986	161.94
290.217	156.94
290.448	136.94
290.679	164.94
290.91	165.94
291.141	148.94
291.371	166.94
291.602	164.94
291.833	157.94
292.064	144.94
292.295	131.94
292.526	153.94
292.757	158.94
292.987	149.94
293.218	156.94
293.449	145.94
293.68	152.94
293.91	145.94
294.141	149.94
294.372	154.94
294.603	168.94
294.833	139.94
295.064	144.94
295.295	161.94
295.525	142.94
295.756	157.94
295.987	152.94
296.217	158.94
296.448	158.94
296.679	160.94
296.909	139.94
297.14	158.94
297.37	159.94
297.601	142.94
297.831	153.94
298.062	143.94
298.292	136.94
298.523	164.94
298.753	151.94
298.984	156.94
299.214	158.94
299.445	144.94
299.675	144.94
299.905	162.94
300.136	177.94
300.366	158.94
300.597	164.94
300.827	165.94
301.057	181.94
301.288	168.94
301.518	153.94
301.748	180.94
301.979	185.94
302.209	168.94
302.439	173.94
302.669	183.94
302.9	153.94
303.13	178.94
303.36	182.94
303.59	204.94
303.82	198.94
304.051	187.94
304.281	169.94
304.511	180.94
304.741	176.94
304.971	164.94
305.201	153.94
305.431	176.94
305.661	159.94
305.891	164.94
306.121	156.94
306.352	184.94
306.582	161.94
306.812	182.94
307.042	212.94
307.272	237.94
307.502	253.94
307.731	219.94
307.961	187.94
308.191	184.94
308.421	169.94
308.651	191.94
308.881	149.94
309.111	162.94
309.341	164.94
309.571	161.94
309.8	176.94
310.03	158.94
310.26	167.94
310.49	189.94
310.72	165.94
310.949	188.94
311.179	179.94
311.409	184.94
311.639	183.94
311.868	182.94
312.098	177.94
312.328	183.94
312.557	173.94
312.787	171.94
313.017	166.94
313.246	182.94
313.476	168.94
313.706	193.94
313.935	166.94
314.165	170.94
314.394	172.94
314.624	165.94
314.853	171.94
315.083	161.94
315.312	165.94
315.542	180.94
315.771	173.94
316.001	192.94
316.23	172.94
316.46	182.94
316.689	172.94
316.919	178.94
317.148	185.94
317.377	168.94
317.607	182.94
317.836	186.94
318.065	176.94
318.295	184.94
318.524	169.94
318.753	204.94
318.983	151.94
319.212	170.94
319.441	191.94
319.67	181.94
319.9	175.94
320.129	190.94
320.358	184.94
320.587	188.94
320.816	195.94
321.046	180.94
321.275	193.94
321.504	187.94
321.733	181.94
321.962	190.94
322.191	202.94
322.42	191.94
322.649	196.94
322.878	191.94
323.108	183.94
323.337	200.94
323.566	208.94
323.795	214.94
324.024	207.94
324.253	213.94
324.482	224.94
324.71	231.94
324.939	224.94
325.168	223.94
325.397	228.94
325.626	247.94
325.855	226.94
326.084	249.94
326.313	234.94
326.542	247.94
326.77	258.94
326.999	280.94
327.228	288.94
327.457	333.94
327.686	422.94
327.914	552.94
328.143	724.94
328.372	769.94
328.6	552.94
328.829	392.94
329.058	392.94
329.287	415.94
329.515	512.94
329.744	696.94
329.972	999.94
330.201	1352.94
330.43	1325.94
330.658	793.94
330.887	488.94
331.115	400.94
331.344	356.94
331.572	327.94
331.801	317.94
332.03	312.94
332.258	323.94
332.486	329.94
332.715	335.94
332.943	388.94
333.172	389.94
333.4	432.94
333.629	541.94
333.857	736.94
334.085	1060.94
334.314	1524.94
334.542	1876.94
334.771	1515.94
334.999	773.94
335.227	492.94
335.455	413.94
335.684	367.94
335.912	340.94
336.14	297.94
336.369	301.94
336.597	269.94
336.825	264.94
337.053	265.94
337.281	252.94
337.51	242.94
337.738	224.94
337.966	230.94
338.194	222.94
338.422	221.94
338.65	233.94
338.878	215.94
339.106	221.94
339.334	208.94
339.562	201.94
339.79	210.94
340.018	208.94
340.246	223.94
340.474	211.94
340.702	194.94
340.93	190.94
341.158	202.94
341.386	207.94
341.614	186.94
341.842	193.94
342.07	199.94
342.298	193.94
342.526	192.94
342.754	199.94
342.981	180.94
343.209	197.94
343.437	208.94
343.665	193.94
343.893	202.94
344.12	206.94
344.348	210.94
344.576	194.94
344.804	190.94
345.031	189.94
345.259	182.94
345.487	189.94
345.714	185.94
345.942	190.94
346.17	183.94
346.397	178.94
346.625	170.94
346.853	194.94
347.08	189.94
347.308	207.94
347.535	187.94
347.763	182.94
347.99	175.94
348.218	185.94
348.445	184.94
348.673	180.94
348.9	179.94
349.128	185.94
349.355	201.94
349.583	180.94
349.81	176.94
350.037	170.94
350.265	194.94
350.492	188.94
350.72	184.94
350.947	199.94
351.174	181.94
351.402	188.94
351.629	188.94
351.856	190.94
352.083	182.94
352.311	182.94
352.538	186.94
352.765	184.94
352.992	193.94
353.22	194.94
353.447	185.94
353.674	181.94
353.901	193.94
354.128	184.94
354.355	184.94
354.583	200.94
354.81	189.94
355.037	187.94
355.264	178.94
355.491	177.94
355.718	169.94
355.945	185.94
356.172	172.94
356.399	193.94
356.626	168.94
356.853	178.94
357.08	197.94
357.307	184.94
357.534	190.94
357.761	169.94
357.988	196.94
358.215	176.94
358.441	202.94
358.668	176.94
358.895	171.94
359.122	174.94
359.349	168.94
359.576	180.94
359.802	169.94
360.029	186.94
360.256	184.94
360.483	183.94
360.709	166.94
360.936	190.94
361.163	174.94
361.39	171.94
361.616	194.94
361.843	173.94
362.07	185.94
362.296	181.94
362.523	159.94
362.749	168.94
362.976	161.94
363.203	175.94
363.429	186.94
363.656	174.94
363.882	169.94
364.109	192.94
364.335	190.94
364.562	180.94
364.788	190.94
365.015	184.94
365.241	176.94
365.468	184.94
365.694	182.94
365.92	177.94
366.147	169.94
366.373	160.94
366.599	184.94
366.826	192.94
367.052	177.94
367.278	195.94
367.505	190.94
367.731	166.94
367.957	181.94
368.184	183.94
368.41	194.94
368.636	178.94
368.862	182.94
369.089	182.94
369.315	193.94
369.541	180.94
369.767	166.94
369.993	157.94
370.219	184.94
370.445	188.94
370.672	186.94
370.898	180.94
371.124	178.94
371.35	182.94
371.576	172.94
371.802	192.94
372.028	175.94
372.254	185.94
372.48	187.94
372.706	200.94
372.932	175.94
373.158	193.94
373.384	192.94
373.61	186.94
373.835	170.94
374.061	173.94
374.287	191.94
374.513	202.94
374.739	184.94
374.965	180.94
375.191	193.94
375.416	167.94
375.642	190.94
375.868	181.94
376.094	182.94
376.319	202.94
376.545	186.94
376.771	189.94
376.997	196.94
377.222	184.94
377.448	186.94
377.674	190.94
377.899	174.94
378.125	180.94
378.35	190.94
378.576	191.94
378.802	184.94
379.027	180.94
379.253	172.94
379.478	180.94
379.704	206.94
379.929	197.94
380.155	190.94
380.38	186.94
380.606	183.94
380.831	170.94
381.057	171.94
381.282	203.94
381.507	182.94
381.733	185.94
381.958	183.94
382.184	186.94
382.409	199.94
382.634	200.94
382.86	201.94
383.085	192.94
383.31	187.94
383.535	188.94
383.761	207.94
383.986	184.94
384.211	200.94
384.436	198.94
384.662	205.94
384.887	207.94
385.112	187.94
385.337	193.94
385.562	196.94
385.787	221.94
386.013	202.94
386.238	205.94
386.463	192.94
386.688	220.94
386.913	208.94
387.138	210.94
387.363	210.94
387.588	188.94
387.813	203.94
388.038	197.94
388.263	193.94
388.488	213.94
388.713	206.94
388.938	189.94
389.163	209.94
389.387	199.94
389.612	199.94
389.837	203.94
390.062	208.94
390.287	211.94
390.512	206.94
390.736	206.94
390.961	218.94
391.186	210.94
391.411	205.94
391.636	219.94
391.86	208.94
392.085	206.94
392.31	220.94
392.534	220.94
392.759	218.94
392.984	213.94
393.208	215.94
393.433	208.94
393.658	198.94
393.882	210.94
394.107	219.94
394.331	203.94
394.556	206.94
394.78	208.94
395.005	215.94
395.229	222.94
395.454	225.94
395.678	218.94
395.903	214.94
396.127	225.94
396.352	216.94
396.576	205.94
396.801	212.94
397.025	216.94
397.249	212.94
397.474	220.94
397.698	228.94
397.922	234.94
398.147	208.94
398.371	234.94
398.595	230.94
398.82	242.94
399.044	256.94
399.268	266.94
399.492	281.94
399.717	261.94
399.941	270.94
400.165	264.94
400.389	252.94
400.613	232.94
400.837	249.94
401.062	250.94
401.286	252.94
401.51	221.94
401.734	247.94
401.958	223.94
402.182	238.94
402.406	235.94
402.63	238.94
402.854	253.94
403.078	242.94
403.302	252.94
403.526	246.94
403.75	248.94
403.974	246.94
404.198	256.94
404.422	253.94
404.645	263.94
404.869	284.94
405.093	306.94
405.317	326.94
405.541	332.94
405.765	280.94
405.988	266.94
406.212	269.94
406.436	253.94
406.66	268.94
406.883	266.94
407.107	265.94
407.331	258.94
407.555	271.94
407.778	241.94
408.002	267.94
408.226	252.94
408.449	254.94
408.673	253.94
408.896	270.94
409.12	268.94
409.344	262.94
409.567	252.94
409.791	262.94
410.014	266.94
410.238	257.94
410.461	232.94
410.685	238.94
410.908	259.94
411.132	266.94
411.355	229.94
411.578	258.94
411.802	260.94
412.025	266.94
412.249	298.94
412.472	321.94
412.695	349.94
412.919	324.94
413.142	299.94
413.365	278.94
413.589	275.94
413.812	274.94
414.035	268.94
414.258	261.94
414.482	238.94
414.705	250.94
414.928	256.94
415.151	267.94
415.374	239.94
415.597	236.94
415.821	227.94
416.044	253.94
416.267	254.94
416.49	233.94
416.713	245.94
416.936	244.94
417.159	237.94
417.382	255.94
417.605	280.94
417.828	269.94
418.051	245.94
418.274	233.94
418.497	236.94
418.72	239.94
418.943	253.94
419.166	245.94
419.389	264.94
419.611	268.94
419.834	269.94
420.057	282.94
420.28	301.94
420.503	287.94
420.726	266.94
420.948	265.94
421.171	278.94
421.394	257.94
421.617	249.94
421.839	265.94
422.062	247.94
422.285	242.94
422.507	248.94
422.73	249.94
422.953	248.94
423.175	245.94
423.398	270.94
423.621	234.94
423.843	244.94
424.066	241.94
424.288	234.94
424.511	254.94
424.733	258.94
424.956	242.94
425.178	241.94
425.401	236.94
425.623	238.94
425.846	222.94
426.068	248.94
426.291	236.94
426.513	247.94
426.735	242.94
426.958	226.94
427.18	260.94
427.402	272.94
427.625	290.94
427.847	328.94
428.069	335.94
428.292	297.94
428.514	250.94
428.736	236.94
428.958	257.94
429.181	228.94
429.403	228.94
429.625	234.94
429.847	234.94
430.069	234.94
430.292	243.94
430.514	218.94
430.736	218.94
430.958	220.94
431.18	224.94
431.402	224.94
431.624	229.94
431.846	215.94
432.068	228.94
432.29	230.94
432.512	225.94
432.734	212.94
432.956	227.94
433.178	220.94
433.4	223.94
433.622	220.94
433.844	215.94
434.066	219.94
434.287	240.94
434.509	232.94
434.731	218.94
434.953	238.94
435.175	216.94
435.397	230.94
435.618	231.94
435.84	236.94
436.062	213.94
436.284	223.94
436.505	219.94
436.727	232.94
436.949	216.94
437.17	221.94
437.392	205.94
437.614	217.94
437.835	216.94
438.057	193.94
438.278	198.94
438.5	210.94
438.721	209.94
438.943	219.94
439.165	211.94
439.386	199.94
439.608	231.94
439.829	225.94
440.05	231.94
440.272	216.94
440.493	226.94
440.715	237.94
440.936	236.94
441.158	223.94
441.379	216.94
441.6	230.94
441.822	220.94
442.043	220.94
442.264	223.94
442.486	227.94
442.707	220.94
442.928	234.94
443.149	228.94
443.371	236.94
443.592	244.94
443.813	224.94
444.034	248.94
444.255	249.94
444.476	248.94
444.698	242.94
444.919	252.94
445.14	323.94
445.361	264.94
445.582	224.94
445.803	224.94
446.024	221.94
446.245	239.94
446.466	231.94
446.687	234.94
446.908	232.94
447.129	208.94
447.35	213.94
447.571	214.94
447.792	214.94
448.013	214.94
448.234	213.94
448.455	216.94
448.675	233.94
448.896	226.94
449.117	203.94
449.338	198.94
449.559	215.94
449.779	206.94
450	208.94
450.221	238.94
450.442	216.94
450.662	203.94
450.883	217.94
451.104	202.94
451.324	210.94
451.545	213.94
451.766	205.94
451.986	190.94
452.207	198.94
452.428	202.94
452.648	213.94
452.869	199.94
453.089	197.94
453.31	179.94
453.53	194.94
453.751	205.94
453.971	215.94
454.192	206.94
454.412	186.94
454.633	202.94
454.853	207.94
455.073	204.94
455.294	195.94
455.514	213.94
455.734	204.94
455.955	196.94
456.175	215.94
456.395	212.94
456.616	201.94
456.836	214.94
457.056	209.94
457.276	218.94
457.497	213.94
457.717	203.94
457.937	218.94
458.157	207.94
458.377	209.94
458.598	218.94
458.818	209.94
459.038	214.94
459.258	201.94
459.478	202.94
459.698	206.94
459.918	229.94
460.138	221.94
460.358	240.94
460.578	232.94
460.798	246.94
461.018	237.94
461.238	229.94
461.458	230.94
461.678	233.94
461.898	228.94
462.118	236.94
462.338	260.94
462.558	244.94
462.777	265.94
462.997	266.94
463.217	272.94
463.437	271.94
463.657	242.94
463.876	253.94
464.096	255.94
464.316	247.94
464.536	262.94
464.755	242.94
464.975	255.94
465.195	231.94
465.414	246.94
465.634	246.94
465.854	233.94
466.073	237.94
466.293	228.94
466.512	233.94
466.732	237.94
466.951	244.94
467.171	245.94
467.391	250.94
467.61	285.94
467.829	375.94
468.049	659.94
468.268	856.94
468.488	491.94
468.707	347.94
468.927	315.94
469.146	267.94
469.365	277.94
469.585	269.94
469.804	281.94
470.023	271.94
470.243	255.94
470.462	279.94
470.681	270.94
470.901	270.94
471.12	274.94
471.339	300.94
471.558	348.94
471.777	373.94
471.997	525.94
472.216	1144.94
472.435	1725.94
472.654	982.94
472.873	567.94
473.092	448.94
473.311	390.94
473.53	348.94
473.749	318.94
473.968	309.94
474.187	265.94
474.406	281.94
474.625	274.94
474.844	261.94
475.063	257.94
475.282	246.94
475.501	253.94
475.72	253.94
475.939	257.94
476.158	255.94
476.377	261.94
476.596	244.94
476.814	244.94
477.033	257.94
477.252	281.94
477.471	281.94
477.69	274.94
477.908	256.94
478.127	285.94
478.346	284.94
478.564	278.94
478.783	284.94
479.002	293.94
479.22	280.94
479.439	308.94
479.658	294.94
479.876	320.94
480.095	338.94
480.313	394.94
480.532	449.94
480.751	611.94
480.969	1236.94
481.188	2730.94
481.406	2208.94
481.624	1062.94
481.843	691.94
482.061	557.94
482.28	488.94
482.498	422.94
482.717	409.94
482.935	376.94
483.153	383.94
483.372	360.94
483.59	332.94
483.808	315.94
484.027	322.94
484.245	320.94
484.463	295.94
484.681	303.94
484.9	297.94
485.118	300.94
485.336	292.94
485.554	280.94
485.772	296.94
485.99	286.94
486.209	310.94
486.427	298.94
486.645	298.94
486.863	286.94
487.081	298.94
487.299	296.94
487.517	303.94
487.735	316.94
487.953	302.94
488.171	298.94
488.389	298.94
488.607	303.94
488.825	304.94
489.043	310.94
489.261	316.94
489.479	312.94
489.696	318.94
489.914	329.94
490.132	333.94
490.35	351.94
490.568	372.94
490.786	382.94
491.003	397.94
491.221	436.94
491.439	466.94
491.657	471.94
491.874	472.94
492.092	469.94
492.31	490.94
492.527	527.94
492.745	548.94
492.963	525.94
493.18	497.94
493.398	455.94
493.615	438.94
493.833	436.94
494.05	424.94
494.268	399.94
494.485	410.94
494.703	375.94
494.92	376.94
495.138	376.94
495.355	359.94
495.573	366.94
495.79	362.94
496.008	367.94
496.225	346.94
496.442	346.94
496.66	346.94
496.877	336.94
497.094	374.94
497.312	366.94
497.529	329.94
497.746	364.94
497.963	360.94
498.181	341.94
498.398	342.94
498.615	346.94
498.832	359.94
499.049	367.94
499.267	383.94
499.484	403.94
499.701	413.94
499.918	421.94
500.135	462.94
500.352	478.94
500.569	500.94
500.786	490.94
501.003	465.94
501.22	448.94
501.437	409.94
501.654	389.94
501.871	384.94
502.088	385.94
502.305	331.94
502.522	336.94
502.739	334.94
502.956	323.94
503.172	320.94
503.389	326.94
