Data from StdC_HRD10591_079.txt Node
Date: Fri May 16 15:29:20 EDT 2025
User: Yrep
Spectrometer: HR+D1059
Trigger mode: 1
Integration Time (sec): 1.000000E-1
Scans to average: 1
Electric dark correction enabled: true
Nonlinearity correction enabled: false
Boxcar width: 0
XAxis mode: Wavelengths
Number of Pixels in Spectrum: 2048
>>>>>Begin Spectral Data<<<<<
223.165	-28.31
223.4	-28.31
223.635	-28.31
223.869	-16.31
224.104	-31.31
224.338	-5.31
224.573	-13.31
224.808	-8.31
225.042	4.69
225.277	-1.31
225.511	-3.31
225.746	3.69
225.98	10.69
226.215	10.69
226.449	17.69
226.683	11.69
226.918	17.69
227.152	30.69
227.387	24.69
227.621	42.69
227.856	42.69
228.09	48.69
228.324	50.69
228.559	50.69
228.793	73.69
229.027	74.69
229.262	76.69
229.496	79.69
229.73	75.69
229.964	77.69
230.199	80.69
230.433	80.69
230.667	71.69
230.901	103.69
231.136	83.69
231.37	85.69
231.604	98.69
231.838	87.69
232.072	90.69
232.306	100.69
232.541	84.69
232.775	92.69
233.009	83.69
233.243	81.69
233.477	95.69
233.711	86.69
233.945	91.69
234.179	93.69
234.413	98.69
234.647	91.69
234.881	97.69
235.115	90.69
235.349	70.69
235.583	105.69
235.817	92.69
236.051	108.69
236.285	82.69
236.519	72.69
236.753	97.69
236.987	94.69
237.221	89.69
237.455	94.69
237.689	86.69
237.922	91.69
238.156	86.69
238.39	98.69
238.624	87.69
238.858	90.69
239.091	100.69
239.325	95.69
239.559	96.69
239.793	100.69
240.027	91.69
240.26	97.69
240.494	90.69
240.728	81.69
240.961	86.69
241.195	94.69
241.429	110.69
241.662	84.69
241.896	96.69
242.13	89.69
242.363	82.69
242.597	88.69
242.83	97.69
243.064	86.69
243.298	90.69
243.531	107.69
243.765	108.69
243.998	102.69
244.232	115.69
244.465	117.69
244.699	97.69
244.932	99.69
245.166	106.69
245.399	102.69
245.633	113.69
245.866	109.69
246.099	112.69
246.333	113.69
246.566	107.69
246.8	91.69
247.033	97.69
247.266	103.69
247.5	114.69
247.733	105.69
247.966	116.69
248.2	104.69
248.433	103.69
248.666	115.69
248.899	113.69
249.133	111.69
249.366	123.69
249.599	114.69
249.832	130.69
250.066	119.69
250.299	166.69
250.532	208.69
250.765	193.69
250.998	147.69
251.231	138.69
251.465	129.69
251.698	115.69
251.931	126.69
252.164	124.69
252.397	129.69
252.63	121.69
252.863	126.69
253.096	128.69
253.329	126.69
253.562	112.69
253.795	118.69
254.028	117.69
254.261	134.69
254.494	133.69
254.727	125.69
254.96	138.69
255.193	142.69
255.426	146.69
255.659	203.69
255.892	266.69
256.124	303.69
256.357	255.69
256.59	216.69
256.823	178.69
257.056	159.69
257.289	147.69
257.521	138.69
257.754	142.69
257.987	141.69
258.22	136.69
258.452	146.69
258.685	140.69
258.918	132.69
259.151	139.69
259.383	138.69
259.616	112.69
259.849	143.69
260.081	130.69
260.314	141.69
260.547	142.69
260.779	152.69
261.012	140.69
261.244	142.69
261.477	139.69
261.71	136.69
261.942	144.69
262.175	120.69
262.407	139.69
262.64	127.69
262.872	130.69
263.105	121.69
263.337	140.69
263.57	138.69
263.802	129.69
264.035	136.69
264.267	142.69
264.499	123.69
264.732	139.69
264.964	122.69
265.197	123.69
265.429	137.69
265.661	123.69
265.894	113.69
266.126	139.69
266.358	129.69
266.591	143.69
266.823	130.69
267.055	145.69
267.287	144.69
267.52	147.69
267.752	137.69
267.984	144.69
268.216	129.69
268.448	125.69
268.681	142.69
268.913	145.69
269.145	146.69
269.377	142.69
269.609	140.69
269.841	139.69
270.073	137.69
270.306	131.69
270.538	140.69
270.77	127.69
271.002	146.69
271.234	125.69
271.466	138.69
271.698	132.69
271.93	142.69
272.162	140.69
272.394	146.69
272.626	141.69
272.858	144.69
273.09	156.69
273.322	144.69
273.553	134.69
273.785	150.69
274.017	149.69
274.249	129.69
274.481	158.69
274.713	159.69
274.945	161.69
275.176	182.69
275.408	168.69
275.64	168.69
275.872	177.69
276.104	196.69
276.335	171.69
276.567	184.69
276.799	208.69
277.031	218.69
277.262	248.69
277.494	242.69
277.726	207.69
277.957	208.69
278.189	195.69
278.421	159.69
278.652	156.69
278.884	160.69
279.115	183.69
279.347	186.69
279.579	204.69
279.81	234.69
280.042	263.69
280.273	269.69
280.505	240.69
280.736	221.69
280.968	186.69
281.199	177.69
281.431	175.69
281.662	182.69
281.894	153.69
282.125	151.69
282.356	164.69
282.588	156.69
282.819	161.69
283.051	153.69
283.282	148.69
283.513	150.69
283.745	163.69
283.976	172.69
284.207	150.69
284.439	146.69
284.67	145.69
284.901	165.69
285.132	170.69
285.364	156.69
285.595	152.69
285.826	159.69
286.057	163.69
286.288	158.69
286.52	166.69
286.751	157.69
286.982	162.69
287.213	152.69
287.444	155.69
287.675	163.69
287.906	163.69
288.138	159.69
288.369	184.69
288.6	163.69
288.831	170.69
289.062	166.69
289.293	149.69
289.524	164.69
289.755	167.69
289.986	167.69
290.217	162.69
290.448	164.69
290.679	169.69
290.91	158.69
291.141	165.69
291.371	163.69
291.602	151.69
291.833	138.69
292.064	152.69
292.295	161.69
292.526	150.69
292.757	164.69
292.987	152.69
293.218	157.69
293.449	146.69
293.68	156.69
293.91	145.69
294.141	148.69
294.372	161.69
294.603	146.69
294.833	164.69
295.064	162.69
295.295	158.69
295.525	146.69
295.756	161.69
295.987	165.69
296.217	168.69
296.448	164.69
296.679	150.69
296.909	169.69
297.14	170.69
297.37	162.69
297.601	153.69
297.831	164.69
298.062	168.69
298.292	148.69
298.523	152.69
298.753	151.69
298.984	179.69
299.214	168.69
299.445	164.69
299.675	161.69
299.905	161.69
300.136	167.69
300.366	158.69
300.597	157.69
300.827	161.69
301.057	153.69
301.288	182.69
301.518	165.69
301.748	173.69
301.979	203.69
302.209	164.69
302.439	159.69
302.669	168.69
302.9	179.69
303.13	180.69
303.36	184.69
303.59	203.69
303.82	199.69
304.051	186.69
304.281	179.69
304.511	191.69
304.741	176.69
304.971	168.69
305.201	170.69
305.431	174.69
305.661	185.69
305.891	174.69
306.121	169.69
306.352	172.69
306.582	173.69
306.812	182.69
307.042	194.69
307.272	231.69
307.502	230.69
307.731	221.69
307.961	187.69
308.191	195.69
308.421	193.69
308.651	179.69
308.881	174.69
309.111	178.69
309.341	182.69
309.571	178.69
309.8	184.69
310.03	186.69
310.26	160.69
310.49	173.69
310.72	183.69
310.949	166.69
311.179	181.69
311.409	175.69
311.639	186.69
311.868	170.69
312.098	178.69
312.328	169.69
312.557	167.69
312.787	186.69
313.017	162.69
313.246	163.69
313.476	176.69
313.706	181.69
313.935	185.69
314.165	188.69
314.394	169.69
314.624	167.69
314.853	188.69
315.083	185.69
315.312	187.69
315.542	168.69
315.771	166.69
316.001	175.69
316.23	184.69
316.46	154.69
316.689	179.69
316.919	191.69
317.148	190.69
317.377	167.69
317.607	177.69
317.836	190.69
318.065	186.69
318.295	194.69
318.524	193.69
318.753	186.69
318.983	173.69
319.212	194.69
319.441	173.69
319.67	175.69
319.9	174.69
320.129	189.69
320.358	189.69
320.587	192.69
320.816	176.69
321.046	186.69
321.275	182.69
321.504	187.69
321.733	200.69
321.962	200.69
322.191	208.69
322.42	199.69
322.649	205.69
322.878	200.69
323.108	218.69
323.337	196.69
323.566	219.69
323.795	222.69
324.024	222.69
324.253	218.69
324.482	218.69
324.71	224.69
324.939	225.69
325.168	217.69
325.397	236.69
325.626	235.69
325.855	247.69
326.084	239.69
326.313	248.69
326.542	254.69
326.77	268.69
326.999	277.69
327.228	278.69
327.457	332.69
327.686	414.69
327.914	538.69
328.143	693.69
328.372	738.69
328.6	540.69
328.829	399.69
329.058	405.69
329.287	414.69
329.515	524.69
329.744	668.69
329.972	954.69
330.201	1290.69
330.43	1342.69
330.658	775.69
330.887	488.69
331.115	395.69
331.344	365.69
331.572	336.69
331.801	312.69
332.03	324.69
332.258	317.69
332.486	335.69
332.715	335.69
332.943	359.69
333.172	411.69
333.4	469.69
333.629	526.69
333.857	710.69
334.085	1068.69
334.314	1512.69
334.542	1884.69
334.771	1478.69
334.999	784.69
335.227	501.69
335.455	410.69
335.684	333.69
335.912	318.69
336.14	293.69
336.369	291.69
336.597	271.69
336.825	270.69
337.053	256.69
337.281	255.69
337.51	232.69
337.738	221.69
337.966	218.69
338.194	230.69
338.422	222.69
338.65	235.69
338.878	223.69
339.106	223.69
339.334	232.69
339.562	218.69
339.79	219.69
340.018	207.69
340.246	202.69
340.474	208.69
340.702	200.69
340.93	199.69
341.158	204.69
341.386	197.69
341.614	204.69
341.842	200.69
342.07	204.69
342.298	204.69
342.526	173.69
342.754	188.69
342.981	201.69
343.209	202.69
343.437	203.69
343.665	191.69
343.893	190.69
344.12	210.69
344.348	205.69
344.576	208.69
344.804	203.69
345.031	187.69
345.259	179.69
345.487	202.69
345.714	178.69
345.942	194.69
346.17	195.69
346.397	197.69
346.625	195.69
346.853	198.69
347.08	190.69
347.308	168.69
347.535	193.69
347.763	176.69
347.99	192.69
348.218	184.69
348.445	190.69
348.673	184.69
348.9	165.69
349.128	192.69
349.355	190.69
349.583	192.69
349.81	190.69
350.037	176.69
350.265	185.69
350.492	182.69
350.72	187.69
350.947	201.69
351.174	174.69
351.402	188.69
351.629	185.69
351.856	178.69
352.083	196.69
352.311	187.69
352.538	184.69
352.765	192.69
352.992	178.69
353.22	175.69
353.447	186.69
353.674	189.69
353.901	178.69
354.128	186.69
354.355	189.69
354.583	203.69
354.81	171.69
355.037	172.69
355.264	173.69
355.491	188.69
355.718	189.69
355.945	186.69
356.172	183.69
356.399	178.69
356.626	191.69
356.853	182.69
357.08	192.69
357.307	184.69
357.534	195.69
357.761	178.69
357.988	188.69
358.215	192.69
358.441	182.69
358.668	188.69
358.895	181.69
359.122	184.69
359.349	182.69
359.576	177.69
359.802	178.69
360.029	175.69
360.256	170.69
360.483	171.69
360.709	164.69
360.936	180.69
361.163	180.69
361.39	179.69
361.616	179.69
361.843	187.69
362.07	203.69
362.296	184.69
362.523	174.69
362.749	177.69
362.976	199.69
363.203	196.69
363.429	174.69
363.656	168.69
363.882	183.69
364.109	180.69
364.335	183.69
364.562	186.69
364.788	183.69
365.015	176.69
365.241	180.69
365.468	173.69
365.694	168.69
365.92	173.69
366.147	173.69
366.373	183.69
366.599	187.69
366.826	173.69
367.052	180.69
367.278	188.69
367.505	184.69
367.731	192.69
367.957	182.69
368.184	178.69
368.41	184.69
368.636	179.69
368.862	184.69
369.089	190.69
369.315	179.69
369.541	187.69
369.767	182.69
369.993	182.69
370.219	172.69
370.445	189.69
370.672	180.69
370.898	187.69
371.124	182.69
371.35	181.69
371.576	190.69
371.802	177.69
372.028	202.69
372.254	174.69
372.48	199.69
372.706	187.69
372.932	197.69
373.158	204.69
373.384	194.69
373.61	176.69
373.835	191.69
374.061	182.69
374.287	195.69
374.513	186.69
374.739	174.69
374.965	191.69
375.191	166.69
375.416	191.69
375.642	178.69
375.868	190.69
376.094	195.69
376.319	177.69
376.545	171.69
376.771	191.69
376.997	177.69
377.222	196.69
377.448	196.69
377.674	172.69
377.899	192.69
378.125	190.69
378.35	187.69
378.576	185.69
378.802	192.69
379.027	192.69
379.253	189.69
379.478	182.69
379.704	198.69
379.929	200.69
380.155	193.69
380.38	174.69
380.606	188.69
380.831	198.69
381.057	222.69
381.282	178.69
381.507	194.69
381.733	194.69
381.958	191.69
382.184	203.69
382.409	177.69
382.634	201.69
382.86	186.69
383.085	218.69
383.31	187.69
383.535	202.69
383.761	203.69
383.986	194.69
384.211	202.69
384.436	208.69
384.662	224.69
384.887	219.69
385.112	209.69
385.337	214.69
385.562	204.69
385.787	219.69
386.013	205.69
386.238	208.69
386.463	203.69
386.688	210.69
386.913	202.69
387.138	210.69
387.363	200.69
387.588	212.69
387.813	214.69
388.038	202.69
388.263	218.69
388.488	201.69
388.713	205.69
388.938	215.69
389.163	204.69
389.387	203.69
389.612	212.69
389.837	184.69
390.062	211.69
390.287	192.69
390.512	199.69
390.736	201.69
390.961	210.69
391.186	193.69
391.411	208.69
391.636	210.69
391.86	217.69
392.085	206.69
392.31	212.69
392.534	226.69
392.759	194.69
392.984	219.69
393.208	231.69
393.433	212.69
393.658	207.69
393.882	199.69
394.107	219.69
394.331	197.69
394.556	209.69
394.78	222.69
395.005	211.69
395.229	221.69
395.454	221.69
395.678	221.69
395.903	237.69
396.127	228.69
396.352	226.69
396.576	206.69
396.801	197.69
397.025	213.69
397.249	233.69
397.474	217.69
397.698	226.69
397.922	236.69
398.147	225.69
398.371	240.69
398.595	238.69
398.82	228.69
399.044	265.69
399.268	264.69
399.492	274.69
399.717	264.69
399.941	261.69
400.165	251.69
400.389	255.69
400.613	237.69
400.837	238.69
401.062	254.69
401.286	242.69
401.51	251.69
401.734	249.69
401.958	248.69
402.182	242.69
402.406	216.69
402.63	233.69
402.854	230.69
403.078	247.69
403.302	259.69
403.526	249.69
403.75	249.69
403.974	246.69
404.198	245.69
404.422	270.69
404.645	257.69
404.869	264.69
405.093	299.69
405.317	320.69
405.541	308.69
405.765	304.69
405.988	291.69
406.212	262.69
406.436	267.69
406.66	282.69
406.883	246.69
407.107	260.69
407.331	257.69
407.555	264.69
407.778	271.69
408.002	259.69
408.226	273.69
408.449	238.69
408.673	270.69
408.896	253.69
409.12	269.69
409.344	249.69
409.567	248.69
409.791	250.69
410.014	253.69
410.238	236.69
410.461	251.69
410.685	242.69
410.908	233.69
411.132	253.69
411.355	248.69
411.578	250.69
411.802	261.69
412.025	256.69
412.249	301.69
412.472	310.69
412.695	346.69
412.919	333.69
413.142	303.69
413.365	288.69
413.589	281.69
413.812	273.69
414.035	259.69
414.258	267.69
414.482	265.69
414.705	243.69
414.928	248.69
415.151	246.69
415.374	234.69
415.597	227.69
415.821	240.69
416.044	253.69
416.267	241.69
416.49	257.69
416.713	253.69
416.936	234.69
417.159	256.69
417.382	269.69
417.605	274.69
417.828	267.69
418.051	249.69
418.274	242.69
418.497	240.69
418.72	243.69
418.943	253.69
419.166	248.69
419.389	253.69
419.611	275.69
419.834	264.69
420.057	284.69
420.28	297.69
420.503	294.69
420.726	273.69
420.948	264.69
421.171	274.69
421.394	255.69
421.617	247.69
421.839	248.69
422.062	242.69
422.285	243.69
422.507	244.69
422.73	249.69
422.953	235.69
423.175	244.69
423.398	245.69
423.621	242.69
423.843	262.69
424.066	247.69
424.288	244.69
424.511	238.69
424.733	248.69
424.956	250.69
425.178	249.69
425.401	237.69
425.623	256.69
425.846	225.69
426.068	246.69
426.291	241.69
426.513	237.69
426.735	256.69
426.958	239.69
427.18	273.69
427.402	273.69
427.625	295.69
427.847	315.69
428.069	352.69
428.292	296.69
428.514	267.69
428.736	252.69
428.958	238.69
429.181	234.69
429.403	239.69
429.625	228.69
429.847	233.69
430.069	244.69
430.292	230.69
430.514	214.69
430.736	223.69
430.958	234.69
431.18	226.69
431.402	213.69
431.624	236.69
431.846	221.69
432.068	225.69
432.29	248.69
432.512	238.69
432.734	219.69
432.956	217.69
433.178	223.69
433.4	225.69
433.622	228.69
433.844	214.69
434.066	221.69
434.287	224.69
434.509	201.69
434.731	231.69
434.953	241.69
435.175	225.69
435.397	224.69
435.618	209.69
435.84	226.69
436.062	232.69
436.284	230.69
436.505	239.69
436.727	215.69
436.949	214.69
437.17	217.69
437.392	236.69
437.614	230.69
437.835	215.69
438.057	208.69
438.278	199.69
438.5	214.69
438.721	216.69
438.943	223.69
439.165	200.69
439.386	226.69
439.608	224.69
439.829	227.69
440.05	224.69
440.272	219.69
440.493	212.69
440.715	209.69
440.936	220.69
441.158	219.69
441.379	232.69
441.6	242.69
441.822	252.69
442.043	226.69
442.264	242.69
442.486	228.69
442.707	231.69
442.928	230.69
443.149	226.69
443.371	241.69
443.592	231.69
443.813	238.69
444.034	249.69
444.255	244.69
444.476	241.69
444.698	255.69
444.919	244.69
445.14	320.69
445.361	295.69
445.582	249.69
445.803	236.69
446.024	220.69
446.245	222.69
446.466	234.69
446.687	239.69
446.908	232.69
447.129	215.69
447.35	218.69
447.571	219.69
447.792	226.69
448.013	219.69
448.234	216.69
448.455	210.69
448.675	214.69
448.896	212.69
449.117	202.69
449.338	227.69
449.559	221.69
449.779	201.69
450	208.69
450.221	204.69
450.442	224.69
450.662	238.69
450.883	216.69
451.104	210.69
451.324	193.69
451.545	190.69
451.766	197.69
451.986	207.69
452.207	210.69
452.428	210.69
452.648	210.69
452.869	209.69
453.089	214.69
453.31	209.69
453.53	236.69
453.751	199.69
453.971	196.69
454.192	208.69
454.412	184.69
454.633	211.69
454.853	219.69
455.073	209.69
455.294	212.69
455.514	200.69
455.734	212.69
455.955	206.69
456.175	200.69
456.395	203.69
456.616	209.69
456.836	220.69
457.056	207.69
457.276	204.69
457.497	192.69
457.717	205.69
457.937	220.69
458.157	215.69
458.377	215.69
458.598	209.69
458.818	208.69
459.038	223.69
459.258	199.69
459.478	232.69
459.698	222.69
459.918	249.69
460.138	224.69
460.358	236.69
460.578	243.69
460.798	227.69
461.018	224.69
461.238	224.69
461.458	239.69
461.678	249.69
461.898	224.69
462.118	247.69
462.338	237.69
462.558	252.69
462.777	263.69
462.997	267.69
463.217	278.69
463.437	274.69
463.657	264.69
463.876	248.69
464.096	265.69
464.316	270.69
464.536	259.69
464.755	256.69
464.975	255.69
465.195	247.69
465.414	241.69
465.634	217.69
465.854	219.69
466.073	241.69
466.293	249.69
466.512	233.69
466.732	244.69
466.951	244.69
467.171	247.69
467.391	260.69
467.61	289.69
467.829	391.69
468.049	662.69
468.268	824.69
468.488	484.69
468.707	339.69
468.927	279.69
469.146	264.69
469.365	258.69
469.585	259.69
469.804	248.69
470.023	265.69
470.243	264.69
470.462	272.69
470.681	244.69
470.901	279.69
471.12	270.69
471.339	303.69
471.558	296.69
471.777	368.69
471.997	528.69
472.216	1113.69
472.435	1677.69
472.654	966.69
472.873	536.69
473.092	429.69
473.311	354.69
473.53	334.69
473.749	322.69
473.968	312.69
474.187	287.69
474.406	274.69
474.625	273.69
474.844	269.69
475.063	271.69
475.282	253.69
475.501	249.69
475.72	258.69
475.939	248.69
476.158	246.69
476.377	255.69
476.596	253.69
476.814	249.69
477.033	241.69
477.252	250.69
477.471	237.69
477.69	278.69
477.908	273.69
478.127	270.69
478.346	287.69
478.564	271.69
478.783	275.69
479.002	295.69
479.22	304.69
479.439	298.69
479.658	315.69
479.876	320.69
480.095	339.69
480.313	372.69
480.532	443.69
480.751	614.69
480.969	1220.69
481.188	2734.69
481.406	2152.69
481.624	1051.69
481.843	667.69
482.061	546.69
482.28	496.69
482.498	424.69
482.717	393.69
482.935	368.69
483.153	356.69
483.372	328.69
483.59	354.69
483.808	308.69
484.027	330.69
484.245	306.69
484.463	304.69
484.681	313.69
484.9	297.69
485.118	309.69
485.336	288.69
485.554	297.69
485.772	302.69
485.99	290.69
486.209	282.69
486.427	297.69
486.645	298.69
486.863	291.69
487.081	306.69
487.299	310.69
487.517	296.69
487.735	295.69
487.953	316.69
488.171	296.69
488.389	307.69
488.607	290.69
488.825	304.69
489.043	295.69
489.261	316.69
489.479	313.69
489.696	328.69
489.914	332.69
490.132	352.69
490.35	348.69
490.568	359.69
490.786	381.69
491.003	380.69
491.221	409.69
491.439	462.69
491.657	470.69
491.874	462.69
492.092	472.69
492.31	471.69
492.527	515.69
492.745	529.69
492.963	505.69
493.18	481.69
493.398	460.69
493.615	443.69
493.833	430.69
494.05	431.69
494.268	418.69
494.485	402.69
494.703	390.69
494.92	383.69
495.138	373.69
495.355	366.69
495.573	362.69
495.79	354.69
496.008	348.69
496.225	346.69
496.442	330.69
496.66	342.69
496.877	333.69
497.094	335.69
497.312	344.69
497.529	342.69
497.746	352.69
497.963	330.69
498.181	342.69
498.398	360.69
498.615	349.69
498.832	360.69
499.049	362.69
499.267	378.69
499.484	397.69
499.701	411.69
499.918	425.69
500.135	443.69
500.352	464.69
500.569	480.69
500.786	511.69
501.003	461.69
501.22	431.69
501.437	396.69
501.654	387.69
501.871	364.69
502.088	371.69
502.305	354.69
502.522	337.69
502.739	336.69
502.956	313.69
503.172	320.69
503.389	318.69
