Data from StdC_HRD10591_040.txt Node
Date: Fri May 16 15:29:00 EDT 2025
User: Yrep
Spectrometer: HR+D1059
Trigger mode: 1
Integration Time (sec): 1.000000E-1
Scans to average: 1
Electric dark correction enabled: true
Nonlinearity correction enabled: false
Boxcar width: 0
XAxis mode: Wavelengths
Number of Pixels in Spectrum: 2048
>>>>>Begin Spectral Data<<<<<
223.165	-25.12
223.4	-25.12
223.635	-25.12
223.869	-10.12
224.104	-18.12
224.338	-13.12
224.573	-16.12
224.808	-11.12
225.042	-2.12
225.277	-11.12
225.511	-8.12
225.746	-2.12
225.98	-9.12
226.215	21.88
226.449	17.88
226.683	19.88
226.918	27.88
227.152	38.88
227.387	32.88
227.621	44.88
227.856	39.88
228.09	49.88
228.324	48.88
228.559	64.88
228.793	75.88
229.027	67.88
229.262	61.88
229.496	59.88
229.73	74.88
229.964	77.88
230.199	75.88
230.433	80.88
230.667	83.88
230.901	73.88
231.136	82.88
231.37	88.88
231.604	94.88
231.838	99.88
232.072	71.88
232.306	86.88
232.541	83.88
232.775	99.88
233.009	101.88
233.243	82.88
233.477	102.88
233.711	87.88
233.945	79.88
234.179	106.88
234.413	77.88
234.647	92.88
234.881	75.88
235.115	87.88
235.349	85.88
235.583	84.88
235.817	66.88
236.051	109.88
236.285	95.88
236.519	79.88
236.753	76.88
236.987	91.88
237.221	81.88
237.455	89.88
237.689	96.88
237.922	106.88
238.156	80.88
238.39	93.88
238.624	94.88
238.858	97.88
239.091	94.88
239.325	82.88
239.559	83.88
239.793	98.88
240.027	86.88
240.26	75.88
240.494	82.88
240.728	85.88
240.961	110.88
241.195	79.88
241.429	105.88
241.662	89.88
241.896	93.88
242.13	98.88
242.363	86.88
242.597	96.88
242.83	101.88
243.064	96.88
243.298	105.88
243.531	107.88
243.765	104.88
243.998	101.88
244.232	100.88
244.465	96.88
244.699	89.88
244.932	101.88
245.166	100.88
245.399	101.88
245.633	100.88
245.866	94.88
246.099	101.88
246.333	91.88
246.566	107.88
246.8	108.88
247.033	104.88
247.266	102.88
247.5	101.88
247.733	104.88
247.966	103.88
248.2	108.88
248.433	101.88
248.666	101.88
248.899	120.88
249.133	93.88
249.366	128.88
249.599	105.88
249.832	112.88
250.066	137.88
250.299	158.88
250.532	200.88
250.765	182.88
250.998	153.88
251.231	129.88
251.465	141.88
251.698	121.88
251.931	135.88
252.164	117.88
252.397	122.88
252.63	97.88
252.863	117.88
253.096	114.88
253.329	120.88
253.562	127.88
253.795	119.88
254.028	114.88
254.261	128.88
254.494	122.88
254.727	124.88
254.96	127.88
255.193	140.88
255.426	166.88
255.659	173.88
255.892	247.88
256.124	301.88
256.357	237.88
256.59	195.88
256.823	163.88
257.056	166.88
257.289	143.88
257.521	139.88
257.754	151.88
257.987	139.88
258.22	147.88
258.452	141.88
258.685	138.88
258.918	135.88
259.151	134.88
259.383	128.88
259.616	139.88
259.849	138.88
260.081	124.88
260.314	141.88
260.547	133.88
260.779	129.88
261.012	139.88
261.244	127.88
261.477	137.88
261.71	126.88
261.942	125.88
262.175	125.88
262.407	106.88
262.64	123.88
262.872	137.88
263.105	135.88
263.337	121.88
263.57	113.88
263.802	119.88
264.035	124.88
264.267	126.88
264.499	127.88
264.732	129.88
264.964	141.88
265.197	136.88
265.429	120.88
265.661	131.88
265.894	141.88
266.126	118.88
266.358	127.88
266.591	131.88
266.823	128.88
267.055	115.88
267.287	140.88
267.52	137.88
267.752	136.88
267.984	136.88
268.216	127.88
268.448	135.88
268.681	124.88
268.913	123.88
269.145	137.88
269.377	129.88
269.609	139.88
269.841	121.88
270.073	123.88
270.306	131.88
270.538	135.88
270.77	123.88
271.002	142.88
271.234	148.88
271.466	143.88
271.698	134.88
271.93	145.88
272.162	134.88
272.394	137.88
272.626	148.88
272.858	142.88
273.09	141.88
273.322	156.88
273.553	143.88
273.785	133.88
274.017	148.88
274.249	148.88
274.481	153.88
274.713	152.88
274.945	156.88
275.176	148.88
275.408	153.88
275.64	164.88
275.872	180.88
276.104	180.88
276.335	165.88
276.567	182.88
276.799	179.88
277.031	213.88
277.262	244.88
277.494	219.88
277.726	208.88
277.957	204.88
278.189	177.88
278.421	185.88
278.652	158.88
278.884	169.88
279.115	175.88
279.347	182.88
279.579	191.88
279.81	213.88
280.042	247.88
280.273	261.88
280.505	216.88
280.736	216.88
280.968	188.88
281.199	172.88
281.431	186.88
281.662	160.88
281.894	158.88
282.125	164.88
282.356	153.88
282.588	165.88
282.819	158.88
283.051	165.88
283.282	144.88
283.513	139.88
283.745	145.88
283.976	152.88
284.207	167.88
284.439	165.88
284.67	161.88
284.901	147.88
285.132	154.88
285.364	154.88
285.595	147.88
285.826	155.88
286.057	182.88
286.288	160.88
286.52	171.88
286.751	150.88
286.982	165.88
287.213	161.88
287.444	159.88
287.675	156.88
287.906	152.88
288.138	164.88
288.369	150.88
288.6	148.88
288.831	166.88
289.062	169.88
289.293	159.88
289.524	142.88
289.755	148.88
289.986	155.88
290.217	151.88
290.448	171.88
290.679	163.88
290.91	148.88
291.141	163.88
291.371	163.88
291.602	165.88
291.833	129.88
292.064	152.88
292.295	141.88
292.526	166.88
292.757	153.88
292.987	158.88
293.218	131.88
293.449	156.88
293.68	159.88
293.91	142.88
294.141	159.88
294.372	162.88
294.603	155.88
294.833	153.88
295.064	147.88
295.295	161.88
295.525	152.88
295.756	160.88
295.987	156.88
296.217	144.88
296.448	143.88
296.679	152.88
296.909	155.88
297.14	160.88
297.37	155.88
297.601	141.88
297.831	154.88
298.062	161.88
298.292	150.88
298.523	148.88
298.753	152.88
298.984	164.88
299.214	153.88
299.445	157.88
299.675	157.88
299.905	156.88
300.136	144.88
300.366	156.88
300.597	165.88
300.827	149.88
301.057	156.88
301.288	158.88
301.518	165.88
301.748	159.88
301.979	188.88
302.209	164.88
302.439	159.88
302.669	155.88
302.9	148.88
303.13	177.88
303.36	182.88
303.59	185.88
303.82	188.88
304.051	189.88
304.281	174.88
304.511	166.88
304.741	155.88
304.971	165.88
305.201	169.88
305.431	179.88
305.661	154.88
305.891	169.88
306.121	172.88
306.352	165.88
306.582	168.88
306.812	180.88
307.042	200.88
307.272	219.88
307.502	225.88
307.731	181.88
307.961	195.88
308.191	175.88
308.421	168.88
308.651	179.88
308.881	165.88
309.111	152.88
309.341	170.88
309.571	158.88
309.8	165.88
310.03	175.88
310.26	169.88
310.49	170.88
310.72	165.88
310.949	165.88
311.179	177.88
311.409	169.88
311.639	166.88
311.868	174.88
312.098	181.88
312.328	175.88
312.557	175.88
312.787	169.88
313.017	162.88
313.246	170.88
313.476	164.88
313.706	181.88
313.935	174.88
314.165	165.88
314.394	176.88
314.624	154.88
314.853	153.88
315.083	166.88
315.312	174.88
315.542	175.88
315.771	166.88
316.001	176.88
316.23	174.88
316.46	180.88
316.689	185.88
316.919	173.88
317.148	164.88
317.377	178.88
317.607	182.88
317.836	195.88
318.065	191.88
318.295	192.88
318.524	183.88
318.753	178.88
318.983	186.88
319.212	185.88
319.441	186.88
319.67	167.88
319.9	193.88
320.129	198.88
320.358	187.88
320.587	184.88
320.816	170.88
321.046	183.88
321.275	194.88
321.504	176.88
321.733	183.88
321.962	191.88
322.191	188.88
322.42	177.88
322.649	191.88
322.878	205.88
323.108	213.88
323.337	211.88
323.566	207.88
323.795	209.88
324.024	219.88
324.253	201.88
324.482	200.88
324.71	209.88
324.939	207.88
325.168	231.88
325.397	215.88
325.626	222.88
325.855	229.88
326.084	234.88
326.313	253.88
326.542	246.88
326.77	260.88
326.999	294.88
327.228	277.88
327.457	343.88
327.686	405.88
327.914	527.88
328.143	693.88
328.372	733.88
328.6	528.88
328.829	388.88
329.058	377.88
329.287	432.88
329.515	480.88
329.744	660.88
329.972	910.88
330.201	1255.88
330.43	1309.88
330.658	766.88
330.887	489.88
331.115	383.88
331.344	349.88
331.572	332.88
331.801	312.88
332.03	328.88
332.258	317.88
332.486	320.88
332.715	346.88
332.943	374.88
333.172	398.88
333.4	435.88
333.629	512.88
333.857	689.88
334.085	1018.88
334.314	1453.88
334.542	1799.88
334.771	1439.88
334.999	750.88
335.227	482.88
335.455	401.88
335.684	331.88
335.912	316.88
336.14	304.88
336.369	268.88
336.597	265.88
336.825	261.88
337.053	263.88
337.281	240.88
337.51	232.88
337.738	234.88
337.966	221.88
338.194	217.88
338.422	233.88
338.65	225.88
338.878	208.88
339.106	211.88
339.334	196.88
339.562	212.88
339.79	207.88
340.018	198.88
340.246	193.88
340.474	204.88
340.702	201.88
340.93	215.88
341.158	200.88
341.386	190.88
341.614	180.88
341.842	200.88
342.07	195.88
342.298	203.88
342.526	186.88
342.754	191.88
342.981	195.88
343.209	183.88
343.437	192.88
343.665	210.88
343.893	200.88
344.12	202.88
344.348	203.88
344.576	193.88
344.804	201.88
345.031	183.88
345.259	172.88
345.487	177.88
345.714	180.88
345.942	186.88
346.17	188.88
346.397	193.88
346.625	191.88
346.853	184.88
347.08	190.88
347.308	189.88
347.535	183.88
347.763	192.88
347.99	198.88
348.218	179.88
348.445	181.88
348.673	187.88
348.9	190.88
349.128	186.88
349.355	183.88
349.583	175.88
349.81	180.88
350.037	169.88
350.265	169.88
350.492	193.88
350.72	190.88
350.947	185.88
351.174	164.88
351.402	181.88
351.629	172.88
351.856	185.88
352.083	164.88
352.311	171.88
352.538	184.88
352.765	194.88
352.992	175.88
353.22	182.88
353.447	183.88
353.674	187.88
353.901	191.88
354.128	167.88
354.355	180.88
354.583	182.88
354.81	173.88
355.037	192.88
355.264	186.88
355.491	171.88
355.718	179.88
355.945	198.88
356.172	179.88
356.399	199.88
356.626	167.88
356.853	183.88
357.08	186.88
357.307	183.88
357.534	165.88
357.761	169.88
357.988	191.88
358.215	172.88
358.441	179.88
358.668	191.88
358.895	190.88
359.122	185.88
359.349	177.88
359.576	167.88
359.802	179.88
360.029	189.88
360.256	175.88
360.483	172.88
360.709	174.88
360.936	172.88
361.163	173.88
361.39	179.88
361.616	175.88
361.843	177.88
362.07	178.88
362.296	176.88
362.523	170.88
362.749	177.88
362.976	199.88
363.203	189.88
363.429	178.88
363.656	178.88
363.882	182.88
364.109	180.88
364.335	191.88
364.562	178.88
364.788	181.88
365.015	164.88
365.241	175.88
365.468	170.88
365.694	175.88
365.92	176.88
366.147	176.88
366.373	197.88
366.599	190.88
366.826	181.88
367.052	173.88
367.278	173.88
367.505	184.88
367.731	155.88
367.957	167.88
368.184	158.88
368.41	181.88
368.636	191.88
368.862	183.88
369.089	179.88
369.315	161.88
369.541	152.88
369.767	174.88
369.993	188.88
370.219	178.88
370.445	153.88
370.672	200.88
370.898	181.88
371.124	181.88
371.35	175.88
371.576	179.88
371.802	188.88
372.028	178.88
372.254	181.88
372.48	168.88
372.706	191.88
372.932	183.88
373.158	179.88
373.384	191.88
373.61	179.88
373.835	184.88
374.061	183.88
374.287	190.88
374.513	190.88
374.739	171.88
374.965	176.88
375.191	197.88
375.416	176.88
375.642	188.88
375.868	196.88
376.094	177.88
376.319	184.88
376.545	176.88
376.771	192.88
376.997	179.88
377.222	175.88
377.448	183.88
377.674	190.88
377.899	197.88
378.125	169.88
378.35	188.88
378.576	191.88
378.802	184.88
379.027	179.88
379.253	190.88
379.478	184.88
379.704	192.88
379.929	188.88
380.155	177.88
380.38	201.88
380.606	188.88
380.831	186.88
381.057	201.88
381.282	189.88
381.507	191.88
381.733	184.88
381.958	188.88
382.184	192.88
382.409	202.88
382.634	206.88
382.86	194.88
383.085	190.88
383.31	187.88
383.535	189.88
383.761	190.88
383.986	214.88
384.211	210.88
384.436	200.88
384.662	196.88
384.887	198.88
385.112	187.88
385.337	195.88
385.562	194.88
385.787	203.88
386.013	189.88
386.238	202.88
386.463	215.88
386.688	221.88
386.913	203.88
387.138	202.88
387.363	193.88
387.588	205.88
387.813	208.88
388.038	199.88
388.263	209.88
388.488	205.88
388.713	205.88
388.938	203.88
389.163	193.88
389.387	207.88
389.612	209.88
389.837	195.88
390.062	196.88
390.287	187.88
390.512	192.88
390.736	192.88
390.961	207.88
391.186	208.88
391.411	208.88
391.636	212.88
391.86	225.88
392.085	214.88
392.31	222.88
392.534	228.88
392.759	215.88
392.984	207.88
393.208	202.88
393.433	199.88
393.658	214.88
393.882	200.88
394.107	199.88
394.331	183.88
394.556	212.88
394.78	233.88
395.005	219.88
395.229	227.88
395.454	224.88
395.678	216.88
395.903	220.88
396.127	218.88
396.352	208.88
396.576	220.88
396.801	204.88
397.025	214.88
397.249	215.88
397.474	208.88
397.698	203.88
397.922	205.88
398.147	227.88
398.371	230.88
398.595	224.88
398.82	228.88
399.044	243.88
399.268	244.88
399.492	256.88
399.717	268.88
399.941	265.88
400.165	256.88
400.389	254.88
400.613	249.88
400.837	257.88
401.062	233.88
401.286	236.88
401.51	228.88
401.734	240.88
401.958	235.88
402.182	214.88
402.406	227.88
402.63	237.88
402.854	227.88
403.078	240.88
403.302	237.88
403.526	248.88
403.75	246.88
403.974	264.88
404.198	250.88
404.422	265.88
404.645	272.88
404.869	291.88
405.093	289.88
405.317	327.88
405.541	314.88
405.765	299.88
405.988	263.88
406.212	268.88
406.436	263.88
406.66	259.88
406.883	260.88
407.107	261.88
407.331	271.88
407.555	260.88
407.778	273.88
408.002	261.88
408.226	254.88
408.449	254.88
408.673	243.88
408.896	237.88
409.12	249.88
409.344	245.88
409.567	250.88
409.791	249.88
410.014	239.88
410.238	247.88
410.461	252.88
410.685	250.88
410.908	262.88
411.132	235.88
411.355	249.88
411.578	248.88
411.802	256.88
412.025	268.88
412.249	299.88
412.472	303.88
412.695	344.88
412.919	305.88
413.142	293.88
413.365	282.88
413.589	255.88
413.812	255.88
414.035	256.88
414.258	260.88
414.482	254.88
414.705	256.88
414.928	249.88
415.151	240.88
415.374	233.88
415.597	237.88
415.821	235.88
416.044	255.88
416.267	247.88
416.49	243.88
416.713	237.88
416.936	237.88
417.159	246.88
417.382	251.88
417.605	261.88
417.828	255.88
418.051	253.88
418.274	257.88
418.497	244.88
418.72	238.88
418.943	243.88
419.166	254.88
419.389	255.88
419.611	259.88
419.834	267.88
420.057	266.88
420.28	300.88
420.503	282.88
420.726	277.88
420.948	271.88
421.171	250.88
421.394	256.88
421.617	250.88
421.839	253.88
422.062	237.88
422.285	221.88
422.507	245.88
422.73	247.88
422.953	235.88
423.175	233.88
423.398	248.88
423.621	261.88
423.843	219.88
424.066	245.88
424.288	234.88
424.511	223.88
424.733	232.88
424.956	232.88
425.178	247.88
425.401	243.88
425.623	227.88
425.846	246.88
426.068	238.88
426.291	241.88
426.513	229.88
426.735	246.88
426.958	234.88
427.18	227.88
427.402	241.88
427.625	286.88
427.847	312.88
428.069	319.88
428.292	292.88
428.514	246.88
428.736	229.88
428.958	227.88
429.181	240.88
429.403	227.88
429.625	218.88
429.847	236.88
430.069	235.88
430.292	243.88
430.514	236.88
430.736	228.88
430.958	228.88
431.18	222.88
431.402	227.88
431.624	227.88
431.846	215.88
432.068	224.88
432.29	221.88
432.512	219.88
432.734	205.88
432.956	219.88
433.178	221.88
433.4	239.88
433.622	238.88
433.844	232.88
434.066	232.88
434.287	219.88
434.509	222.88
434.731	223.88
434.953	244.88
435.175	229.88
435.397	224.88
435.618	211.88
435.84	216.88
436.062	213.88
436.284	222.88
436.505	206.88
436.727	220.88
436.949	202.88
437.17	211.88
437.392	217.88
437.614	222.88
437.835	219.88
438.057	208.88
438.278	211.88
438.5	221.88
438.721	219.88
438.943	232.88
439.165	185.88
439.386	198.88
439.608	222.88
439.829	203.88
440.05	224.88
440.272	223.88
440.493	189.88
440.715	204.88
440.936	219.88
441.158	212.88
441.379	224.88
441.6	234.88
441.822	218.88
442.043	213.88
442.264	220.88
442.486	230.88
442.707	224.88
442.928	223.88
443.149	206.88
443.371	232.88
443.592	237.88
443.813	242.88
444.034	233.88
444.255	244.88
444.476	228.88
444.698	228.88
444.919	244.88
445.14	331.88
445.361	274.88
445.582	245.88
445.803	217.88
446.024	218.88
446.245	221.88
446.466	215.88
446.687	216.88
446.908	212.88
447.129	217.88
447.35	219.88
447.571	213.88
447.792	217.88
448.013	208.88
448.234	218.88
448.455	219.88
448.675	203.88
448.896	205.88
449.117	219.88
449.338	219.88
449.559	216.88
449.779	209.88
450	216.88
450.221	217.88
450.442	209.88
450.662	212.88
450.883	207.88
451.104	215.88
451.324	199.88
451.545	212.88
451.766	199.88
451.986	198.88
452.207	216.88
452.428	194.88
452.648	218.88
452.869	198.88
453.089	202.88
453.31	205.88
453.53	194.88
453.751	190.88
453.971	202.88
454.192	198.88
454.412	194.88
454.633	194.88
454.853	200.88
455.073	187.88
455.294	201.88
455.514	215.88
455.734	206.88
455.955	208.88
456.175	217.88
456.395	215.88
456.616	200.88
456.836	200.88
457.056	198.88
457.276	209.88
457.497	200.88
457.717	200.88
457.937	204.88
458.157	220.88
458.377	213.88
458.598	200.88
458.818	207.88
459.038	211.88
459.258	200.88
459.478	218.88
459.698	205.88
459.918	217.88
460.138	209.88
460.358	220.88
460.578	231.88
460.798	211.88
461.018	237.88
461.238	223.88
461.458	238.88
461.678	225.88
461.898	247.88
462.118	238.88
462.338	224.88
462.558	249.88
462.777	237.88
462.997	255.88
463.217	264.88
463.437	252.88
463.657	260.88
463.876	261.88
464.096	269.88
464.316	250.88
464.536	244.88
464.755	247.88
464.975	223.88
465.195	254.88
465.414	235.88
465.634	235.88
465.854	248.88
466.073	235.88
466.293	236.88
466.512	249.88
466.732	231.88
466.951	237.88
467.171	233.88
467.391	263.88
467.61	268.88
467.829	362.88
468.049	657.88
468.268	788.88
468.488	468.88
468.707	353.88
468.927	305.88
469.146	283.88
469.365	260.88
469.585	257.88
469.804	254.88
470.023	256.88
470.243	236.88
470.462	252.88
470.681	268.88
470.901	256.88
471.12	265.88
471.339	291.88
471.558	311.88
471.777	351.88
471.997	502.88
472.216	1083.88
472.435	1661.88
472.654	939.88
472.873	558.88
473.092	451.88
473.311	367.88
473.53	335.88
473.749	312.88
473.968	297.88
474.187	278.88
474.406	280.88
474.625	270.88
474.844	252.88
475.063	259.88
475.282	271.88
475.501	246.88
475.72	245.88
475.939	247.88
476.158	251.88
476.377	254.88
476.596	247.88
476.814	248.88
477.033	264.88
477.252	250.88
477.471	257.88
477.69	255.88
477.908	253.88
478.127	267.88
478.346	276.88
478.564	278.88
478.783	274.88
479.002	269.88
479.22	298.88
479.439	320.88
479.658	313.88
479.876	323.88
480.095	345.88
480.313	371.88
480.532	428.88
480.751	619.88
480.969	1194.88
481.188	2623.88
481.406	2112.88
481.624	995.88
481.843	695.88
482.061	532.88
482.28	461.88
482.498	441.88
482.717	391.88
482.935	357.88
483.153	367.88
483.372	348.88
483.59	339.88
483.808	336.88
484.027	311.88
484.245	308.88
484.463	304.88
484.681	313.88
484.9	294.88
485.118	311.88
485.336	281.88
485.554	303.88
485.772	295.88
485.99	283.88
486.209	286.88
486.427	292.88
486.645	291.88
486.863	289.88
487.081	295.88
487.299	278.88
487.517	297.88
487.735	296.88
487.953	294.88
488.171	283.88
488.389	297.88
488.607	291.88
488.825	289.88
489.043	311.88
489.261	293.88
489.479	312.88
489.696	321.88
489.914	320.88
490.132	332.88
490.35	339.88
490.568	355.88
490.786	380.88
491.003	385.88
491.221	428.88
491.439	454.88
491.657	443.88
491.874	460.88
492.092	468.88
492.31	468.88
492.527	516.88
492.745	542.88
492.963	508.88
493.18	457.88
493.398	454.88
493.615	450.88
493.833	441.88
494.05	406.88
494.268	403.88
494.485	386.88
494.703	387.88
494.92	390.88
495.138	357.88
495.355	361.88
495.573	341.88
495.79	342.88
496.008	352.88
496.225	357.88
496.442	336.88
496.66	364.88
496.877	348.88
497.094	349.88
497.312	335.88
497.529	347.88
497.746	326.88
497.963	325.88
498.181	329.88
498.398	344.88
498.615	335.88
498.832	351.88
499.049	348.88
499.267	371.88
499.484	378.88
499.701	412.88
499.918	421.88
500.135	441.88
500.352	455.88
500.569	485.88
500.786	504.88
501.003	460.88
501.22	425.88
501.437	395.88
501.654	379.88
501.871	368.88
502.088	357.88
502.305	321.88
502.522	327.88
502.739	341.88
502.956	324.88
503.172	325.88
503.389	307.88
