Data from StdC_HRD10591_041.txt Node
Date: Fri May 16 15:29:01 EDT 2025
User: Yrep
Spectrometer: HR+D1059
Trigger mode: 1
Integration Time (sec): 1.000000E-1
Scans to average: 1
Electric dark correction enabled: true
Nonlinearity correction enabled: false
Boxcar width: 0
XAxis mode: Wavelengths
Number of Pixels in Spectrum: 2048
>>>>>Begin Spectral Data<<<<<
223.165	-13.44
223.4	-13.44
223.635	-13.44
223.869	-4.44
224.104	-19.44
224.338	-25.44
224.573	-25.44
224.808	-15.44
225.042	-12.44
225.277	3.56
225.511	9.56
225.746	7.56
225.98	23.56
226.215	-7.44
226.449	7.56
226.683	28.56
226.918	18.56
227.152	24.56
227.387	36.56
227.621	46.56
227.856	54.56
228.09	48.56
228.324	47.56
228.559	58.56
228.793	58.56
229.027	55.56
229.262	75.56
229.496	84.56
229.73	62.56
229.964	88.56
230.199	76.56
230.433	78.56
230.667	91.56
230.901	79.56
231.136	88.56
231.37	93.56
231.604	92.56
231.838	95.56
232.072	96.56
232.306	107.56
232.541	96.56
232.775	86.56
233.009	88.56
233.243	88.56
233.477	94.56
233.711	98.56
233.945	91.56
234.179	93.56
234.413	90.56
234.647	83.56
234.881	84.56
235.115	97.56
235.349	97.56
235.583	92.56
235.817	103.56
236.051	97.56
236.285	94.56
236.519	90.56
236.753	105.56
236.987	92.56
237.221	86.56
237.455	88.56
237.689	105.56
237.922	104.56
238.156	80.56
238.39	75.56
238.624	89.56
238.858	90.56
239.091	88.56
239.325	97.56
239.559	84.56
239.793	88.56
240.027	114.56
240.26	106.56
240.494	88.56
240.728	97.56
240.961	92.56
241.195	96.56
241.429	104.56
241.662	109.56
241.896	103.56
242.13	102.56
242.363	92.56
242.597	96.56
242.83	95.56
243.064	92.56
243.298	91.56
243.531	104.56
243.765	94.56
243.998	101.56
244.232	99.56
244.465	96.56
244.699	101.56
244.932	105.56
245.166	95.56
245.399	88.56
245.633	98.56
245.866	109.56
246.099	106.56
246.333	122.56
246.566	102.56
246.8	115.56
247.033	109.56
247.266	101.56
247.5	108.56
247.733	94.56
247.966	116.56
248.2	114.56
248.433	97.56
248.666	124.56
248.899	122.56
249.133	97.56
249.366	110.56
249.599	110.56
249.832	136.56
250.066	147.56
250.299	158.56
250.532	187.56
250.765	168.56
250.998	142.56
251.231	131.56
251.465	132.56
251.698	127.56
251.931	136.56
252.164	105.56
252.397	115.56
252.63	120.56
252.863	122.56
253.096	125.56
253.329	116.56
253.562	119.56
253.795	128.56
254.028	133.56
254.261	128.56
254.494	126.56
254.727	127.56
254.96	137.56
255.193	148.56
255.426	160.56
255.659	198.56
255.892	252.56
256.124	298.56
256.357	234.56
256.59	200.56
256.823	163.56
257.056	148.56
257.289	151.56
257.521	136.56
257.754	135.56
257.987	137.56
258.22	126.56
258.452	140.56
258.685	119.56
258.918	133.56
259.151	125.56
259.383	126.56
259.616	141.56
259.849	130.56
260.081	152.56
260.314	127.56
260.547	144.56
260.779	130.56
261.012	127.56
261.244	133.56
261.477	147.56
261.71	124.56
261.942	131.56
262.175	132.56
262.407	123.56
262.64	140.56
262.872	138.56
263.105	113.56
263.337	127.56
263.57	112.56
263.802	123.56
264.035	112.56
264.267	126.56
264.499	111.56
264.732	131.56
264.964	131.56
265.197	132.56
265.429	126.56
265.661	131.56
265.894	123.56
266.126	134.56
266.358	128.56
266.591	122.56
266.823	135.56
267.055	122.56
267.287	134.56
267.52	130.56
267.752	133.56
267.984	130.56
268.216	131.56
268.448	137.56
268.681	138.56
268.913	141.56
269.145	146.56
269.377	149.56
269.609	137.56
269.841	118.56
270.073	132.56
270.306	140.56
270.538	123.56
270.77	146.56
271.002	134.56
271.234	136.56
271.466	148.56
271.698	132.56
271.93	148.56
272.162	143.56
272.394	149.56
272.626	148.56
272.858	154.56
273.09	136.56
273.322	135.56
273.553	139.56
273.785	141.56
274.017	145.56
274.249	147.56
274.481	151.56
274.713	155.56
274.945	153.56
275.176	152.56
275.408	186.56
275.64	182.56
275.872	160.56
276.104	177.56
276.335	178.56
276.567	179.56
276.799	183.56
277.031	207.56
277.262	223.56
277.494	223.56
277.726	188.56
277.957	186.56
278.189	170.56
278.421	170.56
278.652	166.56
278.884	158.56
279.115	183.56
279.347	173.56
279.579	193.56
279.81	212.56
280.042	249.56
280.273	258.56
280.505	237.56
280.736	207.56
280.968	196.56
281.199	188.56
281.431	168.56
281.662	179.56
281.894	179.56
282.125	177.56
282.356	168.56
282.588	158.56
282.819	157.56
283.051	161.56
283.282	141.56
283.513	167.56
283.745	170.56
283.976	170.56
284.207	153.56
284.439	156.56
284.67	143.56
284.901	167.56
285.132	152.56
285.364	167.56
285.595	158.56
285.826	155.56
286.057	151.56
286.288	167.56
286.52	145.56
286.751	156.56
286.982	153.56
287.213	163.56
287.444	166.56
287.675	146.56
287.906	159.56
288.138	160.56
288.369	160.56
288.6	166.56
288.831	149.56
289.062	172.56
289.293	158.56
289.524	161.56
289.755	162.56
289.986	167.56
290.217	156.56
290.448	150.56
290.679	158.56
290.91	167.56
291.141	170.56
291.371	156.56
291.602	167.56
291.833	139.56
292.064	166.56
292.295	160.56
292.526	152.56
292.757	142.56
292.987	149.56
293.218	142.56
293.449	156.56
293.68	161.56
293.91	146.56
294.141	171.56
294.372	155.56
294.603	170.56
294.833	159.56
295.064	152.56
295.295	150.56
295.525	155.56
295.756	147.56
295.987	150.56
296.217	168.56
296.448	174.56
296.679	163.56
296.909	166.56
297.14	158.56
297.37	163.56
297.601	163.56
297.831	162.56
298.062	153.56
298.292	171.56
298.523	155.56
298.753	161.56
298.984	166.56
299.214	167.56
299.445	151.56
299.675	162.56
299.905	165.56
300.136	140.56
300.366	164.56
300.597	157.56
300.827	164.56
301.057	160.56
301.288	169.56
301.518	161.56
301.748	170.56
301.979	185.56
302.209	172.56
302.439	177.56
302.669	180.56
302.9	158.56
303.13	182.56
303.36	188.56
303.59	186.56
303.82	202.56
304.051	192.56
304.281	166.56
304.511	171.56
304.741	171.56
304.971	170.56
305.201	152.56
305.431	158.56
305.661	177.56
305.891	170.56
306.121	154.56
306.352	186.56
306.582	182.56
306.812	175.56
307.042	201.56
307.272	217.56
307.502	218.56
307.731	216.56
307.961	194.56
308.191	186.56
308.421	180.56
308.651	166.56
308.881	176.56
309.111	159.56
309.341	182.56
309.571	164.56
309.8	177.56
310.03	166.56
310.26	164.56
310.49	168.56
310.72	172.56
310.949	191.56
311.179	171.56
311.409	183.56
311.639	168.56
311.868	182.56
312.098	185.56
312.328	172.56
312.557	172.56
312.787	168.56
313.017	177.56
313.246	170.56
313.476	192.56
313.706	172.56
313.935	166.56
314.165	181.56
314.394	173.56
314.624	180.56
314.853	166.56
315.083	180.56
315.312	174.56
315.542	171.56
315.771	169.56
316.001	195.56
316.23	179.56
316.46	166.56
316.689	171.56
316.919	173.56
317.148	173.56
317.377	166.56
317.607	169.56
317.836	158.56
318.065	186.56
318.295	174.56
318.524	176.56
318.753	186.56
318.983	191.56
319.212	175.56
319.441	176.56
319.67	186.56
319.9	168.56
320.129	160.56
320.358	168.56
320.587	179.56
320.816	190.56
321.046	181.56
321.275	193.56
321.504	207.56
321.733	174.56
321.962	188.56
322.191	209.56
322.42	196.56
322.649	190.56
322.878	208.56
323.108	209.56
323.337	206.56
323.566	198.56
323.795	215.56
324.024	215.56
324.253	221.56
324.482	222.56
324.71	209.56
324.939	220.56
325.168	226.56
325.397	220.56
325.626	219.56
325.855	235.56
326.084	242.56
326.313	236.56
326.542	255.56
326.77	261.56
326.999	273.56
327.228	294.56
327.457	334.56
327.686	420.56
327.914	548.56
328.143	682.56
328.372	696.56
328.6	522.56
328.829	380.56
329.058	380.56
329.287	416.56
329.515	482.56
329.744	642.56
329.972	962.56
330.201	1288.56
330.43	1306.56
330.658	791.56
330.887	468.56
331.115	360.56
331.344	346.56
331.572	319.56
331.801	305.56
332.03	326.56
332.258	300.56
332.486	320.56
332.715	343.56
332.943	337.56
333.172	374.56
333.4	415.56
333.629	540.56
333.857	692.56
334.085	985.56
334.314	1456.56
334.542	1776.56
334.771	1403.56
334.999	735.56
335.227	499.56
335.455	398.56
335.684	361.56
335.912	323.56
336.14	305.56
336.369	287.56
336.597	260.56
336.825	263.56
337.053	254.56
337.281	254.56
337.51	248.56
337.738	235.56
337.966	242.56
338.194	237.56
338.422	218.56
338.65	218.56
338.878	218.56
339.106	209.56
339.334	212.56
339.562	205.56
339.79	226.56
340.018	201.56
340.246	196.56
340.474	188.56
340.702	205.56
340.93	209.56
341.158	204.56
341.386	194.56
341.614	196.56
341.842	198.56
342.07	191.56
342.298	190.56
342.526	203.56
342.754	191.56
342.981	188.56
343.209	206.56
343.437	194.56
343.665	204.56
343.893	195.56
344.12	204.56
344.348	197.56
344.576	195.56
344.804	199.56
345.031	188.56
345.259	206.56
345.487	194.56
345.714	189.56
345.942	188.56
346.17	195.56
346.397	205.56
346.625	188.56
346.853	186.56
347.08	192.56
347.308	200.56
347.535	201.56
347.763	186.56
347.99	182.56
348.218	185.56
348.445	171.56
348.673	182.56
348.9	184.56
349.128	202.56
349.355	183.56
349.583	183.56
349.81	171.56
350.037	197.56
350.265	174.56
350.492	188.56
350.72	186.56
350.947	189.56
351.174	204.56
351.402	179.56
351.629	184.56
351.856	186.56
352.083	173.56
352.311	184.56
352.538	192.56
352.765	171.56
352.992	202.56
353.22	191.56
353.447	194.56
353.674	179.56
353.901	184.56
354.128	196.56
354.355	178.56
354.583	174.56
354.81	195.56
355.037	188.56
355.264	183.56
355.491	198.56
355.718	181.56
355.945	168.56
356.172	178.56
356.399	185.56
356.626	174.56
356.853	174.56
357.08	184.56
357.307	194.56
357.534	194.56
357.761	187.56
357.988	187.56
358.215	180.56
358.441	178.56
358.668	180.56
358.895	174.56
359.122	185.56
359.349	160.56
359.576	187.56
359.802	184.56
360.029	178.56
360.256	178.56
360.483	189.56
360.709	169.56
360.936	191.56
361.163	176.56
361.39	193.56
361.616	186.56
361.843	175.56
362.07	176.56
362.296	181.56
362.523	173.56
362.749	184.56
362.976	184.56
363.203	186.56
363.429	167.56
363.656	183.56
363.882	170.56
364.109	168.56
364.335	196.56
364.562	177.56
364.788	184.56
365.015	190.56
365.241	187.56
365.468	190.56
365.694	179.56
365.92	185.56
366.147	177.56
366.373	182.56
366.599	183.56
366.826	176.56
367.052	187.56
367.278	189.56
367.505	188.56
367.731	182.56
367.957	169.56
368.184	173.56
368.41	194.56
368.636	184.56
368.862	171.56
369.089	189.56
369.315	170.56
369.541	194.56
369.767	191.56
369.993	173.56
370.219	176.56
370.445	172.56
370.672	182.56
370.898	198.56
371.124	194.56
371.35	189.56
371.576	173.56
371.802	187.56
372.028	174.56
372.254	190.56
372.48	172.56
372.706	179.56
372.932	185.56
373.158	182.56
373.384	177.56
373.61	183.56
373.835	177.56
374.061	170.56
374.287	174.56
374.513	192.56
374.739	181.56
374.965	191.56
375.191	196.56
375.416	176.56
375.642	202.56
375.868	186.56
376.094	175.56
376.319	185.56
376.545	192.56
376.771	188.56
376.997	193.56
377.222	191.56
377.448	171.56
377.674	187.56
377.899	176.56
378.125	186.56
378.35	214.56
378.576	183.56
378.802	181.56
379.027	191.56
379.253	181.56
379.478	182.56
379.704	188.56
379.929	190.56
380.155	159.56
380.38	194.56
380.606	192.56
380.831	202.56
381.057	188.56
381.282	182.56
381.507	179.56
381.733	204.56
381.958	184.56
382.184	187.56
382.409	194.56
382.634	209.56
382.86	210.56
383.085	199.56
383.31	209.56
383.535	200.56
383.761	192.56
383.986	214.56
384.211	200.56
384.436	209.56
384.662	212.56
384.887	207.56
385.112	204.56
385.337	201.56
385.562	199.56
385.787	210.56
386.013	204.56
386.238	210.56
386.463	202.56
386.688	235.56
386.913	206.56
387.138	206.56
387.363	214.56
387.588	215.56
387.813	204.56
388.038	211.56
388.263	206.56
388.488	184.56
388.713	211.56
388.938	216.56
389.163	197.56
389.387	208.56
389.612	195.56
389.837	223.56
390.062	220.56
390.287	219.56
390.512	207.56
390.736	218.56
390.961	200.56
391.186	222.56
391.411	211.56
391.636	206.56
391.86	219.56
392.085	223.56
392.31	207.56
392.534	219.56
392.759	216.56
392.984	210.56
393.208	208.56
393.433	200.56
393.658	200.56
393.882	218.56
394.107	207.56
394.331	210.56
394.556	216.56
394.78	213.56
395.005	217.56
395.229	222.56
395.454	215.56
395.678	235.56
395.903	222.56
396.127	216.56
396.352	219.56
396.576	222.56
396.801	218.56
397.025	210.56
397.249	211.56
397.474	236.56
397.698	210.56
397.922	202.56
398.147	227.56
398.371	230.56
398.595	235.56
398.82	235.56
399.044	257.56
399.268	248.56
399.492	253.56
399.717	274.56
399.941	279.56
400.165	262.56
400.389	248.56
400.613	247.56
400.837	225.56
401.062	238.56
401.286	228.56
401.51	227.56
401.734	234.56
401.958	228.56
402.182	256.56
402.406	230.56
402.63	219.56
402.854	235.56
403.078	238.56
403.302	259.56
403.526	261.56
403.75	241.56
403.974	242.56
404.198	255.56
404.422	250.56
404.645	276.56
404.869	272.56
405.093	282.56
405.317	309.56
405.541	319.56
405.765	289.56
405.988	270.56
406.212	269.56
406.436	242.56
406.66	252.56
406.883	270.56
407.107	251.56
407.331	262.56
407.555	267.56
407.778	248.56
408.002	234.56
408.226	257.56
408.449	265.56
408.673	265.56
408.896	269.56
409.12	236.56
409.344	239.56
409.567	248.56
409.791	249.56
410.014	260.56
410.238	248.56
410.461	249.56
410.685	255.56
410.908	241.56
411.132	259.56
411.355	254.56
411.578	253.56
411.802	288.56
412.025	278.56
412.249	283.56
412.472	315.56
412.695	323.56
412.919	317.56
413.142	297.56
413.365	286.56
413.589	268.56
413.812	257.56
414.035	250.56
414.258	257.56
414.482	244.56
414.705	254.56
414.928	241.56
415.151	243.56
415.374	255.56
415.597	237.56
415.821	234.56
416.044	253.56
416.267	226.56
416.49	242.56
416.713	239.56
416.936	249.56
417.159	230.56
417.382	266.56
417.605	258.56
417.828	246.56
418.051	236.56
418.274	251.56
418.497	240.56
418.72	230.56
418.943	247.56
419.166	266.56
419.389	270.56
419.611	269.56
419.834	265.56
420.057	286.56
420.28	292.56
420.503	292.56
420.726	283.56
420.948	275.56
421.171	259.56
421.394	250.56
421.617	250.56
421.839	254.56
422.062	242.56
422.285	255.56
422.507	236.56
422.73	261.56
422.953	215.56
423.175	232.56
423.398	228.56
423.621	242.56
423.843	255.56
424.066	236.56
424.288	238.56
424.511	246.56
424.733	253.56
424.956	245.56
425.178	236.56
425.401	247.56
425.623	231.56
425.846	241.56
426.068	229.56
426.291	235.56
426.513	246.56
426.735	230.56
426.958	237.56
427.18	246.56
427.402	264.56
427.625	290.56
427.847	317.56
428.069	308.56
428.292	281.56
428.514	260.56
428.736	239.56
428.958	246.56
429.181	236.56
429.403	230.56
429.625	225.56
429.847	223.56
430.069	227.56
430.292	236.56
430.514	228.56
430.736	230.56
430.958	233.56
431.18	224.56
431.402	223.56
431.624	222.56
431.846	230.56
432.068	218.56
432.29	215.56
432.512	213.56
432.734	212.56
432.956	218.56
433.178	220.56
433.4	235.56
433.622	234.56
433.844	230.56
434.066	210.56
434.287	204.56
434.509	230.56
434.731	240.56
434.953	236.56
435.175	222.56
435.397	222.56
435.618	222.56
435.84	218.56
436.062	224.56
436.284	216.56
436.505	222.56
436.727	215.56
436.949	221.56
437.17	224.56
437.392	205.56
437.614	219.56
437.835	198.56
438.057	211.56
438.278	205.56
438.5	213.56
438.721	207.56
438.943	225.56
439.165	219.56
439.386	200.56
439.608	231.56
439.829	216.56
440.05	236.56
440.272	209.56
440.493	230.56
440.715	208.56
440.936	226.56
441.158	220.56
441.379	226.56
441.6	216.56
441.822	231.56
442.043	232.56
442.264	228.56
442.486	225.56
442.707	246.56
442.928	202.56
443.149	221.56
443.371	239.56
443.592	239.56
443.813	234.56
444.034	233.56
444.255	233.56
444.476	233.56
444.698	250.56
444.919	241.56
445.14	312.56
445.361	276.56
445.582	236.56
445.803	231.56
446.024	215.56
446.245	220.56
446.466	208.56
446.687	214.56
446.908	229.56
447.129	227.56
447.35	222.56
447.571	224.56
447.792	194.56
448.013	217.56
448.234	214.56
448.455	214.56
448.675	233.56
448.896	218.56
449.117	220.56
449.338	220.56
449.559	207.56
449.779	200.56
450	203.56
450.221	215.56
450.442	223.56
450.662	214.56
450.883	200.56
451.104	213.56
451.324	214.56
451.545	213.56
451.766	206.56
451.986	192.56
452.207	208.56
452.428	207.56
452.648	227.56
452.869	205.56
453.089	199.56
453.31	192.56
453.53	195.56
453.751	204.56
453.971	193.56
454.192	216.56
454.412	191.56
454.633	199.56
454.853	201.56
455.073	189.56
455.294	207.56
455.514	194.56
455.734	216.56
455.955	213.56
456.175	210.56
456.395	204.56
456.616	209.56
456.836	214.56
457.056	203.56
457.276	204.56
457.497	207.56
457.717	207.56
457.937	209.56
458.157	195.56
458.377	206.56
458.598	212.56
458.818	207.56
459.038	213.56
459.258	206.56
459.478	218.56
459.698	225.56
459.918	225.56
460.138	218.56
460.358	235.56
460.578	231.56
460.798	236.56
461.018	233.56
461.238	237.56
461.458	257.56
461.678	226.56
461.898	249.56
462.118	232.56
462.338	246.56
462.558	236.56
462.777	254.56
462.997	270.56
463.217	257.56
463.437	288.56
463.657	259.56
463.876	259.56
464.096	255.56
464.316	246.56
464.536	243.56
464.755	249.56
464.975	244.56
465.195	246.56
465.414	239.56
465.634	212.56
465.854	226.56
466.073	214.56
466.293	219.56
466.512	236.56
466.732	238.56
466.951	256.56
467.171	259.56
467.391	256.56
467.61	282.56
467.829	356.56
468.049	621.56
468.268	769.56
468.488	451.56
468.707	336.56
468.927	296.56
469.146	289.56
469.365	270.56
469.585	262.56
469.804	268.56
470.023	264.56
470.243	275.56
470.462	269.56
470.681	273.56
470.901	260.56
471.12	266.56
471.339	292.56
471.558	301.56
471.777	347.56
471.997	510.56
472.216	1082.56
472.435	1634.56
472.654	921.56
472.873	560.56
473.092	392.56
473.311	364.56
473.53	323.56
473.749	322.56
473.968	285.56
474.187	276.56
474.406	280.56
474.625	275.56
474.844	257.56
475.063	246.56
475.282	272.56
475.501	246.56
475.72	269.56
475.939	258.56
476.158	240.56
476.377	257.56
476.596	259.56
476.814	247.56
477.033	248.56
477.252	243.56
477.471	251.56
477.69	255.56
477.908	272.56
478.127	281.56
478.346	279.56
478.564	271.56
478.783	268.56
479.002	283.56
479.22	291.56
479.439	307.56
479.658	306.56
479.876	331.56
480.095	330.56
480.313	348.56
480.532	412.56
480.751	595.56
480.969	1186.56
481.188	2614.56
481.406	2058.56
481.624	992.56
481.843	664.56
482.061	496.56
482.28	483.56
482.498	419.56
482.717	370.56
482.935	342.56
483.153	356.56
483.372	331.56
483.59	343.56
483.808	320.56
484.027	310.56
484.245	312.56
484.463	304.56
484.681	304.56
484.9	292.56
485.118	294.56
485.336	282.56
485.554	283.56
485.772	281.56
485.99	291.56
486.209	287.56
486.427	275.56
486.645	280.56
486.863	298.56
487.081	304.56
487.299	303.56
487.517	298.56
487.735	285.56
487.953	298.56
488.171	298.56
488.389	302.56
488.607	299.56
488.825	296.56
489.043	307.56
489.261	292.56
489.479	299.56
489.696	323.56
489.914	336.56
490.132	341.56
490.35	358.56
490.568	362.56
490.786	357.56
491.003	388.56
491.221	437.56
491.439	458.56
491.657	455.56
491.874	435.56
492.092	442.56
492.31	484.56
492.527	523.56
492.745	538.56
492.963	501.56
493.18	469.56
493.398	455.56
493.615	430.56
493.833	412.56
494.05	413.56
494.268	394.56
494.485	350.56
494.703	371.56
494.92	364.56
495.138	356.56
495.355	360.56
495.573	359.56
495.79	347.56
496.008	347.56
496.225	349.56
496.442	344.56
496.66	330.56
496.877	308.56
497.094	332.56
497.312	343.56
497.529	336.56
497.746	334.56
497.963	332.56
498.181	343.56
498.398	359.56
498.615	334.56
498.832	358.56
499.049	360.56
499.267	360.56
499.484	358.56
499.701	407.56
499.918	415.56
500.135	434.56
500.352	451.56
500.569	490.56
500.786	492.56
501.003	463.56
501.22	425.56
501.437	399.56
501.654	393.56
501.871	380.56
502.088	363.56
502.305	344.56
502.522	325.56
502.739	329.56
502.956	317.56
503.172	301.56
503.389	303.56
