Data from StdC_HRD10591_048.txt Node
Date: Fri May 16 15:29:04 EDT 2025
User: Yrep
Spectrometer: HR+D1059
Trigger mode: 1
Integration Time (sec): 1.000000E-1
Scans to average: 1
Electric dark correction enabled: true
Nonlinearity correction enabled: false
Boxcar width: 0
XAxis mode: Wavelengths
Number of Pixels in Spectrum: 2048
>>>>>Begin Spectral Data<<<<<
223.165	-14.38
223.4	-14.38
223.635	-14.38
223.869	-20.38
224.104	-25.38
224.338	-26.38
224.573	-18.38
224.808	-9.38
225.042	-17.38
225.277	14.62
225.511	-5.38
225.746	3.62
225.98	-8.38
226.215	7.62
226.449	21.62
226.683	24.62
226.918	40.62
227.152	32.62
227.387	33.62
227.621	49.62
227.856	52.62
228.09	39.62
228.324	52.62
228.559	52.62
228.793	59.62
229.027	77.62
229.262	89.62
229.496	76.62
229.73	86.62
229.964	76.62
230.199	80.62
230.433	90.62
230.667	90.62
230.901	88.62
231.136	85.62
231.37	93.62
231.604	82.62
231.838	106.62
232.072	82.62
232.306	97.62
232.541	90.62
232.775	88.62
233.009	96.62
233.243	92.62
233.477	86.62
233.711	90.62
233.945	90.62
234.179	86.62
234.413	96.62
234.647	82.62
234.881	74.62
235.115	99.62
235.349	94.62
235.583	92.62
235.817	68.62
236.051	81.62
236.285	69.62
236.519	106.62
236.753	93.62
236.987	94.62
237.221	86.62
237.455	104.62
237.689	84.62
237.922	100.62
238.156	92.62
238.39	76.62
238.624	77.62
238.858	82.62
239.091	93.62
239.325	95.62
239.559	108.62
239.793	93.62
240.027	95.62
240.26	96.62
240.494	106.62
240.728	100.62
240.961	97.62
241.195	109.62
241.429	98.62
241.662	109.62
241.896	97.62
242.13	86.62
242.363	90.62
242.597	106.62
242.83	79.62
243.064	98.62
243.298	104.62
243.531	115.62
243.765	100.62
243.998	102.62
244.232	102.62
244.465	110.62
244.699	104.62
244.932	93.62
245.166	118.62
245.399	120.62
245.633	93.62
245.866	104.62
246.099	101.62
246.333	118.62
246.566	117.62
246.8	113.62
247.033	95.62
247.266	110.62
247.5	116.62
247.733	116.62
247.966	99.62
248.2	119.62
248.433	104.62
248.666	108.62
248.899	96.62
249.133	114.62
249.366	116.62
249.599	130.62
249.832	123.62
250.066	150.62
250.299	188.62
250.532	182.62
250.765	168.62
250.998	145.62
251.231	132.62
251.465	142.62
251.698	124.62
251.931	130.62
252.164	121.62
252.397	106.62
252.63	105.62
252.863	122.62
253.096	125.62
253.329	121.62
253.562	124.62
253.795	139.62
254.028	127.62
254.261	120.62
254.494	147.62
254.727	135.62
254.96	145.62
255.193	162.62
255.426	173.62
255.659	189.62
255.892	253.62
256.124	313.62
256.357	266.62
256.59	204.62
256.823	153.62
257.056	159.62
257.289	144.62
257.521	162.62
257.754	154.62
257.987	163.62
258.22	145.62
258.452	149.62
258.685	148.62
258.918	145.62
259.151	142.62
259.383	145.62
259.616	128.62
259.849	125.62
260.081	138.62
260.314	124.62
260.547	140.62
260.779	131.62
261.012	146.62
261.244	154.62
261.477	138.62
261.71	138.62
261.942	134.62
262.175	135.62
262.407	130.62
262.64	129.62
262.872	129.62
263.105	134.62
263.337	126.62
263.57	121.62
263.802	115.62
264.035	127.62
264.267	127.62
264.499	135.62
264.732	140.62
264.964	138.62
265.197	130.62
265.429	134.62
265.661	128.62
265.894	123.62
266.126	124.62
266.358	134.62
266.591	132.62
266.823	136.62
267.055	132.62
267.287	118.62
267.52	135.62
267.752	134.62
267.984	134.62
268.216	128.62
268.448	128.62
268.681	160.62
268.913	144.62
269.145	137.62
269.377	133.62
269.609	122.62
269.841	125.62
270.073	134.62
270.306	142.62
270.538	144.62
270.77	128.62
271.002	140.62
271.234	142.62
271.466	148.62
271.698	148.62
271.93	134.62
272.162	133.62
272.394	148.62
272.626	145.62
272.858	150.62
273.09	138.62
273.322	158.62
273.553	147.62
273.785	160.62
274.017	157.62
274.249	166.62
274.481	152.62
274.713	155.62
274.945	151.62
275.176	157.62
275.408	170.62
275.64	180.62
275.872	180.62
276.104	188.62
276.335	159.62
276.567	184.62
276.799	200.62
277.031	203.62
277.262	244.62
277.494	223.62
277.726	196.62
277.957	183.62
278.189	191.62
278.421	171.62
278.652	178.62
278.884	168.62
279.115	183.62
279.347	154.62
279.579	202.62
279.81	223.62
280.042	245.62
280.273	292.62
280.505	257.62
280.736	209.62
280.968	198.62
281.199	201.62
281.431	183.62
281.662	194.62
281.894	163.62
282.125	165.62
282.356	157.62
282.588	165.62
282.819	156.62
283.051	180.62
283.282	172.62
283.513	169.62
283.745	161.62
283.976	156.62
284.207	146.62
284.439	161.62
284.67	152.62
284.901	159.62
285.132	157.62
285.364	157.62
285.595	158.62
285.826	161.62
286.057	169.62
286.288	163.62
286.52	145.62
286.751	162.62
286.982	175.62
287.213	162.62
287.444	170.62
287.675	156.62
287.906	167.62
288.138	145.62
288.369	149.62
288.6	160.62
288.831	160.62
289.062	170.62
289.293	177.62
289.524	177.62
289.755	160.62
289.986	156.62
290.217	153.62
290.448	164.62
290.679	154.62
290.91	153.62
291.141	165.62
291.371	156.62
291.602	167.62
291.833	146.62
292.064	165.62
292.295	170.62
292.526	142.62
292.757	158.62
292.987	158.62
293.218	150.62
293.449	153.62
293.68	152.62
293.91	153.62
294.141	169.62
294.372	149.62
294.603	158.62
294.833	156.62
295.064	155.62
295.295	155.62
295.525	160.62
295.756	157.62
295.987	154.62
296.217	147.62
296.448	163.62
296.679	154.62
296.909	148.62
297.14	165.62
297.37	150.62
297.601	173.62
297.831	144.62
298.062	149.62
298.292	161.62
298.523	159.62
298.753	159.62
298.984	148.62
299.214	164.62
299.445	158.62
299.675	169.62
299.905	157.62
300.136	166.62
300.366	165.62
300.597	173.62
300.827	162.62
301.057	173.62
301.288	193.62
301.518	168.62
301.748	176.62
301.979	182.62
302.209	170.62
302.439	167.62
302.669	175.62
302.9	178.62
303.13	169.62
303.36	192.62
303.59	207.62
303.82	211.62
304.051	205.62
304.281	169.62
304.511	175.62
304.741	184.62
304.971	172.62
305.201	162.62
305.431	172.62
305.661	175.62
305.891	166.62
306.121	174.62
306.352	153.62
306.582	158.62
306.812	176.62
307.042	202.62
307.272	216.62
307.502	227.62
307.731	228.62
307.961	196.62
308.191	176.62
308.421	177.62
308.651	177.62
308.881	182.62
309.111	170.62
309.341	182.62
309.571	171.62
309.8	175.62
310.03	164.62
310.26	166.62
310.49	173.62
310.72	186.62
310.949	188.62
311.179	177.62
311.409	189.62
311.639	173.62
311.868	190.62
312.098	174.62
312.328	174.62
312.557	187.62
312.787	180.62
313.017	178.62
313.246	169.62
313.476	170.62
313.706	177.62
313.935	172.62
314.165	179.62
314.394	169.62
314.624	172.62
314.853	173.62
315.083	184.62
315.312	181.62
315.542	161.62
315.771	194.62
316.001	194.62
316.23	175.62
316.46	164.62
316.689	197.62
316.919	208.62
317.148	183.62
317.377	194.62
317.607	187.62
317.836	197.62
318.065	177.62
318.295	182.62
318.524	170.62
318.753	189.62
318.983	184.62
319.212	188.62
319.441	206.62
319.67	180.62
319.9	186.62
320.129	180.62
320.358	182.62
320.587	194.62
320.816	187.62
321.046	192.62
321.275	204.62
321.504	176.62
321.733	181.62
321.962	193.62
322.191	190.62
322.42	196.62
322.649	190.62
322.878	203.62
323.108	210.62
323.337	208.62
323.566	212.62
323.795	215.62
324.024	205.62
324.253	214.62
324.482	209.62
324.71	209.62
324.939	211.62
325.168	218.62
325.397	225.62
325.626	249.62
325.855	244.62
326.084	248.62
326.313	262.62
326.542	256.62
326.77	269.62
326.999	270.62
327.228	286.62
327.457	337.62
327.686	408.62
327.914	531.62
328.143	690.62
328.372	750.62
328.6	523.62
328.829	400.62
329.058	387.62
329.287	412.62
329.515	486.62
329.744	665.62
329.972	950.62
330.201	1284.62
330.43	1317.62
330.658	772.62
330.887	481.62
331.115	409.62
331.344	346.62
331.572	338.62
331.801	327.62
332.03	306.62
332.258	323.62
332.486	329.62
332.715	324.62
332.943	375.62
333.172	390.62
333.4	442.62
333.629	526.62
333.857	702.62
334.085	1037.62
334.314	1455.62
334.542	1797.62
334.771	1458.62
334.999	751.62
335.227	517.62
335.455	392.62
335.684	350.62
335.912	333.62
336.14	297.62
336.369	283.62
336.597	273.62
336.825	252.62
337.053	258.62
337.281	275.62
337.51	238.62
337.738	248.62
337.966	228.62
338.194	236.62
338.422	206.62
338.65	226.62
338.878	218.62
339.106	219.62
339.334	216.62
339.562	200.62
339.79	206.62
340.018	207.62
340.246	216.62
340.474	196.62
340.702	201.62
340.93	210.62
341.158	215.62
341.386	193.62
341.614	195.62
341.842	206.62
342.07	202.62
342.298	196.62
342.526	188.62
342.754	198.62
342.981	205.62
343.209	180.62
343.437	200.62
343.665	199.62
343.893	201.62
344.12	207.62
344.348	216.62
344.576	202.62
344.804	202.62
345.031	183.62
345.259	185.62
345.487	201.62
345.714	199.62
345.942	187.62
346.17	184.62
346.397	190.62
346.625	175.62
346.853	185.62
347.08	177.62
347.308	189.62
347.535	186.62
347.763	177.62
347.99	185.62
348.218	188.62
348.445	204.62
348.673	203.62
348.9	196.62
349.128	190.62
349.355	182.62
349.583	199.62
349.81	198.62
350.037	174.62
350.265	181.62
350.492	189.62
350.72	198.62
350.947	205.62
351.174	190.62
351.402	193.62
351.629	186.62
351.856	190.62
352.083	194.62
352.311	190.62
352.538	189.62
352.765	202.62
352.992	189.62
353.22	170.62
353.447	196.62
353.674	186.62
353.901	191.62
354.128	186.62
354.355	188.62
354.583	181.62
354.81	173.62
355.037	183.62
355.264	184.62
355.491	172.62
355.718	187.62
355.945	196.62
356.172	184.62
356.399	189.62
356.626	179.62
356.853	174.62
357.08	170.62
357.307	186.62
357.534	179.62
357.761	185.62
357.988	172.62
358.215	176.62
358.441	202.62
358.668	193.62
358.895	186.62
359.122	204.62
359.349	188.62
359.576	186.62
359.802	197.62
360.029	194.62
360.256	201.62
360.483	191.62
360.709	170.62
360.936	205.62
361.163	188.62
361.39	176.62
361.616	172.62
361.843	187.62
362.07	185.62
362.296	165.62
362.523	173.62
362.749	163.62
362.976	178.62
363.203	202.62
363.429	178.62
363.656	184.62
363.882	180.62
364.109	186.62
364.335	175.62
364.562	188.62
364.788	178.62
365.015	177.62
365.241	188.62
365.468	190.62
365.694	178.62
365.92	198.62
366.147	185.62
366.373	178.62
366.599	186.62
366.826	174.62
367.052	179.62
367.278	175.62
367.505	177.62
367.731	187.62
367.957	182.62
368.184	181.62
368.41	187.62
368.636	181.62
368.862	189.62
369.089	187.62
369.315	197.62
369.541	169.62
369.767	182.62
369.993	173.62
370.219	190.62
370.445	177.62
370.672	176.62
370.898	186.62
371.124	186.62
371.35	195.62
371.576	188.62
371.802	194.62
372.028	170.62
372.254	191.62
372.48	205.62
372.706	194.62
372.932	185.62
373.158	192.62
373.384	192.62
373.61	175.62
373.835	195.62
374.061	209.62
374.287	184.62
374.513	201.62
374.739	190.62
374.965	200.62
375.191	191.62
375.416	188.62
375.642	190.62
375.868	191.62
376.094	176.62
376.319	188.62
376.545	194.62
376.771	198.62
376.997	204.62
377.222	187.62
377.448	178.62
377.674	186.62
377.899	172.62
378.125	186.62
378.35	175.62
378.576	199.62
378.802	198.62
379.027	190.62
379.253	191.62
379.478	189.62
379.704	195.62
379.929	181.62
380.155	198.62
380.38	191.62
380.606	197.62
380.831	182.62
381.057	203.62
381.282	179.62
381.507	186.62
381.733	204.62
381.958	206.62
382.184	204.62
382.409	207.62
382.634	210.62
382.86	190.62
383.085	198.62
383.31	196.62
383.535	197.62
383.761	210.62
383.986	200.62
384.211	188.62
384.436	198.62
384.662	196.62
384.887	202.62
385.112	212.62
385.337	192.62
385.562	203.62
385.787	211.62
386.013	222.62
386.238	202.62
386.463	208.62
386.688	225.62
386.913	221.62
387.138	210.62
387.363	207.62
387.588	209.62
387.813	195.62
388.038	205.62
388.263	202.62
388.488	222.62
388.713	194.62
388.938	219.62
389.163	208.62
389.387	202.62
389.612	205.62
389.837	210.62
390.062	209.62
390.287	222.62
390.512	208.62
390.736	210.62
390.961	190.62
391.186	201.62
391.411	210.62
391.636	209.62
391.86	223.62
392.085	214.62
392.31	210.62
392.534	215.62
392.759	204.62
392.984	195.62
393.208	213.62
393.433	213.62
393.658	217.62
393.882	207.62
394.107	222.62
394.331	225.62
394.556	217.62
394.78	213.62
395.005	219.62
395.229	206.62
395.454	232.62
395.678	232.62
395.903	228.62
396.127	232.62
396.352	237.62
396.576	203.62
396.801	232.62
397.025	213.62
397.249	212.62
397.474	230.62
397.698	215.62
397.922	227.62
398.147	225.62
398.371	234.62
398.595	229.62
398.82	241.62
399.044	242.62
399.268	253.62
399.492	254.62
399.717	282.62
399.941	268.62
400.165	266.62
400.389	253.62
400.613	262.62
400.837	242.62
401.062	243.62
401.286	229.62
401.51	226.62
401.734	253.62
401.958	234.62
402.182	248.62
402.406	241.62
402.63	243.62
402.854	250.62
403.078	250.62
403.302	267.62
403.526	253.62
403.75	251.62
403.974	239.62
404.198	236.62
404.422	262.62
404.645	262.62
404.869	285.62
405.093	306.62
405.317	298.62
405.541	312.62
405.765	292.62
405.988	287.62
406.212	270.62
406.436	261.62
406.66	265.62
406.883	255.62
407.107	267.62
407.331	253.62
407.555	258.62
407.778	254.62
408.002	270.62
408.226	262.62
408.449	255.62
408.673	247.62
408.896	252.62
409.12	240.62
409.344	253.62
409.567	242.62
409.791	263.62
410.014	244.62
410.238	264.62
410.461	261.62
410.685	228.62
410.908	254.62
411.132	235.62
411.355	247.62
411.578	256.62
411.802	261.62
412.025	284.62
412.249	311.62
412.472	307.62
412.695	333.62
412.919	329.62
413.142	329.62
413.365	302.62
413.589	277.62
413.812	265.62
414.035	266.62
414.258	270.62
414.482	270.62
414.705	246.62
414.928	249.62
415.151	237.62
415.374	243.62
415.597	243.62
415.821	250.62
416.044	260.62
416.267	253.62
416.49	257.62
416.713	253.62
416.936	262.62
417.159	254.62
417.382	258.62
417.605	277.62
417.828	266.62
418.051	243.62
418.274	259.62
418.497	264.62
418.72	251.62
418.943	242.62
419.166	249.62
419.389	257.62
419.611	284.62
419.834	294.62
420.057	291.62
420.28	304.62
420.503	291.62
420.726	287.62
420.948	268.62
421.171	270.62
421.394	266.62
421.617	247.62
421.839	243.62
422.062	256.62
422.285	256.62
422.507	253.62
422.73	246.62
422.953	259.62
423.175	254.62
423.398	255.62
423.621	250.62
423.843	245.62
424.066	245.62
424.288	253.62
424.511	249.62
424.733	235.62
424.956	239.62
425.178	232.62
425.401	257.62
425.623	225.62
425.846	233.62
426.068	233.62
426.291	242.62
426.513	245.62
426.735	246.62
426.958	250.62
427.18	245.62
427.402	281.62
427.625	310.62
427.847	334.62
428.069	324.62
428.292	305.62
428.514	267.62
428.736	245.62
428.958	251.62
429.181	242.62
429.403	229.62
429.625	233.62
429.847	232.62
430.069	246.62
430.292	241.62
430.514	234.62
430.736	233.62
430.958	216.62
431.18	233.62
431.402	232.62
431.624	206.62
431.846	233.62
432.068	239.62
432.29	241.62
432.512	232.62
432.734	212.62
432.956	214.62
433.178	209.62
433.4	226.62
433.622	239.62
433.844	234.62
434.066	214.62
434.287	216.62
434.509	227.62
434.731	222.62
434.953	235.62
435.175	225.62
435.397	234.62
435.618	224.62
435.84	231.62
436.062	234.62
436.284	216.62
436.505	223.62
436.727	235.62
436.949	220.62
437.17	236.62
437.392	228.62
437.614	228.62
437.835	203.62
438.057	221.62
438.278	214.62
438.5	222.62
438.721	228.62
438.943	219.62
439.165	225.62
439.386	232.62
439.608	220.62
439.829	228.62
440.05	223.62
440.272	240.62
440.493	212.62
440.715	219.62
440.936	238.62
441.158	235.62
441.379	238.62
441.6	230.62
441.822	218.62
442.043	230.62
442.264	240.62
442.486	228.62
442.707	238.62
442.928	252.62
443.149	224.62
443.371	227.62
443.592	227.62
443.813	238.62
444.034	224.62
444.255	265.62
444.476	240.62
444.698	253.62
444.919	238.62
445.14	349.62
445.361	277.62
445.582	225.62
445.803	218.62
446.024	225.62
446.245	229.62
446.466	221.62
446.687	227.62
446.908	236.62
447.129	219.62
447.35	220.62
447.571	226.62
447.792	219.62
448.013	210.62
448.234	212.62
448.455	217.62
448.675	218.62
448.896	201.62
449.117	211.62
449.338	214.62
449.559	226.62
449.779	223.62
450	209.62
450.221	217.62
450.442	216.62
450.662	228.62
450.883	208.62
451.104	219.62
451.324	227.62
451.545	202.62
451.766	218.62
451.986	218.62
452.207	222.62
452.428	206.62
452.648	209.62
452.869	214.62
453.089	185.62
453.31	216.62
453.53	191.62
453.751	210.62
453.971	173.62
454.192	199.62
454.412	210.62
454.633	192.62
454.853	220.62
455.073	184.62
455.294	213.62
455.514	206.62
455.734	207.62
455.955	206.62
456.175	202.62
456.395	204.62
456.616	198.62
456.836	202.62
457.056	200.62
457.276	190.62
457.497	204.62
457.717	227.62
457.937	222.62
458.157	213.62
458.377	203.62
458.598	204.62
458.818	216.62
459.038	222.62
459.258	221.62
459.478	220.62
459.698	213.62
459.918	234.62
460.138	217.62
460.358	235.62
460.578	223.62
460.798	249.62
461.018	245.62
461.238	236.62
461.458	226.62
461.678	234.62
461.898	253.62
462.118	251.62
462.338	236.62
462.558	236.62
462.777	241.62
462.997	256.62
463.217	273.62
463.437	264.62
463.657	270.62
463.876	248.62
464.096	242.62
464.316	248.62
464.536	242.62
464.755	255.62
464.975	250.62
465.195	245.62
465.414	228.62
465.634	251.62
465.854	227.62
466.073	241.62
466.293	236.62
466.512	229.62
466.732	248.62
466.951	258.62
467.171	268.62
467.391	266.62
467.61	289.62
467.829	374.62
468.049	674.62
468.268	782.62
468.488	479.62
468.707	342.62
468.927	296.62
469.146	286.62
469.365	271.62
469.585	264.62
469.804	289.62
470.023	261.62
470.243	260.62
470.462	251.62
470.681	278.62
470.901	273.62
471.12	277.62
471.339	300.62
471.558	317.62
471.777	362.62
471.997	524.62
472.216	1107.62
472.435	1691.62
472.654	952.62
472.873	566.62
473.092	437.62
473.311	369.62
473.53	353.62
473.749	312.62
473.968	296.62
474.187	278.62
474.406	284.62
474.625	277.62
474.844	271.62
475.063	275.62
475.282	270.62
475.501	275.62
475.72	261.62
475.939	254.62
476.158	241.62
476.377	261.62
476.596	257.62
476.814	276.62
477.033	253.62
477.252	245.62
477.471	270.62
477.69	282.62
477.908	268.62
478.127	278.62
478.346	263.62
478.564	291.62
478.783	291.62
479.002	300.62
479.22	294.62
479.439	309.62
479.658	311.62
479.876	318.62
480.095	327.62
480.313	374.62
480.532	444.62
480.751	610.62
480.969	1217.62
481.188	2677.62
481.406	2149.62
481.624	1016.62
481.843	672.62
482.061	545.62
482.28	483.62
482.498	424.62
482.717	386.62
482.935	389.62
483.153	381.62
483.372	379.62
483.59	355.62
483.808	325.62
484.027	310.62
484.245	318.62
484.463	314.62
484.681	313.62
484.9	298.62
485.118	312.62
485.336	290.62
485.554	284.62
485.772	293.62
485.99	299.62
486.209	300.62
486.427	291.62
486.645	302.62
486.863	299.62
487.081	291.62
487.299	290.62
487.517	299.62
487.735	301.62
487.953	327.62
488.171	324.62
488.389	318.62
488.607	304.62
488.825	302.62
489.043	305.62
489.261	314.62
489.479	322.62
489.696	314.62
489.914	306.62
490.132	330.62
490.35	353.62
490.568	351.62
490.786	377.62
491.003	382.62
491.221	432.62
491.439	465.62
491.657	472.62
491.874	460.62
492.092	475.62
492.31	484.62
492.527	526.62
492.745	523.62
492.963	521.62
493.18	496.62
493.398	482.62
493.615	452.62
493.833	416.62
494.05	447.62
494.268	383.62
494.485	405.62
494.703	372.62
494.92	379.62
495.138	353.62
495.355	365.62
495.573	367.62
495.79	360.62
496.008	351.62
496.225	349.62
496.442	337.62
496.66	362.62
496.877	351.62
497.094	354.62
497.312	321.62
497.529	337.62
497.746	327.62
497.963	329.62
498.181	346.62
498.398	347.62
498.615	354.62
498.832	363.62
499.049	362.62
499.267	375.62
499.484	380.62
499.701	400.62
499.918	414.62
500.135	432.62
500.352	474.62
500.569	493.62
500.786	488.62
501.003	473.62
501.22	436.62
501.437	401.62
501.654	384.62
501.871	374.62
502.088	342.62
502.305	339.62
502.522	352.62
502.739	306.62
502.956	316.62
503.172	317.62
503.389	301.62
