Data from StdC_HRD10591_099.txt Node
Date: Fri May 16 15:29:30 EDT 2025
User: Yrep
Spectrometer: HR+D1059
Trigger mode: 1
Integration Time (sec): 1.000000E-1
Scans to average: 1
Electric dark correction enabled: true
Nonlinearity correction enabled: false
Boxcar width: 0
XAxis mode: Wavelengths
Number of Pixels in Spectrum: 2048
>>>>>Begin Spectral Data<<<<<
223.165	-32.06
223.4	-32.06
223.635	-32.06
223.869	-26.06
224.104	-16.06
224.338	-21.06
224.573	-17.06
224.808	1.94
225.042	2.94
225.277	2.94
225.511	-8.06
225.746	2.94
225.98	12.94
226.215	14.94
226.449	17.94
226.683	15.94
226.918	16.94
227.152	30.94
227.387	36.94
227.621	48.94
227.856	50.94
228.09	37.94
228.324	53.94
228.559	55.94
228.793	53.94
229.027	61.94
229.262	60.94
229.496	68.94
229.73	71.94
229.964	71.94
230.199	74.94
230.433	81.94
230.667	77.94
230.901	89.94
231.136	101.94
231.37	88.94
231.604	71.94
231.838	83.94
232.072	77.94
232.306	104.94
232.541	91.94
232.775	86.94
233.009	91.94
233.243	91.94
233.477	87.94
233.711	86.94
233.945	91.94
234.179	93.94
234.413	86.94
234.647	82.94
234.881	86.94
235.115	89.94
235.349	88.94
235.583	88.94
235.817	89.94
236.051	99.94
236.285	93.94
236.519	84.94
236.753	84.94
236.987	86.94
237.221	84.94
237.455	84.94
237.689	74.94
237.922	75.94
238.156	85.94
238.39	87.94
238.624	88.94
238.858	89.94
239.091	95.94
239.325	79.94
239.559	84.94
239.793	87.94
240.027	81.94
240.26	86.94
240.494	81.94
240.728	88.94
240.961	87.94
241.195	83.94
241.429	119.94
241.662	105.94
241.896	95.94
242.13	88.94
242.363	83.94
242.597	92.94
242.83	101.94
243.064	99.94
243.298	100.94
243.531	91.94
243.765	91.94
243.998	87.94
244.232	94.94
244.465	94.94
244.699	91.94
244.932	74.94
245.166	103.94
245.399	97.94
245.633	92.94
245.866	103.94
246.099	90.94
246.333	115.94
246.566	104.94
246.8	104.94
247.033	106.94
247.266	106.94
247.5	121.94
247.733	102.94
247.966	121.94
248.2	114.94
248.433	99.94
248.666	101.94
248.899	115.94
249.133	98.94
249.366	116.94
249.599	122.94
249.832	113.94
250.066	137.94
250.299	161.94
250.532	191.94
250.765	175.94
250.998	158.94
251.231	140.94
251.465	144.94
251.698	107.94
251.931	123.94
252.164	124.94
252.397	112.94
252.63	125.94
252.863	128.94
253.096	121.94
253.329	106.94
253.562	126.94
253.795	104.94
254.028	127.94
254.261	121.94
254.494	139.94
254.727	109.94
254.96	153.94
255.193	132.94
255.426	152.94
255.659	198.94
255.892	237.94
256.124	300.94
256.357	238.94
256.59	203.94
256.823	181.94
257.056	147.94
257.289	153.94
257.521	143.94
257.754	125.94
257.987	133.94
258.22	149.94
258.452	147.94
258.685	141.94
258.918	123.94
259.151	117.94
259.383	127.94
259.616	134.94
259.849	134.94
260.081	124.94
260.314	133.94
260.547	136.94
260.779	128.94
261.012	144.94
261.244	133.94
261.477	152.94
261.71	114.94
261.942	128.94
262.175	127.94
262.407	114.94
262.64	131.94
262.872	134.94
263.105	124.94
263.337	141.94
263.57	122.94
263.802	133.94
264.035	122.94
264.267	123.94
264.499	124.94
264.732	126.94
264.964	109.94
265.197	137.94
265.429	125.94
265.661	128.94
265.894	138.94
266.126	132.94
266.358	124.94
266.591	119.94
266.823	135.94
267.055	132.94
267.287	121.94
267.52	124.94
267.752	132.94
267.984	136.94
268.216	144.94
268.448	140.94
268.681	136.94
268.913	140.94
269.145	136.94
269.377	138.94
269.609	136.94
269.841	139.94
270.073	138.94
270.306	138.94
270.538	138.94
270.77	134.94
271.002	132.94
271.234	138.94
271.466	144.94
271.698	130.94
271.93	146.94
272.162	126.94
272.394	136.94
272.626	154.94
272.858	148.94
273.09	138.94
273.322	153.94
273.553	156.94
273.785	142.94
274.017	144.94
274.249	145.94
274.481	152.94
274.713	151.94
274.945	159.94
275.176	157.94
275.408	169.94
275.64	180.94
275.872	175.94
276.104	165.94
276.335	174.94
276.567	177.94
276.799	190.94
277.031	211.94
277.262	218.94
277.494	211.94
277.726	192.94
277.957	189.94
278.189	167.94
278.421	172.94
278.652	141.94
278.884	172.94
279.115	178.94
279.347	169.94
279.579	192.94
279.81	203.94
280.042	243.94
280.273	266.94
280.505	232.94
280.736	213.94
280.968	188.94
281.199	173.94
281.431	173.94
281.662	158.94
281.894	165.94
282.125	164.94
282.356	147.94
282.588	159.94
282.819	163.94
283.051	179.94
283.282	167.94
283.513	156.94
283.745	159.94
283.976	155.94
284.207	157.94
284.439	173.94
284.67	152.94
284.901	148.94
285.132	145.94
285.364	158.94
285.595	168.94
285.826	160.94
286.057	152.94
286.288	157.94
286.52	165.94
286.751	164.94
286.982	153.94
287.213	153.94
287.444	159.94
287.675	161.94
287.906	172.94
288.138	147.94
288.369	147.94
288.6	161.94
288.831	172.94
289.062	147.94
289.293	160.94
289.524	168.94
289.755	149.94
289.986	159.94
290.217	166.94
290.448	152.94
290.679	166.94
290.91	162.94
291.141	150.94
291.371	154.94
291.602	154.94
291.833	170.94
292.064	155.94
292.295	161.94
292.526	144.94
292.757	143.94
292.987	145.94
293.218	169.94
293.449	144.94
293.68	157.94
293.91	154.94
294.141	143.94
294.372	144.94
294.603	167.94
294.833	144.94
295.064	134.94
295.295	141.94
295.525	140.94
295.756	142.94
295.987	152.94
296.217	157.94
296.448	164.94
296.679	147.94
296.909	154.94
297.14	148.94
297.37	144.94
297.601	169.94
297.831	151.94
298.062	147.94
298.292	151.94
298.523	144.94
298.753	160.94
298.984	166.94
299.214	163.94
299.445	150.94
299.675	167.94
299.905	153.94
300.136	163.94
300.366	159.94
300.597	148.94
300.827	161.94
301.057	167.94
301.288	173.94
301.518	180.94
301.748	155.94
301.979	172.94
302.209	182.94
302.439	165.94
302.669	162.94
302.9	170.94
303.13	171.94
303.36	181.94
303.59	191.94
303.82	198.94
304.051	194.94
304.281	169.94
304.511	157.94
304.741	153.94
304.971	177.94
305.201	160.94
305.431	159.94
305.661	168.94
305.891	168.94
306.121	183.94
306.352	174.94
306.582	159.94
306.812	180.94
307.042	160.94
307.272	210.94
307.502	229.94
307.731	210.94
307.961	188.94
308.191	174.94
308.421	175.94
308.651	164.94
308.881	165.94
309.111	168.94
309.341	182.94
309.571	166.94
309.8	162.94
310.03	175.94
310.26	180.94
310.49	159.94
310.72	173.94
310.949	169.94
311.179	166.94
311.409	166.94
311.639	172.94
311.868	160.94
312.098	174.94
312.328	170.94
312.557	180.94
312.787	152.94
313.017	185.94
313.246	185.94
313.476	184.94
313.706	169.94
313.935	163.94
314.165	163.94
314.394	175.94
314.624	168.94
314.853	171.94
315.083	186.94
315.312	161.94
315.542	188.94
315.771	185.94
316.001	188.94
316.23	178.94
316.46	172.94
316.689	184.94
316.919	184.94
317.148	167.94
317.377	185.94
317.607	169.94
317.836	166.94
318.065	183.94
318.295	184.94
318.524	176.94
318.753	201.94
318.983	192.94
319.212	181.94
319.441	183.94
319.67	183.94
319.9	172.94
320.129	169.94
320.358	196.94
320.587	199.94
320.816	176.94
321.046	188.94
321.275	186.94
321.504	179.94
321.733	200.94
321.962	183.94
322.191	199.94
322.42	183.94
322.649	191.94
322.878	212.94
323.108	215.94
323.337	207.94
323.566	201.94
323.795	199.94
324.024	214.94
324.253	220.94
324.482	227.94
324.71	216.94
324.939	213.94
325.168	211.94
325.397	219.94
325.626	246.94
325.855	217.94
326.084	249.94
326.313	234.94
326.542	243.94
326.77	257.94
326.999	273.94
327.228	286.94
327.457	328.94
327.686	399.94
327.914	540.94
328.143	692.94
328.372	738.94
328.6	547.94
328.829	389.94
329.058	385.94
329.287	396.94
329.515	487.94
329.744	664.94
329.972	973.94
330.201	1295.94
330.43	1302.94
330.658	773.94
330.887	486.94
331.115	384.94
331.344	348.94
331.572	332.94
331.801	308.94
332.03	319.94
332.258	322.94
332.486	311.94
332.715	341.94
332.943	362.94
333.172	383.94
333.4	432.94
333.629	539.94
333.857	695.94
334.085	995.94
334.314	1473.94
334.542	1812.94
334.771	1462.94
334.999	752.94
335.227	503.94
335.455	404.94
335.684	359.94
335.912	307.94
336.14	289.94
336.369	275.94
336.597	252.94
336.825	253.94
337.053	241.94
337.281	239.94
337.51	253.94
337.738	240.94
337.966	207.94
338.194	232.94
338.422	217.94
338.65	231.94
338.878	220.94
339.106	207.94
339.334	220.94
339.562	193.94
339.79	205.94
340.018	187.94
340.246	212.94
340.474	201.94
340.702	207.94
340.93	213.94
341.158	202.94
341.386	210.94
341.614	184.94
341.842	185.94
342.07	191.94
342.298	201.94
342.526	193.94
342.754	191.94
342.981	199.94
343.209	191.94
343.437	205.94
343.665	194.94
343.893	189.94
344.12	213.94
344.348	194.94
344.576	196.94
344.804	191.94
345.031	188.94
345.259	197.94
345.487	199.94
345.714	181.94
345.942	194.94
346.17	180.94
346.397	202.94
346.625	179.94
346.853	190.94
347.08	184.94
347.308	187.94
347.535	176.94
347.763	176.94
347.99	200.94
348.218	182.94
348.445	179.94
348.673	185.94
348.9	180.94
349.128	189.94
349.355	181.94
349.583	179.94
349.81	190.94
350.037	188.94
350.265	180.94
350.492	168.94
350.72	176.94
350.947	181.94
351.174	197.94
351.402	178.94
351.629	191.94
351.856	190.94
352.083	165.94
352.311	184.94
352.538	190.94
352.765	186.94
352.992	190.94
353.22	174.94
353.447	176.94
353.674	183.94
353.901	179.94
354.128	191.94
354.355	178.94
354.583	184.94
354.81	208.94
355.037	180.94
355.264	187.94
355.491	160.94
355.718	182.94
355.945	171.94
356.172	189.94
356.399	179.94
356.626	143.94
356.853	178.94
357.08	183.94
357.307	171.94
357.534	171.94
357.761	162.94
357.988	167.94
358.215	184.94
358.441	179.94
358.668	164.94
358.895	175.94
359.122	159.94
359.349	175.94
359.576	175.94
359.802	176.94
360.029	170.94
360.256	167.94
360.483	169.94
360.709	184.94
360.936	197.94
361.163	185.94
361.39	176.94
361.616	189.94
361.843	181.94
362.07	176.94
362.296	178.94
362.523	165.94
362.749	158.94
362.976	172.94
363.203	190.94
363.429	169.94
363.656	160.94
363.882	176.94
364.109	177.94
364.335	179.94
364.562	165.94
364.788	175.94
365.015	197.94
365.241	187.94
365.468	185.94
365.694	189.94
365.92	189.94
366.147	167.94
366.373	167.94
366.599	180.94
366.826	179.94
367.052	177.94
367.278	193.94
367.505	167.94
367.731	181.94
367.957	187.94
368.184	181.94
368.41	181.94
368.636	182.94
368.862	191.94
369.089	197.94
369.315	178.94
369.541	181.94
369.767	165.94
369.993	180.94
370.219	177.94
370.445	187.94
370.672	196.94
370.898	191.94
371.124	187.94
371.35	177.94
371.576	185.94
371.802	187.94
372.028	179.94
372.254	192.94
372.48	174.94
372.706	182.94
372.932	199.94
373.158	167.94
373.384	192.94
373.61	193.94
373.835	178.94
374.061	185.94
374.287	181.94
374.513	170.94
374.739	177.94
374.965	187.94
375.191	190.94
375.416	200.94
375.642	189.94
375.868	185.94
376.094	192.94
376.319	180.94
376.545	174.94
376.771	175.94
376.997	187.94
377.222	181.94
377.448	182.94
377.674	191.94
377.899	190.94
378.125	184.94
378.35	188.94
378.576	187.94
378.802	176.94
379.027	168.94
379.253	168.94
379.478	200.94
379.704	182.94
379.929	183.94
380.155	187.94
380.38	184.94
380.606	181.94
380.831	180.94
381.057	196.94
381.282	184.94
381.507	187.94
381.733	181.94
381.958	181.94
382.184	181.94
382.409	191.94
382.634	193.94
382.86	174.94
383.085	189.94
383.31	191.94
383.535	204.94
383.761	199.94
383.986	197.94
384.211	201.94
384.436	189.94
384.662	188.94
384.887	206.94
385.112	187.94
385.337	206.94
385.562	194.94
385.787	205.94
386.013	201.94
386.238	203.94
386.463	206.94
386.688	229.94
386.913	203.94
387.138	195.94
387.363	213.94
387.588	215.94
387.813	210.94
388.038	198.94
388.263	206.94
388.488	201.94
388.713	193.94
388.938	209.94
389.163	207.94
389.387	209.94
389.612	204.94
389.837	205.94
390.062	190.94
390.287	209.94
390.512	207.94
390.736	188.94
390.961	217.94
391.186	206.94
391.411	204.94
391.636	216.94
391.86	205.94
392.085	204.94
392.31	207.94
392.534	203.94
392.759	203.94
392.984	204.94
393.208	201.94
393.433	196.94
393.658	199.94
393.882	195.94
394.107	218.94
394.331	203.94
394.556	211.94
394.78	214.94
395.005	207.94
395.229	211.94
395.454	224.94
395.678	224.94
395.903	204.94
396.127	203.94
396.352	211.94
396.576	222.94
396.801	208.94
397.025	221.94
397.249	220.94
397.474	222.94
397.698	223.94
397.922	224.94
398.147	219.94
398.371	218.94
398.595	232.94
398.82	247.94
399.044	245.94
399.268	257.94
399.492	270.94
399.717	276.94
399.941	258.94
400.165	248.94
400.389	250.94
400.613	247.94
400.837	230.94
401.062	234.94
401.286	228.94
401.51	229.94
401.734	217.94
401.958	248.94
402.182	218.94
402.406	229.94
402.63	247.94
402.854	239.94
403.078	252.94
403.302	239.94
403.526	245.94
403.75	243.94
403.974	254.94
404.198	257.94
404.422	261.94
404.645	260.94
404.869	273.94
405.093	296.94
405.317	341.94
405.541	303.94
405.765	272.94
405.988	266.94
406.212	268.94
406.436	261.94
406.66	251.94
406.883	264.94
407.107	275.94
407.331	260.94
407.555	257.94
407.778	272.94
408.002	267.94
408.226	250.94
408.449	257.94
408.673	251.94
408.896	233.94
409.12	246.94
409.344	231.94
409.567	249.94
409.791	263.94
410.014	234.94
410.238	229.94
410.461	240.94
410.685	238.94
410.908	242.94
411.132	252.94
411.355	228.94
411.578	257.94
411.802	254.94
412.025	263.94
412.249	293.94
412.472	311.94
412.695	342.94
412.919	308.94
413.142	301.94
413.365	277.94
413.589	255.94
413.812	264.94
414.035	256.94
414.258	271.94
414.482	267.94
414.705	244.94
414.928	244.94
415.151	240.94
415.374	240.94
415.597	235.94
415.821	253.94
416.044	243.94
416.267	255.94
416.49	213.94
416.713	246.94
416.936	235.94
417.159	253.94
417.382	264.94
417.605	266.94
417.828	254.94
418.051	231.94
418.274	231.94
418.497	220.94
418.72	253.94
418.943	228.94
419.166	263.94
419.389	284.94
419.611	282.94
419.834	277.94
420.057	293.94
420.28	299.94
420.503	296.94
420.726	280.94
420.948	269.94
421.171	262.94
421.394	261.94
421.617	270.94
421.839	239.94
422.062	249.94
422.285	239.94
422.507	235.94
422.73	253.94
422.953	238.94
423.175	237.94
423.398	254.94
423.621	250.94
423.843	248.94
424.066	238.94
424.288	219.94
424.511	241.94
424.733	233.94
424.956	254.94
425.178	236.94
425.401	233.94
425.623	236.94
425.846	231.94
426.068	231.94
426.291	241.94
426.513	238.94
426.735	230.94
426.958	231.94
427.18	252.94
427.402	275.94
427.625	290.94
427.847	312.94
428.069	333.94
428.292	278.94
428.514	257.94
428.736	242.94
428.958	244.94
429.181	239.94
429.403	233.94
429.625	243.94
429.847	233.94
430.069	240.94
430.292	232.94
430.514	220.94
430.736	235.94
430.958	219.94
431.18	230.94
431.402	223.94
431.624	211.94
431.846	196.94
432.068	217.94
432.29	194.94
432.512	223.94
432.734	223.94
432.956	204.94
433.178	226.94
433.4	227.94
433.622	214.94
433.844	228.94
434.066	219.94
434.287	230.94
434.509	223.94
434.731	223.94
434.953	229.94
435.175	234.94
435.397	238.94
435.618	218.94
435.84	227.94
436.062	221.94
436.284	221.94
436.505	221.94
436.727	225.94
436.949	201.94
437.17	210.94
437.392	195.94
437.614	217.94
437.835	211.94
438.057	197.94
438.278	192.94
438.5	218.94
438.721	201.94
438.943	224.94
439.165	221.94
439.386	215.94
439.608	210.94
439.829	206.94
440.05	223.94
440.272	215.94
440.493	231.94
440.715	228.94
440.936	227.94
441.158	228.94
441.379	234.94
441.6	229.94
441.822	220.94
442.043	234.94
442.264	216.94
442.486	235.94
442.707	227.94
442.928	214.94
443.149	238.94
443.371	234.94
443.592	244.94
443.813	235.94
444.034	231.94
444.255	227.94
444.476	237.94
444.698	239.94
444.919	245.94
445.14	302.94
445.361	279.94
445.582	227.94
445.803	235.94
446.024	239.94
446.245	220.94
446.466	229.94
446.687	224.94
446.908	216.94
447.129	230.94
447.35	229.94
447.571	234.94
447.792	226.94
448.013	216.94
448.234	217.94
448.455	211.94
448.675	208.94
448.896	225.94
449.117	205.94
449.338	230.94
449.559	205.94
449.779	217.94
450	220.94
450.221	212.94
450.442	212.94
450.662	208.94
450.883	203.94
451.104	204.94
451.324	205.94
451.545	205.94
451.766	206.94
451.986	219.94
452.207	193.94
452.428	216.94
452.648	217.94
452.869	203.94
453.089	195.94
453.31	201.94
453.53	205.94
453.751	194.94
453.971	189.94
454.192	197.94
454.412	199.94
454.633	187.94
454.853	197.94
455.073	198.94
455.294	198.94
455.514	199.94
455.734	198.94
455.955	204.94
456.175	185.94
456.395	202.94
456.616	193.94
456.836	193.94
457.056	207.94
457.276	191.94
457.497	201.94
457.717	211.94
457.937	215.94
458.157	206.94
458.377	214.94
458.598	192.94
458.818	219.94
459.038	202.94
459.258	218.94
459.478	212.94
459.698	215.94
459.918	217.94
460.138	218.94
460.358	224.94
460.578	243.94
460.798	244.94
461.018	246.94
461.238	240.94
461.458	243.94
461.678	225.94
461.898	238.94
462.118	253.94
462.338	248.94
462.558	230.94
462.777	239.94
462.997	263.94
463.217	270.94
463.437	271.94
463.657	261.94
463.876	257.94
464.096	252.94
464.316	238.94
464.536	263.94
464.755	252.94
464.975	236.94
465.195	247.94
465.414	235.94
465.634	244.94
465.854	229.94
466.073	237.94
466.293	232.94
466.512	206.94
466.732	228.94
466.951	249.94
467.171	258.94
467.391	278.94
467.61	260.94
467.829	359.94
468.049	651.94
468.268	803.94
468.488	495.94
468.707	367.94
468.927	282.94
469.146	284.94
469.365	271.94
469.585	264.94
469.804	244.94
470.023	265.94
470.243	261.94
470.462	267.94
470.681	277.94
470.901	260.94
471.12	277.94
471.339	288.94
471.558	312.94
471.777	357.94
471.997	529.94
472.216	1099.94
472.435	1645.94
472.654	949.94
472.873	567.94
473.092	423.94
473.311	372.94
473.53	331.94
473.749	295.94
473.968	312.94
474.187	278.94
474.406	270.94
474.625	287.94
474.844	252.94
475.063	254.94
475.282	247.94
475.501	254.94
475.72	260.94
475.939	249.94
476.158	244.94
476.377	251.94
476.596	243.94
476.814	247.94
477.033	250.94
477.252	236.94
477.471	255.94
477.69	257.94
477.908	270.94
478.127	263.94
478.346	277.94
478.564	279.94
478.783	284.94
479.002	271.94
479.22	298.94
479.439	297.94
479.658	320.94
479.876	315.94
480.095	331.94
480.313	379.94
480.532	456.94
480.751	595.94
480.969	1164.94
481.188	2605.94
481.406	2117.94
481.624	1035.94
481.843	666.94
482.061	539.94
482.28	452.94
482.498	423.94
482.717	401.94
482.935	372.94
483.153	355.94
483.372	332.94
483.59	318.94
483.808	327.94
484.027	317.94
484.245	308.94
484.463	326.94
484.681	315.94
484.9	292.94
485.118	303.94
485.336	282.94
485.554	285.94
485.772	270.94
485.99	294.94
486.209	307.94
486.427	283.94
486.645	307.94
486.863	291.94
487.081	300.94
487.299	312.94
487.517	289.94
487.735	288.94
487.953	301.94
488.171	293.94
488.389	301.94
488.607	306.94
488.825	291.94
489.043	296.94
489.261	316.94
489.479	301.94
489.696	321.94
489.914	320.94
490.132	320.94
490.35	340.94
490.568	349.94
490.786	369.94
491.003	385.94
491.221	405.94
491.439	453.94
491.657	479.94
491.874	444.94
492.092	462.94
492.31	475.94
492.527	503.94
492.745	530.94
492.963	506.94
493.18	475.94
493.398	452.94
493.615	430.94
493.833	428.94
494.05	417.94
494.268	410.94
494.485	395.94
494.703	391.94
494.92	385.94
495.138	380.94
495.355	361.94
495.573	356.94
495.79	368.94
496.008	356.94
496.225	345.94
496.442	333.94
496.66	333.94
496.877	319.94
497.094	347.94
497.312	335.94
497.529	325.94
497.746	347.94
497.963	334.94
498.181	312.94
498.398	327.94
498.615	363.94
498.832	350.94
499.049	358.94
499.267	357.94
499.484	371.94
499.701	403.94
499.918	412.94
500.135	426.94
500.352	457.94
500.569	476.94
500.786	496.94
501.003	474.94
501.22	446.94
501.437	394.94
501.654	373.94
501.871	370.94
502.088	334.94
502.305	319.94
502.522	342.94
502.739	334.94
502.956	329.94
503.172	310.94
503.389	304.94
503.606	296.94
