Data from StdC_HRD10591_065.txt Node
Date: Fri May 16 15:29:13 EDT 2025
User: Yrep
Spectrometer: HR+D1059
Trigger mode: 1
Integration Time (sec): 1.000000E-1
Scans to average: 1
Electric dark correction enabled: true
Nonlinearity correction enabled: false
Boxcar width: 0
XAxis mode: Wavelengths
Number of Pixels in Spectrum: 2048
>>>>>Begin Spectral Data<<<<<
223.165	-23.06
223.4	-23.06
223.635	-23.06
223.869	-33.06
224.104	-4.06
224.338	-21.06
224.573	-16.06
224.808	-7.06
225.042	-16.06
225.277	-11.06
225.511	4.94
225.746	0.94
225.98	9.94
226.215	21.94
226.449	7.94
226.683	28.94
226.918	24.94
227.152	31.94
227.387	43.94
227.621	41.94
227.856	36.94
228.09	51.94
228.324	60.94
228.559	64.94
228.793	63.94
229.027	79.94
229.262	72.94
229.496	79.94
229.73	81.94
229.964	67.94
230.199	97.94
230.433	87.94
230.667	87.94
230.901	93.94
231.136	85.94
231.37	91.94
231.604	87.94
231.838	78.94
232.072	87.94
232.306	103.94
232.541	93.94
232.775	90.94
233.009	97.94
233.243	85.94
233.477	97.94
233.711	94.94
233.945	103.94
234.179	81.94
234.413	105.94
234.647	87.94
234.881	91.94
235.115	89.94
235.349	94.94
235.583	103.94
235.817	87.94
236.051	95.94
236.285	93.94
236.519	88.94
236.753	78.94
236.987	75.94
237.221	96.94
237.455	90.94
237.689	84.94
237.922	87.94
238.156	89.94
238.39	92.94
238.624	88.94
238.858	91.94
239.091	89.94
239.325	93.94
239.559	89.94
239.793	88.94
240.027	80.94
240.26	105.94
240.494	99.94
240.728	89.94
240.961	90.94
241.195	96.94
241.429	88.94
241.662	92.94
241.896	87.94
242.13	86.94
242.363	85.94
242.597	90.94
242.83	99.94
243.064	95.94
243.298	102.94
243.531	107.94
243.765	94.94
243.998	91.94
244.232	104.94
244.465	109.94
244.699	104.94
244.932	85.94
245.166	94.94
245.399	96.94
245.633	88.94
245.866	94.94
246.099	91.94
246.333	104.94
246.566	100.94
246.8	103.94
247.033	96.94
247.266	113.94
247.5	96.94
247.733	107.94
247.966	96.94
248.2	120.94
248.433	111.94
248.666	100.94
248.899	105.94
249.133	117.94
249.366	111.94
249.599	117.94
249.832	121.94
250.066	141.94
250.299	169.94
250.532	207.94
250.765	170.94
250.998	147.94
251.231	145.94
251.465	131.94
251.698	112.94
251.931	121.94
252.164	115.94
252.397	125.94
252.63	131.94
252.863	131.94
253.096	108.94
253.329	118.94
253.562	126.94
253.795	116.94
254.028	124.94
254.261	119.94
254.494	129.94
254.727	126.94
254.96	127.94
255.193	134.94
255.426	150.94
255.659	190.94
255.892	258.94
256.124	304.94
256.357	246.94
256.59	199.94
256.823	169.94
257.056	174.94
257.289	152.94
257.521	139.94
257.754	142.94
257.987	139.94
258.22	153.94
258.452	128.94
258.685	133.94
258.918	131.94
259.151	132.94
259.383	147.94
259.616	137.94
259.849	127.94
260.081	129.94
260.314	136.94
260.547	142.94
260.779	140.94
261.012	150.94
261.244	140.94
261.477	137.94
261.71	128.94
261.942	135.94
262.175	127.94
262.407	121.94
262.64	112.94
262.872	151.94
263.105	135.94
263.337	140.94
263.57	128.94
263.802	135.94
264.035	144.94
264.267	135.94
264.499	119.94
264.732	136.94
264.964	136.94
265.197	126.94
265.429	140.94
265.661	125.94
265.894	132.94
266.126	132.94
266.358	101.94
266.591	130.94
266.823	122.94
267.055	111.94
267.287	133.94
267.52	140.94
267.752	128.94
267.984	132.94
268.216	133.94
268.448	121.94
268.681	127.94
268.913	147.94
269.145	121.94
269.377	132.94
269.609	120.94
269.841	124.94
270.073	133.94
270.306	137.94
270.538	126.94
270.77	140.94
271.002	136.94
271.234	136.94
271.466	163.94
271.698	140.94
271.93	135.94
272.162	151.94
272.394	138.94
272.626	136.94
272.858	142.94
273.09	140.94
273.322	147.94
273.553	145.94
273.785	143.94
274.017	157.94
274.249	145.94
274.481	151.94
274.713	146.94
274.945	154.94
275.176	170.94
275.408	166.94
275.64	177.94
275.872	189.94
276.104	194.94
276.335	183.94
276.567	199.94
276.799	191.94
277.031	204.94
277.262	241.94
277.494	209.94
277.726	196.94
277.957	179.94
278.189	183.94
278.421	176.94
278.652	185.94
278.884	161.94
279.115	171.94
279.347	191.94
279.579	204.94
279.81	215.94
280.042	235.94
280.273	277.94
280.505	241.94
280.736	214.94
280.968	196.94
281.199	167.94
281.431	186.94
281.662	164.94
281.894	160.94
282.125	161.94
282.356	168.94
282.588	157.94
282.819	161.94
283.051	157.94
283.282	162.94
283.513	160.94
283.745	165.94
283.976	168.94
284.207	161.94
284.439	160.94
284.67	144.94
284.901	169.94
285.132	137.94
285.364	164.94
285.595	159.94
285.826	163.94
286.057	165.94
286.288	167.94
286.52	157.94
286.751	145.94
286.982	167.94
287.213	153.94
287.444	155.94
287.675	144.94
287.906	165.94
288.138	167.94
288.369	155.94
288.6	151.94
288.831	165.94
289.062	171.94
289.293	151.94
289.524	149.94
289.755	149.94
289.986	161.94
290.217	164.94
290.448	159.94
290.679	163.94
290.91	163.94
291.141	153.94
291.371	155.94
291.602	139.94
291.833	142.94
292.064	153.94
292.295	177.94
292.526	152.94
292.757	146.94
292.987	156.94
293.218	150.94
293.449	152.94
293.68	152.94
293.91	160.94
294.141	161.94
294.372	141.94
294.603	155.94
294.833	161.94
295.064	157.94
295.295	155.94
295.525	145.94
295.756	159.94
295.987	154.94
296.217	157.94
296.448	168.94
296.679	167.94
296.909	152.94
297.14	158.94
297.37	155.94
297.601	141.94
297.831	169.94
298.062	156.94
298.292	159.94
298.523	165.94
298.753	155.94
298.984	169.94
299.214	159.94
299.445	149.94
299.675	164.94
299.905	162.94
300.136	170.94
300.366	163.94
300.597	157.94
300.827	177.94
301.057	168.94
301.288	169.94
301.518	149.94
301.748	163.94
301.979	191.94
302.209	168.94
302.439	149.94
302.669	168.94
302.9	150.94
303.13	160.94
303.36	173.94
303.59	193.94
303.82	177.94
304.051	188.94
304.281	181.94
304.511	179.94
304.741	176.94
304.971	160.94
305.201	166.94
305.431	144.94
305.661	181.94
305.891	167.94
306.121	176.94
306.352	173.94
306.582	169.94
306.812	178.94
307.042	203.94
307.272	212.94
307.502	233.94
307.731	207.94
307.961	198.94
308.191	171.94
308.421	186.94
308.651	172.94
308.881	184.94
309.111	180.94
309.341	157.94
309.571	167.94
309.8	148.94
310.03	166.94
310.26	171.94
310.49	183.94
310.72	154.94
310.949	177.94
311.179	167.94
311.409	170.94
311.639	179.94
311.868	170.94
312.098	166.94
312.328	153.94
312.557	170.94
312.787	163.94
313.017	165.94
313.246	167.94
313.476	171.94
313.706	151.94
313.935	171.94
314.165	181.94
314.394	158.94
314.624	160.94
314.853	161.94
315.083	158.94
315.312	174.94
315.542	185.94
315.771	183.94
316.001	174.94
316.23	160.94
316.46	174.94
316.689	188.94
316.919	174.94
317.148	196.94
317.377	178.94
317.607	164.94
317.836	169.94
318.065	178.94
318.295	172.94
318.524	179.94
318.753	189.94
318.983	191.94
319.212	193.94
319.441	168.94
319.67	180.94
319.9	194.94
320.129	194.94
320.358	178.94
320.587	179.94
320.816	165.94
321.046	161.94
321.275	195.94
321.504	189.94
321.733	179.94
321.962	167.94
322.191	183.94
322.42	201.94
322.649	209.94
322.878	193.94
323.108	191.94
323.337	211.94
323.566	218.94
323.795	224.94
324.024	207.94
324.253	203.94
324.482	196.94
324.71	211.94
324.939	217.94
325.168	225.94
325.397	205.94
325.626	223.94
325.855	237.94
326.084	218.94
326.313	235.94
326.542	250.94
326.77	258.94
326.999	289.94
327.228	305.94
327.457	327.94
327.686	407.94
327.914	544.94
328.143	664.94
328.372	717.94
328.6	534.94
328.829	373.94
329.058	372.94
329.287	415.94
329.515	480.94
329.744	649.94
329.972	965.94
330.201	1241.94
330.43	1294.94
330.658	749.94
330.887	451.94
331.115	377.94
331.344	338.94
331.572	313.94
331.801	307.94
332.03	305.94
332.258	316.94
332.486	320.94
332.715	353.94
332.943	348.94
333.172	380.94
333.4	447.94
333.629	525.94
333.857	697.94
334.085	1017.94
334.314	1460.94
334.542	1790.94
334.771	1425.94
334.999	721.94
335.227	501.94
335.455	391.94
335.684	345.94
335.912	323.94
336.14	293.94
336.369	275.94
336.597	269.94
336.825	261.94
337.053	237.94
337.281	238.94
337.51	231.94
337.738	245.94
337.966	231.94
338.194	220.94
338.422	216.94
338.65	238.94
338.878	221.94
339.106	213.94
339.334	214.94
339.562	207.94
339.79	212.94
340.018	192.94
340.246	198.94
340.474	207.94
340.702	195.94
340.93	190.94
341.158	194.94
341.386	193.94
341.614	205.94
341.842	188.94
342.07	198.94
342.298	196.94
342.526	185.94
342.754	200.94
342.981	203.94
343.209	214.94
343.437	198.94
343.665	197.94
343.893	205.94
344.12	193.94
344.348	211.94
344.576	202.94
344.804	196.94
345.031	212.94
345.259	174.94
345.487	202.94
345.714	200.94
345.942	179.94
346.17	189.94
346.397	187.94
346.625	177.94
346.853	179.94
347.08	212.94
347.308	208.94
347.535	190.94
347.763	194.94
347.99	182.94
348.218	190.94
348.445	192.94
348.673	180.94
348.9	185.94
349.128	177.94
349.355	177.94
349.583	187.94
349.81	178.94
350.037	171.94
350.265	183.94
350.492	179.94
350.72	163.94
350.947	183.94
351.174	186.94
351.402	184.94
351.629	190.94
351.856	185.94
352.083	186.94
352.311	193.94
352.538	172.94
352.765	179.94
352.992	185.94
353.22	201.94
353.447	186.94
353.674	185.94
353.901	185.94
354.128	183.94
354.355	185.94
354.583	181.94
354.81	184.94
355.037	173.94
355.264	181.94
355.491	185.94
355.718	176.94
355.945	187.94
356.172	169.94
356.399	185.94
356.626	184.94
356.853	166.94
357.08	174.94
357.307	172.94
357.534	194.94
357.761	163.94
357.988	176.94
358.215	185.94
358.441	173.94
358.668	181.94
358.895	185.94
359.122	182.94
359.349	191.94
359.576	166.94
359.802	178.94
360.029	174.94
360.256	179.94
360.483	149.94
360.709	171.94
360.936	183.94
361.163	160.94
361.39	182.94
361.616	168.94
361.843	163.94
362.07	170.94
362.296	176.94
362.523	161.94
362.749	151.94
362.976	178.94
363.203	165.94
363.429	152.94
363.656	182.94
363.882	181.94
364.109	171.94
364.335	175.94
364.562	191.94
364.788	173.94
365.015	179.94
365.241	177.94
365.468	178.94
365.694	182.94
365.92	185.94
366.147	159.94
366.373	173.94
366.599	169.94
366.826	173.94
367.052	170.94
367.278	161.94
367.505	178.94
367.731	187.94
367.957	165.94
368.184	167.94
368.41	179.94
368.636	167.94
368.862	167.94
369.089	175.94
369.315	188.94
369.541	184.94
369.767	171.94
369.993	183.94
370.219	169.94
370.445	191.94
370.672	180.94
370.898	183.94
371.124	184.94
371.35	172.94
371.576	183.94
371.802	178.94
372.028	182.94
372.254	172.94
372.48	185.94
372.706	175.94
372.932	183.94
373.158	180.94
373.384	175.94
373.61	189.94
373.835	192.94
374.061	203.94
374.287	167.94
374.513	183.94
374.739	185.94
374.965	171.94
375.191	190.94
375.416	197.94
375.642	192.94
375.868	194.94
376.094	170.94
376.319	186.94
376.545	190.94
376.771	187.94
376.997	176.94
377.222	191.94
377.448	174.94
377.674	182.94
377.899	192.94
378.125	169.94
378.35	167.94
378.576	169.94
378.802	190.94
379.027	183.94
379.253	206.94
379.478	195.94
379.704	183.94
379.929	179.94
380.155	177.94
380.38	192.94
380.606	194.94
380.831	193.94
381.057	178.94
381.282	183.94
381.507	185.94
381.733	207.94
381.958	194.94
382.184	183.94
382.409	182.94
382.634	214.94
382.86	199.94
383.085	193.94
383.31	187.94
383.535	196.94
383.761	200.94
383.986	216.94
384.211	190.94
384.436	192.94
384.662	199.94
384.887	206.94
385.112	196.94
385.337	187.94
385.562	207.94
385.787	199.94
386.013	208.94
386.238	202.94
386.463	203.94
386.688	208.94
386.913	217.94
387.138	201.94
387.363	189.94
387.588	191.94
387.813	200.94
388.038	197.94
388.263	206.94
388.488	204.94
388.713	208.94
388.938	197.94
389.163	208.94
389.387	213.94
389.612	199.94
389.837	215.94
390.062	196.94
390.287	209.94
390.512	193.94
390.736	211.94
390.961	203.94
391.186	207.94
391.411	210.94
391.636	217.94
391.86	200.94
392.085	206.94
392.31	197.94
392.534	209.94
392.759	216.94
392.984	208.94
393.208	208.94
393.433	219.94
393.658	195.94
393.882	214.94
394.107	202.94
394.331	205.94
394.556	195.94
394.78	214.94
395.005	227.94
395.229	215.94
395.454	219.94
395.678	214.94
395.903	212.94
396.127	205.94
396.352	215.94
396.576	209.94
396.801	207.94
397.025	205.94
397.249	206.94
397.474	248.94
397.698	223.94
397.922	220.94
398.147	212.94
398.371	229.94
398.595	236.94
398.82	240.94
399.044	249.94
399.268	268.94
399.492	272.94
399.717	279.94
399.941	263.94
400.165	281.94
400.389	254.94
400.613	251.94
400.837	233.94
401.062	237.94
401.286	235.94
401.51	236.94
401.734	238.94
401.958	230.94
402.182	245.94
402.406	218.94
402.63	231.94
402.854	229.94
403.078	237.94
403.302	241.94
403.526	255.94
403.75	245.94
403.974	264.94
404.198	272.94
404.422	270.94
404.645	270.94
404.869	278.94
405.093	315.94
405.317	319.94
405.541	291.94
405.765	278.94
405.988	267.94
406.212	275.94
406.436	262.94
406.66	250.94
406.883	263.94
407.107	254.94
407.331	266.94
407.555	269.94
407.778	246.94
408.002	256.94
408.226	251.94
408.449	267.94
408.673	256.94
408.896	250.94
409.12	274.94
409.344	268.94
409.567	241.94
409.791	254.94
410.014	235.94
410.238	249.94
410.461	238.94
410.685	238.94
410.908	224.94
411.132	248.94
411.355	247.94
411.578	254.94
411.802	255.94
412.025	267.94
412.249	299.94
412.472	316.94
412.695	331.94
412.919	328.94
413.142	293.94
413.365	278.94
413.589	266.94
413.812	279.94
414.035	267.94
414.258	257.94
414.482	264.94
414.705	263.94
414.928	249.94
415.151	241.94
415.374	248.94
415.597	247.94
415.821	224.94
416.044	250.94
416.267	247.94
416.49	249.94
416.713	248.94
416.936	253.94
417.159	243.94
417.382	255.94
417.605	260.94
417.828	266.94
418.051	240.94
418.274	238.94
418.497	236.94
418.72	243.94
418.943	240.94
419.166	244.94
419.389	261.94
419.611	273.94
419.834	268.94
420.057	287.94
420.28	304.94
420.503	283.94
420.726	278.94
420.948	264.94
421.171	273.94
421.394	248.94
421.617	248.94
421.839	244.94
422.062	238.94
422.285	246.94
422.507	259.94
422.73	230.94
422.953	240.94
423.175	239.94
423.398	245.94
423.621	244.94
423.843	249.94
424.066	247.94
424.288	229.94
424.511	227.94
424.733	228.94
424.956	214.94
425.178	248.94
425.401	232.94
425.623	239.94
425.846	243.94
426.068	239.94
426.291	235.94
426.513	254.94
426.735	251.94
426.958	248.94
427.18	245.94
427.402	246.94
427.625	288.94
427.847	317.94
428.069	335.94
428.292	283.94
428.514	264.94
428.736	240.94
428.958	247.94
429.181	245.94
429.403	241.94
429.625	227.94
429.847	227.94
430.069	239.94
430.292	231.94
430.514	221.94
430.736	227.94
430.958	205.94
431.18	238.94
431.402	231.94
431.624	224.94
431.846	232.94
432.068	227.94
432.29	225.94
432.512	229.94
432.734	224.94
432.956	219.94
433.178	223.94
433.4	234.94
433.622	228.94
433.844	220.94
434.066	213.94
434.287	227.94
434.509	216.94
434.731	231.94
434.953	231.94
435.175	241.94
435.397	223.94
435.618	215.94
435.84	226.94
436.062	209.94
436.284	211.94
436.505	216.94
436.727	225.94
436.949	223.94
437.17	211.94
437.392	214.94
437.614	202.94
437.835	200.94
438.057	213.94
438.278	204.94
438.5	203.94
438.721	225.94
438.943	213.94
439.165	215.94
439.386	221.94
439.608	222.94
439.829	199.94
440.05	207.94
440.272	212.94
440.493	216.94
440.715	217.94
440.936	229.94
441.158	246.94
441.379	234.94
441.6	231.94
441.822	223.94
442.043	228.94
442.264	223.94
442.486	227.94
442.707	226.94
442.928	213.94
443.149	212.94
443.371	218.94
443.592	215.94
443.813	232.94
444.034	235.94
444.255	225.94
444.476	234.94
444.698	244.94
444.919	256.94
445.14	307.94
445.361	262.94
445.582	233.94
445.803	222.94
446.024	209.94
446.245	222.94
446.466	220.94
446.687	215.94
446.908	203.94
447.129	216.94
447.35	206.94
447.571	213.94
447.792	234.94
448.013	203.94
448.234	199.94
448.455	200.94
448.675	190.94
448.896	203.94
449.117	231.94
449.338	196.94
449.559	205.94
449.779	186.94
450	203.94
450.221	214.94
450.442	206.94
450.662	211.94
450.883	210.94
451.104	221.94
451.324	209.94
451.545	199.94
451.766	207.94
451.986	185.94
452.207	192.94
452.428	207.94
452.648	207.94
452.869	191.94
453.089	208.94
453.31	194.94
453.53	193.94
453.751	199.94
453.971	214.94
454.192	175.94
454.412	194.94
454.633	184.94
454.853	200.94
455.073	181.94
455.294	194.94
455.514	211.94
455.734	193.94
455.955	173.94
456.175	201.94
456.395	188.94
456.616	190.94
456.836	208.94
457.056	209.94
457.276	192.94
457.497	199.94
457.717	203.94
457.937	221.94
458.157	221.94
458.377	227.94
458.598	208.94
458.818	220.94
459.038	225.94
459.258	211.94
459.478	235.94
459.698	207.94
459.918	221.94
460.138	215.94
460.358	225.94
460.578	229.94
460.798	222.94
461.018	227.94
461.238	241.94
461.458	219.94
461.678	232.94
461.898	231.94
462.118	227.94
462.338	236.94
462.558	211.94
462.777	247.94
462.997	250.94
463.217	250.94
463.437	271.94
463.657	246.94
463.876	258.94
464.096	261.94
464.316	239.94
464.536	239.94
464.755	253.94
464.975	249.94
465.195	235.94
465.414	225.94
465.634	222.94
465.854	240.94
466.073	211.94
466.293	249.94
466.512	239.94
466.732	239.94
466.951	228.94
467.171	248.94
467.391	257.94
467.61	273.94
467.829	347.94
468.049	633.94
468.268	778.94
468.488	478.94
468.707	341.94
468.927	303.94
469.146	287.94
469.365	272.94
469.585	230.94
469.804	267.94
470.023	258.94
470.243	250.94
470.462	259.94
470.681	263.94
470.901	267.94
471.12	282.94
471.339	287.94
471.558	303.94
471.777	367.94
471.997	512.94
472.216	1088.94
472.435	1633.94
472.654	934.94
472.873	542.94
473.092	430.94
473.311	359.94
473.53	320.94
473.749	292.94
473.968	299.94
474.187	278.94
474.406	277.94
474.625	283.94
474.844	254.94
475.063	253.94
475.282	255.94
475.501	252.94
475.72	258.94
475.939	240.94
476.158	251.94
476.377	257.94
476.596	242.94
476.814	260.94
477.033	252.94
477.252	253.94
477.471	252.94
477.69	265.94
477.908	258.94
478.127	284.94
478.346	261.94
478.564	273.94
478.783	293.94
479.002	281.94
479.22	287.94
479.439	305.94
479.658	307.94
479.876	319.94
480.095	327.94
480.313	370.94
480.532	461.94
480.751	584.94
480.969	1163.94
481.188	2607.94
481.406	2123.94
481.624	982.94
481.843	669.94
482.061	550.94
482.28	469.94
482.498	417.94
482.717	383.94
482.935	385.94
483.153	376.94
483.372	350.94
483.59	329.94
483.808	333.94
484.027	308.94
484.245	296.94
484.463	303.94
484.681	283.94
484.9	298.94
485.118	280.94
485.336	289.94
485.554	276.94
485.772	280.94
485.99	292.94
486.209	298.94
486.427	279.94
486.645	291.94
486.863	296.94
487.081	282.94
487.299	281.94
487.517	320.94
487.735	283.94
487.953	299.94
488.171	303.94
488.389	297.94
488.607	305.94
488.825	285.94
489.043	299.94
489.261	295.94
489.479	298.94
489.696	315.94
489.914	328.94
490.132	333.94
490.35	347.94
490.568	363.94
490.786	378.94
491.003	395.94
491.221	441.94
491.439	453.94
491.657	463.94
491.874	457.94
492.092	474.94
492.31	483.94
492.527	520.94
492.745	531.94
492.963	518.94
493.18	488.94
493.398	467.94
493.615	402.94
493.833	413.94
494.05	401.94
494.268	379.94
494.485	381.94
494.703	373.94
494.92	393.94
495.138	381.94
495.355	375.94
495.573	356.94
495.79	351.94
496.008	359.94
496.225	353.94
496.442	334.94
496.66	349.94
496.877	347.94
497.094	335.94
497.312	335.94
497.529	330.94
497.746	342.94
497.963	315.94
498.181	329.94
498.398	323.94
498.615	334.94
498.832	341.94
499.049	353.94
499.267	365.94
499.484	390.94
499.701	411.94
499.918	414.94
500.135	436.94
500.352	449.94
500.569	480.94
500.786	505.94
501.003	457.94
501.22	451.94
501.437	396.94
501.654	385.94
501.871	363.94
502.088	363.94
502.305	351.94
502.522	335.94
502.739	317.94
502.956	314.94
503.172	311.94
503.389	298.94
503.606	279.94
