Data from StdC_HRD10591_082.txt Node
Date: Fri May 16 15:29:21 EDT 2025
User: Yrep
Spectrometer: HR+D1059
Trigger mode: 1
Integration Time (sec): 1.000000E-1
Scans to average: 1
Electric dark correction enabled: true
Nonlinearity correction enabled: false
Boxcar width: 0
XAxis mode: Wavelengths
Number of Pixels in Spectrum: 2048
>>>>>Begin Spectral Data<<<<<
223.165	-7.75
223.4	-7.75
223.635	-7.75
223.869	-11.75
224.104	-26.75
224.338	-9.75
224.573	-19.75
224.808	-8.75
225.042	-10.75
225.277	-9.75
225.511	-5.75
225.746	18.25
225.98	-4.75
226.215	8.25
226.449	16.25
226.683	14.25
226.918	27.25
227.152	31.25
227.387	32.25
227.621	44.25
227.856	43.25
228.09	45.25
228.324	61.25
228.559	60.25
228.793	49.25
229.027	70.25
229.262	69.25
229.496	71.25
229.73	80.25
229.964	93.25
230.199	86.25
230.433	87.25
230.667	82.25
230.901	74.25
231.136	84.25
231.37	83.25
231.604	81.25
231.838	78.25
232.072	86.25
232.306	91.25
232.541	96.25
232.775	89.25
233.009	103.25
233.243	80.25
233.477	102.25
233.711	89.25
233.945	78.25
234.179	80.25
234.413	96.25
234.647	80.25
234.881	92.25
235.115	91.25
235.349	84.25
235.583	102.25
235.817	89.25
236.051	94.25
236.285	94.25
236.519	88.25
236.753	84.25
236.987	92.25
237.221	87.25
237.455	79.25
237.689	89.25
237.922	90.25
238.156	95.25
238.39	89.25
238.624	93.25
238.858	98.25
239.091	93.25
239.325	86.25
239.559	102.25
239.793	88.25
240.027	94.25
240.26	94.25
240.494	93.25
240.728	93.25
240.961	98.25
241.195	93.25
241.429	95.25
241.662	93.25
241.896	89.25
242.13	110.25
242.363	92.25
242.597	91.25
242.83	98.25
243.064	96.25
243.298	82.25
243.531	99.25
243.765	98.25
243.998	106.25
244.232	106.25
244.465	92.25
244.699	81.25
244.932	103.25
245.166	107.25
245.399	99.25
245.633	105.25
245.866	99.25
246.099	98.25
246.333	97.25
246.566	98.25
246.8	102.25
247.033	102.25
247.266	104.25
247.5	97.25
247.733	109.25
247.966	116.25
248.2	108.25
248.433	108.25
248.666	106.25
248.899	97.25
249.133	94.25
249.366	121.25
249.599	124.25
249.832	120.25
250.066	149.25
250.299	172.25
250.532	200.25
250.765	163.25
250.998	142.25
251.231	133.25
251.465	144.25
251.698	112.25
251.931	119.25
252.164	125.25
252.397	124.25
252.63	112.25
252.863	102.25
253.096	128.25
253.329	124.25
253.562	118.25
253.795	123.25
254.028	130.25
254.261	129.25
254.494	114.25
254.727	143.25
254.96	128.25
255.193	143.25
255.426	151.25
255.659	190.25
255.892	240.25
256.124	301.25
256.357	261.25
256.59	194.25
256.823	170.25
257.056	162.25
257.289	135.25
257.521	152.25
257.754	138.25
257.987	134.25
258.22	132.25
258.452	146.25
258.685	131.25
258.918	137.25
259.151	142.25
259.383	151.25
259.616	141.25
259.849	137.25
260.081	114.25
260.314	134.25
260.547	142.25
260.779	146.25
261.012	127.25
261.244	148.25
261.477	138.25
261.71	130.25
261.942	134.25
262.175	123.25
262.407	115.25
262.64	135.25
262.872	129.25
263.105	124.25
263.337	121.25
263.57	144.25
263.802	151.25
264.035	123.25
264.267	129.25
264.499	135.25
264.732	118.25
264.964	111.25
265.197	134.25
265.429	125.25
265.661	135.25
265.894	132.25
266.126	121.25
266.358	130.25
266.591	122.25
266.823	125.25
267.055	128.25
267.287	122.25
267.52	140.25
267.752	132.25
267.984	145.25
268.216	124.25
268.448	139.25
268.681	133.25
268.913	129.25
269.145	132.25
269.377	124.25
269.609	124.25
269.841	120.25
270.073	128.25
270.306	137.25
270.538	138.25
270.77	133.25
271.002	131.25
271.234	123.25
271.466	145.25
271.698	151.25
271.93	144.25
272.162	140.25
272.394	147.25
272.626	149.25
272.858	141.25
273.09	136.25
273.322	134.25
273.553	142.25
273.785	138.25
274.017	150.25
274.249	157.25
274.481	167.25
274.713	150.25
274.945	177.25
275.176	166.25
275.408	162.25
275.64	175.25
275.872	168.25
276.104	170.25
276.335	182.25
276.567	178.25
276.799	187.25
277.031	204.25
277.262	236.25
277.494	195.25
277.726	188.25
277.957	193.25
278.189	168.25
278.421	168.25
278.652	179.25
278.884	189.25
279.115	177.25
279.347	176.25
279.579	188.25
279.81	221.25
280.042	239.25
280.273	271.25
280.505	244.25
280.736	200.25
280.968	190.25
281.199	185.25
281.431	170.25
281.662	164.25
281.894	181.25
282.125	177.25
282.356	170.25
282.588	158.25
282.819	143.25
283.051	163.25
283.282	157.25
283.513	165.25
283.745	154.25
283.976	166.25
284.207	161.25
284.439	156.25
284.67	150.25
284.901	153.25
285.132	159.25
285.364	147.25
285.595	165.25
285.826	155.25
286.057	148.25
286.288	153.25
286.52	148.25
286.751	163.25
286.982	152.25
287.213	158.25
287.444	168.25
287.675	166.25
287.906	171.25
288.138	136.25
288.369	146.25
288.6	164.25
288.831	156.25
289.062	170.25
289.293	166.25
289.524	164.25
289.755	163.25
289.986	156.25
290.217	159.25
290.448	157.25
290.679	182.25
290.91	172.25
291.141	169.25
291.371	162.25
291.602	156.25
291.833	148.25
292.064	163.25
292.295	153.25
292.526	152.25
292.757	151.25
292.987	159.25
293.218	155.25
293.449	155.25
293.68	156.25
293.91	139.25
294.141	151.25
294.372	140.25
294.603	146.25
294.833	154.25
295.064	162.25
295.295	155.25
295.525	135.25
295.756	172.25
295.987	161.25
296.217	152.25
296.448	166.25
296.679	152.25
296.909	164.25
297.14	160.25
297.37	169.25
297.601	154.25
297.831	150.25
298.062	150.25
298.292	143.25
298.523	144.25
298.753	154.25
298.984	142.25
299.214	160.25
299.445	156.25
299.675	163.25
299.905	147.25
300.136	165.25
300.366	161.25
300.597	162.25
300.827	164.25
301.057	162.25
301.288	174.25
301.518	176.25
301.748	156.25
301.979	184.25
302.209	174.25
302.439	174.25
302.669	182.25
302.9	182.25
303.13	184.25
303.36	188.25
303.59	191.25
303.82	187.25
304.051	193.25
304.281	172.25
304.511	168.25
304.741	178.25
304.971	152.25
305.201	162.25
305.431	166.25
305.661	168.25
305.891	161.25
306.121	158.25
306.352	162.25
306.582	160.25
306.812	187.25
307.042	207.25
307.272	217.25
307.502	220.25
307.731	225.25
307.961	204.25
308.191	177.25
308.421	167.25
308.651	161.25
308.881	178.25
309.111	161.25
309.341	173.25
309.571	167.25
309.8	157.25
310.03	157.25
310.26	177.25
310.49	186.25
310.72	171.25
310.949	169.25
311.179	182.25
311.409	170.25
311.639	187.25
311.868	171.25
312.098	182.25
312.328	161.25
312.557	161.25
312.787	171.25
313.017	174.25
313.246	186.25
313.476	176.25
313.706	186.25
313.935	174.25
314.165	175.25
314.394	173.25
314.624	160.25
314.853	174.25
315.083	163.25
315.312	184.25
315.542	176.25
315.771	187.25
316.001	180.25
316.23	178.25
316.46	184.25
316.689	187.25
316.919	188.25
317.148	194.25
317.377	181.25
317.607	191.25
317.836	172.25
318.065	192.25
318.295	184.25
318.524	174.25
318.753	180.25
318.983	174.25
319.212	187.25
319.441	206.25
319.67	190.25
319.9	177.25
320.129	192.25
320.358	169.25
320.587	166.25
320.816	188.25
321.046	181.25
321.275	180.25
321.504	196.25
321.733	192.25
321.962	203.25
322.191	177.25
322.42	192.25
322.649	194.25
322.878	190.25
323.108	191.25
323.337	207.25
323.566	207.25
323.795	213.25
324.024	228.25
324.253	218.25
324.482	202.25
324.71	208.25
324.939	218.25
325.168	222.25
325.397	234.25
325.626	231.25
325.855	259.25
326.084	237.25
326.313	242.25
326.542	262.25
326.77	262.25
326.999	274.25
327.228	288.25
327.457	341.25
327.686	405.25
327.914	550.25
328.143	706.25
328.372	718.25
328.6	524.25
328.829	380.25
329.058	385.25
329.287	426.25
329.515	498.25
329.744	667.25
329.972	961.25
330.201	1296.25
330.43	1280.25
330.658	775.25
330.887	488.25
331.115	390.25
331.344	348.25
331.572	335.25
331.801	315.25
332.03	338.25
332.258	325.25
332.486	322.25
332.715	339.25
332.943	345.25
333.172	398.25
333.4	457.25
333.629	540.25
333.857	705.25
334.085	1020.25
334.314	1452.25
334.542	1795.25
334.771	1453.25
334.999	770.25
335.227	491.25
335.455	402.25
335.684	350.25
335.912	320.25
336.14	306.25
336.369	295.25
336.597	276.25
336.825	262.25
337.053	251.25
337.281	236.25
337.51	243.25
337.738	239.25
337.966	221.25
338.194	219.25
338.422	226.25
338.65	203.25
338.878	213.25
339.106	217.25
339.334	217.25
339.562	224.25
339.79	226.25
340.018	218.25
340.246	205.25
340.474	187.25
340.702	201.25
340.93	201.25
341.158	209.25
341.386	199.25
341.614	209.25
341.842	204.25
342.07	195.25
342.298	204.25
342.526	188.25
342.754	200.25
342.981	211.25
343.209	207.25
343.437	211.25
343.665	188.25
343.893	216.25
344.12	195.25
344.348	197.25
344.576	201.25
344.804	204.25
345.031	191.25
345.259	194.25
345.487	195.25
345.714	184.25
345.942	187.25
346.17	174.25
346.397	202.25
346.625	193.25
346.853	180.25
347.08	193.25
347.308	174.25
347.535	193.25
347.763	179.25
347.99	186.25
348.218	184.25
348.445	188.25
348.673	196.25
348.9	189.25
349.128	202.25
349.355	190.25
349.583	190.25
349.81	192.25
350.037	187.25
350.265	170.25
350.492	190.25
350.72	179.25
350.947	169.25
351.174	186.25
351.402	191.25
351.629	166.25
351.856	170.25
352.083	183.25
352.311	188.25
352.538	179.25
352.765	162.25
352.992	191.25
353.22	186.25
353.447	194.25
353.674	195.25
353.901	205.25
354.128	198.25
354.355	174.25
354.583	170.25
354.81	184.25
355.037	175.25
355.264	167.25
355.491	183.25
355.718	187.25
355.945	190.25
356.172	182.25
356.399	183.25
356.626	190.25
356.853	180.25
357.08	179.25
357.307	186.25
357.534	168.25
357.761	193.25
357.988	193.25
358.215	179.25
358.441	194.25
358.668	196.25
358.895	189.25
359.122	163.25
359.349	185.25
359.576	162.25
359.802	186.25
360.029	183.25
360.256	188.25
360.483	174.25
360.709	176.25
360.936	202.25
361.163	182.25
361.39	160.25
361.616	181.25
361.843	171.25
362.07	178.25
362.296	178.25
362.523	167.25
362.749	178.25
362.976	181.25
363.203	183.25
363.429	164.25
363.656	168.25
363.882	190.25
364.109	182.25
364.335	171.25
364.562	178.25
364.788	196.25
365.015	169.25
365.241	171.25
365.468	174.25
365.694	178.25
365.92	187.25
366.147	211.25
366.373	173.25
366.599	167.25
366.826	171.25
367.052	188.25
367.278	173.25
367.505	160.25
367.731	206.25
367.957	167.25
368.184	188.25
368.41	186.25
368.636	182.25
368.862	185.25
369.089	171.25
369.315	186.25
369.541	161.25
369.767	198.25
369.993	185.25
370.219	186.25
370.445	191.25
370.672	179.25
370.898	183.25
371.124	180.25
371.35	195.25
371.576	186.25
371.802	186.25
372.028	197.25
372.254	180.25
372.48	182.25
372.706	195.25
372.932	198.25
373.158	206.25
373.384	182.25
373.61	187.25
373.835	185.25
374.061	174.25
374.287	196.25
374.513	193.25
374.739	187.25
374.965	201.25
375.191	195.25
375.416	191.25
375.642	181.25
375.868	164.25
376.094	186.25
376.319	189.25
376.545	200.25
376.771	170.25
376.997	185.25
377.222	192.25
377.448	196.25
377.674	201.25
377.899	182.25
378.125	182.25
378.35	172.25
378.576	169.25
378.802	192.25
379.027	195.25
379.253	196.25
379.478	185.25
379.704	179.25
379.929	182.25
380.155	176.25
380.38	185.25
380.606	202.25
380.831	196.25
381.057	187.25
381.282	188.25
381.507	184.25
381.733	186.25
381.958	194.25
382.184	178.25
382.409	190.25
382.634	195.25
382.86	197.25
383.085	193.25
383.31	196.25
383.535	199.25
383.761	199.25
383.986	201.25
384.211	191.25
384.436	205.25
384.662	208.25
384.887	210.25
385.112	202.25
385.337	196.25
385.562	193.25
385.787	201.25
386.013	202.25
386.238	200.25
386.463	211.25
386.688	210.25
386.913	202.25
387.138	205.25
387.363	202.25
387.588	191.25
387.813	210.25
388.038	207.25
388.263	207.25
388.488	209.25
388.713	207.25
388.938	199.25
389.163	190.25
389.387	207.25
389.612	210.25
389.837	222.25
390.062	195.25
390.287	203.25
390.512	204.25
390.736	204.25
390.961	208.25
391.186	210.25
391.411	218.25
391.636	200.25
391.86	204.25
392.085	210.25
392.31	217.25
392.534	220.25
392.759	217.25
392.984	220.25
393.208	200.25
393.433	213.25
393.658	214.25
393.882	202.25
394.107	210.25
394.331	203.25
394.556	209.25
394.78	211.25
395.005	217.25
395.229	217.25
395.454	218.25
395.678	220.25
395.903	212.25
396.127	208.25
396.352	226.25
396.576	196.25
396.801	223.25
397.025	220.25
397.249	223.25
397.474	234.25
397.698	214.25
397.922	238.25
398.147	224.25
398.371	234.25
398.595	246.25
398.82	238.25
399.044	251.25
399.268	258.25
399.492	272.25
399.717	271.25
399.941	281.25
400.165	259.25
400.389	257.25
400.613	247.25
400.837	241.25
401.062	243.25
401.286	236.25
401.51	239.25
401.734	238.25
401.958	252.25
402.182	238.25
402.406	221.25
402.63	239.25
402.854	247.25
403.078	239.25
403.302	238.25
403.526	257.25
403.75	267.25
403.974	262.25
404.198	246.25
404.422	270.25
404.645	278.25
404.869	283.25
405.093	312.25
405.317	322.25
405.541	314.25
405.765	286.25
405.988	273.25
406.212	263.25
406.436	266.25
406.66	264.25
406.883	279.25
407.107	244.25
407.331	243.25
407.555	246.25
407.778	272.25
408.002	253.25
408.226	248.25
408.449	254.25
408.673	273.25
408.896	251.25
409.12	243.25
409.344	243.25
409.567	239.25
409.791	243.25
410.014	248.25
410.238	238.25
410.461	261.25
410.685	243.25
410.908	258.25
411.132	245.25
411.355	249.25
411.578	251.25
411.802	265.25
412.025	269.25
412.249	295.25
412.472	311.25
412.695	325.25
412.919	320.25
413.142	310.25
413.365	273.25
413.589	278.25
413.812	268.25
414.035	261.25
414.258	263.25
414.482	252.25
414.705	227.25
414.928	243.25
415.151	246.25
415.374	236.25
415.597	247.25
415.821	240.25
416.044	250.25
416.267	256.25
416.49	249.25
416.713	229.25
416.936	243.25
417.159	257.25
417.382	248.25
417.605	256.25
417.828	260.25
418.051	249.25
418.274	257.25
418.497	247.25
418.72	230.25
418.943	237.25
419.166	266.25
419.389	259.25
419.611	283.25
419.834	280.25
420.057	297.25
420.28	306.25
420.503	306.25
420.726	281.25
420.948	268.25
421.171	275.25
421.394	250.25
421.617	248.25
421.839	243.25
422.062	250.25
422.285	252.25
422.507	237.25
422.73	243.25
422.953	241.25
423.175	243.25
423.398	243.25
423.621	233.25
423.843	248.25
424.066	233.25
424.288	228.25
424.511	247.25
424.733	251.25
424.956	239.25
425.178	241.25
425.401	235.25
425.623	217.25
425.846	247.25
426.068	235.25
426.291	230.25
426.513	242.25
426.735	239.25
426.958	241.25
427.18	244.25
427.402	244.25
427.625	287.25
427.847	335.25
428.069	332.25
428.292	301.25
428.514	259.25
428.736	258.25
428.958	238.25
429.181	235.25
429.403	234.25
429.625	233.25
429.847	227.25
430.069	236.25
430.292	226.25
430.514	227.25
430.736	231.25
430.958	231.25
431.18	220.25
431.402	234.25
431.624	235.25
431.846	227.25
432.068	227.25
432.29	201.25
432.512	213.25
432.734	219.25
432.956	211.25
433.178	228.25
433.4	242.25
433.622	217.25
433.844	210.25
434.066	228.25
434.287	212.25
434.509	219.25
434.731	233.25
434.953	242.25
435.175	222.25
435.397	227.25
435.618	220.25
435.84	226.25
436.062	219.25
436.284	225.25
436.505	242.25
436.727	217.25
436.949	238.25
437.17	222.25
437.392	202.25
437.614	227.25
437.835	220.25
438.057	214.25
438.278	210.25
438.5	233.25
438.721	208.25
438.943	228.25
439.165	210.25
439.386	217.25
439.608	216.25
439.829	207.25
440.05	238.25
440.272	231.25
440.493	216.25
440.715	227.25
440.936	236.25
441.158	211.25
441.379	219.25
441.6	215.25
441.822	238.25
442.043	229.25
442.264	234.25
442.486	234.25
442.707	216.25
442.928	207.25
443.149	238.25
443.371	233.25
443.592	241.25
443.813	227.25
444.034	230.25
444.255	240.25
444.476	248.25
444.698	247.25
444.919	235.25
445.14	332.25
445.361	267.25
445.582	219.25
445.803	223.25
446.024	230.25
446.245	232.25
446.466	222.25
446.687	207.25
446.908	215.25
447.129	209.25
447.35	210.25
447.571	208.25
447.792	197.25
448.013	213.25
448.234	209.25
448.455	208.25
448.675	208.25
448.896	206.25
449.117	212.25
449.338	215.25
449.559	214.25
449.779	206.25
450	218.25
450.221	220.25
450.442	219.25
450.662	202.25
450.883	195.25
451.104	213.25
451.324	194.25
451.545	208.25
451.766	209.25
451.986	214.25
452.207	200.25
452.428	214.25
452.648	197.25
452.869	201.25
453.089	186.25
453.31	217.25
453.53	204.25
453.751	197.25
453.971	211.25
454.192	199.25
454.412	190.25
454.633	190.25
454.853	202.25
455.073	196.25
455.294	206.25
455.514	209.25
455.734	198.25
455.955	199.25
456.175	192.25
456.395	200.25
456.616	205.25
456.836	196.25
457.056	218.25
457.276	202.25
457.497	220.25
457.717	203.25
457.937	197.25
458.157	203.25
458.377	206.25
458.598	201.25
458.818	201.25
459.038	219.25
459.258	218.25
459.478	202.25
459.698	211.25
459.918	215.25
460.138	222.25
460.358	204.25
460.578	221.25
460.798	226.25
461.018	231.25
461.238	224.25
461.458	238.25
461.678	242.25
461.898	249.25
462.118	247.25
462.338	251.25
462.558	274.25
462.777	258.25
462.997	270.25
463.217	270.25
463.437	287.25
463.657	267.25
463.876	256.25
464.096	251.25
464.316	252.25
464.536	230.25
464.755	249.25
464.975	234.25
465.195	228.25
465.414	237.25
465.634	240.25
465.854	237.25
466.073	240.25
466.293	230.25
466.512	245.25
466.732	236.25
466.951	245.25
467.171	250.25
467.391	259.25
467.61	295.25
467.829	386.25
468.049	650.25
468.268	784.25
468.488	474.25
468.707	336.25
468.927	308.25
469.146	278.25
469.365	288.25
469.585	264.25
469.804	274.25
470.023	271.25
470.243	287.25
470.462	241.25
470.681	273.25
470.901	263.25
471.12	262.25
471.339	288.25
471.558	297.25
471.777	378.25
471.997	516.25
472.216	1111.25
472.435	1666.25
472.654	923.25
472.873	568.25
473.092	428.25
473.311	363.25
473.53	338.25
473.749	304.25
473.968	288.25
474.187	264.25
474.406	266.25
474.625	278.25
474.844	279.25
475.063	272.25
475.282	268.25
475.501	259.25
475.72	267.25
475.939	259.25
476.158	262.25
476.377	248.25
476.596	253.25
476.814	262.25
477.033	248.25
477.252	266.25
477.471	278.25
477.69	262.25
477.908	273.25
478.127	272.25
478.346	274.25
478.564	286.25
478.783	297.25
479.002	296.25
479.22	301.25
479.439	296.25
479.658	320.25
479.876	318.25
480.095	338.25
480.313	376.25
480.532	448.25
480.751	613.25
480.969	1204.25
481.188	2685.25
481.406	2142.25
481.624	1036.25
481.843	696.25
482.061	560.25
482.28	474.25
482.498	423.25
482.717	406.25
482.935	370.25
483.153	359.25
483.372	348.25
483.59	334.25
483.808	323.25
484.027	315.25
484.245	303.25
484.463	311.25
484.681	307.25
484.9	300.25
485.118	308.25
485.336	309.25
485.554	283.25
485.772	288.25
485.99	286.25
486.209	300.25
486.427	288.25
486.645	289.25
486.863	294.25
487.081	284.25
487.299	294.25
487.517	286.25
487.735	293.25
487.953	299.25
488.171	311.25
488.389	304.25
488.607	288.25
488.825	301.25
489.043	296.25
489.261	315.25
489.479	305.25
489.696	316.25
489.914	319.25
490.132	331.25
490.35	348.25
490.568	358.25
490.786	384.25
491.003	398.25
491.221	447.25
491.439	462.25
491.657	472.25
491.874	456.25
492.092	456.25
492.31	475.25
492.527	523.25
492.745	543.25
492.963	500.25
493.18	481.25
493.398	465.25
493.615	443.25
493.833	445.25
494.05	408.25
494.268	396.25
494.485	369.25
494.703	373.25
494.92	385.25
495.138	363.25
495.355	346.25
495.573	344.25
495.79	362.25
496.008	347.25
496.225	356.25
496.442	360.25
496.66	334.25
496.877	350.25
497.094	333.25
497.312	333.25
497.529	332.25
497.746	347.25
497.963	336.25
498.181	331.25
498.398	346.25
498.615	363.25
498.832	357.25
499.049	364.25
499.267	368.25
499.484	389.25
499.701	401.25
499.918	419.25
500.135	443.25
500.352	488.25
500.569	498.25
500.786	488.25
501.003	455.25
501.22	428.25
501.437	408.25
501.654	384.25
501.871	376.25
502.088	360.25
502.305	355.25
502.522	350.25
502.739	342.25
502.956	332.25
503.172	298.25
503.389	309.25
503.606	301.25
