Data from StdC_HRD10591_019.txt Node
Date: Fri May 16 15:28:50 EDT 2025
User: Yrep
Spectrometer: HR+D1059
Trigger mode: 1
Integration Time (sec): 1.000000E-1
Scans to average: 1
Electric dark correction enabled: true
Nonlinearity correction enabled: false
Boxcar width: 0
XAxis mode: Wavelengths
Number of Pixels in Spectrum: 2048
>>>>>Begin Spectral Data<<<<<
223.165	-21.38
223.4	-21.38
223.635	-21.38
223.869	-19.38
224.104	-19.38
224.338	-11.38
224.573	-27.38
224.808	-14.38
225.042	-6.38
225.277	8.62
225.511	-19.38
225.746	6.62
225.98	3.62
226.215	12.62
226.449	24.62
226.683	20.62
226.918	34.62
227.152	27.62
227.387	30.62
227.621	34.62
227.856	48.62
228.09	64.62
228.324	65.62
228.559	63.62
228.793	75.62
229.027	78.62
229.262	67.62
229.496	74.62
229.73	86.62
229.964	83.62
230.199	88.62
230.433	84.62
230.667	91.62
230.901	86.62
231.136	86.62
231.37	96.62
231.604	90.62
231.838	87.62
232.072	86.62
232.306	80.62
232.541	91.62
232.775	104.62
233.009	94.62
233.243	93.62
233.477	92.62
233.711	116.62
233.945	97.62
234.179	79.62
234.413	99.62
234.647	90.62
234.881	91.62
235.115	98.62
235.349	95.62
235.583	91.62
235.817	86.62
236.051	81.62
236.285	92.62
236.519	90.62
236.753	98.62
236.987	94.62
237.221	85.62
237.455	84.62
237.689	86.62
237.922	94.62
238.156	83.62
238.39	95.62
238.624	94.62
238.858	99.62
239.091	79.62
239.325	83.62
239.559	90.62
239.793	91.62
240.027	88.62
240.26	100.62
240.494	91.62
240.728	107.62
240.961	94.62
241.195	92.62
241.429	92.62
241.662	97.62
241.896	92.62
242.13	88.62
242.363	89.62
242.597	107.62
242.83	108.62
243.064	106.62
243.298	88.62
243.531	104.62
243.765	86.62
243.998	97.62
244.232	96.62
244.465	105.62
244.699	100.62
244.932	96.62
245.166	100.62
245.399	97.62
245.633	106.62
245.866	110.62
246.099	98.62
246.333	95.62
246.566	112.62
246.8	103.62
247.033	105.62
247.266	113.62
247.5	113.62
247.733	115.62
247.966	119.62
248.2	108.62
248.433	102.62
248.666	119.62
248.899	116.62
249.133	127.62
249.366	117.62
249.599	121.62
249.832	121.62
250.066	137.62
250.299	151.62
250.532	191.62
250.765	182.62
250.998	166.62
251.231	141.62
251.465	131.62
251.698	110.62
251.931	123.62
252.164	125.62
252.397	127.62
252.63	122.62
252.863	111.62
253.096	120.62
253.329	127.62
253.562	122.62
253.795	119.62
254.028	123.62
254.261	122.62
254.494	122.62
254.727	133.62
254.96	146.62
255.193	149.62
255.426	152.62
255.659	204.62
255.892	266.62
256.124	303.62
256.357	238.62
256.59	194.62
256.823	182.62
257.056	161.62
257.289	148.62
257.521	145.62
257.754	147.62
257.987	138.62
258.22	137.62
258.452	139.62
258.685	120.62
258.918	148.62
259.151	119.62
259.383	144.62
259.616	134.62
259.849	136.62
260.081	138.62
260.314	134.62
260.547	132.62
260.779	141.62
261.012	130.62
261.244	137.62
261.477	150.62
261.71	124.62
261.942	145.62
262.175	140.62
262.407	125.62
262.64	129.62
262.872	127.62
263.105	115.62
263.337	126.62
263.57	146.62
263.802	135.62
264.035	138.62
264.267	138.62
264.499	130.62
264.732	134.62
264.964	124.62
265.197	133.62
265.429	138.62
265.661	134.62
265.894	112.62
266.126	121.62
266.358	144.62
266.591	131.62
266.823	134.62
267.055	134.62
267.287	143.62
267.52	123.62
267.752	136.62
267.984	129.62
268.216	122.62
268.448	137.62
268.681	132.62
268.913	150.62
269.145	135.62
269.377	132.62
269.609	138.62
269.841	132.62
270.073	143.62
270.306	131.62
270.538	139.62
270.77	138.62
271.002	147.62
271.234	144.62
271.466	142.62
271.698	150.62
271.93	148.62
272.162	129.62
272.394	151.62
272.626	137.62
272.858	135.62
273.09	143.62
273.322	154.62
273.553	147.62
273.785	140.62
274.017	160.62
274.249	155.62
274.481	164.62
274.713	153.62
274.945	157.62
275.176	163.62
275.408	171.62
275.64	158.62
275.872	190.62
276.104	175.62
276.335	166.62
276.567	183.62
276.799	201.62
277.031	196.62
277.262	224.62
277.494	212.62
277.726	196.62
277.957	187.62
278.189	180.62
278.421	178.62
278.652	169.62
278.884	172.62
279.115	175.62
279.347	166.62
279.579	191.62
279.81	226.62
280.042	258.62
280.273	269.62
280.505	237.62
280.736	219.62
280.968	187.62
281.199	191.62
281.431	170.62
281.662	190.62
281.894	175.62
282.125	156.62
282.356	150.62
282.588	150.62
282.819	168.62
283.051	159.62
283.282	147.62
283.513	167.62
283.745	174.62
283.976	156.62
284.207	172.62
284.439	157.62
284.67	170.62
284.901	168.62
285.132	165.62
285.364	152.62
285.595	171.62
285.826	157.62
286.057	150.62
286.288	151.62
286.52	157.62
286.751	157.62
286.982	154.62
287.213	157.62
287.444	172.62
287.675	152.62
287.906	166.62
288.138	163.62
288.369	154.62
288.6	158.62
288.831	167.62
289.062	165.62
289.293	162.62
289.524	159.62
289.755	142.62
289.986	156.62
290.217	168.62
290.448	164.62
290.679	155.62
290.91	152.62
291.141	151.62
291.371	157.62
291.602	158.62
291.833	159.62
292.064	151.62
292.295	159.62
292.526	157.62
292.757	147.62
292.987	154.62
293.218	153.62
293.449	147.62
293.68	152.62
293.91	152.62
294.141	167.62
294.372	159.62
294.603	160.62
294.833	146.62
295.064	153.62
295.295	184.62
295.525	156.62
295.756	150.62
295.987	157.62
296.217	178.62
296.448	158.62
296.679	162.62
296.909	158.62
297.14	173.62
297.37	156.62
297.601	161.62
297.831	148.62
298.062	151.62
298.292	157.62
298.523	166.62
298.753	153.62
298.984	165.62
299.214	168.62
299.445	164.62
299.675	159.62
299.905	169.62
300.136	146.62
300.366	163.62
300.597	166.62
300.827	155.62
301.057	167.62
301.288	162.62
301.518	174.62
301.748	175.62
301.979	184.62
302.209	187.62
302.439	157.62
302.669	152.62
302.9	172.62
303.13	191.62
303.36	185.62
303.59	204.62
303.82	193.62
304.051	178.62
304.281	191.62
304.511	184.62
304.741	173.62
304.971	160.62
305.201	174.62
305.431	167.62
305.661	163.62
305.891	161.62
306.121	163.62
306.352	171.62
306.582	167.62
306.812	186.62
307.042	197.62
307.272	220.62
307.502	217.62
307.731	217.62
307.961	214.62
308.191	190.62
308.421	180.62
308.651	169.62
308.881	165.62
309.111	161.62
309.341	182.62
309.571	163.62
309.8	177.62
310.03	161.62
310.26	177.62
310.49	156.62
310.72	161.62
310.949	172.62
311.179	165.62
311.409	175.62
311.639	170.62
311.868	160.62
312.098	180.62
312.328	159.62
312.557	158.62
312.787	169.62
313.017	176.62
313.246	183.62
313.476	180.62
313.706	172.62
313.935	177.62
314.165	193.62
314.394	169.62
314.624	171.62
314.853	176.62
315.083	175.62
315.312	180.62
315.542	170.62
315.771	177.62
316.001	187.62
316.23	177.62
316.46	183.62
316.689	187.62
316.919	192.62
317.148	187.62
317.377	185.62
317.607	183.62
317.836	181.62
318.065	174.62
318.295	179.62
318.524	174.62
318.753	183.62
318.983	177.62
319.212	181.62
319.441	183.62
319.67	178.62
319.9	179.62
320.129	190.62
320.358	185.62
320.587	196.62
320.816	200.62
321.046	185.62
321.275	195.62
321.504	201.62
321.733	182.62
321.962	210.62
322.191	192.62
322.42	191.62
322.649	185.62
322.878	207.62
323.108	214.62
323.337	212.62
323.566	217.62
323.795	211.62
324.024	211.62
324.253	209.62
324.482	210.62
324.71	213.62
324.939	222.62
325.168	248.62
325.397	246.62
325.626	239.62
325.855	228.62
326.084	239.62
326.313	241.62
326.542	251.62
326.77	272.62
326.999	272.62
327.228	290.62
327.457	351.62
327.686	416.62
327.914	519.62
328.143	667.62
328.372	714.62
328.6	516.62
328.829	391.62
329.058	371.62
329.287	411.62
329.515	508.62
329.744	665.62
329.972	911.62
330.201	1229.62
330.43	1223.62
330.658	767.62
330.887	479.62
331.115	382.62
331.344	348.62
331.572	320.62
331.801	328.62
332.03	324.62
332.258	313.62
332.486	333.62
332.715	333.62
332.943	374.62
333.172	410.62
333.4	431.62
333.629	527.62
333.857	698.62
334.085	986.62
334.314	1410.62
334.542	1719.62
334.771	1393.62
334.999	744.62
335.227	480.62
335.455	386.62
335.684	368.62
335.912	323.62
336.14	310.62
336.369	288.62
336.597	289.62
336.825	261.62
337.053	259.62
337.281	259.62
337.51	259.62
337.738	256.62
337.966	222.62
338.194	224.62
338.422	224.62
338.65	238.62
338.878	222.62
339.106	217.62
339.334	204.62
339.562	223.62
339.79	228.62
340.018	217.62
340.246	219.62
340.474	206.62
340.702	192.62
340.93	211.62
341.158	193.62
341.386	211.62
341.614	196.62
341.842	208.62
342.07	212.62
342.298	197.62
342.526	189.62
342.754	206.62
342.981	198.62
343.209	197.62
343.437	211.62
343.665	205.62
343.893	216.62
344.12	223.62
344.348	210.62
344.576	215.62
344.804	185.62
345.031	200.62
345.259	190.62
345.487	185.62
345.714	188.62
345.942	202.62
346.17	204.62
346.397	186.62
346.625	196.62
346.853	188.62
347.08	188.62
347.308	199.62
347.535	199.62
347.763	186.62
347.99	191.62
348.218	189.62
348.445	175.62
348.673	200.62
348.9	167.62
349.128	193.62
349.355	197.62
349.583	182.62
349.81	190.62
350.037	183.62
350.265	179.62
350.492	183.62
350.72	193.62
350.947	180.62
351.174	190.62
351.402	175.62
351.629	188.62
351.856	192.62
352.083	186.62
352.311	191.62
352.538	203.62
352.765	188.62
352.992	192.62
353.22	190.62
353.447	175.62
353.674	187.62
353.901	187.62
354.128	203.62
354.355	171.62
354.583	176.62
354.81	203.62
355.037	169.62
355.264	186.62
355.491	163.62
355.718	196.62
355.945	182.62
356.172	185.62
356.399	199.62
356.626	170.62
356.853	188.62
357.08	172.62
357.307	163.62
357.534	166.62
357.761	178.62
357.988	195.62
358.215	200.62
358.441	195.62
358.668	191.62
358.895	180.62
359.122	187.62
359.349	191.62
359.576	180.62
359.802	165.62
360.029	201.62
360.256	193.62
360.483	180.62
360.709	178.62
360.936	191.62
361.163	191.62
361.39	186.62
361.616	180.62
361.843	185.62
362.07	189.62
362.296	188.62
362.523	170.62
362.749	186.62
362.976	189.62
363.203	188.62
363.429	180.62
363.656	180.62
363.882	187.62
364.109	181.62
364.335	185.62
364.562	191.62
364.788	199.62
365.015	186.62
365.241	189.62
365.468	181.62
365.694	192.62
365.92	186.62
366.147	195.62
366.373	187.62
366.599	187.62
366.826	185.62
367.052	194.62
367.278	174.62
367.505	189.62
367.731	186.62
367.957	161.62
368.184	200.62
368.41	177.62
368.636	189.62
368.862	193.62
369.089	183.62
369.315	193.62
369.541	201.62
369.767	186.62
369.993	191.62
370.219	186.62
370.445	184.62
370.672	186.62
370.898	176.62
371.124	188.62
371.35	187.62
371.576	179.62
371.802	184.62
372.028	190.62
372.254	191.62
372.48	195.62
372.706	180.62
372.932	198.62
373.158	192.62
373.384	187.62
373.61	186.62
373.835	178.62
374.061	187.62
374.287	199.62
374.513	205.62
374.739	190.62
374.965	174.62
375.191	203.62
375.416	190.62
375.642	195.62
375.868	175.62
376.094	192.62
376.319	192.62
376.545	186.62
376.771	196.62
376.997	176.62
377.222	184.62
377.448	190.62
377.674	212.62
377.899	177.62
378.125	182.62
378.35	191.62
378.576	185.62
378.802	196.62
379.027	186.62
379.253	189.62
379.478	176.62
379.704	184.62
379.929	176.62
380.155	192.62
380.38	186.62
380.606	206.62
380.831	191.62
381.057	192.62
381.282	201.62
381.507	184.62
381.733	192.62
381.958	192.62
382.184	193.62
382.409	196.62
382.634	209.62
382.86	202.62
383.085	204.62
383.31	194.62
383.535	199.62
383.761	184.62
383.986	214.62
384.211	219.62
384.436	200.62
384.662	209.62
384.887	217.62
385.112	199.62
385.337	225.62
385.562	224.62
385.787	217.62
386.013	206.62
386.238	214.62
386.463	224.62
386.688	224.62
386.913	201.62
387.138	226.62
387.363	202.62
387.588	216.62
387.813	211.62
388.038	207.62
388.263	215.62
388.488	218.62
388.713	212.62
388.938	226.62
389.163	199.62
389.387	218.62
389.612	204.62
389.837	206.62
390.062	200.62
390.287	203.62
390.512	206.62
390.736	226.62
390.961	205.62
391.186	218.62
391.411	226.62
391.636	211.62
391.86	204.62
392.085	214.62
392.31	223.62
392.534	206.62
392.759	208.62
392.984	209.62
393.208	221.62
393.433	222.62
393.658	213.62
393.882	199.62
394.107	224.62
394.331	207.62
394.556	220.62
394.78	212.62
395.005	219.62
395.229	205.62
395.454	210.62
395.678	230.62
395.903	228.62
396.127	225.62
396.352	220.62
396.576	217.62
396.801	219.62
397.025	218.62
397.249	232.62
397.474	232.62
397.698	226.62
397.922	246.62
398.147	237.62
398.371	239.62
398.595	237.62
398.82	242.62
399.044	254.62
399.268	252.62
399.492	271.62
399.717	249.62
399.941	268.62
400.165	274.62
400.389	259.62
400.613	235.62
400.837	232.62
401.062	249.62
401.286	256.62
401.51	242.62
401.734	250.62
401.958	235.62
402.182	249.62
402.406	254.62
402.63	254.62
402.854	249.62
403.078	244.62
403.302	251.62
403.526	242.62
403.75	240.62
403.974	256.62
404.198	257.62
404.422	282.62
404.645	282.62
404.869	294.62
405.093	315.62
405.317	304.62
405.541	320.62
405.765	290.62
405.988	289.62
406.212	263.62
406.436	256.62
406.66	268.62
406.883	265.62
407.107	269.62
407.331	277.62
407.555	269.62
407.778	274.62
408.002	271.62
408.226	271.62
408.449	260.62
408.673	274.62
408.896	258.62
409.12	256.62
409.344	253.62
409.567	248.62
409.791	252.62
410.014	247.62
410.238	246.62
410.461	253.62
410.685	247.62
410.908	240.62
411.132	267.62
411.355	253.62
411.578	253.62
411.802	247.62
412.025	291.62
412.249	295.62
412.472	311.62
412.695	342.62
412.919	313.62
413.142	300.62
413.365	289.62
413.589	269.62
413.812	287.62
414.035	275.62
414.258	266.62
414.482	271.62
414.705	266.62
414.928	254.62
415.151	258.62
415.374	246.62
415.597	248.62
415.821	253.62
416.044	257.62
416.267	244.62
416.49	268.62
416.713	249.62
416.936	251.62
417.159	258.62
417.382	256.62
417.605	280.62
417.828	267.62
418.051	251.62
418.274	242.62
418.497	243.62
418.72	266.62
418.943	256.62
419.166	260.62
419.389	273.62
419.611	270.62
419.834	285.62
420.057	285.62
420.28	308.62
420.503	304.62
420.726	268.62
420.948	272.62
421.171	266.62
421.394	250.62
421.617	237.62
421.839	248.62
422.062	250.62
422.285	227.62
422.507	245.62
422.73	246.62
422.953	230.62
423.175	239.62
423.398	247.62
423.621	259.62
423.843	251.62
424.066	240.62
424.288	256.62
424.511	255.62
424.733	246.62
424.956	235.62
425.178	248.62
425.401	250.62
425.623	254.62
425.846	234.62
426.068	244.62
426.291	254.62
426.513	248.62
426.735	235.62
426.958	230.62
427.18	254.62
427.402	260.62
427.625	291.62
427.847	311.62
428.069	342.62
428.292	310.62
428.514	262.62
428.736	234.62
428.958	238.62
429.181	226.62
429.403	237.62
429.625	246.62
429.847	237.62
430.069	234.62
430.292	237.62
430.514	232.62
430.736	240.62
430.958	243.62
431.18	233.62
431.402	238.62
431.624	232.62
431.846	227.62
432.068	239.62
432.29	220.62
432.512	226.62
432.734	239.62
432.956	233.62
433.178	234.62
433.4	231.62
433.622	216.62
433.844	234.62
434.066	221.62
434.287	227.62
434.509	233.62
434.731	234.62
434.953	224.62
435.175	223.62
435.397	248.62
435.618	239.62
435.84	225.62
436.062	226.62
436.284	240.62
436.505	226.62
436.727	224.62
436.949	220.62
437.17	225.62
437.392	223.62
437.614	218.62
437.835	209.62
438.057	211.62
438.278	211.62
438.5	218.62
438.721	227.62
438.943	220.62
439.165	202.62
439.386	223.62
439.608	228.62
439.829	215.62
440.05	211.62
440.272	234.62
440.493	223.62
440.715	206.62
440.936	222.62
441.158	235.62
441.379	231.62
441.6	236.62
441.822	238.62
442.043	237.62
442.264	228.62
442.486	227.62
442.707	221.62
442.928	238.62
443.149	230.62
443.371	236.62
443.592	229.62
443.813	239.62
444.034	235.62
444.255	239.62
444.476	223.62
444.698	233.62
444.919	240.62
445.14	333.62
445.361	282.62
445.582	222.62
445.803	235.62
446.024	219.62
446.245	232.62
446.466	240.62
446.687	241.62
446.908	225.62
447.129	224.62
447.35	219.62
447.571	223.62
447.792	214.62
448.013	218.62
448.234	225.62
448.455	220.62
448.675	213.62
448.896	208.62
449.117	217.62
449.338	208.62
449.559	208.62
449.779	210.62
450	220.62
450.221	215.62
450.442	228.62
450.662	206.62
450.883	212.62
451.104	220.62
451.324	208.62
451.545	218.62
451.766	217.62
451.986	217.62
452.207	219.62
452.428	208.62
452.648	226.62
452.869	211.62
453.089	215.62
453.31	190.62
453.53	191.62
453.751	205.62
453.971	200.62
454.192	174.62
454.412	191.62
454.633	211.62
454.853	204.62
455.073	205.62
455.294	208.62
455.514	221.62
455.734	196.62
455.955	212.62
456.175	203.62
456.395	210.62
456.616	210.62
456.836	205.62
457.056	225.62
457.276	199.62
457.497	204.62
457.717	220.62
457.937	217.62
458.157	191.62
458.377	202.62
458.598	210.62
458.818	214.62
459.038	214.62
459.258	200.62
459.478	221.62
459.698	217.62
459.918	238.62
460.138	242.62
460.358	243.62
460.578	244.62
460.798	246.62
461.018	230.62
461.238	236.62
461.458	247.62
461.678	248.62
461.898	243.62
462.118	254.62
462.338	237.62
462.558	247.62
462.777	260.62
462.997	268.62
463.217	290.62
463.437	273.62
463.657	275.62
463.876	280.62
464.096	274.62
464.316	284.62
464.536	272.62
464.755	250.62
464.975	252.62
465.195	259.62
465.414	247.62
465.634	242.62
465.854	233.62
466.073	226.62
466.293	224.62
466.512	243.62
466.732	238.62
466.951	251.62
467.171	254.62
467.391	245.62
467.61	279.62
467.829	376.62
468.049	638.62
468.268	755.62
468.488	479.62
468.707	354.62
468.927	318.62
469.146	280.62
469.365	272.62
469.585	268.62
469.804	263.62
470.023	257.62
470.243	247.62
470.462	279.62
470.681	258.62
470.901	273.62
471.12	278.62
471.339	294.62
471.558	299.62
471.777	374.62
471.997	525.62
472.216	1052.62
472.435	1589.62
472.654	936.62
472.873	555.62
473.092	411.62
473.311	388.62
473.53	333.62
473.749	325.62
473.968	313.62
474.187	300.62
474.406	295.62
474.625	284.62
474.844	262.62
475.063	258.62
475.282	258.62
475.501	276.62
475.72	263.62
475.939	272.62
476.158	250.62
476.377	276.62
476.596	273.62
476.814	254.62
477.033	276.62
477.252	277.62
477.471	268.62
477.69	263.62
477.908	263.62
478.127	252.62
478.346	290.62
478.564	274.62
478.783	270.62
479.002	306.62
479.22	312.62
479.439	305.62
479.658	319.62
479.876	344.62
480.095	348.62
480.313	380.62
480.532	430.62
480.751	598.62
480.969	1164.62
481.188	2512.62
481.406	2027.62
481.624	1000.62
481.843	676.62
482.061	511.62
482.28	467.62
482.498	408.62
482.717	395.62
482.935	377.62
483.153	374.62
483.372	346.62
483.59	333.62
483.808	332.62
484.027	308.62
484.245	312.62
484.463	299.62
484.681	312.62
484.9	298.62
485.118	308.62
485.336	306.62
485.554	300.62
485.772	299.62
485.99	280.62
486.209	298.62
486.427	295.62
486.645	311.62
486.863	307.62
487.081	300.62
487.299	297.62
487.517	299.62
487.735	283.62
487.953	299.62
488.171	309.62
488.389	315.62
488.607	307.62
488.825	323.62
489.043	310.62
489.261	325.62
489.479	318.62
489.696	325.62
489.914	334.62
490.132	324.62
490.35	359.62
490.568	370.62
490.786	389.62
491.003	398.62
491.221	439.62
491.439	426.62
491.657	476.62
491.874	460.62
492.092	474.62
492.31	500.62
492.527	500.62
492.745	530.62
492.963	507.62
493.18	476.62
493.398	481.62
493.615	468.62
493.833	440.62
494.05	413.62
494.268	404.62
494.485	410.62
494.703	387.62
494.92	386.62
495.138	381.62
495.355	379.62
495.573	369.62
495.79	342.62
496.008	344.62
496.225	345.62
496.442	350.62
496.66	362.62
496.877	343.62
497.094	354.62
497.312	339.62
497.529	346.62
497.746	330.62
497.963	344.62
498.181	352.62
498.398	362.62
498.615	340.62
498.832	364.62
499.049	373.62
499.267	380.62
499.484	394.62
499.701	439.62
499.918	419.62
500.135	434.62
500.352	464.62
500.569	502.62
500.786	543.62
501.003	477.62
501.22	453.62
501.437	407.62
501.654	372.62
501.871	383.62
502.088	365.62
502.305	349.62
502.522	334.62
502.739	347.62
502.956	337.62
503.172	322.62
503.389	323.62
