Data from StdC_HRD10591_046.txt Node
Date: Fri May 16 15:29:03 EDT 2025
User: Yrep
Spectrometer: HR+D1059
Trigger mode: 1
Integration Time (sec): 1.000000E-1
Scans to average: 1
Electric dark correction enabled: true
Nonlinearity correction enabled: false
Boxcar width: 0
XAxis mode: Wavelengths
Number of Pixels in Spectrum: 2048
>>>>>Begin Spectral Data<<<<<
223.165	-12.94
223.4	-12.94
223.635	-12.94
223.869	-15.94
224.104	-20.94
224.338	-15.94
224.573	-12.94
224.808	-15.94
225.042	-10.94
225.277	-2.94
225.511	-1.94
225.746	4.06
225.98	4.06
226.215	-1.94
226.449	15.06
226.683	25.06
226.918	25.06
227.152	39.06
227.387	45.06
227.621	30.06
227.856	32.06
228.09	40.06
228.324	52.06
228.559	60.06
228.793	49.06
229.027	64.06
229.262	70.06
229.496	80.06
229.73	59.06
229.964	71.06
230.199	74.06
230.433	62.06
230.667	80.06
230.901	86.06
231.136	89.06
231.37	87.06
231.604	87.06
231.838	90.06
232.072	88.06
232.306	88.06
232.541	96.06
232.775	84.06
233.009	86.06
233.243	75.06
233.477	80.06
233.711	91.06
233.945	96.06
234.179	89.06
234.413	92.06
234.647	86.06
234.881	89.06
235.115	87.06
235.349	98.06
235.583	87.06
235.817	62.06
236.051	98.06
236.285	85.06
236.519	93.06
236.753	94.06
236.987	87.06
237.221	91.06
237.455	93.06
237.689	85.06
237.922	78.06
238.156	90.06
238.39	82.06
238.624	84.06
238.858	86.06
239.091	85.06
239.325	81.06
239.559	83.06
239.793	91.06
240.027	79.06
240.26	91.06
240.494	79.06
240.728	82.06
240.961	81.06
241.195	104.06
241.429	103.06
241.662	93.06
241.896	86.06
242.13	88.06
242.363	98.06
242.597	86.06
242.83	96.06
243.064	104.06
243.298	100.06
243.531	91.06
243.765	110.06
243.998	106.06
244.232	94.06
244.465	103.06
244.699	90.06
244.932	117.06
245.166	104.06
245.399	89.06
245.633	100.06
245.866	94.06
246.099	93.06
246.333	103.06
246.566	100.06
246.8	107.06
247.033	107.06
247.266	100.06
247.5	84.06
247.733	111.06
247.966	91.06
248.2	104.06
248.433	90.06
248.666	124.06
248.899	102.06
249.133	105.06
249.366	103.06
249.599	112.06
249.832	111.06
250.066	149.06
250.299	170.06
250.532	210.06
250.765	191.06
250.998	142.06
251.231	140.06
251.465	135.06
251.698	132.06
251.931	115.06
252.164	121.06
252.397	122.06
252.63	117.06
252.863	118.06
253.096	119.06
253.329	118.06
253.562	125.06
253.795	117.06
254.028	132.06
254.261	119.06
254.494	115.06
254.727	140.06
254.96	109.06
255.193	135.06
255.426	136.06
255.659	175.06
255.892	259.06
256.124	308.06
256.357	264.06
256.59	207.06
256.823	162.06
257.056	156.06
257.289	156.06
257.521	154.06
257.754	138.06
257.987	124.06
258.22	150.06
258.452	140.06
258.685	136.06
258.918	144.06
259.151	130.06
259.383	126.06
259.616	135.06
259.849	126.06
260.081	135.06
260.314	140.06
260.547	125.06
260.779	133.06
261.012	150.06
261.244	144.06
261.477	133.06
261.71	135.06
261.942	119.06
262.175	134.06
262.407	125.06
262.64	127.06
262.872	134.06
263.105	133.06
263.337	136.06
263.57	117.06
263.802	134.06
264.035	138.06
264.267	124.06
264.499	129.06
264.732	136.06
264.964	127.06
265.197	123.06
265.429	127.06
265.661	126.06
265.894	133.06
266.126	122.06
266.358	125.06
266.591	126.06
266.823	129.06
267.055	128.06
267.287	126.06
267.52	135.06
267.752	133.06
267.984	123.06
268.216	139.06
268.448	152.06
268.681	144.06
268.913	132.06
269.145	131.06
269.377	115.06
269.609	122.06
269.841	132.06
270.073	144.06
270.306	140.06
270.538	128.06
270.77	137.06
271.002	148.06
271.234	130.06
271.466	143.06
271.698	145.06
271.93	141.06
272.162	136.06
272.394	153.06
272.626	128.06
272.858	146.06
273.09	140.06
273.322	150.06
273.553	139.06
273.785	142.06
274.017	142.06
274.249	157.06
274.481	157.06
274.713	142.06
274.945	154.06
275.176	152.06
275.408	159.06
275.64	175.06
275.872	178.06
276.104	186.06
276.335	180.06
276.567	175.06
276.799	193.06
277.031	223.06
277.262	228.06
277.494	228.06
277.726	201.06
277.957	191.06
278.189	168.06
278.421	174.06
278.652	187.06
278.884	164.06
279.115	184.06
279.347	199.06
279.579	176.06
279.81	228.06
280.042	255.06
280.273	264.06
280.505	250.06
280.736	211.06
280.968	183.06
281.199	181.06
281.431	170.06
281.662	165.06
281.894	160.06
282.125	170.06
282.356	155.06
282.588	146.06
282.819	175.06
283.051	165.06
283.282	157.06
283.513	162.06
283.745	143.06
283.976	156.06
284.207	162.06
284.439	154.06
284.67	166.06
284.901	150.06
285.132	171.06
285.364	150.06
285.595	148.06
285.826	156.06
286.057	146.06
286.288	163.06
286.52	150.06
286.751	152.06
286.982	154.06
287.213	155.06
287.444	152.06
287.675	176.06
287.906	157.06
288.138	181.06
288.369	143.06
288.6	151.06
288.831	146.06
289.062	172.06
289.293	154.06
289.524	152.06
289.755	150.06
289.986	150.06
290.217	146.06
290.448	143.06
290.679	140.06
290.91	143.06
291.141	153.06
291.371	136.06
291.602	144.06
291.833	171.06
292.064	142.06
292.295	168.06
292.526	153.06
292.757	150.06
292.987	150.06
293.218	144.06
293.449	167.06
293.68	150.06
293.91	156.06
294.141	158.06
294.372	138.06
294.603	149.06
294.833	134.06
295.064	177.06
295.295	165.06
295.525	145.06
295.756	151.06
295.987	164.06
296.217	158.06
296.448	153.06
296.679	156.06
296.909	159.06
297.14	160.06
297.37	166.06
297.601	166.06
297.831	153.06
298.062	157.06
298.292	162.06
298.523	145.06
298.753	150.06
298.984	156.06
299.214	152.06
299.445	156.06
299.675	152.06
299.905	163.06
300.136	154.06
300.366	152.06
300.597	166.06
300.827	153.06
301.057	174.06
301.288	158.06
301.518	157.06
301.748	157.06
301.979	183.06
302.209	161.06
302.439	154.06
302.669	157.06
302.9	187.06
303.13	180.06
303.36	187.06
303.59	182.06
303.82	212.06
304.051	187.06
304.281	182.06
304.511	161.06
304.741	161.06
304.971	150.06
305.201	153.06
305.431	165.06
305.661	175.06
305.891	164.06
306.121	173.06
306.352	159.06
306.582	170.06
306.812	188.06
307.042	196.06
307.272	227.06
307.502	235.06
307.731	224.06
307.961	208.06
308.191	175.06
308.421	166.06
308.651	178.06
308.881	163.06
309.111	170.06
309.341	166.06
309.571	163.06
309.8	178.06
310.03	154.06
310.26	177.06
310.49	178.06
310.72	169.06
310.949	173.06
311.179	166.06
311.409	177.06
311.639	171.06
311.868	174.06
312.098	164.06
312.328	180.06
312.557	172.06
312.787	181.06
313.017	180.06
313.246	182.06
313.476	173.06
313.706	175.06
313.935	174.06
314.165	160.06
314.394	160.06
314.624	171.06
314.853	166.06
315.083	181.06
315.312	171.06
315.542	174.06
315.771	176.06
316.001	176.06
316.23	179.06
316.46	169.06
316.689	163.06
316.919	167.06
317.148	187.06
317.377	172.06
317.607	157.06
317.836	190.06
318.065	182.06
318.295	193.06
318.524	167.06
318.753	183.06
318.983	186.06
319.212	186.06
319.441	190.06
319.67	164.06
319.9	171.06
320.129	197.06
320.358	165.06
320.587	187.06
320.816	182.06
321.046	182.06
321.275	183.06
321.504	181.06
321.733	184.06
321.962	197.06
322.191	189.06
322.42	188.06
322.649	205.06
322.878	213.06
323.108	208.06
323.337	205.06
323.566	221.06
323.795	207.06
324.024	223.06
324.253	203.06
324.482	224.06
324.71	225.06
324.939	224.06
325.168	226.06
325.397	229.06
325.626	221.06
325.855	231.06
326.084	234.06
326.313	252.06
326.542	253.06
326.77	265.06
326.999	265.06
327.228	283.06
327.457	333.06
327.686	394.06
327.914	551.06
328.143	703.06
328.372	763.06
328.6	523.06
328.829	394.06
329.058	372.06
329.287	414.06
329.515	505.06
329.744	656.06
329.972	955.06
330.201	1318.06
330.43	1319.06
330.658	772.06
330.887	464.06
331.115	386.06
331.344	346.06
331.572	327.06
331.801	318.06
332.03	318.06
332.258	313.06
332.486	331.06
332.715	351.06
332.943	363.06
333.172	390.06
333.4	438.06
333.629	511.06
333.857	698.06
334.085	1052.06
334.314	1493.06
334.542	1845.06
334.771	1473.06
334.999	768.06
335.227	496.06
335.455	412.06
335.684	356.06
335.912	327.06
336.14	286.06
336.369	277.06
336.597	274.06
336.825	263.06
337.053	251.06
337.281	244.06
337.51	229.06
337.738	231.06
337.966	216.06
338.194	234.06
338.422	226.06
338.65	221.06
338.878	203.06
339.106	219.06
339.334	210.06
339.562	189.06
339.79	201.06
340.018	228.06
340.246	204.06
340.474	191.06
340.702	206.06
340.93	204.06
341.158	205.06
341.386	188.06
341.614	199.06
341.842	193.06
342.07	198.06
342.298	196.06
342.526	188.06
342.754	187.06
342.981	191.06
343.209	203.06
343.437	220.06
343.665	198.06
343.893	201.06
344.12	188.06
344.348	202.06
344.576	180.06
344.804	200.06
345.031	199.06
345.259	189.06
345.487	207.06
345.714	166.06
345.942	179.06
346.17	182.06
346.397	183.06
346.625	197.06
346.853	188.06
347.08	189.06
347.308	193.06
347.535	207.06
347.763	166.06
347.99	177.06
348.218	182.06
348.445	176.06
348.673	185.06
348.9	178.06
349.128	186.06
349.355	173.06
349.583	189.06
349.81	181.06
350.037	183.06
350.265	177.06
350.492	173.06
350.72	183.06
350.947	175.06
351.174	187.06
351.402	173.06
351.629	180.06
351.856	163.06
352.083	179.06
352.311	190.06
352.538	182.06
352.765	201.06
352.992	187.06
353.22	179.06
353.447	182.06
353.674	187.06
353.901	176.06
354.128	182.06
354.355	179.06
354.583	186.06
354.81	182.06
355.037	181.06
355.264	198.06
355.491	192.06
355.718	198.06
355.945	182.06
356.172	180.06
356.399	183.06
356.626	179.06
356.853	173.06
357.08	182.06
357.307	167.06
357.534	167.06
357.761	178.06
357.988	183.06
358.215	182.06
358.441	172.06
358.668	189.06
358.895	176.06
359.122	170.06
359.349	172.06
359.576	177.06
359.802	164.06
360.029	177.06
360.256	178.06
360.483	175.06
360.709	174.06
360.936	173.06
361.163	182.06
361.39	181.06
361.616	165.06
361.843	167.06
362.07	159.06
362.296	162.06
362.523	151.06
362.749	161.06
362.976	178.06
363.203	183.06
363.429	180.06
363.656	168.06
363.882	171.06
364.109	191.06
364.335	171.06
364.562	187.06
364.788	175.06
365.015	191.06
365.241	179.06
365.468	171.06
365.694	179.06
365.92	178.06
366.147	191.06
366.373	179.06
366.599	160.06
366.826	178.06
367.052	182.06
367.278	181.06
367.505	157.06
367.731	184.06
367.957	173.06
368.184	193.06
368.41	176.06
368.636	185.06
368.862	170.06
369.089	180.06
369.315	182.06
369.541	173.06
369.767	178.06
369.993	195.06
370.219	175.06
370.445	189.06
370.672	186.06
370.898	162.06
371.124	166.06
371.35	179.06
371.576	186.06
371.802	182.06
372.028	176.06
372.254	181.06
372.48	182.06
372.706	191.06
372.932	182.06
373.158	195.06
373.384	187.06
373.61	168.06
373.835	206.06
374.061	184.06
374.287	184.06
374.513	191.06
374.739	190.06
374.965	188.06
375.191	194.06
375.416	186.06
375.642	191.06
375.868	175.06
376.094	180.06
376.319	173.06
376.545	168.06
376.771	179.06
376.997	186.06
377.222	183.06
377.448	180.06
377.674	173.06
377.899	190.06
378.125	189.06
378.35	192.06
378.576	170.06
378.802	179.06
379.027	180.06
379.253	192.06
379.478	179.06
379.704	179.06
379.929	183.06
380.155	196.06
380.38	180.06
380.606	185.06
380.831	173.06
381.057	186.06
381.282	180.06
381.507	181.06
381.733	187.06
381.958	198.06
382.184	188.06
382.409	199.06
382.634	207.06
382.86	197.06
383.085	183.06
383.31	214.06
383.535	202.06
383.761	204.06
383.986	197.06
384.211	192.06
384.436	211.06
384.662	196.06
384.887	184.06
385.112	215.06
385.337	206.06
385.562	194.06
385.787	218.06
386.013	206.06
386.238	206.06
386.463	199.06
386.688	210.06
386.913	195.06
387.138	185.06
387.363	216.06
387.588	198.06
387.813	190.06
388.038	202.06
388.263	211.06
388.488	217.06
388.713	198.06
388.938	197.06
389.163	204.06
389.387	184.06
389.612	202.06
389.837	201.06
390.062	217.06
390.287	199.06
390.512	209.06
390.736	210.06
390.961	206.06
391.186	208.06
391.411	202.06
391.636	207.06
391.86	215.06
392.085	210.06
392.31	203.06
392.534	207.06
392.759	208.06
392.984	213.06
393.208	207.06
393.433	209.06
393.658	206.06
393.882	212.06
394.107	201.06
394.331	205.06
394.556	202.06
394.78	195.06
395.005	204.06
395.229	205.06
395.454	229.06
395.678	224.06
395.903	220.06
396.127	234.06
396.352	203.06
396.576	206.06
396.801	227.06
397.025	198.06
397.249	226.06
397.474	219.06
397.698	214.06
397.922	216.06
398.147	204.06
398.371	218.06
398.595	234.06
398.82	247.06
399.044	243.06
399.268	262.06
399.492	264.06
399.717	282.06
399.941	254.06
400.165	256.06
400.389	264.06
400.613	245.06
400.837	236.06
401.062	246.06
401.286	236.06
401.51	230.06
401.734	229.06
401.958	237.06
402.182	235.06
402.406	215.06
402.63	226.06
402.854	242.06
403.078	254.06
403.302	247.06
403.526	236.06
403.75	248.06
403.974	247.06
404.198	260.06
404.422	262.06
404.645	260.06
404.869	288.06
405.093	304.06
405.317	302.06
405.541	314.06
405.765	292.06
405.988	263.06
406.212	269.06
406.436	262.06
406.66	264.06
406.883	246.06
407.107	243.06
407.331	252.06
407.555	272.06
407.778	263.06
408.002	254.06
408.226	269.06
408.449	246.06
408.673	251.06
408.896	256.06
409.12	246.06
409.344	244.06
409.567	253.06
409.791	242.06
410.014	242.06
410.238	242.06
410.461	245.06
410.685	245.06
410.908	244.06
411.132	244.06
411.355	246.06
411.578	242.06
411.802	266.06
412.025	270.06
412.249	294.06
412.472	312.06
412.695	329.06
412.919	323.06
413.142	298.06
413.365	287.06
413.589	262.06
413.812	260.06
414.035	243.06
414.258	264.06
414.482	238.06
414.705	242.06
414.928	245.06
415.151	240.06
415.374	259.06
415.597	235.06
415.821	236.06
416.044	239.06
416.267	252.06
416.49	239.06
416.713	237.06
416.936	232.06
417.159	263.06
417.382	271.06
417.605	267.06
417.828	267.06
418.051	240.06
418.274	249.06
418.497	246.06
418.72	246.06
418.943	266.06
419.166	256.06
419.389	273.06
419.611	271.06
419.834	282.06
420.057	298.06
420.28	295.06
420.503	294.06
420.726	284.06
420.948	272.06
421.171	250.06
421.394	267.06
421.617	251.06
421.839	249.06
422.062	235.06
422.285	242.06
422.507	238.06
422.73	244.06
422.953	238.06
423.175	255.06
423.398	231.06
423.621	256.06
423.843	237.06
424.066	231.06
424.288	231.06
424.511	245.06
424.733	243.06
424.956	231.06
425.178	232.06
425.401	225.06
425.623	237.06
425.846	245.06
426.068	235.06
426.291	232.06
426.513	209.06
426.735	228.06
426.958	235.06
427.18	247.06
427.402	261.06
427.625	273.06
427.847	302.06
428.069	342.06
428.292	264.06
428.514	258.06
428.736	249.06
428.958	236.06
429.181	244.06
429.403	231.06
429.625	226.06
429.847	230.06
430.069	222.06
430.292	251.06
430.514	228.06
430.736	226.06
430.958	226.06
431.18	233.06
431.402	244.06
431.624	226.06
431.846	222.06
432.068	211.06
432.29	216.06
432.512	222.06
432.734	219.06
432.956	222.06
433.178	231.06
433.4	216.06
433.622	220.06
433.844	228.06
434.066	211.06
434.287	226.06
434.509	238.06
434.731	227.06
434.953	214.06
435.175	215.06
435.397	207.06
435.618	227.06
435.84	210.06
436.062	204.06
436.284	224.06
436.505	219.06
436.727	218.06
436.949	226.06
437.17	219.06
437.392	206.06
437.614	206.06
437.835	224.06
438.057	221.06
438.278	208.06
438.5	201.06
438.721	215.06
438.943	214.06
439.165	204.06
439.386	216.06
439.608	215.06
439.829	218.06
440.05	218.06
440.272	228.06
440.493	218.06
440.715	223.06
440.936	213.06
441.158	231.06
441.379	229.06
441.6	223.06
441.822	221.06
442.043	238.06
442.264	234.06
442.486	215.06
442.707	224.06
442.928	229.06
443.149	237.06
443.371	232.06
443.592	227.06
443.813	234.06
444.034	227.06
444.255	239.06
444.476	242.06
444.698	249.06
444.919	232.06
445.14	330.06
445.361	271.06
445.582	221.06
445.803	224.06
446.024	242.06
446.245	231.06
446.466	222.06
446.687	220.06
446.908	225.06
447.129	233.06
447.35	229.06
447.571	202.06
447.792	206.06
448.013	208.06
448.234	209.06
448.455	210.06
448.675	203.06
448.896	202.06
449.117	227.06
449.338	202.06
449.559	200.06
449.779	202.06
450	213.06
450.221	215.06
450.442	202.06
450.662	214.06
450.883	207.06
451.104	198.06
451.324	205.06
451.545	197.06
451.766	216.06
451.986	199.06
452.207	201.06
452.428	208.06
452.648	205.06
452.869	193.06
453.089	201.06
453.31	209.06
453.53	192.06
453.751	195.06
453.971	204.06
454.192	205.06
454.412	192.06
454.633	207.06
454.853	208.06
455.073	172.06
455.294	193.06
455.514	201.06
455.734	212.06
455.955	196.06
456.175	191.06
456.395	181.06
456.616	199.06
456.836	202.06
457.056	211.06
457.276	189.06
457.497	205.06
457.717	210.06
457.937	200.06
458.157	201.06
458.377	213.06
458.598	188.06
458.818	188.06
459.038	204.06
459.258	235.06
459.478	211.06
459.698	219.06
459.918	223.06
460.138	221.06
460.358	236.06
460.578	224.06
460.798	229.06
461.018	249.06
461.238	238.06
461.458	222.06
461.678	245.06
461.898	232.06
462.118	228.06
462.338	245.06
462.558	245.06
462.777	257.06
462.997	261.06
463.217	262.06
463.437	252.06
463.657	260.06
463.876	255.06
464.096	239.06
464.316	261.06
464.536	245.06
464.755	254.06
464.975	249.06
465.195	259.06
465.414	236.06
465.634	231.06
465.854	221.06
466.073	234.06
466.293	240.06
466.512	242.06
466.732	246.06
466.951	240.06
467.171	246.06
467.391	243.06
467.61	276.06
467.829	355.06
468.049	671.06
468.268	812.06
468.488	466.06
468.707	346.06
468.927	306.06
469.146	287.06
469.365	272.06
469.585	256.06
469.804	254.06
470.023	269.06
470.243	274.06
470.462	275.06
470.681	259.06
470.901	262.06
471.12	261.06
471.339	281.06
471.558	310.06
471.777	334.06
471.997	525.06
472.216	1117.06
472.435	1687.06
472.654	936.06
472.873	559.06
473.092	431.06
473.311	366.06
473.53	347.06
473.749	320.06
473.968	307.06
474.187	283.06
474.406	269.06
474.625	275.06
474.844	272.06
475.063	253.06
475.282	274.06
475.501	253.06
475.72	244.06
475.939	252.06
476.158	250.06
476.377	258.06
476.596	260.06
476.814	254.06
477.033	249.06
477.252	252.06
477.471	261.06
477.69	270.06
477.908	271.06
478.127	280.06
478.346	259.06
478.564	264.06
478.783	286.06
479.002	281.06
479.22	279.06
479.439	272.06
479.658	305.06
479.876	334.06
480.095	340.06
480.313	392.06
480.532	427.06
480.751	600.06
480.969	1220.06
481.188	2678.06
481.406	2189.06
481.624	1043.06
481.843	683.06
482.061	552.06
482.28	461.06
482.498	438.06
482.717	371.06
482.935	357.06
483.153	358.06
483.372	329.06
483.59	340.06
483.808	319.06
484.027	313.06
484.245	323.06
484.463	306.06
484.681	319.06
484.9	304.06
485.118	296.06
485.336	277.06
485.554	280.06
485.772	275.06
485.99	285.06
486.209	270.06
486.427	281.06
486.645	278.06
486.863	292.06
487.081	276.06
487.299	280.06
487.517	302.06
487.735	298.06
487.953	306.06
488.171	302.06
488.389	293.06
488.607	291.06
488.825	292.06
489.043	310.06
489.261	307.06
489.479	324.06
489.696	317.06
489.914	341.06
490.132	335.06
490.35	349.06
490.568	364.06
490.786	364.06
491.003	398.06
491.221	434.06
491.439	454.06
491.657	476.06
491.874	469.06
492.092	482.06
492.31	491.06
492.527	548.06
492.745	538.06
492.963	532.06
493.18	478.06
493.398	462.06
493.615	446.06
493.833	425.06
494.05	429.06
494.268	378.06
494.485	386.06
494.703	380.06
494.92	384.06
495.138	371.06
495.355	353.06
495.573	339.06
495.79	364.06
496.008	365.06
496.225	366.06
496.442	336.06
496.66	339.06
496.877	349.06
497.094	360.06
497.312	352.06
497.529	339.06
497.746	334.06
497.963	327.06
498.181	342.06
498.398	354.06
498.615	360.06
498.832	347.06
499.049	368.06
499.267	383.06
499.484	394.06
499.701	401.06
499.918	404.06
500.135	435.06
500.352	486.06
500.569	494.06
500.786	502.06
501.003	463.06
501.22	437.06
501.437	394.06
501.654	366.06
501.871	371.06
502.088	342.06
502.305	358.06
502.522	326.06
502.739	344.06
502.956	306.06
503.172	314.06
503.389	305.06
