Data from StdC_HRD10591_095.txt Node
Date: Fri May 16 15:29:28 EDT 2025
User: Yrep
Spectrometer: HR+D1059
Trigger mode: 1
Integration Time (sec): 1.000000E-1
Scans to average: 1
Electric dark correction enabled: true
Nonlinearity correction enabled: false
Boxcar width: 0
XAxis mode: Wavelengths
Number of Pixels in Spectrum: 2048
>>>>>Begin Spectral Data<<<<<
223.165	-3.56
223.4	-3.56
223.635	-3.56
223.869	-16.56
224.104	-11.56
224.338	-15.56
224.573	-18.56
224.808	-17.56
225.042	-14.56
225.277	-5.56
225.511	0.44
225.746	3.44
225.98	10.44
226.215	-1.56
226.449	5.44
226.683	19.44
226.918	26.44
227.152	39.44
227.387	40.44
227.621	41.44
227.856	44.44
228.09	48.44
228.324	43.44
228.559	60.44
228.793	56.44
229.027	60.44
229.262	70.44
229.496	87.44
229.73	89.44
229.964	72.44
230.199	73.44
230.433	81.44
230.667	78.44
230.901	82.44
231.136	76.44
231.37	88.44
231.604	90.44
231.838	84.44
232.072	81.44
232.306	95.44
232.541	79.44
232.775	88.44
233.009	102.44
233.243	78.44
233.477	97.44
233.711	81.44
233.945	77.44
234.179	86.44
234.413	84.44
234.647	81.44
234.881	93.44
235.115	86.44
235.349	87.44
235.583	82.44
235.817	97.44
236.051	91.44
236.285	88.44
236.519	97.44
236.753	95.44
236.987	87.44
237.221	91.44
237.455	70.44
237.689	93.44
237.922	86.44
238.156	78.44
238.39	89.44
238.624	85.44
238.858	82.44
239.091	82.44
239.325	92.44
239.559	80.44
239.793	78.44
240.027	108.44
240.26	96.44
240.494	86.44
240.728	89.44
240.961	78.44
241.195	92.44
241.429	100.44
241.662	94.44
241.896	93.44
242.13	85.44
242.363	105.44
242.597	97.44
242.83	95.44
243.064	90.44
243.298	111.44
243.531	104.44
243.765	103.44
243.998	98.44
244.232	95.44
244.465	108.44
244.699	96.44
244.932	116.44
245.166	97.44
245.399	97.44
245.633	101.44
245.866	94.44
246.099	103.44
246.333	108.44
246.566	112.44
246.8	110.44
247.033	103.44
247.266	104.44
247.5	111.44
247.733	110.44
247.966	91.44
248.2	113.44
248.433	124.44
248.666	108.44
248.899	103.44
249.133	126.44
249.366	116.44
249.599	127.44
249.832	133.44
250.066	153.44
250.299	168.44
250.532	185.44
250.765	185.44
250.998	143.44
251.231	136.44
251.465	138.44
251.698	126.44
251.931	119.44
252.164	123.44
252.397	118.44
252.63	130.44
252.863	117.44
253.096	134.44
253.329	111.44
253.562	128.44
253.795	136.44
254.028	108.44
254.261	119.44
254.494	134.44
254.727	126.44
254.96	129.44
255.193	144.44
255.426	166.44
255.659	190.44
255.892	249.44
256.124	297.44
256.357	235.44
256.59	202.44
256.823	169.44
257.056	165.44
257.289	136.44
257.521	151.44
257.754	150.44
257.987	133.44
258.22	137.44
258.452	149.44
258.685	136.44
258.918	141.44
259.151	136.44
259.383	124.44
259.616	125.44
259.849	142.44
260.081	126.44
260.314	133.44
260.547	126.44
260.779	136.44
261.012	138.44
261.244	141.44
261.477	137.44
261.71	135.44
261.942	141.44
262.175	129.44
262.407	126.44
262.64	126.44
262.872	130.44
263.105	131.44
263.337	128.44
263.57	137.44
263.802	136.44
264.035	123.44
264.267	121.44
264.499	136.44
264.732	131.44
264.964	131.44
265.197	129.44
265.429	143.44
265.661	125.44
265.894	130.44
266.126	130.44
266.358	142.44
266.591	127.44
266.823	137.44
267.055	134.44
267.287	137.44
267.52	134.44
267.752	128.44
267.984	132.44
268.216	121.44
268.448	141.44
268.681	130.44
268.913	120.44
269.145	126.44
269.377	134.44
269.609	125.44
269.841	131.44
270.073	135.44
270.306	135.44
270.538	127.44
270.77	133.44
271.002	146.44
271.234	149.44
271.466	141.44
271.698	144.44
271.93	143.44
272.162	141.44
272.394	154.44
272.626	158.44
272.858	152.44
273.09	157.44
273.322	151.44
273.553	155.44
273.785	156.44
274.017	148.44
274.249	159.44
274.481	140.44
274.713	151.44
274.945	153.44
275.176	168.44
275.408	161.44
275.64	193.44
275.872	183.44
276.104	189.44
276.335	175.44
276.567	181.44
276.799	185.44
277.031	222.44
277.262	219.44
277.494	227.44
277.726	216.44
277.957	179.44
278.189	182.44
278.421	181.44
278.652	198.44
278.884	182.44
279.115	161.44
279.347	186.44
279.579	210.44
279.81	223.44
280.042	258.44
280.273	280.44
280.505	271.44
280.736	225.44
280.968	193.44
281.199	179.44
281.431	173.44
281.662	165.44
281.894	169.44
282.125	174.44
282.356	168.44
282.588	172.44
282.819	179.44
283.051	167.44
283.282	159.44
283.513	174.44
283.745	146.44
283.976	152.44
284.207	158.44
284.439	159.44
284.67	156.44
284.901	160.44
285.132	144.44
285.364	162.44
285.595	145.44
285.826	159.44
286.057	164.44
286.288	151.44
286.52	161.44
286.751	143.44
286.982	151.44
287.213	164.44
287.444	175.44
287.675	180.44
287.906	153.44
288.138	162.44
288.369	157.44
288.6	148.44
288.831	161.44
289.062	170.44
289.293	151.44
289.524	160.44
289.755	177.44
289.986	154.44
290.217	161.44
290.448	158.44
290.679	167.44
290.91	175.44
291.141	150.44
291.371	162.44
291.602	160.44
291.833	153.44
292.064	157.44
292.295	153.44
292.526	171.44
292.757	166.44
292.987	172.44
293.218	165.44
293.449	155.44
293.68	162.44
293.91	148.44
294.141	152.44
294.372	154.44
294.603	148.44
294.833	149.44
295.064	169.44
295.295	157.44
295.525	136.44
295.756	142.44
295.987	156.44
296.217	157.44
296.448	153.44
296.679	153.44
296.909	175.44
297.14	158.44
297.37	162.44
297.601	167.44
297.831	138.44
298.062	152.44
298.292	161.44
298.523	183.44
298.753	164.44
298.984	159.44
299.214	164.44
299.445	164.44
299.675	165.44
299.905	171.44
300.136	165.44
300.366	164.44
300.597	173.44
300.827	176.44
301.057	165.44
301.288	166.44
301.518	159.44
301.748	168.44
301.979	190.44
302.209	188.44
302.439	164.44
302.669	170.44
302.9	182.44
303.13	180.44
303.36	168.44
303.59	203.44
303.82	203.44
304.051	205.44
304.281	183.44
304.511	179.44
304.741	179.44
304.971	158.44
305.201	164.44
305.431	172.44
305.661	180.44
305.891	182.44
306.121	168.44
306.352	172.44
306.582	171.44
306.812	184.44
307.042	204.44
307.272	228.44
307.502	242.44
307.731	216.44
307.961	193.44
308.191	187.44
308.421	184.44
308.651	182.44
308.881	169.44
309.111	177.44
309.341	191.44
309.571	182.44
309.8	183.44
310.03	175.44
310.26	181.44
310.49	160.44
310.72	182.44
310.949	180.44
311.179	177.44
311.409	164.44
311.639	163.44
311.868	172.44
312.098	182.44
312.328	169.44
312.557	182.44
312.787	164.44
313.017	173.44
313.246	176.44
313.476	176.44
313.706	176.44
313.935	196.44
314.165	170.44
314.394	157.44
314.624	173.44
314.853	193.44
315.083	191.44
315.312	185.44
315.542	188.44
315.771	202.44
316.001	173.44
316.23	180.44
316.46	182.44
316.689	192.44
316.919	183.44
317.148	172.44
317.377	175.44
317.607	193.44
317.836	185.44
318.065	167.44
318.295	189.44
318.524	187.44
318.753	183.44
318.983	199.44
319.212	190.44
319.441	202.44
319.67	187.44
319.9	193.44
320.129	192.44
320.358	194.44
320.587	193.44
320.816	173.44
321.046	190.44
321.275	201.44
321.504	197.44
321.733	192.44
321.962	195.44
322.191	190.44
322.42	178.44
322.649	185.44
322.878	214.44
323.108	222.44
323.337	214.44
323.566	225.44
323.795	214.44
324.024	224.44
324.253	215.44
324.482	230.44
324.71	224.44
324.939	216.44
325.168	240.44
325.397	241.44
325.626	236.44
325.855	239.44
326.084	246.44
326.313	255.44
326.542	266.44
326.77	261.44
326.999	292.44
327.228	295.44
327.457	358.44
327.686	424.44
327.914	570.44
328.143	743.44
328.372	784.44
328.6	546.44
328.829	407.44
329.058	377.44
329.287	435.44
329.515	495.44
329.744	718.44
329.972	1029.44
330.201	1386.44
330.43	1400.44
330.658	796.44
330.887	487.44
331.115	396.44
331.344	340.44
331.572	327.44
331.801	330.44
332.03	330.44
332.258	334.44
332.486	348.44
332.715	346.44
332.943	368.44
333.172	394.44
333.4	444.44
333.629	579.44
333.857	728.44
334.085	1089.44
334.314	1592.44
334.542	1975.44
334.771	1549.44
334.999	789.44
335.227	526.44
335.455	416.44
335.684	373.44
335.912	332.44
336.14	312.44
336.369	276.44
336.597	263.44
336.825	270.44
337.053	271.44
337.281	237.44
337.51	266.44
337.738	237.44
337.966	237.44
338.194	244.44
338.422	210.44
338.65	244.44
338.878	228.44
339.106	201.44
339.334	224.44
339.562	235.44
339.79	202.44
340.018	197.44
340.246	212.44
340.474	192.44
340.702	202.44
340.93	200.44
341.158	195.44
341.386	218.44
341.614	189.44
341.842	198.44
342.07	204.44
342.298	205.44
342.526	192.44
342.754	205.44
342.981	190.44
343.209	192.44
343.437	191.44
343.665	206.44
343.893	201.44
344.12	197.44
344.348	209.44
344.576	193.44
344.804	196.44
345.031	193.44
345.259	210.44
345.487	202.44
345.714	198.44
345.942	187.44
346.17	194.44
346.397	193.44
346.625	182.44
346.853	191.44
347.08	196.44
347.308	183.44
347.535	205.44
347.763	194.44
347.99	175.44
348.218	181.44
348.445	181.44
348.673	170.44
348.9	190.44
349.128	188.44
349.355	192.44
349.583	184.44
349.81	188.44
350.037	176.44
350.265	177.44
350.492	206.44
350.72	189.44
350.947	200.44
351.174	182.44
351.402	182.44
351.629	177.44
351.856	201.44
352.083	183.44
352.311	175.44
352.538	188.44
352.765	195.44
352.992	197.44
353.22	196.44
353.447	180.44
353.674	180.44
353.901	184.44
354.128	182.44
354.355	169.44
354.583	173.44
354.81	180.44
355.037	183.44
355.264	188.44
355.491	182.44
355.718	185.44
355.945	186.44
356.172	182.44
356.399	201.44
356.626	188.44
356.853	190.44
357.08	181.44
357.307	168.44
357.534	169.44
357.761	184.44
357.988	187.44
358.215	185.44
358.441	178.44
358.668	171.44
358.895	184.44
359.122	178.44
359.349	172.44
359.576	172.44
359.802	169.44
360.029	177.44
360.256	174.44
360.483	182.44
360.709	179.44
360.936	173.44
361.163	182.44
361.39	182.44
361.616	188.44
361.843	195.44
362.07	179.44
362.296	168.44
362.523	176.44
362.749	169.44
362.976	185.44
363.203	197.44
363.429	173.44
363.656	175.44
363.882	182.44
364.109	189.44
364.335	194.44
364.562	185.44
364.788	183.44
365.015	181.44
365.241	177.44
365.468	206.44
365.694	202.44
365.92	180.44
366.147	171.44
366.373	173.44
366.599	170.44
366.826	171.44
367.052	184.44
367.278	188.44
367.505	198.44
367.731	190.44
367.957	188.44
368.184	178.44
368.41	172.44
368.636	186.44
368.862	176.44
369.089	194.44
369.315	196.44
369.541	183.44
369.767	180.44
369.993	196.44
370.219	182.44
370.445	178.44
370.672	180.44
370.898	174.44
371.124	186.44
371.35	181.44
371.576	180.44
371.802	193.44
372.028	182.44
372.254	190.44
372.48	182.44
372.706	192.44
372.932	191.44
373.158	192.44
373.384	191.44
373.61	185.44
373.835	185.44
374.061	178.44
374.287	170.44
374.513	172.44
374.739	181.44
374.965	183.44
375.191	188.44
375.416	194.44
375.642	202.44
375.868	186.44
376.094	189.44
376.319	193.44
376.545	186.44
376.771	193.44
376.997	191.44
377.222	188.44
377.448	169.44
377.674	189.44
377.899	196.44
378.125	189.44
378.35	185.44
378.576	195.44
378.802	176.44
379.027	189.44
379.253	185.44
379.478	193.44
379.704	184.44
379.929	192.44
380.155	195.44
380.38	180.44
380.606	190.44
380.831	192.44
381.057	182.44
381.282	176.44
381.507	191.44
381.733	206.44
381.958	206.44
382.184	197.44
382.409	197.44
382.634	225.44
382.86	196.44
383.085	196.44
383.31	210.44
383.535	201.44
383.761	203.44
383.986	197.44
384.211	201.44
384.436	199.44
384.662	212.44
384.887	195.44
385.112	199.44
385.337	187.44
385.562	222.44
385.787	204.44
386.013	207.44
386.238	208.44
386.463	207.44
386.688	214.44
386.913	210.44
387.138	212.44
387.363	205.44
387.588	210.44
387.813	212.44
388.038	218.44
388.263	197.44
388.488	200.44
388.713	222.44
388.938	209.44
389.163	203.44
389.387	215.44
389.612	204.44
389.837	209.44
390.062	207.44
390.287	237.44
390.512	200.44
390.736	200.44
390.961	206.44
391.186	214.44
391.411	212.44
391.636	216.44
391.86	213.44
392.085	213.44
392.31	212.44
392.534	207.44
392.759	222.44
392.984	205.44
393.208	203.44
393.433	211.44
393.658	225.44
393.882	204.44
394.107	215.44
394.331	208.44
394.556	199.44
394.78	218.44
395.005	205.44
395.229	205.44
395.454	210.44
395.678	208.44
395.903	226.44
396.127	237.44
396.352	207.44
396.576	237.44
396.801	229.44
397.025	213.44
397.249	213.44
397.474	229.44
397.698	217.44
397.922	229.44
398.147	235.44
398.371	241.44
398.595	240.44
398.82	254.44
399.044	240.44
399.268	261.44
399.492	281.44
399.717	270.44
399.941	268.44
400.165	268.44
400.389	250.44
400.613	240.44
400.837	244.44
401.062	236.44
401.286	232.44
401.51	256.44
401.734	235.44
401.958	236.44
402.182	245.44
402.406	245.44
402.63	234.44
402.854	246.44
403.078	254.44
403.302	239.44
403.526	249.44
403.75	248.44
403.974	256.44
404.198	260.44
404.422	261.44
404.645	263.44
404.869	293.44
405.093	310.44
405.317	319.44
405.541	312.44
405.765	292.44
405.988	280.44
406.212	271.44
406.436	255.44
406.66	273.44
406.883	250.44
407.107	250.44
407.331	279.44
407.555	265.44
407.778	251.44
408.002	264.44
408.226	257.44
408.449	260.44
408.673	240.44
408.896	269.44
409.12	262.44
409.344	248.44
409.567	232.44
409.791	247.44
410.014	254.44
410.238	242.44
410.461	248.44
410.685	258.44
410.908	270.44
411.132	270.44
411.355	246.44
411.578	255.44
411.802	259.44
412.025	265.44
412.249	269.44
412.472	327.44
412.695	334.44
412.919	317.44
413.142	280.44
413.365	289.44
413.589	269.44
413.812	258.44
414.035	257.44
414.258	263.44
414.482	250.44
414.705	236.44
414.928	248.44
415.151	255.44
415.374	255.44
415.597	232.44
415.821	251.44
416.044	238.44
416.267	236.44
416.49	249.44
416.713	240.44
416.936	248.44
417.159	245.44
417.382	257.44
417.605	265.44
417.828	246.44
418.051	264.44
418.274	265.44
418.497	241.44
418.72	258.44
418.943	252.44
419.166	242.44
419.389	267.44
419.611	266.44
419.834	293.44
420.057	292.44
420.28	311.44
420.503	299.44
420.726	277.44
420.948	281.44
421.171	281.44
421.394	252.44
421.617	261.44
421.839	245.44
422.062	257.44
422.285	245.44
422.507	245.44
422.73	249.44
422.953	256.44
423.175	261.44
423.398	234.44
423.621	236.44
423.843	246.44
424.066	238.44
424.288	225.44
424.511	238.44
424.733	238.44
424.956	256.44
425.178	248.44
425.401	247.44
425.623	247.44
425.846	220.44
426.068	220.44
426.291	241.44
426.513	237.44
426.735	234.44
426.958	228.44
427.18	240.44
427.402	265.44
427.625	279.44
427.847	313.44
428.069	327.44
428.292	300.44
428.514	274.44
428.736	238.44
428.958	229.44
429.181	236.44
429.403	235.44
429.625	231.44
429.847	225.44
430.069	248.44
430.292	245.44
430.514	235.44
430.736	223.44
430.958	231.44
431.18	221.44
431.402	241.44
431.624	217.44
431.846	220.44
432.068	234.44
432.29	206.44
432.512	223.44
432.734	241.44
432.956	218.44
433.178	206.44
433.4	219.44
433.622	228.44
433.844	242.44
434.066	252.44
434.287	240.44
434.509	229.44
434.731	223.44
434.953	228.44
435.175	249.44
435.397	230.44
435.618	216.44
435.84	220.44
436.062	220.44
436.284	220.44
436.505	222.44
436.727	221.44
436.949	220.44
437.17	221.44
437.392	219.44
437.614	223.44
437.835	221.44
438.057	211.44
438.278	209.44
438.5	231.44
438.721	201.44
438.943	228.44
439.165	228.44
439.386	242.44
439.608	216.44
439.829	216.44
440.05	229.44
440.272	216.44
440.493	201.44
440.715	212.44
440.936	217.44
441.158	228.44
441.379	232.44
441.6	249.44
441.822	244.44
442.043	236.44
442.264	216.44
442.486	220.44
442.707	242.44
442.928	243.44
443.149	214.44
443.371	229.44
443.592	227.44
443.813	235.44
444.034	233.44
444.255	223.44
444.476	220.44
444.698	246.44
444.919	241.44
445.14	318.44
445.361	265.44
445.582	236.44
445.803	244.44
446.024	235.44
446.245	234.44
446.466	230.44
446.687	206.44
446.908	223.44
447.129	220.44
447.35	225.44
447.571	219.44
447.792	213.44
448.013	213.44
448.234	217.44
448.455	228.44
448.675	222.44
448.896	186.44
449.117	209.44
449.338	214.44
449.559	229.44
449.779	222.44
450	213.44
450.221	215.44
450.442	213.44
450.662	206.44
450.883	202.44
451.104	220.44
451.324	203.44
451.545	190.44
451.766	203.44
451.986	213.44
452.207	213.44
452.428	206.44
452.648	216.44
452.869	200.44
453.089	207.44
453.31	208.44
453.53	197.44
453.751	214.44
453.971	208.44
454.192	200.44
454.412	195.44
454.633	210.44
454.853	201.44
455.073	211.44
455.294	214.44
455.514	204.44
455.734	209.44
455.955	190.44
456.175	202.44
456.395	228.44
456.616	209.44
456.836	207.44
457.056	205.44
457.276	198.44
457.497	229.44
457.717	188.44
457.937	218.44
458.157	202.44
458.377	205.44
458.598	207.44
458.818	217.44
459.038	225.44
459.258	219.44
459.478	217.44
459.698	219.44
459.918	201.44
460.138	222.44
460.358	221.44
460.578	221.44
460.798	236.44
461.018	229.44
461.238	241.44
461.458	250.44
461.678	240.44
461.898	240.44
462.118	248.44
462.338	248.44
462.558	248.44
462.777	265.44
462.997	252.44
463.217	288.44
463.437	269.44
463.657	252.44
463.876	259.44
464.096	257.44
464.316	267.44
464.536	250.44
464.755	260.44
464.975	266.44
465.195	240.44
465.414	241.44
465.634	241.44
465.854	239.44
466.073	242.44
466.293	230.44
466.512	240.44
466.732	222.44
466.951	252.44
467.171	248.44
467.391	263.44
467.61	292.44
467.829	399.44
468.049	693.44
468.268	863.44
468.488	502.44
468.707	346.44
468.927	285.44
469.146	285.44
469.365	283.44
469.585	264.44
469.804	258.44
470.023	283.44
470.243	264.44
470.462	253.44
470.681	268.44
470.901	284.44
471.12	259.44
471.339	270.44
471.558	318.44
471.777	369.44
471.997	550.44
472.216	1177.44
472.435	1797.44
472.654	1010.44
472.873	595.44
473.092	449.44
473.311	382.44
473.53	354.44
473.749	329.44
473.968	311.44
474.187	284.44
474.406	284.44
474.625	293.44
474.844	266.44
475.063	258.44
475.282	257.44
475.501	264.44
475.72	278.44
475.939	255.44
476.158	266.44
476.377	261.44
476.596	251.44
476.814	263.44
477.033	264.44
477.252	286.44
477.471	264.44
477.69	271.44
477.908	262.44
478.127	278.44
478.346	280.44
478.564	266.44
478.783	278.44
479.002	278.44
479.22	283.44
479.439	289.44
479.658	307.44
479.876	340.44
480.095	352.44
480.313	407.44
480.532	466.44
480.751	633.44
480.969	1268.44
481.188	2878.44
481.406	2311.44
481.624	1083.44
481.843	705.44
482.061	559.44
482.28	486.44
482.498	421.44
482.717	401.44
482.935	387.44
483.153	353.44
483.372	356.44
483.59	358.44
483.808	349.44
484.027	344.44
484.245	316.44
484.463	322.44
484.681	325.44
484.9	301.44
485.118	316.44
485.336	287.44
485.554	295.44
485.772	297.44
485.99	281.44
486.209	292.44
486.427	272.44
486.645	308.44
486.863	289.44
487.081	300.44
487.299	300.44
487.517	303.44
487.735	285.44
487.953	284.44
488.171	306.44
488.389	312.44
488.607	322.44
488.825	314.44
489.043	329.44
489.261	312.44
489.479	322.44
489.696	325.44
489.914	320.44
490.132	326.44
490.35	369.44
490.568	367.44
490.786	392.44
491.003	418.44
491.221	429.44
491.439	476.44
491.657	461.44
491.874	477.44
492.092	481.44
492.31	513.44
492.527	541.44
492.745	571.44
492.963	518.44
493.18	506.44
493.398	490.44
493.615	466.44
493.833	443.44
494.05	408.44
494.268	442.44
494.485	400.44
494.703	409.44
494.92	400.44
495.138	389.44
495.355	362.44
495.573	369.44
495.79	369.44
496.008	341.44
496.225	341.44
496.442	346.44
496.66	343.44
496.877	347.44
497.094	357.44
497.312	335.44
497.529	326.44
497.746	344.44
497.963	346.44
498.181	346.44
498.398	360.44
498.615	362.44
498.832	352.44
499.049	370.44
499.267	377.44
499.484	393.44
499.701	403.44
499.918	432.44
500.135	438.44
500.352	478.44
500.569	506.44
500.786	526.44
501.003	476.44
501.22	450.44
501.437	404.44
501.654	384.44
501.871	386.44
502.088	367.44
502.305	353.44
502.522	340.44
502.739	336.44
502.956	299.44
503.172	320.44
503.389	320.44
