Data from StdC_HRD10591_035.txt Node
Date: Fri May 16 15:28:58 EDT 2025
User: Yrep
Spectrometer: HR+D1059
Trigger mode: 1
Integration Time (sec): 1.000000E-1
Scans to average: 1
Electric dark correction enabled: true
Nonlinearity correction enabled: false
Boxcar width: 0
XAxis mode: Wavelengths
Number of Pixels in Spectrum: 2048
>>>>>Begin Spectral Data<<<<<
223.165	-17.69
223.4	-17.69
223.635	-17.69
223.869	-7.69
224.104	-24.69
224.338	-17.69
224.573	-12.69
224.808	-5.69
225.042	-17.69
225.277	-5.69
225.511	0.31
225.746	-6.69
225.98	20.31
226.215	15.31
226.449	7.31
226.683	24.31
226.918	22.31
227.152	26.31
227.387	40.31
227.621	45.31
227.856	42.31
228.09	58.31
228.324	55.31
228.559	65.31
228.793	80.31
229.027	82.31
229.262	78.31
229.496	81.31
229.73	80.31
229.964	82.31
230.199	88.31
230.433	75.31
230.667	86.31
230.901	103.31
231.136	95.31
231.37	85.31
231.604	103.31
231.838	94.31
232.072	98.31
232.306	97.31
232.541	94.31
232.775	110.31
233.009	95.31
233.243	93.31
233.477	100.31
233.711	90.31
233.945	82.31
234.179	91.31
234.413	89.31
234.647	82.31
234.881	105.31
235.115	91.31
235.349	94.31
235.583	104.31
235.817	90.31
236.051	80.31
236.285	88.31
236.519	87.31
236.753	99.31
236.987	83.31
237.221	86.31
237.455	95.31
237.689	83.31
237.922	94.31
238.156	90.31
238.39	96.31
238.624	85.31
238.858	98.31
239.091	86.31
239.325	106.31
239.559	86.31
239.793	94.31
240.027	103.31
240.26	94.31
240.494	89.31
240.728	108.31
240.961	91.31
241.195	91.31
241.429	106.31
241.662	76.31
241.896	98.31
242.13	98.31
242.363	101.31
242.597	102.31
242.83	102.31
243.064	106.31
243.298	100.31
243.531	98.31
243.765	107.31
243.998	102.31
244.232	113.31
244.465	102.31
244.699	113.31
244.932	102.31
245.166	102.31
245.399	96.31
245.633	102.31
245.866	118.31
246.099	98.31
246.333	110.31
246.566	90.31
246.8	102.31
247.033	101.31
247.266	124.31
247.5	104.31
247.733	127.31
247.966	109.31
248.2	99.31
248.433	121.31
248.666	118.31
248.899	110.31
249.133	114.31
249.366	124.31
249.599	133.31
249.832	123.31
250.066	147.31
250.299	158.31
250.532	200.31
250.765	184.31
250.998	157.31
251.231	155.31
251.465	132.31
251.698	118.31
251.931	121.31
252.164	127.31
252.397	124.31
252.63	121.31
252.863	131.31
253.096	129.31
253.329	129.31
253.562	108.31
253.795	118.31
254.028	110.31
254.261	128.31
254.494	126.31
254.727	146.31
254.96	151.31
255.193	149.31
255.426	156.31
255.659	200.31
255.892	255.31
256.124	305.31
256.357	256.31
256.59	203.31
256.823	182.31
257.056	150.31
257.289	151.31
257.521	144.31
257.754	153.31
257.987	154.31
258.22	141.31
258.452	136.31
258.685	128.31
258.918	151.31
259.151	142.31
259.383	127.31
259.616	127.31
259.849	139.31
260.081	126.31
260.314	132.31
260.547	147.31
260.779	150.31
261.012	138.31
261.244	145.31
261.477	139.31
261.71	129.31
261.942	143.31
262.175	128.31
262.407	140.31
262.64	126.31
262.872	132.31
263.105	122.31
263.337	128.31
263.57	120.31
263.802	127.31
264.035	144.31
264.267	133.31
264.499	130.31
264.732	128.31
264.964	135.31
265.197	117.31
265.429	126.31
265.661	129.31
265.894	129.31
266.126	133.31
266.358	127.31
266.591	139.31
266.823	127.31
267.055	119.31
267.287	121.31
267.52	122.31
267.752	138.31
267.984	146.31
268.216	145.31
268.448	127.31
268.681	133.31
268.913	127.31
269.145	138.31
269.377	138.31
269.609	149.31
269.841	130.31
270.073	140.31
270.306	127.31
270.538	133.31
270.77	145.31
271.002	133.31
271.234	146.31
271.466	132.31
271.698	134.31
271.93	147.31
272.162	142.31
272.394	162.31
272.626	144.31
272.858	138.31
273.09	138.31
273.322	143.31
273.553	164.31
273.785	159.31
274.017	153.31
274.249	154.31
274.481	154.31
274.713	163.31
274.945	162.31
275.176	168.31
275.408	156.31
275.64	171.31
275.872	166.31
276.104	180.31
276.335	170.31
276.567	184.31
276.799	186.31
277.031	195.31
277.262	236.31
277.494	235.31
277.726	202.31
277.957	190.31
278.189	188.31
278.421	184.31
278.652	169.31
278.884	182.31
279.115	183.31
279.347	183.31
279.579	212.31
279.81	220.31
280.042	247.31
280.273	285.31
280.505	241.31
280.736	216.31
280.968	203.31
281.199	183.31
281.431	172.31
281.662	174.31
281.894	189.31
282.125	178.31
282.356	171.31
282.588	166.31
282.819	178.31
283.051	175.31
283.282	160.31
283.513	162.31
283.745	162.31
283.976	158.31
284.207	162.31
284.439	149.31
284.67	154.31
284.901	162.31
285.132	164.31
285.364	148.31
285.595	155.31
285.826	138.31
286.057	157.31
286.288	164.31
286.52	171.31
286.751	169.31
286.982	162.31
287.213	151.31
287.444	178.31
287.675	157.31
287.906	157.31
288.138	169.31
288.369	164.31
288.6	154.31
288.831	156.31
289.062	166.31
289.293	177.31
289.524	160.31
289.755	160.31
289.986	161.31
290.217	167.31
290.448	159.31
290.679	164.31
290.91	155.31
291.141	145.31
291.371	160.31
291.602	164.31
291.833	167.31
292.064	161.31
292.295	156.31
292.526	162.31
292.757	150.31
292.987	162.31
293.218	152.31
293.449	168.31
293.68	156.31
293.91	162.31
294.141	161.31
294.372	146.31
294.603	153.31
294.833	148.31
295.064	166.31
295.295	160.31
295.525	161.31
295.756	159.31
295.987	149.31
296.217	167.31
296.448	159.31
296.679	162.31
296.909	166.31
297.14	170.31
297.37	167.31
297.601	157.31
297.831	150.31
298.062	160.31
298.292	162.31
298.523	169.31
298.753	170.31
298.984	161.31
299.214	160.31
299.445	177.31
299.675	157.31
299.905	171.31
300.136	170.31
300.366	160.31
300.597	145.31
300.827	157.31
301.057	159.31
301.288	161.31
301.518	170.31
301.748	167.31
301.979	205.31
302.209	184.31
302.439	162.31
302.669	163.31
302.9	169.31
303.13	170.31
303.36	195.31
303.59	196.31
303.82	205.31
304.051	192.31
304.281	173.31
304.511	180.31
304.741	160.31
304.971	186.31
305.201	170.31
305.431	182.31
305.661	166.31
305.891	170.31
306.121	178.31
306.352	168.31
306.582	173.31
306.812	175.31
307.042	199.31
307.272	243.31
307.502	227.31
307.731	222.31
307.961	205.31
308.191	187.31
308.421	188.31
308.651	195.31
308.881	184.31
309.111	171.31
309.341	175.31
309.571	167.31
309.8	156.31
310.03	178.31
310.26	186.31
310.49	194.31
310.72	180.31
310.949	169.31
311.179	176.31
311.409	186.31
311.639	172.31
311.868	168.31
312.098	196.31
312.328	188.31
312.557	170.31
312.787	168.31
313.017	186.31
313.246	175.31
313.476	177.31
313.706	174.31
313.935	186.31
314.165	178.31
314.394	193.31
314.624	166.31
314.853	160.31
315.083	172.31
315.312	188.31
315.542	181.31
315.771	183.31
316.001	173.31
316.23	190.31
316.46	159.31
316.689	171.31
316.919	194.31
317.148	173.31
317.377	175.31
317.607	183.31
317.836	171.31
318.065	193.31
318.295	198.31
318.524	192.31
318.753	186.31
318.983	191.31
319.212	180.31
319.441	198.31
319.67	192.31
319.9	204.31
320.129	210.31
320.358	193.31
320.587	166.31
320.816	185.31
321.046	178.31
321.275	193.31
321.504	168.31
321.733	194.31
321.962	205.31
322.191	199.31
322.42	191.31
322.649	208.31
322.878	211.31
323.108	209.31
323.337	189.31
323.566	209.31
323.795	216.31
324.024	217.31
324.253	209.31
324.482	236.31
324.71	214.31
324.939	212.31
325.168	234.31
325.397	202.31
325.626	243.31
325.855	236.31
326.084	236.31
326.313	239.31
326.542	249.31
326.77	253.31
326.999	270.31
327.228	282.31
327.457	323.31
327.686	413.31
327.914	537.31
328.143	716.31
328.372	722.31
328.6	524.31
328.829	410.31
329.058	402.31
329.287	411.31
329.515	491.31
329.744	670.31
329.972	968.31
330.201	1332.31
330.43	1331.31
330.658	749.31
330.887	475.31
331.115	387.31
331.344	370.31
331.572	339.31
331.801	328.31
332.03	314.31
332.258	338.31
332.486	322.31
332.715	337.31
332.943	378.31
333.172	396.31
333.4	440.31
333.629	561.31
333.857	715.31
334.085	1037.31
334.314	1502.31
334.542	1869.31
334.771	1470.31
334.999	776.31
335.227	509.31
335.455	408.31
335.684	353.31
335.912	337.31
336.14	314.31
336.369	294.31
336.597	276.31
336.825	264.31
337.053	260.31
337.281	252.31
337.51	238.31
337.738	249.31
337.966	238.31
338.194	237.31
338.422	225.31
338.65	225.31
338.878	224.31
339.106	226.31
339.334	225.31
339.562	223.31
339.79	216.31
340.018	220.31
340.246	204.31
340.474	216.31
340.702	206.31
340.93	211.31
341.158	200.31
341.386	196.31
341.614	212.31
341.842	198.31
342.07	199.31
342.298	195.31
342.526	197.31
342.754	209.31
342.981	194.31
343.209	200.31
343.437	192.31
343.665	208.31
343.893	219.31
344.12	216.31
344.348	213.31
344.576	212.31
344.804	193.31
345.031	190.31
345.259	200.31
345.487	182.31
345.714	198.31
345.942	209.31
346.17	194.31
346.397	194.31
346.625	194.31
346.853	196.31
347.08	207.31
347.308	193.31
347.535	188.31
347.763	184.31
347.99	202.31
348.218	196.31
348.445	186.31
348.673	192.31
348.9	192.31
349.128	189.31
349.355	189.31
349.583	180.31
349.81	170.31
350.037	188.31
350.265	187.31
350.492	176.31
350.72	186.31
350.947	209.31
351.174	203.31
351.402	180.31
351.629	188.31
351.856	188.31
352.083	182.31
352.311	194.31
352.538	187.31
352.765	171.31
352.992	199.31
353.22	194.31
353.447	188.31
353.674	194.31
353.901	192.31
354.128	206.31
354.355	198.31
354.583	190.31
354.81	186.31
355.037	199.31
355.264	171.31
355.491	189.31
355.718	168.31
355.945	188.31
356.172	168.31
356.399	176.31
356.626	192.31
356.853	190.31
357.08	190.31
357.307	173.31
357.534	176.31
357.761	175.31
357.988	190.31
358.215	190.31
358.441	192.31
358.668	174.31
358.895	172.31
359.122	185.31
359.349	191.31
359.576	174.31
359.802	188.31
360.029	182.31
360.256	193.31
360.483	184.31
360.709	214.31
360.936	189.31
361.163	173.31
361.39	177.31
361.616	180.31
361.843	187.31
362.07	189.31
362.296	182.31
362.523	194.31
362.749	178.31
362.976	187.31
363.203	200.31
363.429	184.31
363.656	177.31
363.882	182.31
364.109	193.31
364.335	177.31
364.562	188.31
364.788	185.31
365.015	183.31
365.241	179.31
365.468	199.31
365.694	166.31
365.92	183.31
366.147	166.31
366.373	181.31
366.599	194.31
366.826	186.31
367.052	175.31
367.278	176.31
367.505	188.31
367.731	173.31
367.957	182.31
368.184	196.31
368.41	183.31
368.636	186.31
368.862	181.31
369.089	184.31
369.315	174.31
369.541	190.31
369.767	179.31
369.993	170.31
370.219	201.31
370.445	190.31
370.672	190.31
370.898	186.31
371.124	173.31
371.35	192.31
371.576	181.31
371.802	187.31
372.028	193.31
372.254	186.31
372.48	186.31
372.706	203.31
372.932	190.31
373.158	202.31
373.384	198.31
373.61	175.31
373.835	204.31
374.061	184.31
374.287	198.31
374.513	192.31
374.739	207.31
374.965	198.31
375.191	180.31
375.416	194.31
375.642	220.31
375.868	191.31
376.094	187.31
376.319	190.31
376.545	179.31
376.771	176.31
376.997	199.31
377.222	179.31
377.448	199.31
377.674	173.31
377.899	200.31
378.125	184.31
378.35	190.31
378.576	191.31
378.802	206.31
379.027	176.31
379.253	196.31
379.478	196.31
379.704	189.31
379.929	195.31
380.155	206.31
380.38	182.31
380.606	191.31
380.831	206.31
381.057	203.31
381.282	196.31
381.507	202.31
381.733	203.31
381.958	198.31
382.184	201.31
382.409	197.31
382.634	202.31
382.86	202.31
383.085	191.31
383.31	204.31
383.535	212.31
383.761	217.31
383.986	187.31
384.211	216.31
384.436	200.31
384.662	201.31
384.887	213.31
385.112	202.31
385.337	225.31
385.562	216.31
385.787	216.31
386.013	209.31
386.238	214.31
386.463	212.31
386.688	223.31
386.913	213.31
387.138	207.31
387.363	219.31
387.588	208.31
387.813	218.31
388.038	216.31
388.263	201.31
388.488	203.31
388.713	203.31
388.938	203.31
389.163	241.31
389.387	210.31
389.612	206.31
389.837	194.31
390.062	221.31
390.287	206.31
390.512	222.31
390.736	198.31
390.961	210.31
391.186	197.31
391.411	232.31
391.636	209.31
391.86	214.31
392.085	234.31
392.31	211.31
392.534	215.31
392.759	221.31
392.984	208.31
393.208	214.31
393.433	222.31
393.658	222.31
393.882	223.31
394.107	214.31
394.331	210.31
394.556	223.31
394.78	206.31
395.005	225.31
395.229	206.31
395.454	239.31
395.678	234.31
395.903	195.31
396.127	217.31
396.352	227.31
396.576	224.31
396.801	213.31
397.025	217.31
397.249	216.31
397.474	233.31
397.698	244.31
397.922	240.31
398.147	222.31
398.371	232.31
398.595	236.31
398.82	236.31
399.044	260.31
399.268	260.31
399.492	269.31
399.717	265.31
399.941	287.31
400.165	259.31
400.389	266.31
400.613	247.31
400.837	250.31
401.062	242.31
401.286	242.31
401.51	248.31
401.734	255.31
401.958	242.31
402.182	250.31
402.406	231.31
402.63	236.31
402.854	261.31
403.078	256.31
403.302	260.31
403.526	273.31
403.75	272.31
403.974	270.31
404.198	248.31
404.422	258.31
404.645	283.31
404.869	286.31
405.093	317.31
405.317	328.31
405.541	326.31
405.765	288.31
405.988	292.31
406.212	279.31
406.436	274.31
406.66	280.31
406.883	269.31
407.107	270.31
407.331	261.31
407.555	257.31
407.778	266.31
408.002	262.31
408.226	269.31
408.449	263.31
408.673	256.31
408.896	255.31
409.12	264.31
409.344	250.31
409.567	243.31
409.791	260.31
410.014	249.31
410.238	252.31
410.461	252.31
410.685	253.31
410.908	263.31
411.132	249.31
411.355	250.31
411.578	269.31
411.802	266.31
412.025	271.31
412.249	300.31
412.472	316.31
412.695	342.31
412.919	312.31
413.142	302.31
413.365	288.31
413.589	262.31
413.812	263.31
414.035	279.31
414.258	270.31
414.482	262.31
414.705	247.31
414.928	246.31
415.151	260.31
415.374	248.31
415.597	255.31
415.821	241.31
416.044	239.31
416.267	267.31
416.49	241.31
416.713	247.31
416.936	260.31
417.159	248.31
417.382	273.31
417.605	286.31
417.828	268.31
418.051	257.31
418.274	252.31
418.497	243.31
418.72	255.31
418.943	249.31
419.166	277.31
419.389	267.31
419.611	273.31
419.834	287.31
420.057	272.31
420.28	311.31
420.503	296.31
420.726	289.31
420.948	256.31
421.171	270.31
421.394	277.31
421.617	267.31
421.839	257.31
422.062	253.31
422.285	248.31
422.507	243.31
422.73	246.31
422.953	253.31
423.175	251.31
423.398	250.31
423.621	254.31
423.843	255.31
424.066	241.31
424.288	234.31
424.511	241.31
424.733	246.31
424.956	230.31
425.178	249.31
425.401	232.31
425.623	238.31
425.846	228.31
426.068	242.31
426.291	251.31
426.513	249.31
426.735	250.31
426.958	254.31
427.18	264.31
427.402	263.31
427.625	290.31
427.847	322.31
428.069	341.31
428.292	287.31
428.514	270.31
428.736	254.31
428.958	243.31
429.181	237.31
429.403	237.31
429.625	237.31
429.847	242.31
430.069	235.31
430.292	227.31
430.514	234.31
430.736	230.31
430.958	232.31
431.18	235.31
431.402	238.31
431.624	230.31
431.846	221.31
432.068	219.31
432.29	233.31
432.512	218.31
432.734	208.31
432.956	225.31
433.178	235.31
433.4	238.31
433.622	238.31
433.844	217.31
434.066	218.31
434.287	216.31
434.509	238.31
434.731	239.31
434.953	227.31
435.175	244.31
435.397	232.31
435.618	226.31
435.84	242.31
436.062	228.31
436.284	218.31
436.505	217.31
436.727	226.31
436.949	234.31
437.17	234.31
437.392	222.31
437.614	216.31
437.835	233.31
438.057	193.31
438.278	225.31
438.5	207.31
438.721	219.31
438.943	209.31
439.165	210.31
439.386	205.31
439.608	222.31
439.829	232.31
440.05	230.31
440.272	222.31
440.493	224.31
440.715	238.31
440.936	211.31
441.158	227.31
441.379	230.31
441.6	232.31
441.822	251.31
442.043	214.31
442.264	234.31
442.486	234.31
442.707	242.31
442.928	239.31
443.149	223.31
443.371	241.31
443.592	222.31
443.813	236.31
444.034	244.31
444.255	246.31
444.476	240.31
444.698	260.31
444.919	252.31
445.14	312.31
445.361	281.31
445.582	224.31
445.803	236.31
446.024	235.31
446.245	221.31
446.466	221.31
446.687	240.31
446.908	235.31
447.129	210.31
447.35	230.31
447.571	201.31
447.792	219.31
448.013	220.31
448.234	214.31
448.455	231.31
448.675	215.31
448.896	206.31
449.117	219.31
449.338	209.31
449.559	216.31
449.779	204.31
450	222.31
450.221	227.31
450.442	220.31
450.662	220.31
450.883	222.31
451.104	213.31
451.324	204.31
451.545	210.31
451.766	230.31
451.986	219.31
452.207	197.31
452.428	205.31
452.648	216.31
452.869	225.31
453.089	198.31
453.31	212.31
453.53	204.31
453.751	192.31
453.971	214.31
454.192	199.31
454.412	210.31
454.633	209.31
454.853	197.31
455.073	203.31
455.294	220.31
455.514	197.31
455.734	189.31
455.955	200.31
456.175	201.31
456.395	194.31
456.616	211.31
456.836	208.31
457.056	219.31
457.276	210.31
457.497	211.31
457.717	204.31
457.937	209.31
458.157	210.31
458.377	210.31
458.598	225.31
458.818	216.31
459.038	208.31
459.258	209.31
459.478	214.31
459.698	220.31
459.918	224.31
460.138	228.31
460.358	241.31
460.578	246.31
460.798	267.31
461.018	242.31
461.238	245.31
461.458	239.31
461.678	234.31
461.898	226.31
462.118	247.31
462.338	250.31
462.558	260.31
462.777	258.31
462.997	278.31
463.217	266.31
463.437	260.31
463.657	278.31
463.876	258.31
464.096	262.31
464.316	271.31
464.536	256.31
464.755	243.31
464.975	248.31
465.195	254.31
465.414	234.31
465.634	223.31
465.854	238.31
466.073	250.31
466.293	227.31
466.512	230.31
466.732	250.31
466.951	268.31
467.171	254.31
467.391	281.31
467.61	281.31
467.829	363.31
468.049	652.31
468.268	803.31
468.488	508.31
468.707	372.31
468.927	309.31
469.146	273.31
469.365	280.31
469.585	255.31
469.804	271.31
470.023	264.31
470.243	267.31
470.462	270.31
470.681	265.31
470.901	263.31
471.12	282.31
471.339	280.31
471.558	311.31
471.777	376.31
471.997	539.31
472.216	1124.31
472.435	1720.31
472.654	968.31
472.873	559.31
473.092	428.31
473.311	374.31
473.53	322.31
473.749	330.31
473.968	296.31
474.187	289.31
474.406	286.31
474.625	261.31
474.844	273.31
475.063	274.31
475.282	265.31
475.501	261.31
475.72	265.31
475.939	259.31
476.158	258.31
476.377	247.31
476.596	254.31
476.814	243.31
477.033	262.31
477.252	248.31
477.471	249.31
477.69	260.31
477.908	275.31
478.127	280.31
478.346	262.31
478.564	289.31
478.783	298.31
479.002	302.31
479.22	307.31
479.439	299.31
479.658	307.31
479.876	336.31
480.095	379.31
480.313	379.31
480.532	467.31
480.751	620.31
480.969	1227.31
481.188	2711.31
481.406	2172.31
481.624	1039.31
481.843	690.31
482.061	530.31
482.28	466.31
482.498	425.31
482.717	390.31
482.935	405.31
483.153	371.31
483.372	368.31
483.59	340.31
483.808	339.31
484.027	315.31
484.245	329.31
484.463	299.31
484.681	302.31
484.9	310.31
485.118	313.31
485.336	303.31
485.554	290.31
485.772	304.31
485.99	286.31
486.209	298.31
486.427	296.31
486.645	300.31
486.863	299.31
487.081	300.31
487.299	309.31
487.517	301.31
487.735	303.31
487.953	309.31
488.171	317.31
488.389	315.31
488.607	299.31
488.825	290.31
489.043	316.31
489.261	309.31
489.479	296.31
489.696	342.31
489.914	324.31
490.132	347.31
490.35	342.31
490.568	366.31
490.786	378.31
491.003	399.31
491.221	446.31
491.439	466.31
491.657	463.31
491.874	475.31
492.092	487.31
492.31	505.31
492.527	538.31
492.745	561.31
492.963	517.31
493.18	473.31
493.398	494.31
493.615	448.31
493.833	445.31
494.05	419.31
494.268	416.31
494.485	395.31
494.703	397.31
494.92	406.31
495.138	374.31
495.355	378.31
495.573	368.31
495.79	382.31
496.008	354.31
496.225	344.31
496.442	349.31
496.66	360.31
496.877	331.31
497.094	350.31
497.312	350.31
497.529	360.31
497.746	342.31
497.963	360.31
498.181	335.31
498.398	349.31
498.615	352.31
498.832	361.31
499.049	376.31
499.267	379.31
499.484	375.31
499.701	405.31
499.918	422.31
500.135	460.31
500.352	463.31
500.569	486.31
500.786	490.31
501.003	490.31
501.22	466.31
501.437	413.31
501.654	395.31
501.871	368.31
502.088	340.31
502.305	335.31
502.522	343.31
502.739	345.31
502.956	344.31
503.172	324.31
503.389	324.31
