Data from StdC_HRD10591_018.txt Node
Date: Fri May 16 15:28:49 EDT 2025
User: Yrep
Spectrometer: HR+D1059
Trigger mode: 1
Integration Time (sec): 1.000000E-1
Scans to average: 1
Electric dark correction enabled: true
Nonlinearity correction enabled: false
Boxcar width: 0
XAxis mode: Wavelengths
Number of Pixels in Spectrum: 2048
>>>>>Begin Spectral Data<<<<<
223.165	-11.75
223.4	-11.75
223.635	-11.75
223.869	-31.75
224.104	-18.75
224.338	-15.75
224.573	-8.75
224.808	-17.75
225.042	-9.75
225.277	-4.75
225.511	-5.75
225.746	10.25
225.98	2.25
226.215	8.25
226.449	16.25
226.683	23.25
226.918	30.25
227.152	34.25
227.387	24.25
227.621	37.25
227.856	46.25
228.09	50.25
228.324	57.25
228.559	52.25
228.793	64.25
229.027	66.25
229.262	80.25
229.496	85.25
229.73	80.25
229.964	72.25
230.199	94.25
230.433	70.25
230.667	98.25
230.901	80.25
231.136	96.25
231.37	86.25
231.604	104.25
231.838	88.25
232.072	84.25
232.306	89.25
232.541	70.25
232.775	80.25
233.009	93.25
233.243	76.25
233.477	87.25
233.711	92.25
233.945	96.25
234.179	84.25
234.413	95.25
234.647	93.25
234.881	100.25
235.115	98.25
235.349	89.25
235.583	85.25
235.817	85.25
236.051	77.25
236.285	86.25
236.519	87.25
236.753	92.25
236.987	94.25
237.221	98.25
237.455	92.25
237.689	107.25
237.922	109.25
238.156	85.25
238.39	101.25
238.624	88.25
238.858	94.25
239.091	95.25
239.325	85.25
239.559	92.25
239.793	100.25
240.027	96.25
240.26	84.25
240.494	93.25
240.728	84.25
240.961	82.25
241.195	96.25
241.429	102.25
241.662	100.25
241.896	103.25
242.13	84.25
242.363	96.25
242.597	90.25
242.83	88.25
243.064	89.25
243.298	89.25
243.531	108.25
243.765	92.25
243.998	98.25
244.232	108.25
244.465	102.25
244.699	98.25
244.932	95.25
245.166	103.25
245.399	114.25
245.633	109.25
245.866	110.25
246.099	108.25
246.333	103.25
246.566	105.25
246.8	112.25
247.033	103.25
247.266	106.25
247.5	110.25
247.733	108.25
247.966	101.25
248.2	108.25
248.433	107.25
248.666	107.25
248.899	106.25
249.133	112.25
249.366	121.25
249.599	132.25
249.832	130.25
250.066	136.25
250.299	166.25
250.532	208.25
250.765	173.25
250.998	154.25
251.231	133.25
251.465	125.25
251.698	124.25
251.931	116.25
252.164	120.25
252.397	120.25
252.63	129.25
252.863	120.25
253.096	117.25
253.329	117.25
253.562	126.25
253.795	120.25
254.028	128.25
254.261	116.25
254.494	139.25
254.727	140.25
254.96	129.25
255.193	143.25
255.426	149.25
255.659	187.25
255.892	260.25
256.124	304.25
256.357	249.25
256.59	202.25
256.823	184.25
257.056	154.25
257.289	140.25
257.521	162.25
257.754	141.25
257.987	137.25
258.22	135.25
258.452	133.25
258.685	136.25
258.918	144.25
259.151	136.25
259.383	131.25
259.616	128.25
259.849	136.25
260.081	123.25
260.314	128.25
260.547	138.25
260.779	138.25
261.012	135.25
261.244	142.25
261.477	136.25
261.71	145.25
261.942	121.25
262.175	109.25
262.407	120.25
262.64	130.25
262.872	128.25
263.105	128.25
263.337	117.25
263.57	128.25
263.802	134.25
264.035	119.25
264.267	125.25
264.499	135.25
264.732	122.25
264.964	126.25
265.197	115.25
265.429	131.25
265.661	125.25
265.894	143.25
266.126	133.25
266.358	134.25
266.591	135.25
266.823	138.25
267.055	128.25
267.287	127.25
267.52	135.25
267.752	127.25
267.984	123.25
268.216	134.25
268.448	129.25
268.681	125.25
268.913	145.25
269.145	131.25
269.377	149.25
269.609	136.25
269.841	147.25
270.073	120.25
270.306	126.25
270.538	138.25
270.77	137.25
271.002	131.25
271.234	122.25
271.466	142.25
271.698	134.25
271.93	150.25
272.162	159.25
272.394	129.25
272.626	139.25
272.858	142.25
273.09	137.25
273.322	161.25
273.553	145.25
273.785	153.25
274.017	149.25
274.249	149.25
274.481	159.25
274.713	149.25
274.945	161.25
275.176	181.25
275.408	164.25
275.64	168.25
275.872	171.25
276.104	184.25
276.335	181.25
276.567	178.25
276.799	184.25
277.031	210.25
277.262	222.25
277.494	216.25
277.726	194.25
277.957	190.25
278.189	154.25
278.421	169.25
278.652	169.25
278.884	170.25
279.115	185.25
279.347	188.25
279.579	196.25
279.81	228.25
280.042	255.25
280.273	280.25
280.505	232.25
280.736	215.25
280.968	192.25
281.199	181.25
281.431	176.25
281.662	159.25
281.894	172.25
282.125	169.25
282.356	162.25
282.588	164.25
282.819	161.25
283.051	177.25
283.282	175.25
283.513	176.25
283.745	169.25
283.976	154.25
284.207	160.25
284.439	166.25
284.67	166.25
284.901	148.25
285.132	167.25
285.364	150.25
285.595	168.25
285.826	164.25
286.057	140.25
286.288	146.25
286.52	156.25
286.751	172.25
286.982	138.25
287.213	170.25
287.444	155.25
287.675	161.25
287.906	158.25
288.138	144.25
288.369	164.25
288.6	156.25
288.831	160.25
289.062	160.25
289.293	171.25
289.524	178.25
289.755	172.25
289.986	174.25
290.217	164.25
290.448	169.25
290.679	148.25
290.91	178.25
291.141	150.25
291.371	159.25
291.602	165.25
291.833	148.25
292.064	157.25
292.295	149.25
292.526	162.25
292.757	171.25
292.987	160.25
293.218	156.25
293.449	158.25
293.68	155.25
293.91	174.25
294.141	161.25
294.372	168.25
294.603	149.25
294.833	171.25
295.064	146.25
295.295	144.25
295.525	146.25
295.756	158.25
295.987	148.25
296.217	160.25
296.448	154.25
296.679	154.25
296.909	153.25
297.14	172.25
297.37	156.25
297.601	168.25
297.831	154.25
298.062	160.25
298.292	157.25
298.523	156.25
298.753	148.25
298.984	169.25
299.214	157.25
299.445	164.25
299.675	164.25
299.905	143.25
300.136	156.25
300.366	182.25
300.597	166.25
300.827	169.25
301.057	160.25
301.288	178.25
301.518	166.25
301.748	172.25
301.979	200.25
302.209	164.25
302.439	178.25
302.669	176.25
302.9	158.25
303.13	170.25
303.36	192.25
303.59	200.25
303.82	214.25
304.051	184.25
304.281	183.25
304.511	168.25
304.741	172.25
304.971	170.25
305.201	175.25
305.431	172.25
305.661	162.25
305.891	162.25
306.121	175.25
306.352	170.25
306.582	188.25
306.812	196.25
307.042	205.25
307.272	240.25
307.502	228.25
307.731	220.25
307.961	188.25
308.191	170.25
308.421	189.25
308.651	178.25
308.881	168.25
309.111	165.25
309.341	167.25
309.571	155.25
309.8	174.25
310.03	191.25
310.26	170.25
310.49	165.25
310.72	169.25
310.949	158.25
311.179	170.25
311.409	172.25
311.639	185.25
311.868	170.25
312.098	188.25
312.328	172.25
312.557	187.25
312.787	176.25
313.017	186.25
313.246	174.25
313.476	186.25
313.706	188.25
313.935	193.25
314.165	163.25
314.394	168.25
314.624	178.25
314.853	175.25
315.083	164.25
315.312	172.25
315.542	161.25
315.771	169.25
316.001	182.25
316.23	167.25
316.46	170.25
316.689	202.25
316.919	169.25
317.148	169.25
317.377	180.25
317.607	200.25
317.836	194.25
318.065	200.25
318.295	182.25
318.524	180.25
318.753	197.25
318.983	176.25
319.212	170.25
319.441	194.25
319.67	187.25
319.9	184.25
320.129	179.25
320.358	174.25
320.587	186.25
320.816	168.25
321.046	192.25
321.275	188.25
321.504	193.25
321.733	206.25
321.962	200.25
322.191	192.25
322.42	198.25
322.649	198.25
322.878	203.25
323.108	203.25
323.337	199.25
323.566	205.25
323.795	221.25
324.024	203.25
324.253	243.25
324.482	225.25
324.71	236.25
324.939	217.25
325.168	216.25
325.397	222.25
325.626	240.25
325.855	242.25
326.084	248.25
326.313	246.25
326.542	262.25
326.77	260.25
326.999	290.25
327.228	307.25
327.457	346.25
327.686	418.25
327.914	568.25
328.143	684.25
328.372	718.25
328.6	551.25
328.829	408.25
329.058	381.25
329.287	427.25
329.515	513.25
329.744	678.25
329.972	956.25
330.201	1297.25
330.43	1290.25
330.658	784.25
330.887	491.25
331.115	406.25
331.344	360.25
331.572	324.25
331.801	320.25
332.03	321.25
332.258	331.25
332.486	337.25
332.715	347.25
332.943	379.25
333.172	399.25
333.4	438.25
333.629	534.25
333.857	706.25
334.085	1029.25
334.314	1454.25
334.542	1809.25
334.771	1421.25
334.999	737.25
335.227	508.25
335.455	385.25
335.684	352.25
335.912	345.25
336.14	293.25
336.369	283.25
336.597	292.25
336.825	272.25
337.053	256.25
337.281	237.25
337.51	242.25
337.738	252.25
337.966	233.25
338.194	228.25
338.422	234.25
338.65	241.25
338.878	234.25
339.106	222.25
339.334	229.25
339.562	214.25
339.79	211.25
340.018	206.25
340.246	206.25
340.474	199.25
340.702	217.25
340.93	198.25
341.158	206.25
341.386	204.25
341.614	207.25
341.842	212.25
342.07	194.25
342.298	214.25
342.526	205.25
342.754	215.25
342.981	212.25
343.209	182.25
343.437	202.25
343.665	186.25
343.893	198.25
344.12	223.25
344.348	198.25
344.576	192.25
344.804	185.25
345.031	190.25
345.259	200.25
345.487	196.25
345.714	181.25
345.942	176.25
346.17	200.25
346.397	183.25
346.625	200.25
346.853	191.25
347.08	196.25
347.308	190.25
347.535	198.25
347.763	196.25
347.99	176.25
348.218	184.25
348.445	176.25
348.673	202.25
348.9	198.25
349.128	183.25
349.355	186.25
349.583	192.25
349.81	180.25
350.037	177.25
350.265	200.25
350.492	186.25
350.72	189.25
350.947	191.25
351.174	191.25
351.402	194.25
351.629	192.25
351.856	192.25
352.083	203.25
352.311	213.25
352.538	184.25
352.765	194.25
352.992	205.25
353.22	196.25
353.447	185.25
353.674	191.25
353.901	195.25
354.128	191.25
354.355	185.25
354.583	170.25
354.81	197.25
355.037	198.25
355.264	193.25
355.491	189.25
355.718	191.25
355.945	199.25
356.172	183.25
356.399	176.25
356.626	186.25
356.853	183.25
357.08	182.25
357.307	184.25
357.534	192.25
357.761	181.25
357.988	181.25
358.215	161.25
358.441	184.25
358.668	166.25
358.895	182.25
359.122	189.25
359.349	181.25
359.576	180.25
359.802	174.25
360.029	188.25
360.256	184.25
360.483	176.25
360.709	188.25
360.936	191.25
361.163	194.25
361.39	186.25
361.616	164.25
361.843	180.25
362.07	188.25
362.296	186.25
362.523	184.25
362.749	200.25
362.976	184.25
363.203	182.25
363.429	170.25
363.656	185.25
363.882	199.25
364.109	177.25
364.335	186.25
364.562	175.25
364.788	181.25
365.015	166.25
365.241	183.25
365.468	194.25
365.694	184.25
365.92	175.25
366.147	177.25
366.373	189.25
366.599	186.25
366.826	185.25
367.052	164.25
367.278	185.25
367.505	188.25
367.731	173.25
367.957	193.25
368.184	183.25
368.41	175.25
368.636	187.25
368.862	182.25
369.089	186.25
369.315	191.25
369.541	188.25
369.767	198.25
369.993	201.25
370.219	168.25
370.445	186.25
370.672	199.25
370.898	178.25
371.124	191.25
371.35	191.25
371.576	174.25
371.802	196.25
372.028	193.25
372.254	190.25
372.48	191.25
372.706	188.25
372.932	189.25
373.158	175.25
373.384	189.25
373.61	198.25
373.835	185.25
374.061	194.25
374.287	184.25
374.513	200.25
374.739	193.25
374.965	183.25
375.191	198.25
375.416	203.25
375.642	204.25
375.868	183.25
376.094	190.25
376.319	203.25
376.545	178.25
376.771	198.25
376.997	197.25
377.222	191.25
377.448	184.25
377.674	192.25
377.899	194.25
378.125	194.25
378.35	183.25
378.576	181.25
378.802	175.25
379.027	189.25
379.253	198.25
379.478	188.25
379.704	207.25
379.929	193.25
380.155	187.25
380.38	166.25
380.606	196.25
380.831	210.25
381.057	204.25
381.282	190.25
381.507	185.25
381.733	197.25
381.958	204.25
382.184	190.25
382.409	186.25
382.634	198.25
382.86	203.25
383.085	183.25
383.31	187.25
383.535	205.25
383.761	194.25
383.986	196.25
384.211	200.25
384.436	207.25
384.662	216.25
384.887	206.25
385.112	214.25
385.337	218.25
385.562	220.25
385.787	214.25
386.013	223.25
386.238	206.25
386.463	212.25
386.688	221.25
386.913	192.25
387.138	207.25
387.363	216.25
387.588	200.25
387.813	213.25
388.038	204.25
388.263	194.25
388.488	212.25
388.713	212.25
388.938	207.25
389.163	210.25
389.387	229.25
389.612	217.25
389.837	206.25
390.062	228.25
390.287	201.25
390.512	198.25
390.736	193.25
390.961	217.25
391.186	223.25
391.411	201.25
391.636	215.25
391.86	234.25
392.085	216.25
392.31	220.25
392.534	219.25
392.759	205.25
392.984	220.25
393.208	219.25
393.433	203.25
393.658	213.25
393.882	222.25
394.107	242.25
394.331	224.25
394.556	223.25
394.78	216.25
395.005	223.25
395.229	213.25
395.454	241.25
395.678	228.25
395.903	226.25
396.127	231.25
396.352	226.25
396.576	237.25
396.801	220.25
397.025	236.25
397.249	231.25
397.474	240.25
397.698	220.25
397.922	235.25
398.147	238.25
398.371	227.25
398.595	238.25
398.82	249.25
399.044	263.25
399.268	268.25
399.492	269.25
399.717	283.25
399.941	274.25
400.165	273.25
400.389	270.25
400.613	253.25
400.837	250.25
401.062	238.25
401.286	241.25
401.51	243.25
401.734	253.25
401.958	252.25
402.182	248.25
402.406	239.25
402.63	244.25
402.854	257.25
403.078	237.25
403.302	250.25
403.526	249.25
403.75	258.25
403.974	257.25
404.198	262.25
404.422	257.25
404.645	288.25
404.869	286.25
405.093	312.25
405.317	330.25
405.541	328.25
405.765	292.25
405.988	284.25
406.212	278.25
406.436	259.25
406.66	269.25
406.883	269.25
407.107	268.25
407.331	279.25
407.555	285.25
407.778	267.25
408.002	265.25
408.226	269.25
408.449	252.25
408.673	263.25
408.896	265.25
409.12	265.25
409.344	265.25
409.567	249.25
409.791	255.25
410.014	263.25
410.238	258.25
410.461	238.25
410.685	259.25
410.908	261.25
411.132	247.25
411.355	242.25
411.578	277.25
411.802	250.25
412.025	284.25
412.249	294.25
412.472	325.25
412.695	351.25
412.919	338.25
413.142	296.25
413.365	293.25
413.589	279.25
413.812	253.25
414.035	268.25
414.258	273.25
414.482	245.25
414.705	244.25
414.928	254.25
415.151	254.25
415.374	237.25
415.597	241.25
415.821	259.25
416.044	259.25
416.267	236.25
416.49	256.25
416.713	253.25
416.936	251.25
417.159	259.25
417.382	262.25
417.605	281.25
417.828	266.25
418.051	265.25
418.274	250.25
418.497	252.25
418.72	255.25
418.943	251.25
419.166	267.25
419.389	269.25
419.611	294.25
419.834	276.25
420.057	310.25
420.28	314.25
420.503	308.25
420.726	288.25
420.948	273.25
421.171	276.25
421.394	244.25
421.617	253.25
421.839	245.25
422.062	261.25
422.285	246.25
422.507	239.25
422.73	238.25
422.953	246.25
423.175	256.25
423.398	247.25
423.621	257.25
423.843	235.25
424.066	256.25
424.288	267.25
424.511	251.25
424.733	243.25
424.956	239.25
425.178	232.25
425.401	250.25
425.623	254.25
425.846	218.25
426.068	248.25
426.291	254.25
426.513	224.25
426.735	255.25
426.958	253.25
427.18	241.25
427.402	270.25
427.625	294.25
427.847	316.25
428.069	348.25
428.292	304.25
428.514	247.25
428.736	240.25
428.958	242.25
429.181	224.25
429.403	221.25
429.625	231.25
429.847	228.25
430.069	229.25
430.292	235.25
430.514	232.25
430.736	234.25
430.958	223.25
431.18	222.25
431.402	228.25
431.624	228.25
431.846	233.25
432.068	224.25
432.29	236.25
432.512	230.25
432.734	214.25
432.956	216.25
433.178	232.25
433.4	226.25
433.622	244.25
433.844	247.25
434.066	220.25
434.287	225.25
434.509	219.25
434.731	216.25
434.953	244.25
435.175	242.25
435.397	235.25
435.618	228.25
435.84	204.25
436.062	232.25
436.284	226.25
436.505	235.25
436.727	212.25
436.949	239.25
437.17	240.25
437.392	214.25
437.614	232.25
437.835	219.25
438.057	216.25
438.278	232.25
438.5	209.25
438.721	226.25
438.943	237.25
439.165	236.25
439.386	230.25
439.608	228.25
439.829	221.25
440.05	241.25
440.272	220.25
440.493	217.25
440.715	233.25
440.936	225.25
441.158	221.25
441.379	236.25
441.6	244.25
441.822	236.25
442.043	225.25
442.264	220.25
442.486	225.25
442.707	233.25
442.928	219.25
443.149	232.25
443.371	232.25
443.592	240.25
443.813	249.25
444.034	260.25
444.255	261.25
444.476	250.25
444.698	256.25
444.919	264.25
445.14	351.25
445.361	287.25
445.582	256.25
445.803	249.25
446.024	214.25
446.245	240.25
446.466	232.25
446.687	240.25
446.908	215.25
447.129	238.25
447.35	233.25
447.571	231.25
447.792	232.25
448.013	233.25
448.234	216.25
448.455	220.25
448.675	212.25
448.896	215.25
449.117	216.25
449.338	206.25
449.559	196.25
449.779	236.25
450	212.25
450.221	185.25
450.442	191.25
450.662	204.25
450.883	223.25
451.104	223.25
451.324	211.25
451.545	222.25
451.766	206.25
451.986	202.25
452.207	217.25
452.428	232.25
452.648	221.25
452.869	214.25
453.089	204.25
453.31	204.25
453.53	224.25
453.751	202.25
453.971	193.25
454.192	204.25
454.412	199.25
454.633	202.25
454.853	207.25
455.073	183.25
455.294	213.25
455.514	198.25
455.734	201.25
455.955	220.25
456.175	214.25
456.395	215.25
456.616	218.25
456.836	198.25
457.056	204.25
457.276	216.25
457.497	210.25
457.717	202.25
457.937	208.25
458.157	216.25
458.377	208.25
458.598	205.25
458.818	223.25
459.038	209.25
459.258	218.25
459.478	218.25
459.698	202.25
459.918	236.25
460.138	218.25
460.358	245.25
460.578	257.25
460.798	244.25
461.018	243.25
461.238	237.25
461.458	244.25
461.678	257.25
461.898	251.25
462.118	262.25
462.338	258.25
462.558	258.25
462.777	262.25
462.997	272.25
463.217	263.25
463.437	278.25
463.657	264.25
463.876	262.25
464.096	265.25
464.316	263.25
464.536	250.25
464.755	248.25
464.975	238.25
465.195	259.25
465.414	232.25
465.634	243.25
465.854	238.25
466.073	244.25
466.293	256.25
466.512	241.25
466.732	242.25
466.951	246.25
467.171	258.25
467.391	278.25
467.61	301.25
467.829	394.25
468.049	656.25
468.268	798.25
468.488	497.25
468.707	352.25
468.927	304.25
469.146	287.25
469.365	260.25
469.585	273.25
469.804	275.25
470.023	280.25
470.243	279.25
470.462	280.25
470.681	262.25
470.901	273.25
471.12	267.25
471.339	290.25
471.558	302.25
471.777	364.25
471.997	544.25
472.216	1111.25
472.435	1671.25
472.654	948.25
472.873	582.25
473.092	439.25
473.311	364.25
473.53	334.25
473.749	311.25
473.968	300.25
474.187	305.25
474.406	286.25
474.625	288.25
474.844	270.25
475.063	269.25
475.282	253.25
475.501	260.25
475.72	265.25
475.939	269.25
476.158	266.25
476.377	255.25
476.596	262.25
476.814	255.25
477.033	245.25
477.252	264.25
477.471	265.25
477.69	281.25
477.908	268.25
478.127	277.25
478.346	268.25
478.564	276.25
478.783	294.25
479.002	282.25
479.22	292.25
479.439	310.25
479.658	305.25
479.876	351.25
480.095	367.25
480.313	411.25
480.532	440.25
480.751	638.25
480.969	1203.25
481.188	2671.25
481.406	2145.25
481.624	1048.25
481.843	703.25
482.061	561.25
482.28	494.25
482.498	445.25
482.717	401.25
482.935	380.25
483.153	381.25
483.372	357.25
483.59	333.25
483.808	344.25
484.027	302.25
484.245	312.25
484.463	315.25
484.681	325.25
484.9	314.25
485.118	288.25
485.336	316.25
485.554	298.25
485.772	298.25
485.99	283.25
486.209	300.25
486.427	297.25
486.645	283.25
486.863	304.25
487.081	300.25
487.299	296.25
487.517	277.25
487.735	300.25
487.953	318.25
488.171	314.25
488.389	309.25
488.607	312.25
488.825	311.25
489.043	312.25
489.261	303.25
489.479	332.25
489.696	334.25
489.914	348.25
490.132	328.25
490.35	342.25
490.568	359.25
490.786	370.25
491.003	412.25
491.221	430.25
491.439	461.25
491.657	481.25
491.874	477.25
492.092	497.25
492.31	508.25
492.527	542.25
492.745	538.25
492.963	512.25
493.18	489.25
493.398	464.25
493.615	459.25
493.833	430.25
494.05	425.25
494.268	422.25
494.485	401.25
494.703	410.25
494.92	396.25
495.138	399.25
495.355	376.25
495.573	360.25
495.79	345.25
496.008	382.25
496.225	367.25
496.442	372.25
496.66	360.25
496.877	359.25
497.094	379.25
497.312	353.25
497.529	341.25
497.746	343.25
497.963	351.25
498.181	346.25
498.398	368.25
498.615	348.25
498.832	355.25
499.049	381.25
499.267	394.25
499.484	405.25
499.701	408.25
499.918	442.25
500.135	434.25
500.352	489.25
500.569	496.25
500.786	524.25
501.003	492.25
501.22	468.25
501.437	425.25
501.654	402.25
501.871	372.25
502.088	366.25
502.305	368.25
502.522	366.25
502.739	330.25
502.956	318.25
503.172	314.25
503.389	297.25
