Data from StdC_HRD10591_085.txt Node
Date: Fri May 16 15:29:23 EDT 2025
User: Yrep
Spectrometer: HR+D1059
Trigger mode: 1
Integration Time (sec): 1.000000E-1
Scans to average: 1
Electric dark correction enabled: true
Nonlinearity correction enabled: false
Boxcar width: 0
XAxis mode: Wavelengths
Number of Pixels in Spectrum: 2048
>>>>>Begin Spectral Data<<<<<
223.165	-25.25
223.4	-25.25
223.635	-25.25
223.869	-21.25
224.104	-24.25
224.338	-13.25
224.573	-8.25
224.808	-7.25
225.042	-9.25
225.277	10.75
225.511	-1.25
225.746	-2.25
225.98	17.75
226.215	6.75
226.449	20.75
226.683	7.75
226.918	15.75
227.152	32.75
227.387	47.75
227.621	34.75
227.856	40.75
228.09	46.75
228.324	60.75
228.559	55.75
228.793	65.75
229.027	70.75
229.262	76.75
229.496	75.75
229.73	84.75
229.964	79.75
230.199	81.75
230.433	71.75
230.667	92.75
230.901	94.75
231.136	77.75
231.37	86.75
231.604	89.75
231.838	85.75
232.072	76.75
232.306	85.75
232.541	88.75
232.775	97.75
233.009	78.75
233.243	94.75
233.477	88.75
233.711	93.75
233.945	84.75
234.179	80.75
234.413	80.75
234.647	78.75
234.881	87.75
235.115	80.75
235.349	91.75
235.583	92.75
235.817	88.75
236.051	92.75
236.285	92.75
236.519	103.75
236.753	94.75
236.987	89.75
237.221	67.75
237.455	97.75
237.689	95.75
237.922	93.75
238.156	90.75
238.39	86.75
238.624	91.75
238.858	83.75
239.091	95.75
239.325	85.75
239.559	81.75
239.793	98.75
240.027	98.75
240.26	90.75
240.494	95.75
240.728	91.75
240.961	92.75
241.195	102.75
241.429	100.75
241.662	94.75
241.896	77.75
242.13	96.75
242.363	95.75
242.597	91.75
242.83	98.75
243.064	84.75
243.298	100.75
243.531	97.75
243.765	104.75
243.998	105.75
244.232	89.75
244.465	102.75
244.699	109.75
244.932	107.75
245.166	112.75
245.399	113.75
245.633	122.75
245.866	103.75
246.099	88.75
246.333	111.75
246.566	108.75
246.8	116.75
247.033	109.75
247.266	105.75
247.5	104.75
247.733	96.75
247.966	113.75
248.2	103.75
248.433	116.75
248.666	120.75
248.899	104.75
249.133	120.75
249.366	126.75
249.599	129.75
249.832	126.75
250.066	140.75
250.299	186.75
250.532	216.75
250.765	174.75
250.998	147.75
251.231	140.75
251.465	122.75
251.698	129.75
251.931	113.75
252.164	125.75
252.397	123.75
252.63	115.75
252.863	127.75
253.096	121.75
253.329	116.75
253.562	120.75
253.795	128.75
254.028	133.75
254.261	139.75
254.494	123.75
254.727	141.75
254.96	142.75
255.193	140.75
255.426	146.75
255.659	193.75
255.892	256.75
256.124	303.75
256.357	258.75
256.59	220.75
256.823	184.75
257.056	153.75
257.289	143.75
257.521	141.75
257.754	157.75
257.987	146.75
258.22	142.75
258.452	148.75
258.685	128.75
258.918	117.75
259.151	117.75
259.383	127.75
259.616	126.75
259.849	122.75
260.081	132.75
260.314	127.75
260.547	148.75
260.779	124.75
261.012	144.75
261.244	141.75
261.477	144.75
261.71	129.75
261.942	136.75
262.175	134.75
262.407	129.75
262.64	135.75
262.872	124.75
263.105	140.75
263.337	124.75
263.57	128.75
263.802	124.75
264.035	137.75
264.267	125.75
264.499	125.75
264.732	120.75
264.964	122.75
265.197	133.75
265.429	132.75
265.661	130.75
265.894	126.75
266.126	132.75
266.358	127.75
266.591	123.75
266.823	130.75
267.055	132.75
267.287	146.75
267.52	134.75
267.752	127.75
267.984	132.75
268.216	126.75
268.448	134.75
268.681	134.75
268.913	126.75
269.145	150.75
269.377	136.75
269.609	143.75
269.841	133.75
270.073	135.75
270.306	139.75
270.538	136.75
270.77	146.75
271.002	144.75
271.234	141.75
271.466	135.75
271.698	136.75
271.93	149.75
272.162	145.75
272.394	143.75
272.626	136.75
272.858	137.75
273.09	152.75
273.322	148.75
273.553	151.75
273.785	137.75
274.017	157.75
274.249	145.75
274.481	149.75
274.713	151.75
274.945	156.75
275.176	165.75
275.408	166.75
275.64	175.75
275.872	172.75
276.104	173.75
276.335	169.75
276.567	176.75
276.799	201.75
277.031	206.75
277.262	229.75
277.494	217.75
277.726	189.75
277.957	192.75
278.189	189.75
278.421	196.75
278.652	157.75
278.884	168.75
279.115	164.75
279.347	204.75
279.579	202.75
279.81	221.75
280.042	264.75
280.273	282.75
280.505	255.75
280.736	218.75
280.968	203.75
281.199	185.75
281.431	193.75
281.662	177.75
281.894	157.75
282.125	158.75
282.356	174.75
282.588	168.75
282.819	171.75
283.051	160.75
283.282	150.75
283.513	161.75
283.745	167.75
283.976	159.75
284.207	151.75
284.439	155.75
284.67	166.75
284.901	159.75
285.132	156.75
285.364	165.75
285.595	146.75
285.826	166.75
286.057	156.75
286.288	158.75
286.52	151.75
286.751	154.75
286.982	174.75
287.213	157.75
287.444	157.75
287.675	176.75
287.906	173.75
288.138	166.75
288.369	140.75
288.6	159.75
288.831	151.75
289.062	157.75
289.293	152.75
289.524	166.75
289.755	146.75
289.986	158.75
290.217	162.75
290.448	161.75
290.679	162.75
290.91	154.75
291.141	158.75
291.371	161.75
291.602	159.75
291.833	166.75
292.064	158.75
292.295	154.75
292.526	145.75
292.757	156.75
292.987	152.75
293.218	140.75
293.449	153.75
293.68	169.75
293.91	159.75
294.141	159.75
294.372	172.75
294.603	145.75
294.833	139.75
295.064	152.75
295.295	156.75
295.525	152.75
295.756	145.75
295.987	154.75
296.217	178.75
296.448	149.75
296.679	155.75
296.909	153.75
297.14	159.75
297.37	142.75
297.601	146.75
297.831	147.75
298.062	152.75
298.292	152.75
298.523	156.75
298.753	151.75
298.984	135.75
299.214	153.75
299.445	155.75
299.675	181.75
299.905	152.75
300.136	159.75
300.366	165.75
300.597	164.75
300.827	163.75
301.057	177.75
301.288	151.75
301.518	160.75
301.748	165.75
301.979	192.75
302.209	169.75
302.439	169.75
302.669	157.75
302.9	159.75
303.13	164.75
303.36	187.75
303.59	190.75
303.82	200.75
304.051	187.75
304.281	163.75
304.511	186.75
304.741	176.75
304.971	161.75
305.201	160.75
305.431	169.75
305.661	147.75
305.891	174.75
306.121	176.75
306.352	175.75
306.582	180.75
306.812	175.75
307.042	214.75
307.272	231.75
307.502	235.75
307.731	206.75
307.961	203.75
308.191	191.75
308.421	190.75
308.651	185.75
308.881	173.75
309.111	176.75
309.341	166.75
309.571	153.75
309.8	162.75
310.03	185.75
310.26	179.75
310.49	185.75
310.72	176.75
310.949	159.75
311.179	177.75
311.409	165.75
311.639	163.75
311.868	173.75
312.098	170.75
312.328	178.75
312.557	169.75
312.787	172.75
313.017	191.75
313.246	164.75
313.476	177.75
313.706	170.75
313.935	167.75
314.165	175.75
314.394	167.75
314.624	189.75
314.853	161.75
315.083	178.75
315.312	187.75
315.542	164.75
315.771	183.75
316.001	182.75
316.23	165.75
316.46	195.75
316.689	179.75
316.919	185.75
317.148	161.75
317.377	176.75
317.607	180.75
317.836	185.75
318.065	190.75
318.295	194.75
318.524	184.75
318.753	187.75
318.983	171.75
319.212	188.75
319.441	182.75
319.67	188.75
319.9	171.75
320.129	194.75
320.358	198.75
320.587	165.75
320.816	172.75
321.046	204.75
321.275	187.75
321.504	180.75
321.733	189.75
321.962	180.75
322.191	196.75
322.42	195.75
322.649	205.75
322.878	204.75
323.108	214.75
323.337	215.75
323.566	215.75
323.795	212.75
324.024	223.75
324.253	215.75
324.482	219.75
324.71	222.75
324.939	247.75
325.168	249.75
325.397	240.75
325.626	234.75
325.855	235.75
326.084	260.75
326.313	243.75
326.542	263.75
326.77	272.75
326.999	282.75
327.228	281.75
327.457	343.75
327.686	423.75
327.914	566.75
328.143	736.75
328.372	768.75
328.6	545.75
328.829	398.75
329.058	367.75
329.287	421.75
329.515	492.75
329.744	700.75
329.972	1002.75
330.201	1329.75
330.43	1368.75
330.658	786.75
330.887	498.75
331.115	395.75
331.344	351.75
331.572	326.75
331.801	328.75
332.03	329.75
332.258	322.75
332.486	318.75
332.715	337.75
332.943	364.75
333.172	406.75
333.4	459.75
333.629	545.75
333.857	725.75
334.085	1064.75
334.314	1529.75
334.542	1891.75
334.771	1550.75
334.999	788.75
335.227	514.75
335.455	427.75
335.684	369.75
335.912	341.75
336.14	307.75
336.369	276.75
336.597	267.75
336.825	280.75
337.053	250.75
337.281	268.75
337.51	246.75
337.738	251.75
337.966	240.75
338.194	238.75
338.422	224.75
338.65	214.75
338.878	231.75
339.106	224.75
339.334	225.75
339.562	203.75
339.79	223.75
340.018	210.75
340.246	221.75
340.474	208.75
340.702	195.75
340.93	205.75
341.158	199.75
341.386	200.75
341.614	199.75
341.842	213.75
342.07	179.75
342.298	196.75
342.526	202.75
342.754	188.75
342.981	216.75
343.209	200.75
343.437	197.75
343.665	205.75
343.893	207.75
344.12	225.75
344.348	216.75
344.576	210.75
344.804	194.75
345.031	180.75
345.259	191.75
345.487	196.75
345.714	189.75
345.942	182.75
346.17	192.75
346.397	174.75
346.625	194.75
346.853	200.75
347.08	182.75
347.308	185.75
347.535	185.75
347.763	193.75
347.99	199.75
348.218	200.75
348.445	187.75
348.673	182.75
348.9	204.75
349.128	190.75
349.355	202.75
349.583	193.75
349.81	193.75
350.037	175.75
350.265	196.75
350.492	176.75
350.72	195.75
350.947	203.75
351.174	194.75
351.402	174.75
351.629	169.75
351.856	202.75
352.083	182.75
352.311	176.75
352.538	194.75
352.765	180.75
352.992	204.75
353.22	185.75
353.447	185.75
353.674	194.75
353.901	191.75
354.128	185.75
354.355	189.75
354.583	167.75
354.81	195.75
355.037	196.75
355.264	202.75
355.491	180.75
355.718	182.75
355.945	200.75
356.172	176.75
356.399	172.75
356.626	169.75
356.853	192.75
357.08	188.75
357.307	176.75
357.534	181.75
357.761	157.75
357.988	185.75
358.215	181.75
358.441	190.75
358.668	189.75
358.895	199.75
359.122	162.75
359.349	175.75
359.576	198.75
359.802	176.75
360.029	180.75
360.256	194.75
360.483	167.75
360.709	175.75
360.936	185.75
361.163	170.75
361.39	186.75
361.616	170.75
361.843	192.75
362.07	188.75
362.296	183.75
362.523	173.75
362.749	176.75
362.976	181.75
363.203	167.75
363.429	180.75
363.656	186.75
363.882	181.75
364.109	160.75
364.335	174.75
364.562	176.75
364.788	192.75
365.015	201.75
365.241	194.75
365.468	174.75
365.694	166.75
365.92	207.75
366.147	167.75
366.373	183.75
366.599	177.75
366.826	182.75
367.052	193.75
367.278	195.75
367.505	167.75
367.731	190.75
367.957	178.75
368.184	167.75
368.41	183.75
368.636	183.75
368.862	189.75
369.089	172.75
369.315	199.75
369.541	168.75
369.767	182.75
369.993	198.75
370.219	190.75
370.445	186.75
370.672	183.75
370.898	176.75
371.124	194.75
371.35	192.75
371.576	185.75
371.802	185.75
372.028	194.75
372.254	187.75
372.48	168.75
372.706	198.75
372.932	195.75
373.158	205.75
373.384	201.75
373.61	189.75
373.835	192.75
374.061	165.75
374.287	169.75
374.513	188.75
374.739	206.75
374.965	194.75
375.191	174.75
375.416	202.75
375.642	190.75
375.868	200.75
376.094	184.75
376.319	196.75
376.545	178.75
376.771	184.75
376.997	187.75
377.222	165.75
377.448	190.75
377.674	193.75
377.899	188.75
378.125	183.75
378.35	184.75
378.576	181.75
378.802	201.75
379.027	178.75
379.253	187.75
379.478	200.75
379.704	189.75
379.929	176.75
380.155	194.75
380.38	187.75
380.606	181.75
380.831	205.75
381.057	189.75
381.282	177.75
381.507	198.75
381.733	201.75
381.958	189.75
382.184	197.75
382.409	207.75
382.634	184.75
382.86	212.75
383.085	204.75
383.31	203.75
383.535	195.75
383.761	194.75
383.986	170.75
384.211	214.75
384.436	206.75
384.662	208.75
384.887	217.75
385.112	212.75
385.337	198.75
385.562	210.75
385.787	194.75
386.013	209.75
386.238	201.75
386.463	192.75
386.688	209.75
386.913	192.75
387.138	201.75
387.363	224.75
387.588	213.75
387.813	204.75
388.038	202.75
388.263	209.75
388.488	214.75
388.713	215.75
388.938	215.75
389.163	214.75
389.387	209.75
389.612	204.75
389.837	209.75
390.062	206.75
390.287	200.75
390.512	217.75
390.736	215.75
390.961	210.75
391.186	193.75
391.411	218.75
391.636	200.75
391.86	212.75
392.085	206.75
392.31	228.75
392.534	210.75
392.759	225.75
392.984	221.75
393.208	218.75
393.433	197.75
393.658	204.75
393.882	224.75
394.107	205.75
394.331	232.75
394.556	213.75
394.78	200.75
395.005	224.75
395.229	213.75
395.454	218.75
395.678	215.75
395.903	225.75
396.127	234.75
396.352	227.75
396.576	216.75
396.801	236.75
397.025	242.75
397.249	218.75
397.474	221.75
397.698	225.75
397.922	231.75
398.147	240.75
398.371	244.75
398.595	246.75
398.82	245.75
399.044	251.75
399.268	259.75
399.492	272.75
399.717	287.75
399.941	276.75
400.165	268.75
400.389	249.75
400.613	257.75
400.837	241.75
401.062	231.75
401.286	244.75
401.51	248.75
401.734	234.75
401.958	228.75
402.182	225.75
402.406	232.75
402.63	230.75
402.854	244.75
403.078	248.75
403.302	228.75
403.526	241.75
403.75	249.75
403.974	266.75
404.198	247.75
404.422	265.75
404.645	274.75
404.869	289.75
405.093	287.75
405.317	319.75
405.541	310.75
405.765	288.75
405.988	263.75
406.212	268.75
406.436	269.75
406.66	270.75
406.883	242.75
407.107	258.75
407.331	283.75
407.555	253.75
407.778	254.75
408.002	268.75
408.226	268.75
408.449	274.75
408.673	270.75
408.896	248.75
409.12	252.75
409.344	266.75
409.567	262.75
409.791	251.75
410.014	247.75
410.238	234.75
410.461	253.75
410.685	244.75
410.908	255.75
411.132	264.75
411.355	246.75
411.578	269.75
411.802	261.75
412.025	271.75
412.249	282.75
412.472	328.75
412.695	319.75
412.919	313.75
413.142	308.75
413.365	278.75
413.589	277.75
413.812	286.75
414.035	271.75
414.258	272.75
414.482	263.75
414.705	254.75
414.928	246.75
415.151	252.75
415.374	251.75
415.597	246.75
415.821	261.75
416.044	250.75
416.267	255.75
416.49	243.75
416.713	255.75
416.936	248.75
417.159	250.75
417.382	277.75
417.605	274.75
417.828	281.75
418.051	252.75
418.274	265.75
418.497	243.75
418.72	255.75
418.943	263.75
419.166	253.75
419.389	262.75
419.611	275.75
419.834	287.75
420.057	293.75
420.28	332.75
420.503	292.75
420.726	292.75
420.948	251.75
421.171	274.75
421.394	258.75
421.617	252.75
421.839	253.75
422.062	282.75
422.285	263.75
422.507	232.75
422.73	239.75
422.953	248.75
423.175	238.75
423.398	246.75
423.621	242.75
423.843	233.75
424.066	244.75
424.288	252.75
424.511	241.75
424.733	236.75
424.956	247.75
425.178	241.75
425.401	254.75
425.623	252.75
425.846	246.75
426.068	245.75
426.291	242.75
426.513	233.75
426.735	250.75
426.958	252.75
427.18	258.75
427.402	267.75
427.625	311.75
427.847	320.75
428.069	347.75
428.292	296.75
428.514	260.75
428.736	265.75
428.958	256.75
429.181	242.75
429.403	244.75
429.625	227.75
429.847	234.75
430.069	247.75
430.292	222.75
430.514	231.75
430.736	238.75
430.958	234.75
431.18	231.75
431.402	237.75
431.624	221.75
431.846	212.75
432.068	225.75
432.29	230.75
432.512	224.75
432.734	232.75
432.956	230.75
433.178	234.75
433.4	231.75
433.622	215.75
433.844	241.75
434.066	221.75
434.287	215.75
434.509	215.75
434.731	231.75
434.953	242.75
435.175	235.75
435.397	234.75
435.618	238.75
435.84	221.75
436.062	217.75
436.284	225.75
436.505	214.75
436.727	229.75
436.949	230.75
437.17	217.75
437.392	217.75
437.614	225.75
437.835	213.75
438.057	225.75
438.278	217.75
438.5	206.75
438.721	216.75
438.943	223.75
439.165	207.75
439.386	222.75
439.608	239.75
439.829	212.75
440.05	219.75
440.272	222.75
440.493	221.75
440.715	226.75
440.936	242.75
441.158	236.75
441.379	231.75
441.6	221.75
441.822	255.75
442.043	212.75
442.264	231.75
442.486	229.75
442.707	225.75
442.928	246.75
443.149	244.75
443.371	222.75
443.592	229.75
443.813	230.75
444.034	235.75
444.255	240.75
444.476	244.75
444.698	240.75
444.919	249.75
445.14	313.75
445.361	273.75
445.582	215.75
445.803	220.75
446.024	223.75
446.245	221.75
446.466	224.75
446.687	236.75
446.908	231.75
447.129	214.75
447.35	217.75
447.571	207.75
447.792	219.75
448.013	223.75
448.234	229.75
448.455	222.75
448.675	222.75
448.896	214.75
449.117	225.75
449.338	208.75
449.559	233.75
449.779	212.75
450	221.75
450.221	212.75
450.442	209.75
450.662	209.75
450.883	213.75
451.104	222.75
451.324	217.75
451.545	208.75
451.766	214.75
451.986	206.75
452.207	214.75
452.428	214.75
452.648	202.75
452.869	219.75
453.089	200.75
453.31	218.75
453.53	198.75
453.751	189.75
453.971	217.75
454.192	191.75
454.412	200.75
454.633	210.75
454.853	216.75
455.073	215.75
455.294	211.75
455.514	207.75
455.734	202.75
455.955	222.75
456.175	209.75
456.395	213.75
456.616	205.75
456.836	211.75
457.056	208.75
457.276	215.75
457.497	222.75
457.717	209.75
457.937	210.75
458.157	194.75
458.377	204.75
458.598	216.75
458.818	230.75
459.038	225.75
459.258	208.75
459.478	225.75
459.698	221.75
459.918	211.75
460.138	244.75
460.358	243.75
460.578	244.75
460.798	245.75
461.018	217.75
461.238	229.75
461.458	223.75
461.678	250.75
461.898	249.75
462.118	238.75
462.338	233.75
462.558	254.75
462.777	271.75
462.997	262.75
463.217	284.75
463.437	262.75
463.657	264.75
463.876	275.75
464.096	267.75
464.316	256.75
464.536	253.75
464.755	256.75
464.975	243.75
465.195	256.75
465.414	245.75
465.634	236.75
465.854	246.75
466.073	241.75
466.293	253.75
466.512	262.75
466.732	241.75
466.951	238.75
467.171	263.75
467.391	249.75
467.61	284.75
467.829	398.75
468.049	683.75
468.268	820.75
468.488	493.75
468.707	342.75
468.927	304.75
469.146	298.75
469.365	273.75
469.585	263.75
469.804	262.75
470.023	265.75
470.243	254.75
470.462	268.75
470.681	276.75
470.901	269.75
471.12	278.75
471.339	287.75
471.558	300.75
471.777	382.75
471.997	539.75
472.216	1175.75
472.435	1758.75
472.654	1009.75
472.873	574.75
473.092	455.75
473.311	376.75
473.53	350.75
473.749	338.75
473.968	321.75
474.187	317.75
474.406	279.75
474.625	286.75
474.844	277.75
475.063	264.75
475.282	259.75
475.501	267.75
475.72	265.75
475.939	256.75
476.158	252.75
476.377	256.75
476.596	264.75
476.814	257.75
477.033	261.75
477.252	264.75
477.471	273.75
477.69	267.75
477.908	265.75
478.127	268.75
478.346	254.75
478.564	294.75
478.783	275.75
479.002	296.75
479.22	304.75
479.439	283.75
479.658	314.75
479.876	345.75
480.095	336.75
480.313	390.75
480.532	456.75
480.751	634.75
480.969	1237.75
481.188	2781.75
481.406	2233.75
481.624	1079.75
481.843	714.75
482.061	565.75
482.28	469.75
482.498	451.75
482.717	396.75
482.935	377.75
483.153	378.75
483.372	362.75
483.59	340.75
483.808	343.75
484.027	322.75
484.245	320.75
484.463	320.75
484.681	302.75
484.9	318.75
485.118	304.75
485.336	302.75
485.554	305.75
485.772	300.75
485.99	296.75
486.209	301.75
486.427	298.75
486.645	309.75
486.863	306.75
487.081	285.75
487.299	298.75
487.517	305.75
487.735	301.75
487.953	288.75
488.171	316.75
488.389	308.75
488.607	305.75
488.825	303.75
489.043	297.75
489.261	313.75
489.479	320.75
489.696	314.75
489.914	329.75
490.132	343.75
490.35	352.75
490.568	333.75
490.786	372.75
491.003	415.75
491.221	442.75
491.439	452.75
491.657	481.75
491.874	481.75
492.092	480.75
492.31	498.75
492.527	553.75
492.745	515.75
492.963	514.75
493.18	478.75
493.398	486.75
493.615	466.75
493.833	447.75
494.05	415.75
494.268	414.75
494.485	399.75
494.703	380.75
494.92	380.75
495.138	384.75
495.355	359.75
495.573	384.75
495.79	368.75
496.008	346.75
496.225	341.75
496.442	348.75
496.66	371.75
496.877	359.75
497.094	358.75
497.312	322.75
497.529	340.75
497.746	345.75
497.963	325.75
498.181	353.75
498.398	362.75
498.615	338.75
498.832	370.75
499.049	381.75
499.267	382.75
499.484	371.75
499.701	398.75
499.918	431.75
500.135	476.75
500.352	486.75
500.569	506.75
500.786	509.75
501.003	476.75
501.22	465.75
501.437	421.75
501.654	367.75
501.871	364.75
502.088	367.75
502.305	363.75
502.522	342.75
502.739	332.75
502.956	331.75
503.172	308.75
503.389	321.75
