Data from StdC_HRD10591_098.txt Node
Date: Fri May 16 15:29:29 EDT 2025
User: Yrep
Spectrometer: HR+D1059
Trigger mode: 1
Integration Time (sec): 1.000000E-1
Scans to average: 1
Electric dark correction enabled: true
Nonlinearity correction enabled: false
Boxcar width: 0
XAxis mode: Wavelengths
Number of Pixels in Spectrum: 2048
>>>>>Begin Spectral Data<<<<<
223.165	-22.25
223.4	-22.25
223.635	-22.25
223.869	-23.25
224.104	-18.25
224.338	-9.25
224.573	-24.25
224.808	-14.25
225.042	-0.25
225.277	-8.25
225.511	-13.25
225.746	24.75
225.98	9.75
226.215	16.75
226.449	12.75
226.683	15.75
226.918	24.75
227.152	28.75
227.387	41.75
227.621	43.75
227.856	55.75
228.09	49.75
228.324	57.75
228.559	53.75
228.793	54.75
229.027	66.75
229.262	76.75
229.496	74.75
229.73	68.75
229.964	73.75
230.199	66.75
230.433	73.75
230.667	77.75
230.901	97.75
231.136	90.75
231.37	97.75
231.604	93.75
231.838	88.75
232.072	99.75
232.306	96.75
232.541	88.75
232.775	77.75
233.009	80.75
233.243	107.75
233.477	94.75
233.711	90.75
233.945	87.75
234.179	88.75
234.413	85.75
234.647	94.75
234.881	89.75
235.115	87.75
235.349	89.75
235.583	97.75
235.817	95.75
236.051	93.75
236.285	97.75
236.519	101.75
236.753	95.75
236.987	105.75
237.221	94.75
237.455	84.75
237.689	95.75
237.922	93.75
238.156	86.75
238.39	91.75
238.624	86.75
238.858	99.75
239.091	79.75
239.325	104.75
239.559	98.75
239.793	86.75
240.027	102.75
240.26	101.75
240.494	97.75
240.728	95.75
240.961	105.75
241.195	109.75
241.429	90.75
241.662	98.75
241.896	87.75
242.13	82.75
242.363	99.75
242.597	87.75
242.83	90.75
243.064	91.75
243.298	98.75
243.531	91.75
243.765	97.75
243.998	98.75
244.232	91.75
244.465	94.75
244.699	95.75
244.932	99.75
245.166	115.75
245.399	98.75
245.633	113.75
245.866	103.75
246.099	106.75
246.333	94.75
246.566	98.75
246.8	103.75
247.033	97.75
247.266	109.75
247.5	102.75
247.733	94.75
247.966	100.75
248.2	119.75
248.433	102.75
248.666	106.75
248.899	105.75
249.133	97.75
249.366	130.75
249.599	123.75
249.832	130.75
250.066	141.75
250.299	191.75
250.532	206.75
250.765	160.75
250.998	149.75
251.231	128.75
251.465	132.75
251.698	131.75
251.931	112.75
252.164	123.75
252.397	135.75
252.63	136.75
252.863	116.75
253.096	124.75
253.329	115.75
253.562	120.75
253.795	121.75
254.028	124.75
254.261	133.75
254.494	111.75
254.727	135.75
254.96	124.75
255.193	145.75
255.426	158.75
255.659	201.75
255.892	262.75
256.124	309.75
256.357	255.75
256.59	214.75
256.823	179.75
257.056	169.75
257.289	145.75
257.521	160.75
257.754	141.75
257.987	125.75
258.22	139.75
258.452	141.75
258.685	139.75
258.918	134.75
259.151	138.75
259.383	150.75
259.616	118.75
259.849	128.75
260.081	138.75
260.314	139.75
260.547	133.75
260.779	145.75
261.012	137.75
261.244	131.75
261.477	133.75
261.71	130.75
261.942	131.75
262.175	133.75
262.407	139.75
262.64	110.75
262.872	122.75
263.105	135.75
263.337	128.75
263.57	123.75
263.802	125.75
264.035	124.75
264.267	133.75
264.499	133.75
264.732	127.75
264.964	113.75
265.197	121.75
265.429	129.75
265.661	136.75
265.894	131.75
266.126	124.75
266.358	124.75
266.591	133.75
266.823	123.75
267.055	120.75
267.287	120.75
267.52	119.75
267.752	135.75
267.984	142.75
268.216	144.75
268.448	125.75
268.681	121.75
268.913	131.75
269.145	129.75
269.377	129.75
269.609	144.75
269.841	141.75
270.073	130.75
270.306	144.75
270.538	139.75
270.77	133.75
271.002	135.75
271.234	140.75
271.466	144.75
271.698	134.75
271.93	142.75
272.162	140.75
272.394	141.75
272.626	135.75
272.858	143.75
273.09	144.75
273.322	134.75
273.553	142.75
273.785	159.75
274.017	145.75
274.249	147.75
274.481	167.75
274.713	155.75
274.945	158.75
275.176	162.75
275.408	166.75
275.64	173.75
275.872	184.75
276.104	187.75
276.335	170.75
276.567	180.75
276.799	190.75
277.031	213.75
277.262	229.75
277.494	214.75
277.726	192.75
277.957	163.75
278.189	181.75
278.421	167.75
278.652	176.75
278.884	164.75
279.115	181.75
279.347	169.75
279.579	180.75
279.81	229.75
280.042	250.75
280.273	277.75
280.505	264.75
280.736	205.75
280.968	205.75
281.199	186.75
281.431	184.75
281.662	170.75
281.894	167.75
282.125	174.75
282.356	162.75
282.588	156.75
282.819	160.75
283.051	158.75
283.282	152.75
283.513	147.75
283.745	167.75
283.976	160.75
284.207	167.75
284.439	149.75
284.67	159.75
284.901	154.75
285.132	174.75
285.364	160.75
285.595	167.75
285.826	145.75
286.057	157.75
286.288	167.75
286.52	169.75
286.751	165.75
286.982	149.75
287.213	164.75
287.444	157.75
287.675	169.75
287.906	155.75
288.138	156.75
288.369	160.75
288.6	161.75
288.831	165.75
289.062	178.75
289.293	160.75
289.524	153.75
289.755	162.75
289.986	150.75
290.217	159.75
290.448	142.75
290.679	161.75
290.91	183.75
291.141	165.75
291.371	163.75
291.602	151.75
291.833	154.75
292.064	166.75
292.295	146.75
292.526	152.75
292.757	156.75
292.987	160.75
293.218	159.75
293.449	154.75
293.68	143.75
293.91	145.75
294.141	151.75
294.372	144.75
294.603	155.75
294.833	164.75
295.064	165.75
295.295	146.75
295.525	147.75
295.756	144.75
295.987	146.75
296.217	141.75
296.448	145.75
296.679	150.75
296.909	161.75
297.14	155.75
297.37	167.75
297.601	172.75
297.831	149.75
298.062	155.75
298.292	165.75
298.523	163.75
298.753	158.75
298.984	158.75
299.214	159.75
299.445	176.75
299.675	163.75
299.905	162.75
300.136	158.75
300.366	175.75
300.597	184.75
300.827	165.75
301.057	160.75
301.288	171.75
301.518	176.75
301.748	183.75
301.979	182.75
302.209	177.75
302.439	175.75
302.669	171.75
302.9	154.75
303.13	174.75
303.36	186.75
303.59	209.75
303.82	197.75
304.051	199.75
304.281	188.75
304.511	178.75
304.741	163.75
304.971	157.75
305.201	162.75
305.431	143.75
305.661	166.75
305.891	167.75
306.121	156.75
306.352	185.75
306.582	162.75
306.812	175.75
307.042	209.75
307.272	206.75
307.502	221.75
307.731	224.75
307.961	178.75
308.191	187.75
308.421	176.75
308.651	185.75
308.881	181.75
309.111	172.75
309.341	151.75
309.571	155.75
309.8	176.75
310.03	165.75
310.26	185.75
310.49	162.75
310.72	167.75
310.949	161.75
311.179	172.75
311.409	182.75
311.639	168.75
311.868	182.75
312.098	167.75
312.328	176.75
312.557	166.75
312.787	167.75
313.017	168.75
313.246	164.75
313.476	173.75
313.706	171.75
313.935	176.75
314.165	166.75
314.394	197.75
314.624	177.75
314.853	153.75
315.083	183.75
315.312	183.75
315.542	172.75
315.771	187.75
316.001	171.75
316.23	181.75
316.46	179.75
316.689	200.75
316.919	161.75
317.148	183.75
317.377	192.75
317.607	171.75
317.836	184.75
318.065	179.75
318.295	170.75
318.524	192.75
318.753	180.75
318.983	174.75
319.212	174.75
319.441	176.75
319.67	203.75
319.9	203.75
320.129	183.75
320.358	181.75
320.587	206.75
320.816	185.75
321.046	174.75
321.275	187.75
321.504	201.75
321.733	181.75
321.962	189.75
322.191	186.75
322.42	199.75
322.649	210.75
322.878	209.75
323.108	211.75
323.337	208.75
323.566	225.75
323.795	221.75
324.024	218.75
324.253	203.75
324.482	210.75
324.71	209.75
324.939	217.75
325.168	222.75
325.397	229.75
325.626	217.75
325.855	237.75
326.084	247.75
326.313	235.75
326.542	257.75
326.77	263.75
326.999	275.75
327.228	298.75
327.457	336.75
327.686	402.75
327.914	540.75
328.143	684.75
328.372	718.75
328.6	533.75
328.829	409.75
329.058	395.75
329.287	403.75
329.515	495.75
329.744	670.75
329.972	925.75
330.201	1240.75
330.43	1298.75
330.658	777.75
330.887	451.75
331.115	384.75
331.344	366.75
331.572	337.75
331.801	340.75
332.03	313.75
332.258	306.75
332.486	311.75
332.715	346.75
332.943	375.75
333.172	389.75
333.4	433.75
333.629	520.75
333.857	683.75
334.085	992.75
334.314	1456.75
334.542	1808.75
334.771	1432.75
334.999	754.75
335.227	474.75
335.455	413.75
335.684	359.75
335.912	303.75
336.14	296.75
336.369	274.75
336.597	273.75
336.825	254.75
337.053	226.75
337.281	237.75
337.51	246.75
337.738	238.75
337.966	221.75
338.194	217.75
338.422	200.75
338.65	234.75
338.878	220.75
339.106	217.75
339.334	194.75
339.562	214.75
339.79	210.75
340.018	203.75
340.246	204.75
340.474	229.75
340.702	195.75
340.93	192.75
341.158	198.75
341.386	205.75
341.614	194.75
341.842	201.75
342.07	190.75
342.298	201.75
342.526	194.75
342.754	191.75
342.981	186.75
343.209	181.75
343.437	202.75
343.665	194.75
343.893	199.75
344.12	190.75
344.348	199.75
344.576	208.75
344.804	171.75
345.031	178.75
345.259	174.75
345.487	204.75
345.714	183.75
345.942	196.75
346.17	185.75
346.397	195.75
346.625	189.75
346.853	186.75
347.08	170.75
347.308	179.75
347.535	185.75
347.763	200.75
347.99	181.75
348.218	171.75
348.445	188.75
348.673	190.75
348.9	173.75
349.128	184.75
349.355	167.75
349.583	189.75
349.81	186.75
350.037	183.75
350.265	190.75
350.492	192.75
350.72	194.75
350.947	208.75
351.174	190.75
351.402	191.75
351.629	188.75
351.856	191.75
352.083	189.75
352.311	172.75
352.538	186.75
352.765	207.75
352.992	175.75
353.22	195.75
353.447	187.75
353.674	196.75
353.901	173.75
354.128	190.75
354.355	179.75
354.583	174.75
354.81	178.75
355.037	186.75
355.264	189.75
355.491	182.75
355.718	200.75
355.945	198.75
356.172	175.75
356.399	159.75
356.626	171.75
356.853	178.75
357.08	171.75
357.307	181.75
357.534	166.75
357.761	185.75
357.988	190.75
358.215	179.75
358.441	172.75
358.668	184.75
358.895	167.75
359.122	183.75
359.349	185.75
359.576	169.75
359.802	187.75
360.029	180.75
360.256	177.75
360.483	183.75
360.709	177.75
360.936	174.75
361.163	180.75
361.39	175.75
361.616	187.75
361.843	180.75
362.07	191.75
362.296	183.75
362.523	178.75
362.749	189.75
362.976	162.75
363.203	191.75
363.429	176.75
363.656	165.75
363.882	198.75
364.109	171.75
364.335	168.75
364.562	175.75
364.788	183.75
365.015	198.75
365.241	184.75
365.468	182.75
365.694	172.75
365.92	178.75
366.147	179.75
366.373	195.75
366.599	183.75
366.826	173.75
367.052	186.75
367.278	190.75
367.505	185.75
367.731	184.75
367.957	183.75
368.184	183.75
368.41	175.75
368.636	191.75
368.862	193.75
369.089	185.75
369.315	183.75
369.541	173.75
369.767	182.75
369.993	176.75
370.219	184.75
370.445	184.75
370.672	198.75
370.898	183.75
371.124	169.75
371.35	172.75
371.576	173.75
371.802	178.75
372.028	172.75
372.254	193.75
372.48	187.75
372.706	191.75
372.932	187.75
373.158	191.75
373.384	178.75
373.61	196.75
373.835	187.75
374.061	185.75
374.287	192.75
374.513	196.75
374.739	179.75
374.965	189.75
375.191	208.75
375.416	192.75
375.642	193.75
375.868	179.75
376.094	198.75
376.319	188.75
376.545	189.75
376.771	190.75
376.997	184.75
377.222	184.75
377.448	185.75
377.674	194.75
377.899	190.75
378.125	192.75
378.35	197.75
378.576	199.75
378.802	198.75
379.027	181.75
379.253	192.75
379.478	202.75
379.704	192.75
379.929	195.75
380.155	192.75
380.38	185.75
380.606	201.75
380.831	179.75
381.057	207.75
381.282	187.75
381.507	197.75
381.733	189.75
381.958	195.75
382.184	188.75
382.409	197.75
382.634	199.75
382.86	188.75
383.085	204.75
383.31	183.75
383.535	203.75
383.761	191.75
383.986	194.75
384.211	203.75
384.436	199.75
384.662	201.75
384.887	190.75
385.112	205.75
385.337	212.75
385.562	196.75
385.787	194.75
386.013	212.75
386.238	200.75
386.463	206.75
386.688	216.75
386.913	204.75
387.138	205.75
387.363	209.75
387.588	198.75
387.813	218.75
388.038	216.75
388.263	207.75
388.488	198.75
388.713	214.75
388.938	189.75
389.163	218.75
389.387	214.75
389.612	194.75
389.837	185.75
390.062	202.75
390.287	212.75
390.512	206.75
390.736	205.75
390.961	215.75
391.186	217.75
391.411	201.75
391.636	207.75
391.86	210.75
392.085	215.75
392.31	214.75
392.534	225.75
392.759	205.75
392.984	204.75
393.208	217.75
393.433	207.75
393.658	205.75
393.882	203.75
394.107	206.75
394.331	235.75
394.556	215.75
394.78	210.75
395.005	214.75
395.229	222.75
395.454	217.75
395.678	198.75
395.903	223.75
396.127	205.75
396.352	218.75
396.576	219.75
396.801	229.75
397.025	214.75
397.249	219.75
397.474	232.75
397.698	198.75
397.922	229.75
398.147	223.75
398.371	230.75
398.595	237.75
398.82	241.75
399.044	251.75
399.268	259.75
399.492	274.75
399.717	281.75
399.941	281.75
400.165	254.75
400.389	232.75
400.613	248.75
400.837	247.75
401.062	245.75
401.286	237.75
401.51	245.75
401.734	247.75
401.958	237.75
402.182	245.75
402.406	229.75
402.63	259.75
402.854	238.75
403.078	223.75
403.302	235.75
403.526	249.75
403.75	271.75
403.974	229.75
404.198	258.75
404.422	249.75
404.645	278.75
404.869	273.75
405.093	291.75
405.317	324.75
405.541	325.75
405.765	282.75
405.988	267.75
406.212	255.75
406.436	262.75
406.66	259.75
406.883	246.75
407.107	254.75
407.331	267.75
407.555	256.75
407.778	256.75
408.002	282.75
408.226	251.75
408.449	244.75
408.673	263.75
408.896	246.75
409.12	239.75
409.344	241.75
409.567	242.75
409.791	255.75
410.014	243.75
410.238	250.75
410.461	258.75
410.685	249.75
410.908	249.75
411.132	264.75
411.355	247.75
411.578	245.75
411.802	244.75
412.025	250.75
412.249	286.75
412.472	305.75
412.695	328.75
412.919	320.75
413.142	310.75
413.365	277.75
413.589	264.75
413.812	264.75
414.035	263.75
414.258	241.75
414.482	259.75
414.705	241.75
414.928	255.75
415.151	244.75
415.374	237.75
415.597	241.75
415.821	230.75
416.044	256.75
416.267	247.75
416.49	222.75
416.713	245.75
416.936	242.75
417.159	267.75
417.382	257.75
417.605	271.75
417.828	282.75
418.051	252.75
418.274	256.75
418.497	244.75
418.72	229.75
418.943	254.75
419.166	270.75
419.389	255.75
419.611	263.75
419.834	264.75
420.057	283.75
420.28	319.75
420.503	304.75
420.726	289.75
420.948	292.75
421.171	279.75
421.394	254.75
421.617	242.75
421.839	242.75
422.062	246.75
422.285	248.75
422.507	234.75
422.73	234.75
422.953	253.75
423.175	227.75
423.398	249.75
423.621	246.75
423.843	236.75
424.066	248.75
424.288	249.75
424.511	237.75
424.733	230.75
424.956	236.75
425.178	254.75
425.401	244.75
425.623	239.75
425.846	249.75
426.068	233.75
426.291	234.75
426.513	225.75
426.735	254.75
426.958	241.75
427.18	248.75
427.402	238.75
427.625	298.75
427.847	309.75
428.069	320.75
428.292	296.75
428.514	263.75
428.736	238.75
428.958	249.75
429.181	241.75
429.403	217.75
429.625	222.75
429.847	241.75
430.069	218.75
430.292	219.75
430.514	229.75
430.736	247.75
430.958	238.75
431.18	209.75
431.402	229.75
431.624	229.75
431.846	236.75
432.068	213.75
432.29	194.75
432.512	207.75
432.734	231.75
432.956	216.75
433.178	202.75
433.4	198.75
433.622	217.75
433.844	220.75
434.066	217.75
434.287	209.75
434.509	241.75
434.731	229.75
434.953	218.75
435.175	233.75
435.397	214.75
435.618	217.75
435.84	216.75
436.062	217.75
436.284	225.75
436.505	227.75
436.727	216.75
436.949	233.75
437.17	223.75
437.392	225.75
437.614	220.75
437.835	205.75
438.057	196.75
438.278	209.75
438.5	206.75
438.721	209.75
438.943	207.75
439.165	222.75
439.386	200.75
439.608	202.75
439.829	214.75
440.05	204.75
440.272	213.75
440.493	222.75
440.715	202.75
440.936	224.75
441.158	226.75
441.379	226.75
441.6	241.75
441.822	258.75
442.043	219.75
442.264	241.75
442.486	233.75
442.707	226.75
442.928	223.75
443.149	232.75
443.371	251.75
443.592	237.75
443.813	224.75
444.034	239.75
444.255	245.75
444.476	261.75
444.698	254.75
444.919	247.75
445.14	330.75
445.361	258.75
445.582	233.75
445.803	226.75
446.024	226.75
446.245	237.75
446.466	220.75
446.687	224.75
446.908	206.75
447.129	222.75
447.35	217.75
447.571	223.75
447.792	208.75
448.013	221.75
448.234	212.75
448.455	214.75
448.675	228.75
448.896	219.75
449.117	226.75
449.338	213.75
449.559	215.75
449.779	209.75
450	217.75
450.221	221.75
450.442	222.75
450.662	209.75
450.883	223.75
451.104	197.75
451.324	198.75
451.545	206.75
451.766	211.75
451.986	203.75
452.207	201.75
452.428	214.75
452.648	207.75
452.869	205.75
453.089	190.75
453.31	185.75
453.53	199.75
453.751	207.75
453.971	184.75
454.192	205.75
454.412	207.75
454.633	205.75
454.853	208.75
455.073	190.75
455.294	203.75
455.514	195.75
455.734	205.75
455.955	213.75
456.175	199.75
456.395	189.75
456.616	187.75
456.836	197.75
457.056	194.75
457.276	209.75
457.497	213.75
457.717	210.75
457.937	214.75
458.157	212.75
458.377	211.75
458.598	197.75
458.818	210.75
459.038	235.75
459.258	190.75
459.478	229.75
459.698	224.75
459.918	210.75
460.138	224.75
460.358	226.75
460.578	248.75
460.798	232.75
461.018	217.75
461.238	245.75
461.458	214.75
461.678	241.75
461.898	239.75
462.118	256.75
462.338	240.75
462.558	236.75
462.777	251.75
462.997	250.75
463.217	255.75
463.437	262.75
463.657	253.75
463.876	267.75
464.096	247.75
464.316	254.75
464.536	271.75
464.755	245.75
464.975	240.75
465.195	245.75
465.414	240.75
465.634	236.75
465.854	237.75
466.073	221.75
466.293	241.75
466.512	222.75
466.732	241.75
466.951	239.75
467.171	246.75
467.391	257.75
467.61	286.75
467.829	374.75
468.049	649.75
468.268	780.75
468.488	466.75
468.707	337.75
468.927	287.75
469.146	281.75
469.365	267.75
469.585	259.75
469.804	252.75
470.023	281.75
470.243	269.75
470.462	272.75
470.681	257.75
470.901	273.75
471.12	268.75
471.339	274.75
471.558	302.75
471.777	358.75
471.997	542.75
472.216	1079.75
472.435	1664.75
472.654	945.75
472.873	576.75
473.092	427.75
473.311	371.75
473.53	334.75
473.749	334.75
473.968	301.75
474.187	297.75
474.406	269.75
474.625	268.75
474.844	271.75
475.063	274.75
475.282	267.75
475.501	248.75
475.72	263.75
475.939	256.75
476.158	253.75
476.377	251.75
476.596	260.75
476.814	249.75
477.033	250.75
477.252	268.75
477.471	272.75
477.69	262.75
477.908	265.75
478.127	279.75
478.346	280.75
478.564	262.75
478.783	270.75
479.002	278.75
479.22	297.75
479.439	326.75
479.658	299.75
479.876	318.75
480.095	341.75
480.313	373.75
480.532	424.75
480.751	609.75
480.969	1209.75
481.188	2573.75
481.406	2100.75
481.624	1009.75
481.843	666.75
482.061	523.75
482.28	469.75
482.498	428.75
482.717	376.75
482.935	366.75
483.153	357.75
483.372	338.75
483.59	358.75
483.808	327.75
484.027	323.75
484.245	303.75
484.463	312.75
484.681	311.75
484.9	297.75
485.118	297.75
485.336	284.75
485.554	301.75
485.772	282.75
485.99	288.75
486.209	304.75
486.427	296.75
486.645	281.75
486.863	289.75
487.081	291.75
487.299	290.75
487.517	302.75
487.735	294.75
487.953	279.75
488.171	283.75
488.389	313.75
488.607	297.75
488.825	304.75
489.043	295.75
489.261	304.75
489.479	311.75
489.696	330.75
489.914	316.75
490.132	342.75
490.35	337.75
490.568	339.75
490.786	368.75
491.003	381.75
491.221	413.75
491.439	458.75
491.657	461.75
491.874	453.75
492.092	440.75
492.31	496.75
492.527	494.75
492.745	499.75
492.963	490.75
493.18	498.75
493.398	476.75
493.615	450.75
493.833	424.75
494.05	410.75
494.268	390.75
494.485	384.75
494.703	388.75
494.92	392.75
495.138	367.75
495.355	384.75
495.573	353.75
495.79	347.75
496.008	360.75
496.225	341.75
496.442	327.75
496.66	351.75
496.877	347.75
497.094	331.75
497.312	338.75
497.529	348.75
497.746	328.75
497.963	339.75
498.181	335.75
498.398	329.75
498.615	353.75
498.832	352.75
499.049	363.75
499.267	375.75
499.484	393.75
499.701	390.75
499.918	424.75
500.135	426.75
500.352	483.75
500.569	494.75
500.786	479.75
501.003	470.75
501.22	446.75
501.437	400.75
501.654	373.75
501.871	358.75
502.088	369.75
502.305	339.75
502.522	328.75
502.739	330.75
502.956	304.75
503.172	315.75
503.389	291.75
503.606	283.75
