Data from StdC_HRD10591_013.txt Node
Date: Fri May 16 15:28:47 EDT 2025
User: Yrep
Spectrometer: HR+D1059
Trigger mode: 1
Integration Time (sec): 1.000000E-1
Scans to average: 1
Electric dark correction enabled: true
Nonlinearity correction enabled: false
Boxcar width: 0
XAxis mode: Wavelengths
Number of Pixels in Spectrum: 2048
>>>>>Begin Spectral Data<<<<<
223.165	-8.31
223.4	-8.31
223.635	-8.31
223.869	-15.31
224.104	-13.31
224.338	-19.31
224.573	-20.31
224.808	-33.31
225.042	-12.31
225.277	-5.31
225.511	-9.31
225.746	4.69
225.98	22.69
226.215	11.69
226.449	3.69
226.683	26.69
226.918	31.69
227.152	35.69
227.387	41.69
227.621	35.69
227.856	40.69
228.09	44.69
228.324	58.69
228.559	56.69
228.793	64.69
229.027	73.69
229.262	74.69
229.496	73.69
229.73	58.69
229.964	85.69
230.199	84.69
230.433	74.69
230.667	92.69
230.901	78.69
231.136	99.69
231.37	91.69
231.604	78.69
231.838	94.69
232.072	94.69
232.306	82.69
232.541	89.69
232.775	79.69
233.009	83.69
233.243	93.69
233.477	85.69
233.711	101.69
233.945	94.69
234.179	90.69
234.413	99.69
234.647	103.69
234.881	96.69
235.115	101.69
235.349	89.69
235.583	93.69
235.817	91.69
236.051	94.69
236.285	83.69
236.519	99.69
236.753	104.69
236.987	96.69
237.221	94.69
237.455	90.69
237.689	100.69
237.922	95.69
238.156	96.69
238.39	80.69
238.624	88.69
238.858	98.69
239.091	100.69
239.325	96.69
239.559	81.69
239.793	108.69
240.027	94.69
240.26	78.69
240.494	97.69
240.728	91.69
240.961	92.69
241.195	93.69
241.429	91.69
241.662	86.69
241.896	96.69
242.13	88.69
242.363	96.69
242.597	106.69
242.83	111.69
243.064	102.69
243.298	92.69
243.531	99.69
243.765	107.69
243.998	89.69
244.232	107.69
244.465	113.69
244.699	98.69
244.932	122.69
245.166	99.69
245.399	116.69
245.633	111.69
245.866	114.69
246.099	111.69
246.333	102.69
246.566	103.69
246.8	116.69
247.033	119.69
247.266	105.69
247.5	102.69
247.733	110.69
247.966	99.69
248.2	96.69
248.433	100.69
248.666	114.69
248.899	117.69
249.133	107.69
249.366	125.69
249.599	125.69
249.832	126.69
250.066	149.69
250.299	156.69
250.532	202.69
250.765	191.69
250.998	151.69
251.231	147.69
251.465	124.69
251.698	124.69
251.931	143.69
252.164	108.69
252.397	113.69
252.63	138.69
252.863	118.69
253.096	124.69
253.329	138.69
253.562	121.69
253.795	147.69
254.028	127.69
254.261	128.69
254.494	131.69
254.727	140.69
254.96	141.69
255.193	148.69
255.426	167.69
255.659	196.69
255.892	254.69
256.124	302.69
256.357	246.69
256.59	202.69
256.823	178.69
257.056	177.69
257.289	170.69
257.521	147.69
257.754	148.69
257.987	151.69
258.22	147.69
258.452	144.69
258.685	150.69
258.918	126.69
259.151	138.69
259.383	154.69
259.616	138.69
259.849	132.69
260.081	132.69
260.314	142.69
260.547	135.69
260.779	138.69
261.012	156.69
261.244	135.69
261.477	142.69
261.71	147.69
261.942	138.69
262.175	155.69
262.407	130.69
262.64	124.69
262.872	137.69
263.105	133.69
263.337	132.69
263.57	112.69
263.802	128.69
264.035	139.69
264.267	126.69
264.499	121.69
264.732	134.69
264.964	136.69
265.197	129.69
265.429	137.69
265.661	144.69
265.894	128.69
266.126	143.69
266.358	136.69
266.591	139.69
266.823	142.69
267.055	115.69
267.287	126.69
267.52	118.69
267.752	143.69
267.984	148.69
268.216	125.69
268.448	137.69
268.681	136.69
268.913	123.69
269.145	145.69
269.377	144.69
269.609	140.69
269.841	138.69
270.073	137.69
270.306	144.69
270.538	144.69
270.77	150.69
271.002	133.69
271.234	138.69
271.466	140.69
271.698	152.69
271.93	150.69
272.162	153.69
272.394	149.69
272.626	155.69
272.858	138.69
273.09	158.69
273.322	151.69
273.553	172.69
273.785	161.69
274.017	159.69
274.249	168.69
274.481	147.69
274.713	156.69
274.945	166.69
275.176	163.69
275.408	169.69
275.64	191.69
275.872	175.69
276.104	161.69
276.335	182.69
276.567	179.69
276.799	200.69
277.031	229.69
277.262	256.69
277.494	219.69
277.726	194.69
277.957	197.69
278.189	182.69
278.421	196.69
278.652	191.69
278.884	182.69
279.115	183.69
279.347	203.69
279.579	197.69
279.81	226.69
280.042	246.69
280.273	283.69
280.505	275.69
280.736	230.69
280.968	201.69
281.199	185.69
281.431	200.69
281.662	184.69
281.894	176.69
282.125	158.69
282.356	165.69
282.588	150.69
282.819	164.69
283.051	162.69
283.282	155.69
283.513	164.69
283.745	177.69
283.976	168.69
284.207	159.69
284.439	171.69
284.67	182.69
284.901	167.69
285.132	159.69
285.364	179.69
285.595	170.69
285.826	162.69
286.057	168.69
286.288	177.69
286.52	154.69
286.751	169.69
286.982	172.69
287.213	162.69
287.444	163.69
287.675	155.69
287.906	166.69
288.138	169.69
288.369	156.69
288.6	164.69
288.831	163.69
289.062	162.69
289.293	149.69
289.524	158.69
289.755	159.69
289.986	162.69
290.217	166.69
290.448	170.69
290.679	167.69
290.91	168.69
291.141	162.69
291.371	146.69
291.602	166.69
291.833	163.69
292.064	174.69
292.295	160.69
292.526	168.69
292.757	147.69
292.987	166.69
293.218	146.69
293.449	144.69
293.68	155.69
293.91	154.69
294.141	166.69
294.372	179.69
294.603	163.69
294.833	151.69
295.064	156.69
295.295	164.69
295.525	158.69
295.756	162.69
295.987	164.69
296.217	172.69
296.448	157.69
296.679	162.69
296.909	162.69
297.14	175.69
297.37	165.69
297.601	164.69
297.831	169.69
298.062	169.69
298.292	152.69
298.523	168.69
298.753	159.69
298.984	161.69
299.214	181.69
299.445	168.69
299.675	164.69
299.905	157.69
300.136	152.69
300.366	145.69
300.597	164.69
300.827	175.69
301.057	174.69
301.288	172.69
301.518	172.69
301.748	165.69
301.979	181.69
302.209	179.69
302.439	178.69
302.669	167.69
302.9	162.69
303.13	185.69
303.36	190.69
303.59	213.69
303.82	182.69
304.051	184.69
304.281	190.69
304.511	178.69
304.741	184.69
304.971	161.69
305.201	179.69
305.431	163.69
305.661	178.69
305.891	171.69
306.121	170.69
306.352	164.69
306.582	172.69
306.812	178.69
307.042	211.69
307.272	236.69
307.502	232.69
307.731	219.69
307.961	198.69
308.191	196.69
308.421	167.69
308.651	182.69
308.881	184.69
309.111	178.69
309.341	173.69
309.571	185.69
309.8	175.69
310.03	172.69
310.26	176.69
310.49	172.69
310.72	177.69
310.949	182.69
311.179	185.69
311.409	179.69
311.639	177.69
311.868	173.69
312.098	165.69
312.328	182.69
312.557	172.69
312.787	188.69
313.017	185.69
313.246	186.69
313.476	195.69
313.706	176.69
313.935	168.69
314.165	175.69
314.394	169.69
314.624	166.69
314.853	169.69
315.083	186.69
315.312	173.69
315.542	180.69
315.771	179.69
316.001	170.69
316.23	174.69
316.46	186.69
316.689	182.69
316.919	211.69
317.148	192.69
317.377	184.69
317.607	186.69
317.836	190.69
318.065	176.69
318.295	176.69
318.524	174.69
318.753	178.69
318.983	185.69
319.212	180.69
319.441	191.69
319.67	201.69
319.9	188.69
320.129	208.69
320.358	194.69
320.587	192.69
320.816	178.69
321.046	194.69
321.275	183.69
321.504	197.69
321.733	212.69
321.962	188.69
322.191	199.69
322.42	175.69
322.649	200.69
322.878	188.69
323.108	193.69
323.337	223.69
323.566	207.69
323.795	203.69
324.024	216.69
324.253	222.69
324.482	218.69
324.71	230.69
324.939	237.69
325.168	227.69
325.397	241.69
325.626	234.69
325.855	240.69
326.084	256.69
326.313	259.69
326.542	256.69
326.77	260.69
326.999	277.69
327.228	286.69
327.457	333.69
327.686	422.69
327.914	555.69
328.143	705.69
328.372	746.69
328.6	527.69
328.829	392.69
329.058	373.69
329.287	418.69
329.515	528.69
329.744	693.69
329.972	968.69
330.201	1302.69
330.43	1310.69
330.658	793.69
330.887	483.69
331.115	397.69
331.344	344.69
331.572	343.69
331.801	349.69
332.03	327.69
332.258	325.69
332.486	336.69
332.715	344.69
332.943	355.69
333.172	385.69
333.4	463.69
333.629	529.69
333.857	730.69
334.085	1028.69
334.314	1485.69
334.542	1838.69
334.771	1452.69
334.999	800.69
335.227	502.69
335.455	406.69
335.684	350.69
335.912	323.69
336.14	310.69
336.369	275.69
336.597	264.69
336.825	273.69
337.053	259.69
337.281	264.69
337.51	254.69
337.738	244.69
337.966	240.69
338.194	225.69
338.422	221.69
338.65	218.69
338.878	205.69
339.106	217.69
339.334	222.69
339.562	220.69
339.79	219.69
340.018	208.69
340.246	222.69
340.474	216.69
340.702	190.69
340.93	218.69
341.158	202.69
341.386	204.69
341.614	210.69
341.842	202.69
342.07	207.69
342.298	193.69
342.526	177.69
342.754	204.69
342.981	199.69
343.209	206.69
343.437	211.69
343.665	200.69
343.893	217.69
344.12	209.69
344.348	210.69
344.576	201.69
344.804	206.69
345.031	187.69
345.259	190.69
345.487	202.69
345.714	197.69
345.942	202.69
346.17	192.69
346.397	190.69
346.625	202.69
346.853	184.69
347.08	182.69
347.308	190.69
347.535	191.69
347.763	176.69
347.99	195.69
348.218	201.69
348.445	203.69
348.673	185.69
348.9	182.69
349.128	191.69
349.355	207.69
349.583	198.69
349.81	188.69
350.037	188.69
350.265	209.69
350.492	200.69
350.72	188.69
350.947	180.69
351.174	193.69
351.402	204.69
351.629	172.69
351.856	197.69
352.083	194.69
352.311	187.69
352.538	207.69
352.765	190.69
352.992	201.69
353.22	197.69
353.447	195.69
353.674	201.69
353.901	193.69
354.128	191.69
354.355	181.69
354.583	198.69
354.81	178.69
355.037	177.69
355.264	175.69
355.491	182.69
355.718	186.69
355.945	201.69
356.172	192.69
356.399	190.69
356.626	191.69
356.853	190.69
357.08	181.69
357.307	186.69
357.534	177.69
357.761	184.69
357.988	180.69
358.215	198.69
358.441	190.69
358.668	178.69
358.895	181.69
359.122	187.69
359.349	188.69
359.576	184.69
359.802	168.69
360.029	181.69
360.256	176.69
360.483	175.69
360.709	182.69
360.936	189.69
361.163	183.69
361.39	182.69
361.616	204.69
361.843	197.69
362.07	182.69
362.296	191.69
362.523	178.69
362.749	176.69
362.976	172.69
363.203	187.69
363.429	186.69
363.656	182.69
363.882	188.69
364.109	189.69
364.335	177.69
364.562	170.69
364.788	186.69
365.015	176.69
365.241	170.69
365.468	179.69
365.694	180.69
365.92	187.69
366.147	191.69
366.373	205.69
366.599	191.69
366.826	184.69
367.052	190.69
367.278	188.69
367.505	184.69
367.731	196.69
367.957	194.69
368.184	182.69
368.41	174.69
368.636	186.69
368.862	186.69
369.089	184.69
369.315	183.69
369.541	191.69
369.767	186.69
369.993	188.69
370.219	201.69
370.445	176.69
370.672	183.69
370.898	189.69
371.124	184.69
371.35	181.69
371.576	184.69
371.802	198.69
372.028	190.69
372.254	190.69
372.48	188.69
372.706	200.69
372.932	205.69
373.158	189.69
373.384	195.69
373.61	204.69
373.835	204.69
374.061	193.69
374.287	182.69
374.513	205.69
374.739	182.69
374.965	183.69
375.191	201.69
375.416	194.69
375.642	190.69
375.868	180.69
376.094	206.69
376.319	203.69
376.545	196.69
376.771	192.69
376.997	203.69
377.222	186.69
377.448	204.69
377.674	192.69
377.899	181.69
378.125	199.69
378.35	200.69
378.576	196.69
378.802	186.69
379.027	196.69
379.253	206.69
379.478	191.69
379.704	189.69
379.929	206.69
380.155	187.69
380.38	191.69
380.606	188.69
380.831	195.69
381.057	208.69
381.282	194.69
381.507	186.69
381.733	208.69
381.958	202.69
382.184	203.69
382.409	199.69
382.634	194.69
382.86	192.69
383.085	217.69
383.31	214.69
383.535	206.69
383.761	216.69
383.986	208.69
384.211	207.69
384.436	211.69
384.662	204.69
384.887	207.69
385.112	202.69
385.337	190.69
385.562	209.69
385.787	214.69
386.013	225.69
386.238	216.69
386.463	224.69
386.688	197.69
386.913	219.69
387.138	209.69
387.363	215.69
387.588	219.69
387.813	209.69
388.038	211.69
388.263	203.69
388.488	226.69
388.713	223.69
388.938	221.69
389.163	196.69
389.387	224.69
389.612	199.69
389.837	209.69
390.062	217.69
390.287	206.69
390.512	225.69
390.736	195.69
390.961	216.69
391.186	223.69
391.411	216.69
391.636	216.69
391.86	220.69
392.085	222.69
392.31	216.69
392.534	219.69
392.759	209.69
392.984	205.69
393.208	204.69
393.433	214.69
393.658	210.69
393.882	234.69
394.107	225.69
394.331	227.69
394.556	204.69
394.78	211.69
395.005	222.69
395.229	216.69
395.454	230.69
395.678	231.69
395.903	226.69
396.127	233.69
396.352	229.69
396.576	210.69
396.801	214.69
397.025	197.69
397.249	228.69
397.474	236.69
397.698	240.69
397.922	235.69
398.147	236.69
398.371	242.69
398.595	249.69
398.82	224.69
399.044	253.69
399.268	268.69
399.492	304.69
399.717	274.69
399.941	271.69
400.165	275.69
400.389	255.69
400.613	249.69
400.837	247.69
401.062	230.69
401.286	235.69
401.51	249.69
401.734	256.69
401.958	253.69
402.182	235.69
402.406	240.69
402.63	250.69
402.854	257.69
403.078	245.69
403.302	246.69
403.526	242.69
403.75	266.69
403.974	259.69
404.198	263.69
404.422	268.69
404.645	268.69
404.869	280.69
405.093	314.69
405.317	327.69
405.541	320.69
405.765	295.69
405.988	287.69
406.212	266.69
406.436	266.69
406.66	276.69
406.883	260.69
407.107	255.69
407.331	253.69
407.555	255.69
407.778	272.69
408.002	261.69
408.226	273.69
408.449	252.69
408.673	266.69
408.896	266.69
409.12	218.69
409.344	261.69
409.567	255.69
409.791	271.69
410.014	250.69
410.238	247.69
410.461	258.69
410.685	243.69
410.908	249.69
411.132	260.69
411.355	248.69
411.578	266.69
411.802	268.69
412.025	266.69
412.249	303.69
412.472	309.69
412.695	342.69
412.919	320.69
413.142	298.69
413.365	298.69
413.589	271.69
413.812	258.69
414.035	266.69
414.258	261.69
414.482	238.69
414.705	258.69
414.928	242.69
415.151	258.69
415.374	263.69
415.597	262.69
415.821	244.69
416.044	236.69
416.267	254.69
416.49	239.69
416.713	241.69
416.936	256.69
417.159	255.69
417.382	256.69
417.605	270.69
417.828	279.69
418.051	287.69
418.274	258.69
418.497	238.69
418.72	244.69
418.943	262.69
419.166	250.69
419.389	289.69
419.611	286.69
419.834	281.69
420.057	275.69
420.28	314.69
420.503	289.69
420.726	284.69
420.948	298.69
421.171	267.69
421.394	257.69
421.617	254.69
421.839	254.69
422.062	253.69
422.285	244.69
422.507	266.69
422.73	267.69
422.953	258.69
423.175	258.69
423.398	247.69
423.621	236.69
423.843	247.69
424.066	245.69
424.288	246.69
424.511	249.69
424.733	247.69
424.956	237.69
425.178	241.69
425.401	252.69
425.623	250.69
425.846	243.69
426.068	254.69
426.291	243.69
426.513	248.69
426.735	240.69
426.958	270.69
427.18	253.69
427.402	255.69
427.625	298.69
427.847	340.69
428.069	340.69
428.292	290.69
428.514	272.69
428.736	251.69
428.958	264.69
429.181	236.69
429.403	247.69
429.625	221.69
429.847	243.69
430.069	239.69
430.292	252.69
430.514	231.69
430.736	209.69
430.958	246.69
431.18	209.69
431.402	218.69
431.624	234.69
431.846	227.69
432.068	226.69
432.29	237.69
432.512	225.69
432.734	216.69
432.956	218.69
433.178	231.69
433.4	234.69
433.622	230.69
433.844	225.69
434.066	222.69
434.287	222.69
434.509	225.69
434.731	253.69
434.953	228.69
435.175	234.69
435.397	216.69
435.618	212.69
435.84	223.69
436.062	242.69
436.284	227.69
436.505	219.69
436.727	216.69
436.949	216.69
437.17	233.69
437.392	231.69
437.614	212.69
437.835	214.69
438.057	234.69
438.278	225.69
438.5	217.69
438.721	235.69
438.943	233.69
439.165	226.69
439.386	217.69
439.608	235.69
439.829	217.69
440.05	232.69
440.272	232.69
440.493	223.69
440.715	232.69
440.936	236.69
441.158	236.69
441.379	228.69
441.6	240.69
441.822	225.69
442.043	222.69
442.264	230.69
442.486	236.69
442.707	212.69
442.928	235.69
443.149	206.69
443.371	228.69
443.592	230.69
443.813	234.69
444.034	254.69
444.255	238.69
444.476	247.69
444.698	248.69
444.919	264.69
445.14	328.69
445.361	279.69
445.582	247.69
445.803	230.69
446.024	247.69
446.245	251.69
446.466	234.69
446.687	235.69
446.908	221.69
447.129	222.69
447.35	229.69
447.571	228.69
447.792	232.69
448.013	225.69
448.234	246.69
448.455	216.69
448.675	230.69
448.896	224.69
449.117	223.69
449.338	233.69
449.559	218.69
449.779	220.69
450	210.69
450.221	218.69
450.442	216.69
450.662	201.69
450.883	218.69
451.104	217.69
451.324	201.69
451.545	208.69
451.766	219.69
451.986	209.69
452.207	221.69
452.428	204.69
452.648	203.69
452.869	204.69
453.089	197.69
453.31	203.69
453.53	200.69
453.751	196.69
453.971	222.69
454.192	192.69
454.412	215.69
454.633	203.69
454.853	222.69
455.073	208.69
455.294	210.69
455.514	199.69
455.734	208.69
455.955	208.69
456.175	194.69
456.395	188.69
456.616	216.69
456.836	215.69
457.056	219.69
457.276	205.69
457.497	211.69
457.717	218.69
457.937	209.69
458.157	219.69
458.377	230.69
458.598	215.69
458.818	213.69
459.038	233.69
459.258	239.69
459.478	207.69
459.698	228.69
459.918	230.69
460.138	215.69
460.358	229.69
460.578	239.69
460.798	231.69
461.018	251.69
461.238	243.69
461.458	237.69
461.678	237.69
461.898	251.69
462.118	238.69
462.338	232.69
462.558	251.69
462.777	267.69
462.997	261.69
463.217	283.69
463.437	269.69
463.657	262.69
463.876	272.69
464.096	268.69
464.316	266.69
464.536	277.69
464.755	257.69
464.975	252.69
465.195	244.69
465.414	250.69
465.634	222.69
465.854	237.69
466.073	221.69
466.293	248.69
466.512	241.69
466.732	238.69
466.951	224.69
467.171	258.69
467.391	273.69
467.61	277.69
467.829	388.69
468.049	686.69
468.268	824.69
468.488	470.69
468.707	348.69
468.927	304.69
469.146	275.69
469.365	278.69
469.585	263.69
469.804	277.69
470.023	281.69
470.243	259.69
470.462	285.69
470.681	260.69
470.901	265.69
471.12	284.69
471.339	291.69
471.558	336.69
471.777	374.69
471.997	547.69
472.216	1155.69
472.435	1755.69
472.654	969.69
472.873	559.69
473.092	446.69
473.311	376.69
473.53	364.69
473.749	326.69
473.968	319.69
474.187	287.69
474.406	281.69
474.625	296.69
474.844	275.69
475.063	268.69
475.282	285.69
475.501	258.69
475.72	270.69
475.939	249.69
476.158	260.69
476.377	257.69
476.596	261.69
476.814	251.69
477.033	266.69
477.252	256.69
477.471	265.69
477.69	269.69
477.908	284.69
478.127	275.69
478.346	287.69
478.564	285.69
478.783	280.69
479.002	291.69
479.22	297.69
479.439	312.69
479.658	309.69
479.876	340.69
480.095	358.69
480.313	408.69
480.532	475.69
480.751	646.69
480.969	1238.69
481.188	2724.69
481.406	2198.69
481.624	1041.69
481.843	714.69
482.061	540.69
482.28	492.69
482.498	452.69
482.717	428.69
482.935	391.69
483.153	394.69
483.372	352.69
483.59	353.69
483.808	332.69
484.027	324.69
484.245	317.69
484.463	308.69
484.681	320.69
484.9	310.69
485.118	311.69
485.336	287.69
485.554	296.69
485.772	298.69
485.99	321.69
486.209	294.69
486.427	285.69
486.645	303.69
486.863	312.69
487.081	302.69
487.299	310.69
487.517	297.69
487.735	306.69
487.953	308.69
488.171	306.69
488.389	324.69
488.607	316.69
488.825	311.69
489.043	313.69
489.261	334.69
489.479	334.69
489.696	325.69
489.914	338.69
490.132	331.69
490.35	353.69
490.568	372.69
490.786	388.69
491.003	404.69
491.221	444.69
491.439	462.69
491.657	480.69
491.874	487.69
492.092	472.69
492.31	482.69
492.527	551.69
492.745	552.69
492.963	552.69
493.18	494.69
493.398	480.69
493.615	455.69
493.833	443.69
494.05	419.69
494.268	399.69
494.485	404.69
494.703	386.69
494.92	394.69
495.138	396.69
495.355	358.69
495.573	362.69
495.79	375.69
496.008	363.69
496.225	360.69
496.442	346.69
496.66	340.69
496.877	362.69
497.094	336.69
497.312	351.69
497.529	335.69
497.746	350.69
497.963	360.69
498.181	338.69
498.398	345.69
498.615	352.69
498.832	372.69
499.049	381.69
499.267	376.69
499.484	398.69
499.701	422.69
499.918	428.69
500.135	463.69
500.352	484.69
500.569	518.69
500.786	531.69
501.003	476.69
501.22	459.69
501.437	415.69
501.654	402.69
501.871	368.69
502.088	359.69
502.305	368.69
502.522	364.69
502.739	333.69
502.956	342.69
503.172	327.69
503.389	305.69
