Data from StdC_HRD10591_093.txt Node
Date: Fri May 16 15:29:27 EDT 2025
User: Yrep
Spectrometer: HR+D1059
Trigger mode: 1
Integration Time (sec): 1.000000E-1
Scans to average: 1
Electric dark correction enabled: true
Nonlinearity correction enabled: false
Boxcar width: 0
XAxis mode: Wavelengths
Number of Pixels in Spectrum: 2048
>>>>>Begin Spectral Data<<<<<
223.165	-20.94
223.4	-20.94
223.635	-20.94
223.869	-30.94
224.104	-25.94
224.338	-12.94
224.573	-19.94
224.808	-15.94
225.042	-8.94
225.277	-11.94
225.511	-2.94
225.746	7.06
225.98	6.06
226.215	11.06
226.449	25.06
226.683	30.06
226.918	31.06
227.152	40.06
227.387	42.06
227.621	31.06
227.856	47.06
228.09	41.06
228.324	55.06
228.559	57.06
228.793	54.06
229.027	55.06
229.262	75.06
229.496	69.06
229.73	78.06
229.964	85.06
230.199	83.06
230.433	84.06
230.667	86.06
230.901	83.06
231.136	83.06
231.37	85.06
231.604	94.06
231.838	100.06
232.072	85.06
232.306	73.06
232.541	83.06
232.775	80.06
233.009	102.06
233.243	92.06
233.477	83.06
233.711	90.06
233.945	108.06
234.179	97.06
234.413	84.06
234.647	81.06
234.881	88.06
235.115	83.06
235.349	92.06
235.583	102.06
235.817	73.06
236.051	92.06
236.285	90.06
236.519	88.06
236.753	90.06
236.987	88.06
237.221	73.06
237.455	104.06
237.689	103.06
237.922	88.06
238.156	103.06
238.39	97.06
238.624	102.06
238.858	86.06
239.091	94.06
239.325	91.06
239.559	93.06
239.793	87.06
240.027	88.06
240.26	99.06
240.494	83.06
240.728	83.06
240.961	88.06
241.195	86.06
241.429	74.06
241.662	107.06
241.896	89.06
242.13	93.06
242.363	90.06
242.597	101.06
242.83	113.06
243.064	91.06
243.298	95.06
243.531	95.06
243.765	110.06
243.998	95.06
244.232	96.06
244.465	103.06
244.699	103.06
244.932	105.06
245.166	88.06
245.399	91.06
245.633	107.06
245.866	109.06
246.099	113.06
246.333	92.06
246.566	109.06
246.8	105.06
247.033	92.06
247.266	104.06
247.5	83.06
247.733	111.06
247.966	115.06
248.2	107.06
248.433	96.06
248.666	114.06
248.899	126.06
249.133	103.06
249.366	115.06
249.599	133.06
249.832	98.06
250.066	134.06
250.299	167.06
250.532	208.06
250.765	175.06
250.998	147.06
251.231	143.06
251.465	134.06
251.698	126.06
251.931	119.06
252.164	123.06
252.397	129.06
252.63	104.06
252.863	105.06
253.096	136.06
253.329	117.06
253.562	112.06
253.795	120.06
254.028	127.06
254.261	122.06
254.494	128.06
254.727	118.06
254.96	120.06
255.193	128.06
255.426	149.06
255.659	192.06
255.892	259.06
256.124	311.06
256.357	242.06
256.59	204.06
256.823	177.06
257.056	152.06
257.289	167.06
257.521	139.06
257.754	146.06
257.987	126.06
258.22	135.06
258.452	137.06
258.685	140.06
258.918	139.06
259.151	141.06
259.383	129.06
259.616	119.06
259.849	134.06
260.081	142.06
260.314	138.06
260.547	124.06
260.779	130.06
261.012	132.06
261.244	132.06
261.477	131.06
261.71	134.06
261.942	133.06
262.175	133.06
262.407	129.06
262.64	134.06
262.872	127.06
263.105	136.06
263.337	137.06
263.57	130.06
263.802	126.06
264.035	127.06
264.267	132.06
264.499	120.06
264.732	140.06
264.964	119.06
265.197	130.06
265.429	131.06
265.661	132.06
265.894	137.06
266.126	133.06
266.358	120.06
266.591	131.06
266.823	125.06
267.055	137.06
267.287	128.06
267.52	129.06
267.752	133.06
267.984	144.06
268.216	142.06
268.448	134.06
268.681	135.06
268.913	138.06
269.145	147.06
269.377	137.06
269.609	129.06
269.841	118.06
270.073	122.06
270.306	142.06
270.538	134.06
270.77	129.06
271.002	139.06
271.234	144.06
271.466	144.06
271.698	136.06
271.93	143.06
272.162	126.06
272.394	149.06
272.626	156.06
272.858	148.06
273.09	157.06
273.322	145.06
273.553	141.06
273.785	151.06
274.017	137.06
274.249	144.06
274.481	145.06
274.713	152.06
274.945	151.06
275.176	158.06
275.408	174.06
275.64	183.06
275.872	180.06
276.104	160.06
276.335	162.06
276.567	178.06
276.799	201.06
277.031	217.06
277.262	227.06
277.494	209.06
277.726	216.06
277.957	189.06
278.189	184.06
278.421	182.06
278.652	176.06
278.884	170.06
279.115	177.06
279.347	175.06
279.579	175.06
279.81	219.06
280.042	261.06
280.273	277.06
280.505	256.06
280.736	213.06
280.968	192.06
281.199	183.06
281.431	194.06
281.662	169.06
281.894	158.06
282.125	161.06
282.356	163.06
282.588	171.06
282.819	175.06
283.051	153.06
283.282	154.06
283.513	148.06
283.745	154.06
283.976	160.06
284.207	169.06
284.439	144.06
284.67	164.06
284.901	143.06
285.132	165.06
285.364	150.06
285.595	167.06
285.826	145.06
286.057	146.06
286.288	170.06
286.52	158.06
286.751	153.06
286.982	155.06
287.213	177.06
287.444	158.06
287.675	159.06
287.906	163.06
288.138	173.06
288.369	155.06
288.6	158.06
288.831	152.06
289.062	137.06
289.293	145.06
289.524	157.06
289.755	149.06
289.986	167.06
290.217	158.06
290.448	158.06
290.679	166.06
290.91	151.06
291.141	139.06
291.371	152.06
291.602	174.06
291.833	139.06
292.064	151.06
292.295	152.06
292.526	151.06
292.757	166.06
292.987	153.06
293.218	159.06
293.449	166.06
293.68	157.06
293.91	153.06
294.141	148.06
294.372	149.06
294.603	156.06
294.833	156.06
295.064	148.06
295.295	167.06
295.525	159.06
295.756	163.06
295.987	164.06
296.217	157.06
296.448	164.06
296.679	140.06
296.909	150.06
297.14	155.06
297.37	170.06
297.601	149.06
297.831	163.06
298.062	148.06
298.292	160.06
298.523	142.06
298.753	164.06
298.984	167.06
299.214	154.06
299.445	155.06
299.675	165.06
299.905	150.06
300.136	149.06
300.366	168.06
300.597	160.06
300.827	157.06
301.057	154.06
301.288	174.06
301.518	157.06
301.748	172.06
301.979	181.06
302.209	192.06
302.439	172.06
302.669	170.06
302.9	177.06
303.13	160.06
303.36	192.06
303.59	198.06
303.82	193.06
304.051	197.06
304.281	190.06
304.511	168.06
304.741	165.06
304.971	166.06
305.201	183.06
305.431	172.06
305.661	156.06
305.891	179.06
306.121	183.06
306.352	169.06
306.582	167.06
306.812	186.06
307.042	179.06
307.272	227.06
307.502	231.06
307.731	216.06
307.961	193.06
308.191	182.06
308.421	192.06
308.651	173.06
308.881	173.06
309.111	160.06
309.341	160.06
309.571	164.06
309.8	171.06
310.03	170.06
310.26	169.06
310.49	163.06
310.72	183.06
310.949	169.06
311.179	165.06
311.409	175.06
311.639	168.06
311.868	154.06
312.098	175.06
312.328	181.06
312.557	165.06
312.787	155.06
313.017	157.06
313.246	172.06
313.476	159.06
313.706	166.06
313.935	175.06
314.165	179.06
314.394	175.06
314.624	179.06
314.853	188.06
315.083	187.06
315.312	176.06
315.542	175.06
315.771	167.06
316.001	151.06
316.23	185.06
316.46	185.06
316.689	164.06
316.919	185.06
317.148	175.06
317.377	203.06
317.607	203.06
317.836	160.06
318.065	185.06
318.295	192.06
318.524	184.06
318.753	187.06
318.983	169.06
319.212	171.06
319.441	182.06
319.67	180.06
319.9	195.06
320.129	180.06
320.358	195.06
320.587	184.06
320.816	181.06
321.046	193.06
321.275	185.06
321.504	192.06
321.733	185.06
321.962	182.06
322.191	191.06
322.42	189.06
322.649	180.06
322.878	200.06
323.108	213.06
323.337	212.06
323.566	211.06
323.795	236.06
324.024	231.06
324.253	211.06
324.482	212.06
324.71	240.06
324.939	207.06
325.168	225.06
325.397	215.06
325.626	230.06
325.855	228.06
326.084	258.06
326.313	255.06
326.542	244.06
326.77	247.06
326.999	263.06
327.228	277.06
327.457	330.06
327.686	391.06
327.914	529.06
328.143	698.06
328.372	750.06
328.6	537.06
328.829	387.06
329.058	371.06
329.287	415.06
329.515	501.06
329.744	677.06
329.972	995.06
330.201	1318.06
330.43	1359.06
330.658	793.06
330.887	473.06
331.115	400.06
331.344	347.06
331.572	331.06
331.801	328.06
332.03	317.06
332.258	301.06
332.486	332.06
332.715	345.06
332.943	382.06
333.172	401.06
333.4	460.06
333.629	529.06
333.857	700.06
334.085	1046.06
334.314	1523.06
334.542	1863.06
334.771	1479.06
334.999	758.06
335.227	506.06
335.455	404.06
335.684	359.06
335.912	343.06
336.14	304.06
336.369	311.06
336.597	276.06
336.825	265.06
337.053	236.06
337.281	243.06
337.51	221.06
337.738	252.06
337.966	225.06
338.194	238.06
338.422	234.06
338.65	221.06
338.878	220.06
339.106	215.06
339.334	200.06
339.562	203.06
339.79	213.06
340.018	208.06
340.246	207.06
340.474	195.06
340.702	201.06
340.93	196.06
341.158	208.06
341.386	202.06
341.614	207.06
341.842	198.06
342.07	192.06
342.298	187.06
342.526	195.06
342.754	203.06
342.981	199.06
343.209	195.06
343.437	198.06
343.665	204.06
343.893	195.06
344.12	186.06
344.348	211.06
344.576	198.06
344.804	187.06
345.031	193.06
345.259	192.06
345.487	178.06
345.714	193.06
345.942	192.06
346.17	182.06
346.397	200.06
346.625	189.06
346.853	187.06
347.08	189.06
347.308	188.06
347.535	193.06
347.763	192.06
347.99	200.06
348.218	184.06
348.445	197.06
348.673	196.06
348.9	174.06
349.128	175.06
349.355	196.06
349.583	193.06
349.81	193.06
350.037	185.06
350.265	189.06
350.492	176.06
350.72	168.06
350.947	177.06
351.174	172.06
351.402	197.06
351.629	192.06
351.856	181.06
352.083	182.06
352.311	183.06
352.538	197.06
352.765	207.06
352.992	191.06
353.22	172.06
353.447	188.06
353.674	189.06
353.901	165.06
354.128	185.06
354.355	186.06
354.583	176.06
354.81	185.06
355.037	188.06
355.264	193.06
355.491	187.06
355.718	181.06
355.945	185.06
356.172	183.06
356.399	170.06
356.626	180.06
356.853	173.06
357.08	179.06
357.307	182.06
357.534	183.06
357.761	187.06
357.988	168.06
358.215	179.06
358.441	166.06
358.668	166.06
358.895	188.06
359.122	169.06
359.349	187.06
359.576	184.06
359.802	189.06
360.029	180.06
360.256	181.06
360.483	183.06
360.709	171.06
360.936	187.06
361.163	169.06
361.39	180.06
361.616	192.06
361.843	187.06
362.07	167.06
362.296	183.06
362.523	174.06
362.749	177.06
362.976	181.06
363.203	190.06
363.429	170.06
363.656	173.06
363.882	187.06
364.109	179.06
364.335	187.06
364.562	157.06
364.788	172.06
365.015	172.06
365.241	188.06
365.468	188.06
365.694	180.06
365.92	188.06
366.147	171.06
366.373	168.06
366.599	176.06
366.826	177.06
367.052	184.06
367.278	193.06
367.505	166.06
367.731	173.06
367.957	179.06
368.184	172.06
368.41	185.06
368.636	176.06
368.862	179.06
369.089	182.06
369.315	190.06
369.541	184.06
369.767	190.06
369.993	173.06
370.219	196.06
370.445	194.06
370.672	174.06
370.898	182.06
371.124	190.06
371.35	186.06
371.576	181.06
371.802	190.06
372.028	182.06
372.254	185.06
372.48	179.06
372.706	197.06
372.932	188.06
373.158	186.06
373.384	198.06
373.61	185.06
373.835	180.06
374.061	184.06
374.287	183.06
374.513	193.06
374.739	197.06
374.965	175.06
375.191	187.06
375.416	189.06
375.642	182.06
375.868	192.06
376.094	191.06
376.319	187.06
376.545	176.06
376.771	179.06
376.997	189.06
377.222	184.06
377.448	194.06
377.674	187.06
377.899	183.06
378.125	179.06
378.35	191.06
378.576	184.06
378.802	195.06
379.027	185.06
379.253	193.06
379.478	200.06
379.704	194.06
379.929	188.06
380.155	205.06
380.38	194.06
380.606	197.06
380.831	191.06
381.057	195.06
381.282	185.06
381.507	198.06
381.733	188.06
381.958	184.06
382.184	192.06
382.409	179.06
382.634	191.06
382.86	206.06
383.085	185.06
383.31	189.06
383.535	211.06
383.761	201.06
383.986	192.06
384.211	208.06
384.436	199.06
384.662	188.06
384.887	209.06
385.112	206.06
385.337	201.06
385.562	192.06
385.787	187.06
386.013	193.06
386.238	215.06
386.463	197.06
386.688	220.06
386.913	215.06
387.138	199.06
387.363	209.06
387.588	206.06
387.813	201.06
388.038	204.06
388.263	206.06
388.488	190.06
388.713	220.06
388.938	204.06
389.163	215.06
389.387	193.06
389.612	197.06
389.837	216.06
390.062	197.06
390.287	192.06
390.512	218.06
390.736	195.06
390.961	219.06
391.186	207.06
391.411	208.06
391.636	199.06
391.86	219.06
392.085	205.06
392.31	228.06
392.534	219.06
392.759	216.06
392.984	208.06
393.208	204.06
393.433	219.06
393.658	209.06
393.882	221.06
394.107	208.06
394.331	209.06
394.556	219.06
394.78	227.06
395.005	207.06
395.229	219.06
395.454	233.06
395.678	217.06
395.903	216.06
396.127	212.06
396.352	227.06
396.576	209.06
396.801	215.06
397.025	231.06
397.249	226.06
397.474	232.06
397.698	227.06
397.922	229.06
398.147	225.06
398.371	221.06
398.595	218.06
398.82	218.06
399.044	248.06
399.268	240.06
399.492	262.06
399.717	276.06
399.941	260.06
400.165	264.06
400.389	267.06
400.613	244.06
400.837	235.06
401.062	258.06
401.286	227.06
401.51	239.06
401.734	237.06
401.958	250.06
402.182	213.06
402.406	239.06
402.63	232.06
402.854	241.06
403.078	249.06
403.302	255.06
403.526	261.06
403.75	256.06
403.974	268.06
404.198	241.06
404.422	264.06
404.645	251.06
404.869	278.06
405.093	297.06
405.317	319.06
405.541	334.06
405.765	312.06
405.988	275.06
406.212	254.06
406.436	260.06
406.66	265.06
406.883	271.06
407.107	263.06
407.331	260.06
407.555	278.06
407.778	280.06
408.002	257.06
408.226	260.06
408.449	259.06
408.673	253.06
408.896	252.06
409.12	265.06
409.344	239.06
409.567	246.06
409.791	248.06
410.014	252.06
410.238	244.06
410.461	243.06
410.685	259.06
410.908	249.06
411.132	243.06
411.355	259.06
411.578	260.06
411.802	268.06
412.025	269.06
412.249	289.06
412.472	308.06
412.695	352.06
412.919	308.06
413.142	311.06
413.365	291.06
413.589	264.06
413.812	261.06
414.035	264.06
414.258	256.06
414.482	259.06
414.705	262.06
414.928	250.06
415.151	254.06
415.374	215.06
415.597	256.06
415.821	246.06
416.044	264.06
416.267	257.06
416.49	245.06
416.713	254.06
416.936	253.06
417.159	247.06
417.382	259.06
417.605	271.06
417.828	266.06
418.051	261.06
418.274	248.06
418.497	249.06
418.72	253.06
418.943	239.06
419.166	248.06
419.389	278.06
419.611	293.06
419.834	276.06
420.057	296.06
420.28	305.06
420.503	307.06
420.726	286.06
420.948	273.06
421.171	272.06
421.394	254.06
421.617	249.06
421.839	264.06
422.062	261.06
422.285	227.06
422.507	233.06
422.73	263.06
422.953	232.06
423.175	242.06
423.398	248.06
423.621	237.06
423.843	230.06
424.066	238.06
424.288	233.06
424.511	240.06
424.733	248.06
424.956	241.06
425.178	248.06
425.401	235.06
425.623	233.06
425.846	259.06
426.068	237.06
426.291	238.06
426.513	235.06
426.735	231.06
426.958	235.06
427.18	257.06
427.402	259.06
427.625	286.06
427.847	321.06
428.069	323.06
428.292	297.06
428.514	260.06
428.736	244.06
428.958	241.06
429.181	253.06
429.403	241.06
429.625	225.06
429.847	218.06
430.069	239.06
430.292	237.06
430.514	238.06
430.736	236.06
430.958	236.06
431.18	213.06
431.402	219.06
431.624	222.06
431.846	218.06
432.068	231.06
432.29	227.06
432.512	216.06
432.734	219.06
432.956	227.06
433.178	231.06
433.4	218.06
433.622	209.06
433.844	236.06
434.066	231.06
434.287	235.06
434.509	218.06
434.731	238.06
434.953	233.06
435.175	221.06
435.397	239.06
435.618	223.06
435.84	213.06
436.062	219.06
436.284	216.06
436.505	219.06
436.727	200.06
436.949	233.06
437.17	233.06
437.392	217.06
437.614	195.06
437.835	192.06
438.057	217.06
438.278	220.06
438.5	204.06
438.721	205.06
438.943	217.06
439.165	209.06
439.386	216.06
439.608	228.06
439.829	231.06
440.05	229.06
440.272	216.06
440.493	216.06
440.715	231.06
440.936	239.06
441.158	243.06
441.379	235.06
441.6	240.06
441.822	218.06
442.043	233.06
442.264	213.06
442.486	222.06
442.707	218.06
442.928	214.06
443.149	245.06
443.371	226.06
443.592	234.06
443.813	233.06
444.034	223.06
444.255	236.06
444.476	236.06
444.698	285.06
444.919	259.06
445.14	324.06
445.361	269.06
445.582	239.06
445.803	215.06
446.024	219.06
446.245	215.06
446.466	213.06
446.687	239.06
446.908	216.06
447.129	232.06
447.35	212.06
447.571	224.06
447.792	207.06
448.013	215.06
448.234	220.06
448.455	221.06
448.675	207.06
448.896	210.06
449.117	211.06
449.338	235.06
449.559	215.06
449.779	189.06
450	216.06
450.221	222.06
450.442	214.06
450.662	218.06
450.883	229.06
451.104	219.06
451.324	200.06
451.545	190.06
451.766	200.06
451.986	191.06
452.207	198.06
452.428	191.06
452.648	208.06
452.869	219.06
453.089	199.06
453.31	175.06
453.53	197.06
453.751	191.06
453.971	207.06
454.192	197.06
454.412	183.06
454.633	201.06
454.853	201.06
455.073	211.06
455.294	205.06
455.514	205.06
455.734	199.06
455.955	189.06
456.175	194.06
456.395	199.06
456.616	204.06
456.836	217.06
457.056	200.06
457.276	188.06
457.497	217.06
457.717	197.06
457.937	219.06
458.157	209.06
458.377	199.06
458.598	209.06
458.818	217.06
459.038	209.06
459.258	212.06
459.478	216.06
459.698	220.06
459.918	219.06
460.138	233.06
460.358	234.06
460.578	223.06
460.798	235.06
461.018	237.06
461.238	229.06
461.458	237.06
461.678	232.06
461.898	246.06
462.118	228.06
462.338	227.06
462.558	264.06
462.777	269.06
462.997	271.06
463.217	279.06
463.437	277.06
463.657	261.06
463.876	251.06
464.096	253.06
464.316	247.06
464.536	256.06
464.755	236.06
464.975	230.06
465.195	243.06
465.414	253.06
465.634	242.06
465.854	236.06
466.073	239.06
466.293	237.06
466.512	237.06
466.732	238.06
466.951	254.06
467.171	239.06
467.391	258.06
467.61	271.06
467.829	361.06
468.049	671.06
468.268	837.06
468.488	494.06
468.707	353.06
468.927	291.06
469.146	280.06
469.365	270.06
469.585	260.06
469.804	260.06
470.023	242.06
470.243	267.06
470.462	285.06
470.681	257.06
470.901	291.06
471.12	272.06
471.339	293.06
471.558	339.06
471.777	362.06
471.997	542.06
472.216	1136.06
472.435	1708.06
472.654	953.06
472.873	571.06
473.092	399.06
473.311	391.06
473.53	345.06
473.749	309.06
473.968	306.06
474.187	283.06
474.406	295.06
474.625	279.06
474.844	260.06
475.063	267.06
475.282	252.06
475.501	266.06
475.72	285.06
475.939	280.06
476.158	243.06
476.377	249.06
476.596	246.06
476.814	260.06
477.033	235.06
477.252	275.06
477.471	276.06
477.69	256.06
477.908	276.06
478.127	267.06
478.346	271.06
478.564	299.06
478.783	269.06
479.002	275.06
479.22	301.06
479.439	297.06
479.658	314.06
479.876	329.06
480.095	327.06
480.313	397.06
480.532	450.06
480.751	619.06
480.969	1239.06
481.188	2687.06
481.406	2149.06
481.624	1058.06
481.843	705.06
482.061	543.06
482.28	487.06
482.498	431.06
482.717	402.06
482.935	392.06
483.153	364.06
483.372	358.06
483.59	333.06
483.808	323.06
484.027	314.06
484.245	304.06
484.463	298.06
484.681	312.06
484.9	307.06
485.118	306.06
485.336	281.06
485.554	305.06
485.772	291.06
485.99	291.06
486.209	301.06
486.427	268.06
486.645	293.06
486.863	296.06
487.081	299.06
487.299	292.06
487.517	281.06
487.735	301.06
487.953	295.06
488.171	303.06
488.389	308.06
488.607	296.06
488.825	315.06
489.043	295.06
489.261	310.06
489.479	306.06
489.696	335.06
489.914	315.06
490.132	332.06
490.35	359.06
490.568	345.06
490.786	378.06
491.003	387.06
491.221	431.06
491.439	469.06
491.657	475.06
491.874	475.06
492.092	465.06
492.31	473.06
492.527	516.06
492.745	542.06
492.963	506.06
493.18	488.06
493.398	466.06
493.615	469.06
493.833	405.06
494.05	419.06
494.268	405.06
494.485	419.06
494.703	395.06
494.92	365.06
495.138	360.06
495.355	365.06
495.573	362.06
495.79	352.06
496.008	340.06
496.225	356.06
496.442	346.06
496.66	351.06
496.877	337.06
497.094	345.06
497.312	329.06
497.529	336.06
497.746	337.06
497.963	344.06
498.181	339.06
498.398	347.06
498.615	356.06
498.832	373.06
499.049	353.06
499.267	390.06
499.484	390.06
499.701	397.06
499.918	410.06
500.135	442.06
500.352	477.06
500.569	487.06
500.786	512.06
501.003	472.06
501.22	438.06
501.437	424.06
501.654	389.06
501.871	380.06
502.088	347.06
502.305	342.06
502.522	329.06
502.739	323.06
502.956	308.06
503.172	318.06
503.389	322.06
