Data from StdC_HRD10591_012.txt Node
Date: Fri May 16 15:28:46 EDT 2025
User: Yrep
Spectrometer: HR+D1059
Trigger mode: 1
Integration Time (sec): 1.000000E-1
Scans to average: 1
Electric dark correction enabled: true
Nonlinearity correction enabled: false
Boxcar width: 0
XAxis mode: Wavelengths
Number of Pixels in Spectrum: 2048
>>>>>Begin Spectral Data<<<<<
223.165	-21.38
223.4	-21.38
223.635	-21.38
223.869	-15.38
224.104	-18.38
224.338	-21.38
224.573	-6.38
224.808	7.62
225.042	5.62
225.277	-11.38
225.511	-1.38
225.746	-15.38
225.98	11.62
226.215	15.62
226.449	5.62
226.683	23.62
226.918	12.62
227.152	28.62
227.387	28.62
227.621	51.62
227.856	63.62
228.09	54.62
228.324	58.62
228.559	66.62
228.793	58.62
229.027	76.62
229.262	77.62
229.496	85.62
229.73	96.62
229.964	81.62
230.199	72.62
230.433	87.62
230.667	77.62
230.901	72.62
231.136	79.62
231.37	84.62
231.604	89.62
231.838	97.62
232.072	99.62
232.306	97.62
232.541	84.62
232.775	87.62
233.009	83.62
233.243	104.62
233.477	96.62
233.711	105.62
233.945	88.62
234.179	90.62
234.413	86.62
234.647	101.62
234.881	100.62
235.115	79.62
235.349	89.62
235.583	85.62
235.817	100.62
236.051	89.62
236.285	92.62
236.519	85.62
236.753	77.62
236.987	85.62
237.221	82.62
237.455	89.62
237.689	88.62
237.922	94.62
238.156	99.62
238.39	94.62
238.624	94.62
238.858	108.62
239.091	80.62
239.325	103.62
239.559	95.62
239.793	91.62
240.027	103.62
240.26	82.62
240.494	94.62
240.728	92.62
240.961	78.62
241.195	90.62
241.429	94.62
241.662	93.62
241.896	109.62
242.13	93.62
242.363	95.62
242.597	97.62
242.83	90.62
243.064	100.62
243.298	88.62
243.531	95.62
243.765	104.62
243.998	102.62
244.232	106.62
244.465	96.62
244.699	98.62
244.932	98.62
245.166	107.62
245.399	112.62
245.633	103.62
245.866	95.62
246.099	119.62
246.333	103.62
246.566	108.62
246.8	97.62
247.033	109.62
247.266	105.62
247.5	105.62
247.733	93.62
247.966	109.62
248.2	106.62
248.433	117.62
248.666	117.62
248.899	111.62
249.133	104.62
249.366	116.62
249.599	122.62
249.832	122.62
250.066	147.62
250.299	169.62
250.532	190.62
250.765	180.62
250.998	145.62
251.231	126.62
251.465	116.62
251.698	132.62
251.931	120.62
252.164	118.62
252.397	126.62
252.63	123.62
252.863	120.62
253.096	118.62
253.329	127.62
253.562	125.62
253.795	120.62
254.028	123.62
254.261	142.62
254.494	119.62
254.727	141.62
254.96	148.62
255.193	150.62
255.426	161.62
255.659	194.62
255.892	246.62
256.124	299.62
256.357	268.62
256.59	212.62
256.823	172.62
257.056	168.62
257.289	150.62
257.521	150.62
257.754	151.62
257.987	126.62
258.22	133.62
258.452	140.62
258.685	161.62
258.918	130.62
259.151	138.62
259.383	147.62
259.616	143.62
259.849	130.62
260.081	131.62
260.314	136.62
260.547	133.62
260.779	142.62
261.012	130.62
261.244	142.62
261.477	142.62
261.71	127.62
261.942	124.62
262.175	130.62
262.407	132.62
262.64	124.62
262.872	121.62
263.105	124.62
263.337	131.62
263.57	131.62
263.802	122.62
264.035	128.62
264.267	135.62
264.499	110.62
264.732	125.62
264.964	123.62
265.197	134.62
265.429	140.62
265.661	112.62
265.894	131.62
266.126	140.62
266.358	126.62
266.591	129.62
266.823	130.62
267.055	137.62
267.287	134.62
267.52	126.62
267.752	140.62
267.984	140.62
268.216	139.62
268.448	147.62
268.681	144.62
268.913	120.62
269.145	149.62
269.377	122.62
269.609	126.62
269.841	139.62
270.073	128.62
270.306	148.62
270.538	120.62
270.77	147.62
271.002	131.62
271.234	126.62
271.466	148.62
271.698	144.62
271.93	139.62
272.162	134.62
272.394	158.62
272.626	129.62
272.858	136.62
273.09	136.62
273.322	160.62
273.553	147.62
273.785	137.62
274.017	139.62
274.249	146.62
274.481	153.62
274.713	152.62
274.945	150.62
275.176	176.62
275.408	171.62
275.64	178.62
275.872	188.62
276.104	196.62
276.335	186.62
276.567	184.62
276.799	194.62
277.031	219.62
277.262	240.62
277.494	234.62
277.726	187.62
277.957	182.62
278.189	184.62
278.421	169.62
278.652	184.62
278.884	172.62
279.115	186.62
279.347	187.62
279.579	206.62
279.81	225.62
280.042	253.62
280.273	286.62
280.505	255.62
280.736	207.62
280.968	198.62
281.199	173.62
281.431	179.62
281.662	180.62
281.894	174.62
282.125	149.62
282.356	184.62
282.588	174.62
282.819	177.62
283.051	161.62
283.282	152.62
283.513	157.62
283.745	170.62
283.976	155.62
284.207	171.62
284.439	158.62
284.67	159.62
284.901	144.62
285.132	153.62
285.364	168.62
285.595	162.62
285.826	156.62
286.057	170.62
286.288	157.62
286.52	150.62
286.751	140.62
286.982	153.62
287.213	153.62
287.444	161.62
287.675	173.62
287.906	164.62
288.138	157.62
288.369	154.62
288.6	150.62
288.831	137.62
289.062	160.62
289.293	165.62
289.524	151.62
289.755	155.62
289.986	159.62
290.217	150.62
290.448	160.62
290.679	158.62
290.91	163.62
291.141	168.62
291.371	154.62
291.602	166.62
291.833	157.62
292.064	160.62
292.295	158.62
292.526	159.62
292.757	155.62
292.987	142.62
293.218	150.62
293.449	168.62
293.68	150.62
293.91	151.62
294.141	153.62
294.372	150.62
294.603	148.62
294.833	144.62
295.064	169.62
295.295	142.62
295.525	158.62
295.756	165.62
295.987	152.62
296.217	145.62
296.448	163.62
296.679	156.62
296.909	164.62
297.14	144.62
297.37	151.62
297.601	149.62
297.831	158.62
298.062	166.62
298.292	161.62
298.523	155.62
298.753	155.62
298.984	156.62
299.214	165.62
299.445	160.62
299.675	164.62
299.905	163.62
300.136	154.62
300.366	163.62
300.597	154.62
300.827	148.62
301.057	158.62
301.288	172.62
301.518	169.62
301.748	183.62
301.979	184.62
302.209	173.62
302.439	164.62
302.669	159.62
302.9	156.62
303.13	179.62
303.36	176.62
303.59	208.62
303.82	193.62
304.051	182.62
304.281	186.62
304.511	166.62
304.741	167.62
304.971	158.62
305.201	172.62
305.431	166.62
305.661	178.62
305.891	181.62
306.121	166.62
306.352	161.62
306.582	180.62
306.812	180.62
307.042	209.62
307.272	214.62
307.502	218.62
307.731	214.62
307.961	201.62
308.191	199.62
308.421	178.62
308.651	162.62
308.881	161.62
309.111	179.62
309.341	151.62
309.571	180.62
309.8	160.62
310.03	176.62
310.26	164.62
310.49	172.62
310.72	177.62
310.949	168.62
311.179	174.62
311.409	164.62
311.639	168.62
311.868	171.62
312.098	185.62
312.328	171.62
312.557	176.62
312.787	175.62
313.017	189.62
313.246	177.62
313.476	184.62
313.706	168.62
313.935	175.62
314.165	171.62
314.394	169.62
314.624	175.62
314.853	159.62
315.083	166.62
315.312	172.62
315.542	184.62
315.771	166.62
316.001	174.62
316.23	166.62
316.46	158.62
316.689	187.62
316.919	178.62
317.148	186.62
317.377	175.62
317.607	190.62
317.836	186.62
318.065	180.62
318.295	203.62
318.524	182.62
318.753	186.62
318.983	192.62
319.212	178.62
319.441	180.62
319.67	207.62
319.9	186.62
320.129	184.62
320.358	191.62
320.587	170.62
320.816	183.62
321.046	186.62
321.275	203.62
321.504	194.62
321.733	178.62
321.962	174.62
322.191	199.62
322.42	186.62
322.649	202.62
322.878	200.62
323.108	204.62
323.337	220.62
323.566	218.62
323.795	207.62
324.024	205.62
324.253	201.62
324.482	224.62
324.71	226.62
324.939	224.62
325.168	231.62
325.397	228.62
325.626	221.62
325.855	222.62
326.084	234.62
326.313	248.62
326.542	256.62
326.77	276.62
326.999	270.62
327.228	295.62
327.457	334.62
327.686	394.62
327.914	545.62
328.143	662.62
328.372	712.62
328.6	527.62
328.829	413.62
329.058	388.62
329.287	415.62
329.515	498.62
329.744	668.62
329.972	951.62
330.201	1292.62
330.43	1268.62
330.658	768.62
330.887	470.62
331.115	406.62
331.344	347.62
331.572	329.62
331.801	315.62
332.03	316.62
332.258	312.62
332.486	336.62
332.715	344.62
332.943	360.62
333.172	401.62
333.4	458.62
333.629	513.62
333.857	697.62
334.085	1042.62
334.314	1483.62
334.542	1790.62
334.771	1450.62
334.999	767.62
335.227	500.62
335.455	404.62
335.684	353.62
335.912	317.62
336.14	303.62
336.369	279.62
336.597	270.62
336.825	265.62
337.053	272.62
337.281	239.62
337.51	233.62
337.738	242.62
337.966	225.62
338.194	231.62
338.422	244.62
338.65	212.62
338.878	221.62
339.106	204.62
339.334	210.62
339.562	208.62
339.79	212.62
340.018	218.62
340.246	211.62
340.474	223.62
340.702	199.62
340.93	213.62
341.158	202.62
341.386	206.62
341.614	203.62
341.842	202.62
342.07	193.62
342.298	202.62
342.526	199.62
342.754	200.62
342.981	203.62
343.209	199.62
343.437	211.62
343.665	194.62
343.893	190.62
344.12	207.62
344.348	205.62
344.576	204.62
344.804	192.62
345.031	194.62
345.259	205.62
345.487	189.62
345.714	196.62
345.942	191.62
346.17	198.62
346.397	185.62
346.625	199.62
346.853	190.62
347.08	172.62
347.308	188.62
347.535	202.62
347.763	186.62
347.99	182.62
348.218	182.62
348.445	183.62
348.673	171.62
348.9	181.62
349.128	200.62
349.355	191.62
349.583	196.62
349.81	184.62
350.037	170.62
350.265	186.62
350.492	164.62
350.72	189.62
350.947	177.62
351.174	175.62
351.402	191.62
351.629	199.62
351.856	193.62
352.083	172.62
352.311	170.62
352.538	174.62
352.765	201.62
352.992	190.62
353.22	187.62
353.447	170.62
353.674	198.62
353.901	181.62
354.128	186.62
354.355	185.62
354.583	161.62
354.81	187.62
355.037	181.62
355.264	195.62
355.491	198.62
355.718	172.62
355.945	175.62
356.172	179.62
356.399	186.62
356.626	177.62
356.853	184.62
357.08	199.62
357.307	191.62
357.534	200.62
357.761	188.62
357.988	199.62
358.215	191.62
358.441	181.62
358.668	175.62
358.895	184.62
359.122	188.62
359.349	176.62
359.576	188.62
359.802	178.62
360.029	175.62
360.256	176.62
360.483	188.62
360.709	183.62
360.936	193.62
361.163	192.62
361.39	181.62
361.616	184.62
361.843	182.62
362.07	182.62
362.296	189.62
362.523	184.62
362.749	189.62
362.976	186.62
363.203	180.62
363.429	184.62
363.656	182.62
363.882	181.62
364.109	181.62
364.335	172.62
364.562	165.62
364.788	175.62
365.015	172.62
365.241	187.62
365.468	189.62
365.694	186.62
365.92	165.62
366.147	165.62
366.373	182.62
366.599	179.62
366.826	188.62
367.052	188.62
367.278	192.62
367.505	199.62
367.731	189.62
367.957	186.62
368.184	174.62
368.41	176.62
368.636	188.62
368.862	177.62
369.089	191.62
369.315	198.62
369.541	198.62
369.767	193.62
369.993	198.62
370.219	186.62
370.445	177.62
370.672	166.62
370.898	179.62
371.124	174.62
371.35	181.62
371.576	199.62
371.802	188.62
372.028	200.62
372.254	196.62
372.48	183.62
372.706	185.62
372.932	181.62
373.158	187.62
373.384	191.62
373.61	190.62
373.835	171.62
374.061	196.62
374.287	167.62
374.513	192.62
374.739	211.62
374.965	177.62
375.191	181.62
375.416	184.62
375.642	196.62
375.868	197.62
376.094	178.62
376.319	186.62
376.545	175.62
376.771	187.62
376.997	190.62
377.222	193.62
377.448	204.62
377.674	181.62
377.899	182.62
378.125	208.62
378.35	192.62
378.576	194.62
378.802	204.62
379.027	182.62
379.253	190.62
379.478	194.62
379.704	192.62
379.929	167.62
380.155	184.62
380.38	207.62
380.606	194.62
380.831	182.62
381.057	183.62
381.282	191.62
381.507	194.62
381.733	200.62
381.958	200.62
382.184	194.62
382.409	189.62
382.634	202.62
382.86	202.62
383.085	206.62
383.31	203.62
383.535	207.62
383.761	195.62
383.986	194.62
384.211	195.62
384.436	211.62
384.662	211.62
384.887	199.62
385.112	198.62
385.337	207.62
385.562	223.62
385.787	203.62
386.013	189.62
386.238	190.62
386.463	216.62
386.688	220.62
386.913	212.62
387.138	202.62
387.363	200.62
387.588	200.62
387.813	208.62
388.038	212.62
388.263	209.62
388.488	196.62
388.713	199.62
388.938	213.62
389.163	216.62
389.387	212.62
389.612	213.62
389.837	201.62
390.062	225.62
390.287	224.62
390.512	204.62
390.736	202.62
390.961	204.62
391.186	220.62
391.411	221.62
391.636	207.62
391.86	211.62
392.085	219.62
392.31	214.62
392.534	203.62
392.759	208.62
392.984	220.62
393.208	214.62
393.433	206.62
393.658	217.62
393.882	212.62
394.107	219.62
394.331	203.62
394.556	216.62
394.78	222.62
395.005	228.62
395.229	214.62
395.454	221.62
395.678	220.62
395.903	215.62
396.127	237.62
396.352	212.62
396.576	226.62
396.801	207.62
397.025	232.62
397.249	229.62
397.474	230.62
397.698	224.62
397.922	237.62
398.147	229.62
398.371	233.62
398.595	228.62
398.82	246.62
399.044	255.62
399.268	264.62
399.492	282.62
399.717	283.62
399.941	275.62
400.165	274.62
400.389	246.62
400.613	260.62
400.837	244.62
401.062	263.62
401.286	242.62
401.51	252.62
401.734	236.62
401.958	236.62
402.182	226.62
402.406	238.62
402.63	250.62
402.854	236.62
403.078	249.62
403.302	248.62
403.526	261.62
403.75	256.62
403.974	266.62
404.198	278.62
404.422	293.62
404.645	266.62
404.869	278.62
405.093	313.62
405.317	338.62
405.541	316.62
405.765	275.62
405.988	279.62
406.212	271.62
406.436	267.62
406.66	266.62
406.883	265.62
407.107	281.62
407.331	284.62
407.555	278.62
407.778	278.62
408.002	272.62
408.226	275.62
408.449	257.62
408.673	260.62
408.896	254.62
409.12	239.62
409.344	257.62
409.567	253.62
409.791	266.62
410.014	258.62
410.238	260.62
410.461	251.62
410.685	257.62
410.908	240.62
411.132	258.62
411.355	249.62
411.578	258.62
411.802	264.62
412.025	283.62
412.249	305.62
412.472	317.62
412.695	335.62
412.919	322.62
413.142	290.62
413.365	266.62
413.589	258.62
413.812	257.62
414.035	271.62
414.258	261.62
414.482	266.62
414.705	254.62
414.928	263.62
415.151	252.62
415.374	246.62
415.597	252.62
415.821	252.62
416.044	264.62
416.267	236.62
416.49	231.62
416.713	244.62
416.936	244.62
417.159	239.62
417.382	266.62
417.605	268.62
417.828	271.62
418.051	256.62
418.274	258.62
418.497	240.62
418.72	233.62
418.943	244.62
419.166	257.62
419.389	272.62
419.611	266.62
419.834	273.62
420.057	320.62
420.28	308.62
420.503	289.62
420.726	287.62
420.948	279.62
421.171	274.62
421.394	272.62
421.617	239.62
421.839	264.62
422.062	246.62
422.285	243.62
422.507	257.62
422.73	241.62
422.953	252.62
423.175	251.62
423.398	240.62
423.621	248.62
423.843	245.62
424.066	258.62
424.288	273.62
424.511	250.62
424.733	239.62
424.956	251.62
425.178	246.62
425.401	256.62
425.623	235.62
425.846	244.62
426.068	246.62
426.291	244.62
426.513	236.62
426.735	237.62
426.958	236.62
427.18	253.62
427.402	269.62
427.625	277.62
427.847	329.62
428.069	313.62
428.292	297.62
428.514	262.62
428.736	234.62
428.958	252.62
429.181	234.62
429.403	234.62
429.625	240.62
429.847	220.62
430.069	242.62
430.292	247.62
430.514	215.62
430.736	248.62
430.958	238.62
431.18	233.62
431.402	229.62
431.624	225.62
431.846	235.62
432.068	230.62
432.29	225.62
432.512	230.62
432.734	222.62
432.956	246.62
433.178	233.62
433.4	236.62
433.622	238.62
433.844	230.62
434.066	220.62
434.287	235.62
434.509	223.62
434.731	236.62
434.953	220.62
435.175	221.62
435.397	221.62
435.618	233.62
435.84	238.62
436.062	226.62
436.284	216.62
436.505	233.62
436.727	217.62
436.949	226.62
437.17	216.62
437.392	218.62
437.614	232.62
437.835	207.62
438.057	208.62
438.278	207.62
438.5	220.62
438.721	224.62
438.943	233.62
439.165	216.62
439.386	236.62
439.608	226.62
439.829	230.62
440.05	224.62
440.272	212.62
440.493	213.62
440.715	236.62
440.936	232.62
441.158	244.62
441.379	235.62
441.6	230.62
441.822	246.62
442.043	229.62
442.264	238.62
442.486	251.62
442.707	228.62
442.928	216.62
443.149	226.62
443.371	244.62
443.592	252.62
443.813	238.62
444.034	252.62
444.255	245.62
444.476	239.62
444.698	233.62
444.919	238.62
445.14	323.62
445.361	277.62
445.582	256.62
445.803	228.62
446.024	240.62
446.245	220.62
446.466	220.62
446.687	217.62
446.908	214.62
447.129	222.62
447.35	222.62
447.571	217.62
447.792	223.62
448.013	224.62
448.234	210.62
448.455	217.62
448.675	214.62
448.896	207.62
449.117	207.62
449.338	208.62
449.559	207.62
449.779	224.62
450	210.62
450.221	216.62
450.442	224.62
450.662	226.62
450.883	224.62
451.104	217.62
451.324	214.62
451.545	217.62
451.766	207.62
451.986	215.62
452.207	200.62
452.428	215.62
452.648	210.62
452.869	207.62
453.089	198.62
453.31	208.62
453.53	203.62
453.751	197.62
453.971	215.62
454.192	205.62
454.412	211.62
454.633	198.62
454.853	216.62
455.073	205.62
455.294	206.62
455.514	207.62
455.734	203.62
455.955	198.62
456.175	190.62
456.395	207.62
456.616	193.62
456.836	210.62
457.056	217.62
457.276	206.62
457.497	212.62
457.717	201.62
457.937	227.62
458.157	221.62
458.377	210.62
458.598	213.62
458.818	218.62
459.038	192.62
459.258	217.62
459.478	216.62
459.698	208.62
459.918	218.62
460.138	228.62
460.358	233.62
460.578	225.62
460.798	244.62
461.018	230.62
461.238	250.62
461.458	232.62
461.678	229.62
461.898	250.62
462.118	240.62
462.338	240.62
462.558	243.62
462.777	252.62
462.997	247.62
463.217	271.62
463.437	278.62
463.657	262.62
463.876	268.62
464.096	261.62
464.316	257.62
464.536	251.62
464.755	269.62
464.975	245.62
465.195	252.62
465.414	247.62
465.634	238.62
465.854	235.62
466.073	230.62
466.293	232.62
466.512	248.62
466.732	245.62
466.951	241.62
467.171	244.62
467.391	258.62
467.61	277.62
467.829	368.62
468.049	653.62
468.268	804.62
468.488	463.62
468.707	358.62
468.927	313.62
469.146	275.62
469.365	282.62
469.585	263.62
469.804	265.62
470.023	250.62
470.243	250.62
470.462	282.62
470.681	255.62
470.901	266.62
471.12	270.62
471.339	308.62
471.558	310.62
471.777	364.62
471.997	533.62
472.216	1072.62
472.435	1692.62
472.654	951.62
472.873	571.62
473.092	424.62
473.311	358.62
473.53	356.62
473.749	330.62
473.968	308.62
474.187	278.62
474.406	272.62
474.625	265.62
474.844	282.62
475.063	264.62
475.282	249.62
475.501	236.62
475.72	274.62
475.939	249.62
476.158	252.62
476.377	249.62
476.596	257.62
476.814	262.62
477.033	251.62
477.252	251.62
477.471	257.62
477.69	266.62
477.908	263.62
478.127	274.62
478.346	284.62
478.564	272.62
478.783	295.62
479.002	275.62
479.22	292.62
479.439	314.62
479.658	306.62
479.876	321.62
480.095	364.62
480.313	398.62
480.532	449.62
480.751	596.62
480.969	1215.62
481.188	2644.62
481.406	2161.62
481.624	1044.62
481.843	700.62
482.061	550.62
482.28	474.62
482.498	426.62
482.717	408.62
482.935	380.62
483.153	354.62
483.372	349.62
483.59	348.62
483.808	316.62
484.027	305.62
484.245	307.62
484.463	302.62
484.681	301.62
484.9	316.62
485.118	310.62
485.336	308.62
485.554	311.62
485.772	307.62
485.99	296.62
486.209	303.62
486.427	310.62
486.645	292.62
486.863	283.62
487.081	298.62
487.299	296.62
487.517	288.62
487.735	302.62
487.953	308.62
488.171	305.62
488.389	321.62
488.607	316.62
488.825	296.62
489.043	321.62
489.261	318.62
489.479	313.62
489.696	336.62
489.914	354.62
490.132	353.62
490.35	360.62
490.568	367.62
490.786	373.62
491.003	397.62
491.221	433.62
491.439	472.62
491.657	468.62
491.874	480.62
492.092	468.62
492.31	479.62
492.527	514.62
492.745	529.62
492.963	519.62
493.18	507.62
493.398	477.62
493.615	460.62
493.833	447.62
494.05	401.62
494.268	400.62
494.485	387.62
494.703	374.62
494.92	376.62
495.138	383.62
495.355	376.62
495.573	378.62
495.79	365.62
496.008	346.62
496.225	354.62
496.442	368.62
496.66	347.62
496.877	350.62
497.094	353.62
497.312	349.62
497.529	339.62
497.746	325.62
497.963	340.62
498.181	322.62
498.398	343.62
498.615	351.62
498.832	382.62
499.049	376.62
499.267	395.62
499.484	399.62
499.701	396.62
499.918	433.62
500.135	444.62
500.352	470.62
500.569	481.62
500.786	498.62
501.003	465.62
501.22	458.62
501.437	397.62
501.654	393.62
501.871	348.62
502.088	358.62
502.305	348.62
502.522	320.62
502.739	341.62
502.956	316.62
503.172	323.62
503.389	302.62
