Data from StdC_HRD10591_096.txt Node
Date: Fri May 16 15:29:28 EDT 2025
User: Yrep
Spectrometer: HR+D1059
Trigger mode: 1
Integration Time (sec): 1.000000E-1
Scans to average: 1
Electric dark correction enabled: true
Nonlinearity correction enabled: false
Boxcar width: 0
XAxis mode: Wavelengths
Number of Pixels in Spectrum: 2048
>>>>>Begin Spectral Data<<<<<
223.165	-15.69
223.4	-15.69
223.635	-15.69
223.869	-29.69
224.104	-18.69
224.338	-12.69
224.573	-12.69
224.808	5.31
225.042	-0.69
225.277	-5.69
225.511	-4.69
225.746	8.31
225.98	-10.69
226.215	11.31
226.449	19.31
226.683	22.31
226.918	30.31
227.152	14.31
227.387	25.31
227.621	28.31
227.856	61.31
228.09	45.31
228.324	58.31
228.559	58.31
228.793	62.31
229.027	68.31
229.262	71.31
229.496	63.31
229.73	89.31
229.964	79.31
230.199	79.31
230.433	79.31
230.667	74.31
230.901	81.31
231.136	97.31
231.37	79.31
231.604	97.31
231.838	95.31
232.072	97.31
232.306	94.31
232.541	80.31
232.775	89.31
233.009	103.31
233.243	82.31
233.477	88.31
233.711	90.31
233.945	81.31
234.179	96.31
234.413	81.31
234.647	89.31
234.881	88.31
235.115	88.31
235.349	77.31
235.583	98.31
235.817	91.31
236.051	78.31
236.285	92.31
236.519	105.31
236.753	81.31
236.987	112.31
237.221	82.31
237.455	90.31
237.689	93.31
237.922	88.31
238.156	97.31
238.39	87.31
238.624	87.31
238.858	102.31
239.091	96.31
239.325	80.31
239.559	79.31
239.793	83.31
240.027	102.31
240.26	96.31
240.494	87.31
240.728	103.31
240.961	87.31
241.195	102.31
241.429	96.31
241.662	87.31
241.896	103.31
242.13	90.31
242.363	77.31
242.597	80.31
242.83	96.31
243.064	108.31
243.298	95.31
243.531	96.31
243.765	103.31
243.998	123.31
244.232	97.31
244.465	111.31
244.699	115.31
244.932	107.31
245.166	107.31
245.399	107.31
245.633	104.31
245.866	96.31
246.099	105.31
246.333	113.31
246.566	115.31
246.8	109.31
247.033	98.31
247.266	105.31
247.5	119.31
247.733	112.31
247.966	99.31
248.2	123.31
248.433	95.31
248.666	112.31
248.899	108.31
249.133	119.31
249.366	119.31
249.599	140.31
249.832	144.31
250.066	131.31
250.299	174.31
250.532	202.31
250.765	173.31
250.998	146.31
251.231	148.31
251.465	138.31
251.698	122.31
251.931	118.31
252.164	118.31
252.397	124.31
252.63	125.31
252.863	113.31
253.096	123.31
253.329	121.31
253.562	114.31
253.795	128.31
254.028	123.31
254.261	125.31
254.494	138.31
254.727	130.31
254.96	110.31
255.193	130.31
255.426	149.31
255.659	201.31
255.892	243.31
256.124	305.31
256.357	249.31
256.59	196.31
256.823	162.31
257.056	158.31
257.289	166.31
257.521	141.31
257.754	137.31
257.987	124.31
258.22	140.31
258.452	140.31
258.685	127.31
258.918	135.31
259.151	120.31
259.383	141.31
259.616	131.31
259.849	129.31
260.081	142.31
260.314	130.31
260.547	128.31
260.779	137.31
261.012	128.31
261.244	135.31
261.477	142.31
261.71	131.31
261.942	144.31
262.175	131.31
262.407	120.31
262.64	118.31
262.872	113.31
263.105	124.31
263.337	138.31
263.57	130.31
263.802	129.31
264.035	143.31
264.267	128.31
264.499	117.31
264.732	129.31
264.964	135.31
265.197	117.31
265.429	127.31
265.661	127.31
265.894	140.31
266.126	129.31
266.358	136.31
266.591	126.31
266.823	123.31
267.055	120.31
267.287	137.31
267.52	125.31
267.752	131.31
267.984	119.31
268.216	133.31
268.448	135.31
268.681	146.31
268.913	140.31
269.145	142.31
269.377	141.31
269.609	133.31
269.841	130.31
270.073	125.31
270.306	146.31
270.538	139.31
270.77	145.31
271.002	148.31
271.234	140.31
271.466	131.31
271.698	131.31
271.93	138.31
272.162	133.31
272.394	155.31
272.626	138.31
272.858	152.31
273.09	150.31
273.322	159.31
273.553	143.31
273.785	149.31
274.017	149.31
274.249	149.31
274.481	150.31
274.713	153.31
274.945	154.31
275.176	160.31
275.408	172.31
275.64	188.31
275.872	174.31
276.104	170.31
276.335	166.31
276.567	183.31
276.799	180.31
277.031	205.31
277.262	226.31
277.494	237.31
277.726	216.31
277.957	190.31
278.189	171.31
278.421	189.31
278.652	181.31
278.884	168.31
279.115	178.31
279.347	194.31
279.579	201.31
279.81	219.31
280.042	265.31
280.273	296.31
280.505	245.31
280.736	205.31
280.968	202.31
281.199	182.31
281.431	175.31
281.662	150.31
281.894	169.31
282.125	185.31
282.356	161.31
282.588	155.31
282.819	157.31
283.051	157.31
283.282	159.31
283.513	163.31
283.745	159.31
283.976	171.31
284.207	141.31
284.439	162.31
284.67	148.31
284.901	159.31
285.132	179.31
285.364	164.31
285.595	144.31
285.826	159.31
286.057	161.31
286.288	150.31
286.52	173.31
286.751	152.31
286.982	165.31
287.213	150.31
287.444	164.31
287.675	148.31
287.906	146.31
288.138	156.31
288.369	159.31
288.6	157.31
288.831	158.31
289.062	153.31
289.293	159.31
289.524	165.31
289.755	161.31
289.986	154.31
290.217	161.31
290.448	144.31
290.679	169.31
290.91	167.31
291.141	157.31
291.371	149.31
291.602	173.31
291.833	165.31
292.064	150.31
292.295	159.31
292.526	159.31
292.757	167.31
292.987	162.31
293.218	147.31
293.449	153.31
293.68	181.31
293.91	152.31
294.141	160.31
294.372	147.31
294.603	169.31
294.833	173.31
295.064	145.31
295.295	151.31
295.525	153.31
295.756	151.31
295.987	149.31
296.217	167.31
296.448	160.31
296.679	170.31
296.909	168.31
297.14	174.31
297.37	173.31
297.601	158.31
297.831	149.31
298.062	161.31
298.292	146.31
298.523	144.31
298.753	156.31
298.984	165.31
299.214	163.31
299.445	185.31
299.675	159.31
299.905	162.31
300.136	157.31
300.366	161.31
300.597	158.31
300.827	160.31
301.057	165.31
301.288	165.31
301.518	152.31
301.748	163.31
301.979	204.31
302.209	164.31
302.439	179.31
302.669	161.31
302.9	181.31
303.13	179.31
303.36	181.31
303.59	192.31
303.82	190.31
304.051	179.31
304.281	161.31
304.511	189.31
304.741	186.31
304.971	165.31
305.201	177.31
305.431	177.31
305.661	179.31
305.891	160.31
306.121	179.31
306.352	166.31
306.582	175.31
306.812	174.31
307.042	207.31
307.272	212.31
307.502	247.31
307.731	217.31
307.961	187.31
308.191	179.31
308.421	173.31
308.651	183.31
308.881	173.31
309.111	186.31
309.341	161.31
309.571	166.31
309.8	155.31
310.03	181.31
310.26	183.31
310.49	171.31
310.72	171.31
310.949	184.31
311.179	173.31
311.409	166.31
311.639	161.31
311.868	176.31
312.098	190.31
312.328	177.31
312.557	191.31
312.787	187.31
313.017	193.31
313.246	185.31
313.476	174.31
313.706	185.31
313.935	184.31
314.165	182.31
314.394	176.31
314.624	176.31
314.853	161.31
315.083	167.31
315.312	181.31
315.542	169.31
315.771	179.31
316.001	167.31
316.23	181.31
316.46	189.31
316.689	169.31
316.919	174.31
317.148	170.31
317.377	181.31
317.607	180.31
317.836	178.31
318.065	185.31
318.295	189.31
318.524	165.31
318.753	181.31
318.983	198.31
319.212	184.31
319.441	187.31
319.67	175.31
319.9	171.31
320.129	174.31
320.358	197.31
320.587	176.31
320.816	181.31
321.046	187.31
321.275	203.31
321.504	202.31
321.733	195.31
321.962	199.31
322.191	191.31
322.42	185.31
322.649	197.31
322.878	201.31
323.108	203.31
323.337	202.31
323.566	195.31
323.795	226.31
324.024	219.31
324.253	237.31
324.482	216.31
324.71	235.31
324.939	212.31
325.168	220.31
325.397	220.31
325.626	222.31
325.855	236.31
326.084	230.31
326.313	258.31
326.542	257.31
326.77	259.31
326.999	265.31
327.228	293.31
327.457	343.31
327.686	434.31
327.914	562.31
328.143	699.31
328.372	768.31
328.6	529.31
328.829	399.31
329.058	387.31
329.287	392.31
329.515	497.31
329.744	685.31
329.972	969.31
330.201	1267.31
330.43	1327.31
330.658	813.31
330.887	464.31
331.115	372.31
331.344	352.31
331.572	342.31
331.801	324.31
332.03	324.31
332.258	327.31
332.486	329.31
332.715	344.31
332.943	379.31
333.172	409.31
333.4	465.31
333.629	530.31
333.857	720.31
334.085	1021.31
334.314	1507.31
334.542	1822.31
334.771	1481.31
334.999	761.31
335.227	527.31
335.455	414.31
335.684	351.31
335.912	318.31
336.14	300.31
336.369	305.31
336.597	299.31
336.825	259.31
337.053	251.31
337.281	254.31
337.51	246.31
337.738	247.31
337.966	236.31
338.194	240.31
338.422	219.31
338.65	222.31
338.878	217.31
339.106	208.31
339.334	222.31
339.562	218.31
339.79	218.31
340.018	199.31
340.246	215.31
340.474	206.31
340.702	219.31
340.93	227.31
341.158	195.31
341.386	199.31
341.614	187.31
341.842	183.31
342.07	186.31
342.298	200.31
342.526	202.31
342.754	178.31
342.981	208.31
343.209	218.31
343.437	211.31
343.665	200.31
343.893	194.31
344.12	215.31
344.348	183.31
344.576	210.31
344.804	207.31
345.031	190.31
345.259	172.31
345.487	201.31
345.714	187.31
345.942	192.31
346.17	199.31
346.397	187.31
346.625	170.31
346.853	202.31
347.08	189.31
347.308	171.31
347.535	181.31
347.763	185.31
347.99	184.31
348.218	174.31
348.445	201.31
348.673	194.31
348.9	192.31
349.128	179.31
349.355	178.31
349.583	184.31
349.81	202.31
350.037	180.31
350.265	184.31
350.492	202.31
350.72	178.31
350.947	183.31
351.174	189.31
351.402	185.31
351.629	180.31
351.856	198.31
352.083	202.31
352.311	198.31
352.538	182.31
352.765	196.31
352.992	194.31
353.22	199.31
353.447	186.31
353.674	185.31
353.901	184.31
354.128	198.31
354.355	169.31
354.583	171.31
354.81	190.31
355.037	187.31
355.264	185.31
355.491	172.31
355.718	189.31
355.945	186.31
356.172	173.31
356.399	184.31
356.626	186.31
356.853	173.31
357.08	181.31
357.307	170.31
357.534	168.31
357.761	198.31
357.988	193.31
358.215	175.31
358.441	183.31
358.668	179.31
358.895	181.31
359.122	188.31
359.349	185.31
359.576	174.31
359.802	172.31
360.029	194.31
360.256	173.31
360.483	182.31
360.709	187.31
360.936	176.31
361.163	182.31
361.39	192.31
361.616	177.31
361.843	178.31
362.07	174.31
362.296	176.31
362.523	193.31
362.749	186.31
362.976	185.31
363.203	191.31
363.429	190.31
363.656	169.31
363.882	174.31
364.109	189.31
364.335	196.31
364.562	171.31
364.788	184.31
365.015	175.31
365.241	182.31
365.468	178.31
365.694	181.31
365.92	184.31
366.147	183.31
366.373	182.31
366.599	170.31
366.826	194.31
367.052	177.31
367.278	182.31
367.505	181.31
367.731	184.31
367.957	172.31
368.184	183.31
368.41	176.31
368.636	177.31
368.862	201.31
369.089	188.31
369.315	181.31
369.541	173.31
369.767	172.31
369.993	170.31
370.219	182.31
370.445	190.31
370.672	201.31
370.898	215.31
371.124	189.31
371.35	172.31
371.576	181.31
371.802	167.31
372.028	172.31
372.254	189.31
372.48	194.31
372.706	192.31
372.932	183.31
373.158	197.31
373.384	174.31
373.61	190.31
373.835	178.31
374.061	186.31
374.287	210.31
374.513	173.31
374.739	193.31
374.965	205.31
375.191	184.31
375.416	193.31
375.642	187.31
375.868	189.31
376.094	187.31
376.319	174.31
376.545	204.31
376.771	183.31
376.997	187.31
377.222	185.31
377.448	183.31
377.674	191.31
377.899	184.31
378.125	186.31
378.35	187.31
378.576	190.31
378.802	201.31
379.027	196.31
379.253	185.31
379.478	183.31
379.704	187.31
379.929	173.31
380.155	189.31
380.38	188.31
380.606	175.31
380.831	185.31
381.057	183.31
381.282	200.31
381.507	201.31
381.733	192.31
381.958	176.31
382.184	188.31
382.409	192.31
382.634	199.31
382.86	187.31
383.085	203.31
383.31	194.31
383.535	208.31
383.761	198.31
383.986	207.31
384.211	194.31
384.436	196.31
384.662	197.31
384.887	195.31
385.112	200.31
385.337	218.31
385.562	203.31
385.787	198.31
386.013	204.31
386.238	201.31
386.463	219.31
386.688	215.31
386.913	208.31
387.138	228.31
387.363	209.31
387.588	202.31
387.813	208.31
388.038	216.31
388.263	209.31
388.488	203.31
388.713	190.31
388.938	193.31
389.163	217.31
389.387	202.31
389.612	209.31
389.837	209.31
390.062	204.31
390.287	214.31
390.512	207.31
390.736	207.31
390.961	232.31
391.186	223.31
391.411	208.31
391.636	232.31
391.86	214.31
392.085	218.31
392.31	216.31
392.534	219.31
392.759	211.31
392.984	219.31
393.208	222.31
393.433	233.31
393.658	193.31
393.882	216.31
394.107	217.31
394.331	222.31
394.556	219.31
394.78	225.31
395.005	224.31
395.229	224.31
395.454	210.31
395.678	211.31
395.903	233.31
396.127	212.31
396.352	219.31
396.576	239.31
396.801	219.31
397.025	212.31
397.249	216.31
397.474	238.31
397.698	220.31
397.922	233.31
398.147	229.31
398.371	224.31
398.595	253.31
398.82	255.31
399.044	251.31
399.268	273.31
399.492	262.31
399.717	249.31
399.941	290.31
400.165	286.31
400.389	250.31
400.613	261.31
400.837	256.31
401.062	245.31
401.286	255.31
401.51	235.31
401.734	229.31
401.958	227.31
402.182	243.31
402.406	237.31
402.63	241.31
402.854	247.31
403.078	250.31
403.302	258.31
403.526	247.31
403.75	235.31
403.974	253.31
404.198	250.31
404.422	254.31
404.645	278.31
404.869	276.31
405.093	320.31
405.317	335.31
405.541	317.31
405.765	309.31
405.988	286.31
406.212	291.31
406.436	264.31
406.66	270.31
406.883	251.31
407.107	280.31
407.331	269.31
407.555	267.31
407.778	276.31
408.002	247.31
408.226	253.31
408.449	271.31
408.673	262.31
408.896	243.31
409.12	274.31
409.344	248.31
409.567	250.31
409.791	240.31
410.014	251.31
410.238	236.31
410.461	251.31
410.685	265.31
410.908	251.31
411.132	279.31
411.355	266.31
411.578	258.31
411.802	264.31
412.025	276.31
412.249	288.31
412.472	314.31
412.695	333.31
412.919	323.31
413.142	298.31
413.365	291.31
413.589	283.31
413.812	278.31
414.035	278.31
414.258	272.31
414.482	250.31
414.705	248.31
414.928	271.31
415.151	247.31
415.374	251.31
415.597	240.31
415.821	247.31
416.044	250.31
416.267	247.31
416.49	246.31
416.713	247.31
416.936	254.31
417.159	252.31
417.382	253.31
417.605	265.31
417.828	271.31
418.051	239.31
418.274	249.31
418.497	267.31
418.72	245.31
418.943	262.31
419.166	263.31
419.389	265.31
419.611	275.31
419.834	280.31
420.057	281.31
420.28	311.31
420.503	309.31
420.726	281.31
420.948	277.31
421.171	262.31
421.394	250.31
421.617	258.31
421.839	237.31
422.062	261.31
422.285	237.31
422.507	237.31
422.73	234.31
422.953	240.31
423.175	253.31
423.398	249.31
423.621	248.31
423.843	241.31
424.066	238.31
424.288	237.31
424.511	239.31
424.733	234.31
424.956	241.31
425.178	245.31
425.401	238.31
425.623	257.31
425.846	235.31
426.068	236.31
426.291	257.31
426.513	234.31
426.735	242.31
426.958	239.31
427.18	251.31
427.402	251.31
427.625	290.31
427.847	310.31
428.069	322.31
428.292	283.31
428.514	265.31
428.736	251.31
428.958	245.31
429.181	225.31
429.403	229.31
429.625	225.31
429.847	239.31
430.069	244.31
430.292	237.31
430.514	230.31
430.736	237.31
430.958	237.31
431.18	223.31
431.402	212.31
431.624	227.31
431.846	214.31
432.068	207.31
432.29	222.31
432.512	228.31
432.734	237.31
432.956	231.31
433.178	227.31
433.4	231.31
433.622	241.31
433.844	224.31
434.066	222.31
434.287	218.31
434.509	233.31
434.731	223.31
434.953	224.31
435.175	245.31
435.397	222.31
435.618	221.31
435.84	237.31
436.062	235.31
436.284	234.31
436.505	230.31
436.727	219.31
436.949	235.31
437.17	216.31
437.392	229.31
437.614	219.31
437.835	232.31
438.057	224.31
438.278	206.31
438.5	230.31
438.721	215.31
438.943	210.31
439.165	219.31
439.386	239.31
439.608	239.31
439.829	223.31
440.05	224.31
440.272	223.31
440.493	231.31
440.715	227.31
440.936	238.31
441.158	240.31
441.379	241.31
441.6	254.31
441.822	210.31
442.043	233.31
442.264	232.31
442.486	237.31
442.707	229.31
442.928	236.31
443.149	251.31
443.371	241.31
443.592	232.31
443.813	235.31
444.034	246.31
444.255	243.31
444.476	232.31
444.698	245.31
444.919	235.31
445.14	326.31
445.361	272.31
445.582	240.31
445.803	249.31
446.024	218.31
446.245	221.31
446.466	211.31
446.687	222.31
446.908	223.31
447.129	218.31
447.35	217.31
447.571	224.31
447.792	203.31
448.013	222.31
448.234	230.31
448.455	205.31
448.675	221.31
448.896	217.31
449.117	215.31
449.338	216.31
449.559	222.31
449.779	210.31
450	221.31
450.221	211.31
450.442	205.31
450.662	198.31
450.883	205.31
451.104	216.31
451.324	213.31
451.545	213.31
451.766	206.31
451.986	201.31
452.207	201.31
452.428	207.31
452.648	211.31
452.869	212.31
453.089	205.31
453.31	199.31
453.53	192.31
453.751	197.31
453.971	195.31
454.192	207.31
454.412	211.31
454.633	201.31
454.853	202.31
455.073	203.31
455.294	207.31
455.514	210.31
455.734	209.31
455.955	216.31
456.175	198.31
456.395	205.31
456.616	229.31
456.836	193.31
457.056	207.31
457.276	188.31
457.497	227.31
457.717	208.31
457.937	221.31
458.157	207.31
458.377	204.31
458.598	233.31
458.818	214.31
459.038	214.31
459.258	210.31
459.478	203.31
459.698	223.31
459.918	225.31
460.138	239.31
460.358	246.31
460.578	229.31
460.798	251.31
461.018	247.31
461.238	237.31
461.458	241.31
461.678	230.31
461.898	245.31
462.118	226.31
462.338	237.31
462.558	279.31
462.777	265.31
462.997	284.31
463.217	281.31
463.437	267.31
463.657	267.31
463.876	256.31
464.096	262.31
464.316	255.31
464.536	265.31
464.755	254.31
464.975	243.31
465.195	246.31
465.414	227.31
465.634	254.31
465.854	241.31
466.073	220.31
466.293	237.31
466.512	243.31
466.732	242.31
466.951	245.31
467.171	257.31
467.391	270.31
467.61	288.31
467.829	373.31
468.049	687.31
468.268	834.31
468.488	486.31
468.707	347.31
468.927	311.31
469.146	284.31
469.365	281.31
469.585	268.31
469.804	261.31
470.023	265.31
470.243	261.31
470.462	265.31
470.681	262.31
470.901	272.31
471.12	267.31
471.339	297.31
471.558	313.31
471.777	350.31
471.997	535.31
472.216	1159.31
472.435	1743.31
472.654	975.31
472.873	570.31
473.092	420.31
473.311	369.31
473.53	357.31
473.749	319.31
473.968	303.31
474.187	293.31
474.406	279.31
474.625	295.31
474.844	269.31
475.063	258.31
475.282	259.31
475.501	257.31
475.72	253.31
475.939	254.31
476.158	261.31
476.377	252.31
476.596	261.31
476.814	251.31
477.033	263.31
477.252	263.31
477.471	264.31
477.69	270.31
477.908	268.31
478.127	281.31
478.346	284.31
478.564	287.31
478.783	286.31
479.002	288.31
479.22	314.31
479.439	297.31
479.658	303.31
479.876	330.31
480.095	362.31
480.313	390.31
480.532	455.31
480.751	618.31
480.969	1246.31
481.188	2731.31
481.406	2216.31
481.624	1040.31
481.843	697.31
482.061	576.31
482.28	467.31
482.498	424.31
482.717	397.31
482.935	375.31
483.153	364.31
483.372	341.31
483.59	333.31
483.808	313.31
484.027	319.31
484.245	303.31
484.463	307.31
484.681	307.31
484.9	304.31
485.118	299.31
485.336	319.31
485.554	296.31
485.772	291.31
485.99	294.31
486.209	286.31
486.427	287.31
486.645	302.31
486.863	303.31
487.081	306.31
487.299	280.31
487.517	298.31
487.735	285.31
487.953	309.31
488.171	307.31
488.389	305.31
488.607	305.31
488.825	325.31
489.043	311.31
489.261	323.31
489.479	328.31
489.696	324.31
489.914	326.31
490.132	339.31
490.35	354.31
490.568	352.31
490.786	371.31
491.003	407.31
491.221	420.31
491.439	450.31
491.657	465.31
491.874	461.31
492.092	450.31
492.31	469.31
492.527	535.31
492.745	535.31
492.963	510.31
493.18	474.31
493.398	455.31
493.615	427.31
493.833	417.31
494.05	387.31
494.268	405.31
494.485	375.31
494.703	398.31
494.92	380.31
495.138	373.31
495.355	367.31
495.573	365.31
495.79	362.31
496.008	325.31
496.225	367.31
496.442	352.31
496.66	355.31
496.877	350.31
497.094	361.31
497.312	359.31
497.529	343.31
497.746	322.31
497.963	345.31
498.181	320.31
498.398	354.31
498.615	341.31
498.832	370.31
499.049	386.31
499.267	390.31
499.484	369.31
499.701	408.31
499.918	409.31
500.135	444.31
500.352	450.31
500.569	507.31
500.786	519.31
501.003	475.31
501.22	431.31
501.437	419.31
501.654	403.31
501.871	373.31
502.088	349.31
502.305	363.31
502.522	342.31
502.739	336.31
502.956	328.31
503.172	304.31
503.389	315.31
