Data from StdC_HRD10591_006.txt Node
Date: Fri May 16 15:28:43 EDT 2025
User: Yrep
Spectrometer: HR+D1059
Trigger mode: 1
Integration Time (sec): 1.000000E-1
Scans to average: 1
Electric dark correction enabled: true
Nonlinearity correction enabled: false
Boxcar width: 0
XAxis mode: Wavelengths
Number of Pixels in Spectrum: 2048
>>>>>Begin Spectral Data<<<<<
223.165	-22.31
223.4	-22.31
223.635	-22.31
223.869	-20.31
224.104	-20.31
224.338	-16.31
224.573	-15.31
224.808	-11.31
225.042	-0.31
225.277	3.69
225.511	-0.31
225.746	13.69
225.98	-2.31
226.215	21.69
226.449	16.69
226.683	13.69
226.918	12.69
227.152	26.69
227.387	42.69
227.621	43.69
227.856	49.69
228.09	52.69
228.324	61.69
228.559	61.69
228.793	61.69
229.027	69.69
229.262	61.69
229.496	83.69
229.73	73.69
229.964	71.69
230.199	78.69
230.433	62.69
230.667	69.69
230.901	81.69
231.136	81.69
231.37	63.69
231.604	78.69
231.838	77.69
232.072	85.69
232.306	89.69
232.541	87.69
232.775	72.69
233.009	71.69
233.243	65.69
233.477	87.69
233.711	73.69
233.945	72.69
234.179	90.69
234.413	89.69
234.647	79.69
234.881	84.69
235.115	86.69
235.349	76.69
235.583	67.69
235.817	74.69
236.051	78.69
236.285	75.69
236.519	73.69
236.753	71.69
236.987	80.69
237.221	85.69
237.455	83.69
237.689	73.69
237.922	79.69
238.156	83.69
238.39	67.69
238.624	68.69
238.858	81.69
239.091	74.69
239.325	73.69
239.559	85.69
239.793	75.69
240.027	66.69
240.26	80.69
240.494	88.69
240.728	76.69
240.961	58.69
241.195	87.69
241.429	74.69
241.662	76.69
241.896	89.69
242.13	80.69
242.363	73.69
242.597	87.69
242.83	67.69
243.064	84.69
243.298	83.69
243.531	88.69
243.765	89.69
243.998	60.69
244.232	62.69
244.465	84.69
244.699	57.69
244.932	76.69
245.166	80.69
245.399	76.69
245.633	81.69
245.866	74.69
246.099	74.69
246.333	76.69
246.566	61.69
246.8	88.69
247.033	81.69
247.266	79.69
247.5	78.69
247.733	70.69
247.966	85.69
248.2	79.69
248.433	72.69
248.666	69.69
248.899	76.69
249.133	81.69
249.366	75.69
249.599	89.69
249.832	78.69
250.066	70.69
250.299	84.69
250.532	73.69
250.765	73.69
250.998	83.69
251.231	64.69
251.465	79.69
251.698	69.69
251.931	85.69
252.164	80.69
252.397	78.69
252.63	76.69
252.863	69.69
253.096	79.69
253.329	69.69
253.562	73.69
253.795	81.69
254.028	83.69
254.261	79.69
254.494	83.69
254.727	72.69
254.96	71.69
255.193	80.69
255.426	79.69
255.659	69.69
255.892	75.69
256.124	79.69
256.357	73.69
256.59	72.69
256.823	73.69
257.056	84.69
257.289	75.69
257.521	77.69
257.754	63.69
257.987	80.69
258.22	76.69
258.452	78.69
258.685	80.69
258.918	84.69
259.151	77.69
259.383	78.69
259.616	87.69
259.849	85.69
260.081	85.69
260.314	76.69
260.547	84.69
260.779	83.69
261.012	79.69
261.244	84.69
261.477	87.69
261.71	81.69
261.942	71.69
262.175	88.69
262.407	82.69
262.64	72.69
262.872	88.69
263.105	82.69
263.337	82.69
263.57	71.69
263.802	89.69
264.035	73.69
264.267	71.69
264.499	82.69
264.732	70.69
264.964	80.69
265.197	83.69
265.429	74.69
265.661	73.69
265.894	70.69
266.126	88.69
266.358	81.69
266.591	82.69
266.823	75.69
267.055	91.69
267.287	71.69
267.52	79.69
267.752	82.69
267.984	83.69
268.216	62.69
268.448	87.69
268.681	83.69
268.913	98.69
269.145	81.69
269.377	92.69
269.609	74.69
269.841	85.69
270.073	76.69
270.306	78.69
270.538	71.69
270.77	79.69
271.002	69.69
271.234	92.69
271.466	75.69
271.698	75.69
271.93	71.69
272.162	85.69
272.394	85.69
272.626	87.69
272.858	83.69
273.09	72.69
273.322	88.69
273.553	84.69
273.785	75.69
274.017	83.69
274.249	76.69
274.481	96.69
274.713	71.69
274.945	87.69
275.176	92.69
275.408	88.69
275.64	80.69
275.872	86.69
276.104	73.69
276.335	91.69
276.567	78.69
276.799	93.69
277.031	94.69
277.262	95.69
277.494	93.69
277.726	77.69
277.957	84.69
278.189	77.69
278.421	89.69
278.652	61.69
278.884	75.69
279.115	92.69
279.347	87.69
279.579	85.69
279.81	92.69
280.042	85.69
280.273	110.69
280.505	81.69
280.736	91.69
280.968	94.69
281.199	78.69
281.431	87.69
281.662	83.69
281.894	83.69
282.125	84.69
282.356	77.69
282.588	78.69
282.819	76.69
283.051	79.69
283.282	81.69
283.513	84.69
283.745	81.69
283.976	75.69
284.207	83.69
284.439	78.69
284.67	80.69
284.901	83.69
285.132	89.69
285.364	88.69
285.595	85.69
285.826	88.69
286.057	81.69
286.288	80.69
286.52	80.69
286.751	76.69
286.982	102.69
287.213	87.69
287.444	84.69
287.675	81.69
287.906	91.69
288.138	85.69
288.369	91.69
288.6	81.69
288.831	79.69
289.062	76.69
289.293	89.69
289.524	72.69
289.755	79.69
289.986	87.69
290.217	76.69
290.448	78.69
290.679	99.69
290.91	75.69
291.141	89.69
291.371	89.69
291.602	79.69
291.833	72.69
292.064	77.69
292.295	88.69
292.526	92.69
292.757	77.69
292.987	85.69
293.218	72.69
293.449	89.69
293.68	93.69
293.91	75.69
294.141	99.69
294.372	81.69
294.603	91.69
294.833	81.69
295.064	82.69
295.295	79.69
295.525	95.69
295.756	99.69
295.987	75.69
296.217	65.69
296.448	91.69
296.679	78.69
296.909	85.69
297.14	83.69
297.37	96.69
297.601	86.69
297.831	92.69
298.062	88.69
298.292	76.69
298.523	64.69
298.753	89.69
298.984	97.69
299.214	71.69
299.445	86.69
299.675	85.69
299.905	81.69
300.136	79.69
300.366	77.69
300.597	90.69
300.827	79.69
301.057	95.69
301.288	76.69
301.518	91.69
301.748	75.69
301.979	101.69
302.209	88.69
302.439	75.69
302.669	88.69
302.9	86.69
303.13	83.69
303.36	88.69
303.59	94.69
303.82	92.69
304.051	80.69
304.281	85.69
304.511	82.69
304.741	88.69
304.971	93.69
305.201	77.69
305.431	86.69
305.661	92.69
305.891	92.69
306.121	78.69
306.352	62.69
306.582	71.69
306.812	83.69
307.042	84.69
307.272	94.69
307.502	90.69
307.731	94.69
307.961	83.69
308.191	93.69
308.421	93.69
308.651	72.69
308.881	81.69
309.111	78.69
309.341	83.69
309.571	88.69
309.8	76.69
310.03	69.69
310.26	75.69
310.49	70.69
310.72	87.69
310.949	89.69
311.179	83.69
311.409	94.69
311.639	84.69
311.868	79.69
312.098	79.69
312.328	92.69
312.557	77.69
312.787	94.69
313.017	95.69
313.246	80.69
313.476	86.69
313.706	87.69
313.935	91.69
314.165	81.69
314.394	83.69
314.624	85.69
314.853	90.69
315.083	91.69
315.312	91.69
315.542	77.69
315.771	84.69
316.001	79.69
316.23	92.69
316.46	78.69
316.689	79.69
316.919	72.69
317.148	83.69
317.377	82.69
317.607	93.69
317.836	84.69
318.065	80.69
318.295	83.69
318.524	95.69
318.753	79.69
318.983	82.69
319.212	87.69
319.441	84.69
319.67	95.69
319.9	77.69
320.129	93.69
320.358	86.69
320.587	78.69
320.816	83.69
321.046	85.69
321.275	87.69
321.504	95.69
321.733	78.69
321.962	85.69
322.191	69.69
322.42	87.69
322.649	81.69
322.878	79.69
323.108	83.69
323.337	86.69
323.566	86.69
323.795	84.69
324.024	87.69
324.253	88.69
324.482	88.69
324.71	82.69
324.939	83.69
325.168	73.69
325.397	77.69
325.626	75.69
325.855	77.69
326.084	83.69
326.313	76.69
326.542	78.69
326.77	94.69
326.999	102.69
327.228	96.69
327.457	78.69
327.686	99.69
327.914	115.69
328.143	126.69
328.372	137.69
328.6	96.69
328.829	87.69
329.058	87.69
329.287	78.69
329.515	94.69
329.744	108.69
329.972	133.69
330.201	164.69
330.43	186.69
330.658	127.69
330.887	86.69
331.115	78.69
331.344	73.69
331.572	92.69
331.801	91.69
332.03	77.69
332.258	86.69
332.486	79.69
332.715	81.69
332.943	85.69
333.172	84.69
333.4	80.69
333.629	81.69
333.857	102.69
334.085	123.69
334.314	175.69
334.542	218.69
334.771	200.69
334.999	108.69
335.227	88.69
335.455	96.69
335.684	103.69
335.912	92.69
336.14	86.69
336.369	76.69
336.597	79.69
336.825	85.69
337.053	83.69
337.281	94.69
337.51	63.69
337.738	99.69
337.966	91.69
338.194	82.69
338.422	92.69
338.65	73.69
338.878	86.69
339.106	89.69
339.334	77.69
339.562	86.69
339.79	93.69
340.018	82.69
340.246	71.69
340.474	90.69
340.702	85.69
340.93	79.69
341.158	85.69
341.386	92.69
341.614	72.69
341.842	71.69
342.07	51.69
342.298	82.69
342.526	72.69
342.754	94.69
342.981	90.69
343.209	90.69
343.437	81.69
343.665	79.69
343.893	82.69
344.12	93.69
344.348	92.69
344.576	77.69
344.804	87.69
345.031	79.69
345.259	84.69
345.487	85.69
345.714	68.69
345.942	81.69
346.17	79.69
346.397	81.69
346.625	87.69
346.853	77.69
347.08	76.69
347.308	85.69
347.535	87.69
347.763	77.69
347.99	81.69
348.218	91.69
348.445	85.69
348.673	91.69
348.9	68.69
349.128	83.69
349.355	84.69
349.583	79.69
349.81	85.69
350.037	76.69
350.265	83.69
350.492	91.69
350.72	79.69
350.947	69.69
351.174	67.69
351.402	88.69
351.629	83.69
351.856	75.69
352.083	66.69
352.311	90.69
352.538	91.69
352.765	82.69
352.992	96.69
353.22	76.69
353.447	70.69
353.674	85.69
353.901	89.69
354.128	77.69
354.355	94.69
354.583	93.69
354.81	99.69
355.037	85.69
355.264	88.69
355.491	88.69
355.718	87.69
355.945	86.69
356.172	86.69
356.399	93.69
356.626	86.69
356.853	93.69
357.08	101.69
357.307	94.69
357.534	81.69
357.761	80.69
357.988	83.69
358.215	86.69
358.441	81.69
358.668	90.69
358.895	81.69
359.122	87.69
359.349	93.69
359.576	88.69
359.802	99.69
360.029	87.69
360.256	76.69
360.483	75.69
360.709	69.69
360.936	84.69
361.163	80.69
361.39	90.69
361.616	87.69
361.843	84.69
362.07	84.69
362.296	91.69
362.523	69.69
362.749	76.69
362.976	73.69
363.203	83.69
363.429	77.69
363.656	85.69
363.882	88.69
364.109	80.69
364.335	74.69
364.562	74.69
364.788	73.69
365.015	77.69
365.241	91.69
365.468	83.69
365.694	86.69
365.92	88.69
366.147	80.69
366.373	77.69
366.599	89.69
366.826	93.69
367.052	73.69
367.278	82.69
367.505	86.69
367.731	78.69
367.957	94.69
368.184	88.69
368.41	79.69
368.636	73.69
368.862	83.69
369.089	72.69
369.315	79.69
369.541	81.69
369.767	97.69
369.993	79.69
370.219	78.69
370.445	78.69
370.672	85.69
370.898	77.69
371.124	90.69
371.35	80.69
371.576	84.69
371.802	87.69
372.028	84.69
372.254	83.69
372.48	85.69
372.706	77.69
372.932	93.69
373.158	88.69
373.384	82.69
373.61	78.69
373.835	87.69
374.061	85.69
374.287	75.69
374.513	78.69
374.739	91.69
374.965	89.69
375.191	83.69
375.416	92.69
375.642	99.69
375.868	104.69
376.094	89.69
376.319	93.69
376.545	87.69
376.771	90.69
376.997	80.69
377.222	66.69
377.448	87.69
377.674	78.69
377.899	90.69
378.125	68.69
378.35	97.69
378.576	76.69
378.802	87.69
379.027	85.69
379.253	99.69
379.478	90.69
379.704	84.69
379.929	67.69
380.155	81.69
380.38	77.69
380.606	95.69
380.831	86.69
381.057	77.69
381.282	69.69
381.507	90.69
381.733	84.69
381.958	88.69
382.184	83.69
382.409	80.69
382.634	86.69
382.86	80.69
383.085	83.69
383.31	66.69
383.535	86.69
383.761	74.69
383.986	61.69
384.211	91.69
384.436	95.69
384.662	81.69
384.887	73.69
385.112	71.69
385.337	84.69
385.562	82.69
385.787	76.69
386.013	74.69
386.238	88.69
386.463	80.69
386.688	105.69
386.913	81.69
387.138	95.69
387.363	68.69
387.588	83.69
387.813	87.69
388.038	73.69
388.263	83.69
388.488	84.69
388.713	71.69
388.938	81.69
389.163	79.69
389.387	73.69
389.612	82.69
389.837	83.69
390.062	77.69
390.287	85.69
390.512	83.69
390.736	81.69
390.961	85.69
391.186	82.69
391.411	79.69
391.636	99.69
391.86	80.69
392.085	87.69
392.31	72.69
392.534	84.69
392.759	82.69
392.984	79.69
393.208	77.69
393.433	79.69
393.658	79.69
393.882	86.69
394.107	73.69
394.331	75.69
394.556	95.69
394.78	92.69
395.005	83.69
395.229	81.69
395.454	84.69
395.678	88.69
395.903	80.69
396.127	76.69
396.352	69.69
396.576	75.69
396.801	87.69
397.025	84.69
397.249	78.69
397.474	74.69
397.698	87.69
397.922	91.69
398.147	78.69
398.371	82.69
398.595	82.69
398.82	83.69
399.044	87.69
399.268	80.69
399.492	79.69
399.717	92.69
399.941	81.69
400.165	67.69
400.389	68.69
400.613	96.69
400.837	79.69
401.062	84.69
401.286	66.69
401.51	65.69
401.734	85.69
401.958	75.69
402.182	69.69
402.406	89.69
402.63	76.69
402.854	69.69
403.078	93.69
403.302	89.69
403.526	85.69
403.75	87.69
403.974	84.69
404.198	83.69
404.422	75.69
404.645	88.69
404.869	94.69
405.093	83.69
405.317	73.69
405.541	78.69
405.765	85.69
405.988	84.69
406.212	77.69
406.436	77.69
406.66	86.69
406.883	75.69
407.107	79.69
407.331	103.69
407.555	60.69
407.778	81.69
408.002	96.69
408.226	80.69
408.449	73.69
408.673	81.69
408.896	87.69
409.12	76.69
409.344	69.69
409.567	73.69
409.791	74.69
410.014	73.69
410.238	91.69
410.461	99.69
410.685	80.69
410.908	96.69
411.132	77.69
411.355	80.69
411.578	81.69
411.802	77.69
412.025	89.69
412.249	81.69
412.472	80.69
412.695	87.69
412.919	66.69
413.142	79.69
413.365	97.69
413.589	84.69
413.812	78.69
414.035	91.69
414.258	78.69
414.482	78.69
414.705	76.69
414.928	80.69
415.151	86.69
415.374	94.69
415.597	86.69
415.821	77.69
416.044	87.69
416.267	85.69
416.49	77.69
416.713	93.69
416.936	71.69
417.159	83.69
417.382	70.69
417.605	88.69
417.828	87.69
418.051	85.69
418.274	67.69
418.497	70.69
418.72	83.69
418.943	79.69
419.166	87.69
419.389	88.69
419.611	93.69
419.834	74.69
420.057	77.69
420.28	69.69
420.503	87.69
420.726	101.69
420.948	85.69
421.171	86.69
421.394	69.69
421.617	67.69
421.839	77.69
422.062	85.69
422.285	72.69
422.507	73.69
422.73	67.69
422.953	79.69
423.175	83.69
423.398	89.69
423.621	83.69
423.843	82.69
424.066	83.69
424.288	83.69
424.511	81.69
424.733	77.69
424.956	81.69
425.178	86.69
425.401	86.69
425.623	86.69
425.846	86.69
426.068	82.69
426.291	88.69
426.513	77.69
426.735	68.69
426.958	89.69
427.18	78.69
427.402	77.69
427.625	86.69
427.847	89.69
428.069	84.69
428.292	87.69
428.514	73.69
428.736	87.69
428.958	82.69
429.181	80.69
429.403	82.69
429.625	94.69
429.847	83.69
430.069	91.69
430.292	90.69
430.514	78.69
430.736	83.69
430.958	83.69
431.18	79.69
431.402	88.69
431.624	95.69
431.846	84.69
432.068	71.69
432.29	73.69
432.512	70.69
432.734	73.69
432.956	90.69
433.178	90.69
433.4	79.69
433.622	75.69
433.844	78.69
434.066	74.69
434.287	63.69
434.509	74.69
434.731	87.69
434.953	80.69
435.175	82.69
435.397	84.69
435.618	77.69
435.84	85.69
436.062	89.69
436.284	86.69
436.505	73.69
436.727	80.69
436.949	87.69
437.17	76.69
437.392	80.69
437.614	81.69
437.835	89.69
438.057	84.69
438.278	86.69
438.5	76.69
438.721	95.69
438.943	81.69
439.165	84.69
439.386	82.69
439.608	93.69
439.829	83.69
440.05	68.69
440.272	86.69
440.493	76.69
440.715	79.69
440.936	97.69
441.158	87.69
441.379	91.69
441.6	77.69
441.822	70.69
442.043	78.69
442.264	80.69
442.486	83.69
442.707	77.69
442.928	76.69
443.149	64.69
443.371	86.69
443.592	80.69
443.813	72.69
444.034	92.69
444.255	92.69
444.476	87.69
444.698	84.69
444.919	87.69
445.14	151.69
445.361	115.69
445.582	84.69
445.803	86.69
446.024	83.69
446.245	84.69
446.466	84.69
446.687	89.69
446.908	104.69
447.129	85.69
447.35	72.69
447.571	80.69
447.792	84.69
448.013	81.69
448.234	74.69
448.455	92.69
448.675	79.69
448.896	90.69
449.117	76.69
449.338	81.69
449.559	78.69
449.779	75.69
450	90.69
450.221	108.69
450.442	75.69
450.662	79.69
450.883	101.69
451.104	76.69
451.324	88.69
451.545	72.69
451.766	70.69
451.986	83.69
452.207	71.69
452.428	72.69
452.648	72.69
452.869	69.69
453.089	96.69
453.31	86.69
453.53	76.69
453.751	78.69
453.971	82.69
454.192	71.69
454.412	69.69
454.633	76.69
454.853	86.69
455.073	91.69
455.294	93.69
455.514	83.69
455.734	78.69
455.955	100.69
456.175	77.69
456.395	80.69
456.616	81.69
456.836	80.69
457.056	86.69
457.276	84.69
457.497	75.69
457.717	76.69
457.937	92.69
458.157	82.69
458.377	94.69
458.598	80.69
458.818	93.69
459.038	80.69
459.258	74.69
459.478	83.69
459.698	75.69
459.918	93.69
460.138	71.69
460.358	80.69
460.578	75.69
460.798	83.69
461.018	83.69
461.238	80.69
461.458	90.69
461.678	85.69
461.898	72.69
462.118	95.69
462.338	85.69
462.558	76.69
462.777	85.69
462.997	89.69
463.217	88.69
463.437	85.69
463.657	88.69
463.876	87.69
464.096	69.69
464.316	78.69
464.536	82.69
464.755	76.69
464.975	83.69
465.195	78.69
465.414	86.69
465.634	79.69
465.854	83.69
466.073	85.69
466.293	89.69
466.512	88.69
466.732	97.69
466.951	74.69
467.171	81.69
467.391	86.69
467.61	87.69
467.829	102.69
468.049	171.69
468.268	162.69
468.488	95.69
468.707	69.69
468.927	76.69
469.146	80.69
469.365	77.69
469.585	77.69
469.804	89.69
470.023	78.69
470.243	87.69
470.462	85.69
470.681	77.69
470.901	92.69
471.12	91.69
471.339	97.69
471.558	85.69
471.777	92.69
471.997	122.69
472.216	233.69
472.435	320.69
472.654	132.69
472.873	99.69
473.092	87.69
473.311	78.69
473.53	83.69
473.749	80.69
473.968	90.69
474.187	88.69
474.406	72.69
474.625	61.69
474.844	77.69
475.063	74.69
475.282	84.69
475.501	84.69
475.72	85.69
475.939	86.69
476.158	95.69
476.377	78.69
476.596	82.69
476.814	82.69
477.033	90.69
477.252	92.69
477.471	88.69
477.69	91.69
477.908	78.69
478.127	80.69
478.346	95.69
478.564	81.69
478.783	77.69
479.002	75.69
479.22	82.69
479.439	83.69
479.658	85.69
479.876	82.69
480.095	91.69
480.313	93.69
480.532	100.69
480.751	113.69
480.969	233.69
481.188	491.69
481.406	273.69
481.624	108.69
481.843	82.69
482.061	71.69
482.28	75.69
482.498	80.69
482.717	89.69
482.935	86.69
483.153	84.69
483.372	93.69
483.59	84.69
483.808	71.69
484.027	78.69
484.245	79.69
484.463	96.69
484.681	88.69
484.9	81.69
485.118	84.69
485.336	85.69
485.554	84.69
485.772	72.69
485.99	76.69
486.209	80.69
486.427	81.69
486.645	77.69
486.863	87.69
487.081	96.69
487.299	82.69
487.517	83.69
487.735	95.69
487.953	83.69
488.171	88.69
488.389	77.69
488.607	85.69
488.825	85.69
489.043	82.69
489.261	87.69
489.479	82.69
489.696	89.69
489.914	80.69
490.132	78.69
490.35	93.69
490.568	81.69
490.786	92.69
491.003	79.69
491.221	73.69
491.439	81.69
491.657	78.69
491.874	77.69
492.092	95.69
492.31	100.69
492.527	81.69
492.745	101.69
492.963	95.69
493.18	73.69
493.398	89.69
493.615	77.69
493.833	89.69
494.05	92.69
494.268	87.69
494.485	88.69
494.703	80.69
494.92	77.69
495.138	80.69
495.355	89.69
495.573	89.69
495.79	78.69
496.008	81.69
496.225	108.69
496.442	81.69
496.66	82.69
496.877	85.69
497.094	87.69
497.312	91.69
497.529	88.69
497.746	84.69
497.963	80.69
498.181	82.69
498.398	73.69
498.615	92.69
498.832	84.69
499.049	79.69
499.267	78.69
499.484	85.69
499.701	90.69
499.918	70.69
500.135	76.69
500.352	77.69
500.569	72.69
500.786	86.69
501.003	79.69
501.22	95.69
501.437	84.69
501.654	81.69
501.871	68.69
502.088	73.69
502.305	103.69
502.522	94.69
502.739	79.69
502.956	68.69
503.172	80.69
503.389	81.69
503.606	86.69
503.823	85.69
504.04	81.69
504.256	75.69
504.473	75.69
504.69	80.69
504.907	90.69
505.123	91.69
505.34	71.69
505.557	72.69
505.773	85.69
505.99	88.69
506.207	69.69
506.423	81.69
506.64	71.69
506.856	82.69
507.073	79.69
507.289	94.69
507.506	91.69
507.722	75.69
507.939	78.69
508.155	98.69
508.372	73.69
508.588	85.69
508.805	85.69
509.021	85.69
509.238	73.69
509.454	94.69
509.67	83.69
509.887	85.69
510.103	92.69
510.319	72.69
510.536	79.69
510.752	77.69
510.968	85.69
511.184	82.69
511.401	82.69
511.617	72.69
511.833	84.69
512.049	86.69
512.265	87.69
512.481	88.69
512.698	84.69
512.914	73.69
513.13	80.69
513.346	86.69
513.562	81.69
513.778	88.69
513.994	89.69
514.21	89.69
514.426	83.69
514.642	88.69
514.858	84.69
515.074	86.69
515.29	80.69
515.506	85.69
515.721	73.69
515.937	87.69
516.153	63.69
516.369	94.69
516.585	72.69
516.801	87.69
517.016	83.69
517.232	72.69
517.448	79.69
517.664	76.69
517.879	91.69
518.095	73.69
518.311	83.69
518.527	72.69
518.742	89.69
518.958	83.69
519.173	83.69
519.389	89.69
519.605	89.69
