Data from StdC_HRD10591_030.txt Node
Date: Fri May 16 15:28:55 EDT 2025
User: Yrep
Spectrometer: HR+D1059
Trigger mode: 1
Integration Time (sec): 1.000000E-1
Scans to average: 1
Electric dark correction enabled: true
Nonlinearity correction enabled: false
Boxcar width: 0
XAxis mode: Wavelengths
Number of Pixels in Spectrum: 2048
>>>>>Begin Spectral Data<<<<<
223.165	-30.94
223.4	-30.94
223.635	-30.94
223.869	-29.94
224.104	-25.94
224.338	-11.94
224.573	-17.94
224.808	7.06
225.042	3.06
225.277	-8.94
225.511	-1.94
225.746	10.06
225.98	4.06
226.215	-1.94
226.449	15.06
226.683	32.06
226.918	26.06
227.152	32.06
227.387	29.06
227.621	41.06
227.856	41.06
228.09	45.06
228.324	41.06
228.559	49.06
228.793	48.06
229.027	59.06
229.262	74.06
229.496	78.06
229.73	73.06
229.964	76.06
230.199	60.06
230.433	87.06
230.667	82.06
230.901	86.06
231.136	89.06
231.37	93.06
231.604	95.06
231.838	78.06
232.072	92.06
232.306	105.06
232.541	84.06
232.775	95.06
233.009	82.06
233.243	89.06
233.477	91.06
233.711	72.06
233.945	103.06
234.179	72.06
234.413	94.06
234.647	110.06
234.881	86.06
235.115	84.06
235.349	89.06
235.583	85.06
235.817	86.06
236.051	78.06
236.285	67.06
236.519	79.06
236.753	87.06
236.987	82.06
237.221	82.06
237.455	74.06
237.689	88.06
237.922	87.06
238.156	73.06
238.39	80.06
238.624	98.06
238.858	71.06
239.091	88.06
239.325	90.06
239.559	86.06
239.793	92.06
240.027	93.06
240.26	87.06
240.494	91.06
240.728	88.06
240.961	89.06
241.195	82.06
241.429	79.06
241.662	90.06
241.896	85.06
242.13	95.06
242.363	87.06
242.597	92.06
242.83	104.06
243.064	98.06
243.298	92.06
243.531	102.06
243.765	101.06
243.998	85.06
244.232	90.06
244.465	95.06
244.699	103.06
244.932	102.06
245.166	100.06
245.399	99.06
245.633	102.06
245.866	100.06
246.099	87.06
246.333	93.06
246.566	109.06
246.8	102.06
247.033	90.06
247.266	102.06
247.5	80.06
247.733	99.06
247.966	107.06
248.2	94.06
248.433	101.06
248.666	109.06
248.899	119.06
249.133	115.06
249.366	131.06
249.599	103.06
249.832	123.06
250.066	132.06
250.299	163.06
250.532	189.06
250.765	165.06
250.998	144.06
251.231	127.06
251.465	125.06
251.698	136.06
251.931	134.06
252.164	121.06
252.397	110.06
252.63	119.06
252.863	124.06
253.096	118.06
253.329	110.06
253.562	119.06
253.795	120.06
254.028	120.06
254.261	117.06
254.494	121.06
254.727	123.06
254.96	123.06
255.193	135.06
255.426	152.06
255.659	166.06
255.892	248.06
256.124	283.06
256.357	235.06
256.59	188.06
256.823	173.06
257.056	172.06
257.289	159.06
257.521	136.06
257.754	130.06
257.987	125.06
258.22	139.06
258.452	132.06
258.685	126.06
258.918	143.06
259.151	136.06
259.383	134.06
259.616	113.06
259.849	130.06
260.081	135.06
260.314	126.06
260.547	122.06
260.779	127.06
261.012	127.06
261.244	117.06
261.477	132.06
261.71	135.06
261.942	123.06
262.175	137.06
262.407	116.06
262.64	119.06
262.872	123.06
263.105	132.06
263.337	131.06
263.57	122.06
263.802	126.06
264.035	123.06
264.267	132.06
264.499	123.06
264.732	126.06
264.964	112.06
265.197	122.06
265.429	117.06
265.661	124.06
265.894	124.06
266.126	132.06
266.358	140.06
266.591	117.06
266.823	117.06
267.055	115.06
267.287	112.06
267.52	114.06
267.752	123.06
267.984	115.06
268.216	130.06
268.448	128.06
268.681	123.06
268.913	133.06
269.145	134.06
269.377	138.06
269.609	127.06
269.841	135.06
270.073	126.06
270.306	132.06
270.538	124.06
270.77	123.06
271.002	142.06
271.234	116.06
271.466	143.06
271.698	152.06
271.93	146.06
272.162	145.06
272.394	145.06
272.626	144.06
272.858	142.06
273.09	140.06
273.322	132.06
273.553	128.06
273.785	137.06
274.017	155.06
274.249	150.06
274.481	137.06
274.713	130.06
274.945	154.06
275.176	147.06
275.408	144.06
275.64	173.06
275.872	172.06
276.104	164.06
276.335	163.06
276.567	163.06
276.799	178.06
277.031	196.06
277.262	219.06
277.494	205.06
277.726	182.06
277.957	181.06
278.189	165.06
278.421	158.06
278.652	171.06
278.884	183.06
279.115	167.06
279.347	191.06
279.579	186.06
279.81	216.06
280.042	229.06
280.273	220.06
280.505	232.06
280.736	204.06
280.968	194.06
281.199	181.06
281.431	184.06
281.662	175.06
281.894	149.06
282.125	149.06
282.356	163.06
282.588	158.06
282.819	174.06
283.051	148.06
283.282	170.06
283.513	150.06
283.745	156.06
283.976	167.06
284.207	158.06
284.439	142.06
284.67	153.06
284.901	154.06
285.132	160.06
285.364	160.06
285.595	150.06
285.826	136.06
286.057	151.06
286.288	137.06
286.52	164.06
286.751	153.06
286.982	153.06
287.213	141.06
287.444	133.06
287.675	159.06
287.906	156.06
288.138	143.06
288.369	158.06
288.6	144.06
288.831	142.06
289.062	156.06
289.293	157.06
289.524	154.06
289.755	154.06
289.986	140.06
290.217	155.06
290.448	164.06
290.679	153.06
290.91	149.06
291.141	157.06
291.371	142.06
291.602	156.06
291.833	150.06
292.064	158.06
292.295	147.06
292.526	150.06
292.757	143.06
292.987	178.06
293.218	155.06
293.449	153.06
293.68	152.06
293.91	156.06
294.141	146.06
294.372	155.06
294.603	146.06
294.833	158.06
295.064	146.06
295.295	139.06
295.525	151.06
295.756	150.06
295.987	148.06
296.217	141.06
296.448	163.06
296.679	156.06
296.909	159.06
297.14	165.06
297.37	158.06
297.601	156.06
297.831	164.06
298.062	159.06
298.292	134.06
298.523	157.06
298.753	142.06
298.984	155.06
299.214	159.06
299.445	144.06
299.675	159.06
299.905	154.06
300.136	147.06
300.366	148.06
300.597	152.06
300.827	151.06
301.057	154.06
301.288	151.06
301.518	150.06
301.748	137.06
301.979	171.06
302.209	162.06
302.439	166.06
302.669	154.06
302.9	166.06
303.13	172.06
303.36	164.06
303.59	176.06
303.82	184.06
304.051	186.06
304.281	186.06
304.511	187.06
304.741	150.06
304.971	163.06
305.201	153.06
305.431	164.06
305.661	162.06
305.891	163.06
306.121	153.06
306.352	153.06
306.582	173.06
306.812	165.06
307.042	195.06
307.272	201.06
307.502	223.06
307.731	202.06
307.961	195.06
308.191	166.06
308.421	159.06
308.651	160.06
308.881	155.06
309.111	165.06
309.341	166.06
309.571	169.06
309.8	162.06
310.03	162.06
310.26	163.06
310.49	162.06
310.72	167.06
310.949	163.06
311.179	159.06
311.409	171.06
311.639	167.06
311.868	166.06
312.098	159.06
312.328	164.06
312.557	184.06
312.787	175.06
313.017	168.06
313.246	169.06
313.476	159.06
313.706	155.06
313.935	163.06
314.165	156.06
314.394	164.06
314.624	155.06
314.853	155.06
315.083	172.06
315.312	178.06
315.542	164.06
315.771	163.06
316.001	167.06
316.23	173.06
316.46	187.06
316.689	166.06
316.919	186.06
317.148	157.06
317.377	164.06
317.607	175.06
317.836	160.06
318.065	159.06
318.295	173.06
318.524	162.06
318.753	172.06
318.983	164.06
319.212	166.06
319.441	189.06
319.67	195.06
319.9	182.06
320.129	167.06
320.358	183.06
320.587	195.06
320.816	177.06
321.046	179.06
321.275	182.06
321.504	181.06
321.733	199.06
321.962	184.06
322.191	191.06
322.42	175.06
322.649	183.06
322.878	188.06
323.108	174.06
323.337	199.06
323.566	204.06
323.795	226.06
324.024	202.06
324.253	193.06
324.482	198.06
324.71	190.06
324.939	228.06
325.168	224.06
325.397	196.06
325.626	251.06
325.855	221.06
326.084	208.06
326.313	228.06
326.542	239.06
326.77	238.06
326.999	264.06
327.228	292.06
327.457	306.06
327.686	375.06
327.914	514.06
328.143	611.06
328.372	665.06
328.6	495.06
328.829	378.06
329.058	368.06
329.287	369.06
329.515	448.06
329.744	622.06
329.972	859.06
330.201	1156.06
330.43	1150.06
330.658	732.06
330.887	455.06
331.115	368.06
331.344	341.06
331.572	307.06
331.801	301.06
332.03	302.06
332.258	298.06
332.486	318.06
332.715	306.06
332.943	326.06
333.172	365.06
333.4	420.06
333.629	495.06
333.857	649.06
334.085	925.06
334.314	1311.06
334.542	1636.06
334.771	1322.06
334.999	703.06
335.227	472.06
335.455	384.06
335.684	332.06
335.912	288.06
336.14	292.06
336.369	260.06
336.597	250.06
336.825	260.06
337.053	237.06
337.281	232.06
337.51	237.06
337.738	215.06
337.966	218.06
338.194	231.06
338.422	205.06
338.65	205.06
338.878	213.06
339.106	207.06
339.334	195.06
339.562	206.06
339.79	192.06
340.018	182.06
340.246	201.06
340.474	186.06
340.702	199.06
340.93	186.06
341.158	174.06
341.386	197.06
341.614	171.06
341.842	186.06
342.07	190.06
342.298	196.06
342.526	199.06
342.754	192.06
342.981	187.06
343.209	184.06
343.437	188.06
343.665	193.06
343.893	195.06
344.12	200.06
344.348	185.06
344.576	188.06
344.804	188.06
345.031	180.06
345.259	189.06
345.487	183.06
345.714	186.06
345.942	187.06
346.17	184.06
346.397	175.06
346.625	162.06
346.853	185.06
347.08	167.06
347.308	171.06
347.535	183.06
347.763	169.06
347.99	185.06
348.218	197.06
348.445	188.06
348.673	164.06
348.9	173.06
349.128	178.06
349.355	188.06
349.583	176.06
349.81	178.06
350.037	190.06
350.265	185.06
350.492	179.06
350.72	164.06
350.947	181.06
351.174	178.06
351.402	170.06
351.629	172.06
351.856	182.06
352.083	169.06
352.311	164.06
352.538	170.06
352.765	181.06
352.992	174.06
353.22	192.06
353.447	183.06
353.674	170.06
353.901	170.06
354.128	178.06
354.355	163.06
354.583	177.06
354.81	178.06
355.037	166.06
355.264	173.06
355.491	175.06
355.718	182.06
355.945	168.06
356.172	170.06
356.399	167.06
356.626	179.06
356.853	173.06
357.08	179.06
357.307	166.06
357.534	170.06
357.761	166.06
357.988	166.06
358.215	179.06
358.441	188.06
358.668	177.06
358.895	164.06
359.122	170.06
359.349	157.06
359.576	159.06
359.802	166.06
360.029	164.06
360.256	173.06
360.483	182.06
360.709	175.06
360.936	165.06
361.163	159.06
361.39	178.06
361.616	173.06
361.843	171.06
362.07	172.06
362.296	176.06
362.523	184.06
362.749	182.06
362.976	178.06
363.203	190.06
363.429	159.06
363.656	171.06
363.882	163.06
364.109	180.06
364.335	184.06
364.562	173.06
364.788	184.06
365.015	167.06
365.241	173.06
365.468	190.06
365.694	157.06
365.92	159.06
366.147	189.06
366.373	176.06
366.599	174.06
366.826	177.06
367.052	164.06
367.278	160.06
367.505	172.06
367.731	158.06
367.957	172.06
368.184	170.06
368.41	163.06
368.636	178.06
368.862	170.06
369.089	180.06
369.315	186.06
369.541	191.06
369.767	173.06
369.993	174.06
370.219	182.06
370.445	166.06
370.672	183.06
370.898	176.06
371.124	190.06
371.35	178.06
371.576	178.06
371.802	170.06
372.028	178.06
372.254	193.06
372.48	191.06
372.706	178.06
372.932	180.06
373.158	178.06
373.384	178.06
373.61	202.06
373.835	174.06
374.061	188.06
374.287	175.06
374.513	182.06
374.739	159.06
374.965	194.06
375.191	178.06
375.416	182.06
375.642	167.06
375.868	177.06
376.094	193.06
376.319	163.06
376.545	172.06
376.771	164.06
376.997	182.06
377.222	171.06
377.448	178.06
377.674	183.06
377.899	182.06
378.125	180.06
378.35	178.06
378.576	182.06
378.802	178.06
379.027	178.06
379.253	165.06
379.478	164.06
379.704	198.06
379.929	190.06
380.155	180.06
380.38	183.06
380.606	192.06
380.831	191.06
381.057	181.06
381.282	167.06
381.507	197.06
381.733	182.06
381.958	180.06
382.184	193.06
382.409	181.06
382.634	192.06
382.86	183.06
383.085	172.06
383.31	186.06
383.535	195.06
383.761	186.06
383.986	185.06
384.211	197.06
384.436	199.06
384.662	205.06
384.887	191.06
385.112	193.06
385.337	182.06
385.562	195.06
385.787	188.06
386.013	206.06
386.238	198.06
386.463	203.06
386.688	229.06
386.913	191.06
387.138	207.06
387.363	215.06
387.588	185.06
387.813	196.06
388.038	193.06
388.263	194.06
388.488	194.06
388.713	203.06
388.938	183.06
389.163	194.06
389.387	216.06
389.612	190.06
389.837	211.06
390.062	197.06
390.287	204.06
390.512	214.06
390.736	201.06
390.961	205.06
391.186	196.06
391.411	209.06
391.636	192.06
391.86	215.06
392.085	214.06
392.31	208.06
392.534	188.06
392.759	202.06
392.984	196.06
393.208	208.06
393.433	192.06
393.658	185.06
393.882	205.06
394.107	212.06
394.331	206.06
394.556	207.06
394.78	198.06
395.005	205.06
395.229	200.06
395.454	207.06
395.678	212.06
395.903	214.06
396.127	216.06
396.352	204.06
396.576	195.06
396.801	228.06
397.025	205.06
397.249	218.06
397.474	211.06
397.698	214.06
397.922	218.06
398.147	226.06
398.371	222.06
398.595	215.06
398.82	223.06
399.044	240.06
399.268	232.06
399.492	261.06
399.717	269.06
399.941	251.06
400.165	235.06
400.389	243.06
400.613	246.06
400.837	232.06
401.062	239.06
401.286	241.06
401.51	209.06
401.734	220.06
401.958	236.06
402.182	216.06
402.406	217.06
402.63	211.06
402.854	245.06
403.078	226.06
403.302	233.06
403.526	253.06
403.75	244.06
403.974	245.06
404.198	240.06
404.422	235.06
404.645	259.06
404.869	274.06
405.093	285.06
405.317	303.06
405.541	306.06
405.765	278.06
405.988	248.06
406.212	276.06
406.436	238.06
406.66	270.06
406.883	255.06
407.107	254.06
407.331	254.06
407.555	256.06
407.778	254.06
408.002	252.06
408.226	246.06
408.449	239.06
408.673	245.06
408.896	260.06
409.12	239.06
409.344	231.06
409.567	220.06
409.791	244.06
410.014	240.06
410.238	245.06
410.461	237.06
410.685	237.06
410.908	225.06
411.132	231.06
411.355	244.06
411.578	248.06
411.802	266.06
412.025	253.06
412.249	266.06
412.472	297.06
412.695	308.06
412.919	311.06
413.142	285.06
413.365	261.06
413.589	253.06
413.812	243.06
414.035	251.06
414.258	245.06
414.482	235.06
414.705	246.06
414.928	240.06
415.151	251.06
415.374	237.06
415.597	230.06
415.821	236.06
416.044	227.06
416.267	241.06
416.49	242.06
416.713	244.06
416.936	242.06
417.159	218.06
417.382	247.06
417.605	254.06
417.828	263.06
418.051	242.06
418.274	247.06
418.497	234.06
418.72	252.06
418.943	239.06
419.166	252.06
419.389	254.06
419.611	260.06
419.834	293.06
420.057	272.06
420.28	304.06
420.503	280.06
420.726	270.06
420.948	265.06
421.171	258.06
421.394	230.06
421.617	241.06
421.839	243.06
422.062	231.06
422.285	225.06
422.507	238.06
422.73	243.06
422.953	215.06
423.175	229.06
423.398	235.06
423.621	248.06
423.843	244.06
424.066	245.06
424.288	235.06
424.511	229.06
424.733	240.06
424.956	234.06
425.178	216.06
425.401	225.06
425.623	246.06
425.846	222.06
426.068	222.06
426.291	242.06
426.513	207.06
426.735	234.06
426.958	242.06
427.18	230.06
427.402	260.06
427.625	271.06
427.847	314.06
428.069	321.06
428.292	299.06
428.514	263.06
428.736	243.06
428.958	214.06
429.181	217.06
429.403	219.06
429.625	212.06
429.847	210.06
430.069	215.06
430.292	224.06
430.514	225.06
430.736	223.06
430.958	232.06
431.18	216.06
431.402	217.06
431.624	210.06
431.846	222.06
432.068	204.06
432.29	214.06
432.512	202.06
432.734	203.06
432.956	216.06
433.178	216.06
433.4	228.06
433.622	208.06
433.844	208.06
434.066	222.06
434.287	213.06
434.509	222.06
434.731	212.06
434.953	233.06
435.175	230.06
435.397	229.06
435.618	213.06
435.84	218.06
436.062	204.06
436.284	210.06
436.505	205.06
436.727	218.06
436.949	222.06
437.17	205.06
437.392	194.06
437.614	206.06
437.835	202.06
438.057	203.06
438.278	204.06
438.5	207.06
438.721	197.06
438.943	188.06
439.165	200.06
439.386	211.06
439.608	210.06
439.829	223.06
440.05	215.06
440.272	208.06
440.493	214.06
440.715	226.06
440.936	222.06
441.158	228.06
441.379	214.06
441.6	212.06
441.822	229.06
442.043	226.06
442.264	236.06
442.486	226.06
442.707	213.06
442.928	213.06
443.149	228.06
443.371	215.06
443.592	227.06
443.813	227.06
444.034	204.06
444.255	218.06
444.476	227.06
444.698	238.06
444.919	248.06
445.14	330.06
445.361	265.06
445.582	236.06
445.803	215.06
446.024	230.06
446.245	221.06
446.466	219.06
446.687	210.06
446.908	208.06
447.129	207.06
447.35	216.06
447.571	218.06
447.792	214.06
448.013	208.06
448.234	208.06
448.455	200.06
448.675	204.06
448.896	204.06
449.117	201.06
449.338	216.06
449.559	208.06
449.779	200.06
450	203.06
450.221	222.06
450.442	207.06
450.662	192.06
450.883	199.06
451.104	206.06
451.324	191.06
451.545	200.06
451.766	188.06
451.986	187.06
452.207	198.06
452.428	191.06
452.648	192.06
452.869	199.06
453.089	192.06
453.31	202.06
453.53	204.06
453.751	176.06
453.971	194.06
454.192	198.06
454.412	186.06
454.633	191.06
454.853	210.06
455.073	207.06
455.294	178.06
455.514	207.06
455.734	194.06
455.955	186.06
456.175	199.06
456.395	199.06
456.616	192.06
456.836	193.06
457.056	210.06
457.276	206.06
457.497	199.06
457.717	206.06
457.937	211.06
458.157	199.06
458.377	202.06
458.598	192.06
458.818	195.06
459.038	182.06
459.258	188.06
459.478	213.06
459.698	221.06
459.918	196.06
460.138	222.06
460.358	218.06
460.578	226.06
460.798	229.06
461.018	234.06
461.238	239.06
461.458	229.06
461.678	233.06
461.898	236.06
462.118	226.06
462.338	243.06
462.558	240.06
462.777	240.06
462.997	252.06
463.217	262.06
463.437	254.06
463.657	243.06
463.876	256.06
464.096	253.06
464.316	251.06
464.536	229.06
464.755	228.06
464.975	238.06
465.195	240.06
465.414	221.06
465.634	229.06
465.854	227.06
466.073	227.06
466.293	230.06
466.512	223.06
466.732	223.06
466.951	233.06
467.171	227.06
467.391	256.06
467.61	261.06
467.829	344.06
468.049	612.06
468.268	721.06
468.488	450.06
468.707	322.06
468.927	292.06
469.146	274.06
469.365	283.06
469.585	253.06
469.804	240.06
470.023	233.06
470.243	252.06
470.462	247.06
470.681	239.06
470.901	256.06
471.12	264.06
471.339	276.06
471.558	311.06
471.777	338.06
471.997	488.06
472.216	990.06
472.435	1516.06
472.654	879.06
472.873	536.06
473.092	400.06
473.311	350.06
473.53	321.06
473.749	279.06
473.968	292.06
474.187	269.06
474.406	271.06
474.625	242.06
474.844	267.06
475.063	247.06
475.282	250.06
475.501	240.06
475.72	282.06
475.939	247.06
476.158	244.06
476.377	247.06
476.596	243.06
476.814	265.06
477.033	255.06
477.252	238.06
477.471	256.06
477.69	247.06
477.908	260.06
478.127	253.06
478.346	265.06
478.564	251.06
478.783	283.06
479.002	262.06
479.22	271.06
479.439	278.06
479.658	298.06
479.876	316.06
480.095	335.06
480.313	349.06
480.532	420.06
480.751	567.06
480.969	1078.06
481.188	2342.06
481.406	1924.06
481.624	971.06
481.843	618.06
482.061	516.06
482.28	458.06
482.498	383.06
482.717	368.06
482.935	349.06
483.153	356.06
483.372	327.06
483.59	322.06
483.808	296.06
484.027	298.06
484.245	309.06
484.463	286.06
484.681	286.06
484.9	284.06
485.118	297.06
485.336	282.06
485.554	276.06
485.772	276.06
485.99	276.06
486.209	285.06
486.427	269.06
486.645	282.06
486.863	286.06
487.081	287.06
487.299	278.06
487.517	292.06
487.735	282.06
487.953	284.06
488.171	295.06
488.389	301.06
488.607	299.06
488.825	286.06
489.043	286.06
489.261	299.06
489.479	301.06
489.696	307.06
489.914	310.06
490.132	326.06
490.35	337.06
490.568	336.06
490.786	350.06
491.003	366.06
491.221	402.06
491.439	455.06
491.657	434.06
491.874	454.06
492.092	447.06
492.31	451.06
492.527	494.06
492.745	520.06
492.963	471.06
493.18	467.06
493.398	439.06
493.615	420.06
493.833	402.06
494.05	398.06
494.268	361.06
494.485	365.06
494.703	364.06
494.92	356.06
495.138	373.06
495.355	360.06
495.573	354.06
495.79	344.06
496.008	344.06
496.225	326.06
496.442	344.06
496.66	327.06
496.877	319.06
497.094	331.06
497.312	320.06
497.529	321.06
497.746	332.06
497.963	330.06
498.181	344.06
498.398	346.06
498.615	337.06
498.832	332.06
499.049	341.06
499.267	359.06
499.484	370.06
499.701	385.06
499.918	411.06
500.135	434.06
500.352	445.06
500.569	502.06
500.786	477.06
501.003	461.06
501.22	427.06
501.437	388.06
501.654	368.06
501.871	345.06
502.088	324.06
502.305	338.06
502.522	332.06
502.739	330.06
502.956	305.06
503.172	271.06
503.389	296.06
503.606	292.06
