Data from StdC_HRD10591_074.txt Node
Date: Fri May 16 15:29:17 EDT 2025
User: Yrep
Spectrometer: HR+D1059
Trigger mode: 1
Integration Time (sec): 1.000000E-1
Scans to average: 1
Electric dark correction enabled: true
Nonlinearity correction enabled: false
Boxcar width: 0
XAxis mode: Wavelengths
Number of Pixels in Spectrum: 2048
>>>>>Begin Spectral Data<<<<<
223.165	-10.44
223.4	-10.44
223.635	-10.44
223.869	4.56
224.104	-7.44
224.338	-11.44
224.573	-17.44
224.808	-17.44
225.042	-21.44
225.277	-4.44
225.511	3.56
225.746	3.56
225.98	-2.44
226.215	10.56
226.449	10.56
226.683	16.56
226.918	20.56
227.152	22.56
227.387	42.56
227.621	43.56
227.856	50.56
228.09	54.56
228.324	34.56
228.559	70.56
228.793	52.56
229.027	66.56
229.262	71.56
229.496	76.56
229.73	88.56
229.964	87.56
230.199	73.56
230.433	79.56
230.667	87.56
230.901	78.56
231.136	91.56
231.37	86.56
231.604	90.56
231.838	67.56
232.072	78.56
232.306	95.56
232.541	90.56
232.775	92.56
233.009	91.56
233.243	95.56
233.477	93.56
233.711	80.56
233.945	86.56
234.179	92.56
234.413	96.56
234.647	82.56
234.881	92.56
235.115	80.56
235.349	95.56
235.583	87.56
235.817	83.56
236.051	87.56
236.285	97.56
236.519	82.56
236.753	80.56
236.987	78.56
237.221	89.56
237.455	105.56
237.689	97.56
237.922	95.56
238.156	89.56
238.39	92.56
238.624	85.56
238.858	92.56
239.091	100.56
239.325	80.56
239.559	85.56
239.793	93.56
240.027	86.56
240.26	86.56
240.494	87.56
240.728	84.56
240.961	84.56
241.195	102.56
241.429	85.56
241.662	87.56
241.896	89.56
242.13	98.56
242.363	88.56
242.597	88.56
242.83	107.56
243.064	94.56
243.298	91.56
243.531	94.56
243.765	94.56
243.998	101.56
244.232	122.56
244.465	112.56
244.699	102.56
244.932	100.56
245.166	102.56
245.399	104.56
245.633	115.56
245.866	95.56
246.099	92.56
246.333	110.56
246.566	96.56
246.8	100.56
247.033	114.56
247.266	104.56
247.5	109.56
247.733	95.56
247.966	114.56
248.2	96.56
248.433	109.56
248.666	120.56
248.899	117.56
249.133	106.56
249.366	109.56
249.599	107.56
249.832	108.56
250.066	141.56
250.299	170.56
250.532	204.56
250.765	183.56
250.998	151.56
251.231	149.56
251.465	116.56
251.698	125.56
251.931	127.56
252.164	116.56
252.397	116.56
252.63	118.56
252.863	121.56
253.096	116.56
253.329	113.56
253.562	118.56
253.795	116.56
254.028	120.56
254.261	121.56
254.494	120.56
254.727	124.56
254.96	138.56
255.193	133.56
255.426	165.56
255.659	180.56
255.892	247.56
256.124	318.56
256.357	238.56
256.59	189.56
256.823	161.56
257.056	158.56
257.289	149.56
257.521	152.56
257.754	134.56
257.987	125.56
258.22	146.56
258.452	137.56
258.685	129.56
258.918	137.56
259.151	143.56
259.383	124.56
259.616	127.56
259.849	126.56
260.081	123.56
260.314	128.56
260.547	127.56
260.779	151.56
261.012	134.56
261.244	145.56
261.477	142.56
261.71	133.56
261.942	120.56
262.175	122.56
262.407	133.56
262.64	123.56
262.872	125.56
263.105	124.56
263.337	143.56
263.57	120.56
263.802	124.56
264.035	124.56
264.267	125.56
264.499	119.56
264.732	129.56
264.964	134.56
265.197	130.56
265.429	136.56
265.661	136.56
265.894	126.56
266.126	128.56
266.358	138.56
266.591	126.56
266.823	130.56
267.055	137.56
267.287	141.56
267.52	142.56
267.752	141.56
267.984	134.56
268.216	135.56
268.448	149.56
268.681	134.56
268.913	127.56
269.145	137.56
269.377	137.56
269.609	136.56
269.841	136.56
270.073	143.56
270.306	135.56
270.538	145.56
270.77	137.56
271.002	145.56
271.234	121.56
271.466	137.56
271.698	139.56
271.93	140.56
272.162	136.56
272.394	145.56
272.626	139.56
272.858	137.56
273.09	140.56
273.322	155.56
273.553	146.56
273.785	137.56
274.017	142.56
274.249	158.56
274.481	160.56
274.713	166.56
274.945	169.56
275.176	148.56
275.408	156.56
275.64	169.56
275.872	179.56
276.104	167.56
276.335	182.56
276.567	192.56
276.799	184.56
277.031	205.56
277.262	224.56
277.494	232.56
277.726	189.56
277.957	182.56
278.189	183.56
278.421	187.56
278.652	180.56
278.884	172.56
279.115	186.56
279.347	184.56
279.579	203.56
279.81	228.56
280.042	256.56
280.273	292.56
280.505	246.56
280.736	214.56
280.968	197.56
281.199	189.56
281.431	190.56
281.662	176.56
281.894	173.56
282.125	164.56
282.356	141.56
282.588	156.56
282.819	157.56
283.051	160.56
283.282	161.56
283.513	161.56
283.745	159.56
283.976	144.56
284.207	153.56
284.439	144.56
284.67	140.56
284.901	142.56
285.132	149.56
285.364	151.56
285.595	176.56
285.826	155.56
286.057	156.56
286.288	154.56
286.52	164.56
286.751	166.56
286.982	152.56
287.213	144.56
287.444	144.56
287.675	155.56
287.906	150.56
288.138	170.56
288.369	169.56
288.6	149.56
288.831	154.56
289.062	150.56
289.293	137.56
289.524	160.56
289.755	164.56
289.986	155.56
290.217	169.56
290.448	142.56
290.679	145.56
290.91	167.56
291.141	158.56
291.371	168.56
291.602	167.56
291.833	144.56
292.064	154.56
292.295	161.56
292.526	152.56
292.757	157.56
292.987	154.56
293.218	146.56
293.449	146.56
293.68	161.56
293.91	177.56
294.141	159.56
294.372	157.56
294.603	160.56
294.833	133.56
295.064	152.56
295.295	146.56
295.525	155.56
295.756	158.56
295.987	155.56
296.217	154.56
296.448	164.56
296.679	149.56
296.909	152.56
297.14	157.56
297.37	160.56
297.601	152.56
297.831	151.56
298.062	156.56
298.292	155.56
298.523	148.56
298.753	160.56
298.984	156.56
299.214	158.56
299.445	167.56
299.675	154.56
299.905	150.56
300.136	167.56
300.366	157.56
300.597	158.56
300.827	155.56
301.057	160.56
301.288	170.56
301.518	156.56
301.748	168.56
301.979	178.56
302.209	173.56
302.439	183.56
302.669	190.56
302.9	161.56
303.13	183.56
303.36	174.56
303.59	206.56
303.82	214.56
304.051	192.56
304.281	183.56
304.511	162.56
304.741	177.56
304.971	172.56
305.201	156.56
305.431	168.56
305.661	161.56
305.891	170.56
306.121	153.56
306.352	167.56
306.582	166.56
306.812	184.56
307.042	198.56
307.272	226.56
307.502	241.56
307.731	210.56
307.961	196.56
308.191	194.56
308.421	189.56
308.651	166.56
308.881	169.56
309.111	160.56
309.341	152.56
309.571	170.56
309.8	166.56
310.03	184.56
310.26	168.56
310.49	191.56
310.72	178.56
310.949	178.56
311.179	159.56
311.409	184.56
311.639	153.56
311.868	175.56
312.098	187.56
312.328	175.56
312.557	187.56
312.787	178.56
313.017	190.56
313.246	160.56
313.476	166.56
313.706	170.56
313.935	178.56
314.165	167.56
314.394	173.56
314.624	183.56
314.853	186.56
315.083	187.56
315.312	178.56
315.542	168.56
315.771	177.56
316.001	173.56
316.23	176.56
316.46	172.56
316.689	174.56
316.919	181.56
317.148	199.56
317.377	186.56
317.607	184.56
317.836	189.56
318.065	174.56
318.295	184.56
318.524	165.56
318.753	188.56
318.983	154.56
319.212	184.56
319.441	183.56
319.67	168.56
319.9	174.56
320.129	180.56
320.358	176.56
320.587	188.56
320.816	189.56
321.046	191.56
321.275	174.56
321.504	182.56
321.733	176.56
321.962	187.56
322.191	187.56
322.42	207.56
322.649	212.56
322.878	199.56
323.108	206.56
323.337	198.56
323.566	216.56
323.795	201.56
324.024	208.56
324.253	210.56
324.482	217.56
324.71	228.56
324.939	221.56
325.168	218.56
325.397	217.56
325.626	239.56
325.855	230.56
326.084	217.56
326.313	246.56
326.542	252.56
326.77	251.56
326.999	269.56
327.228	292.56
327.457	323.56
327.686	403.56
327.914	538.56
328.143	684.56
328.372	707.56
328.6	514.56
328.829	372.56
329.058	377.56
329.287	407.56
329.515	506.56
329.744	660.56
329.972	954.56
330.201	1267.56
330.43	1268.56
330.658	747.56
330.887	486.56
331.115	363.56
331.344	339.56
331.572	302.56
331.801	308.56
332.03	314.56
332.258	313.56
332.486	330.56
332.715	345.56
332.943	345.56
333.172	392.56
333.4	440.56
333.629	522.56
333.857	696.56
334.085	998.56
334.314	1486.56
334.542	1783.56
334.771	1477.56
334.999	752.56
335.227	494.56
335.455	390.56
335.684	349.56
335.912	333.56
336.14	313.56
336.369	304.56
336.597	270.56
336.825	266.56
337.053	253.56
337.281	240.56
337.51	235.56
337.738	239.56
337.966	218.56
338.194	228.56
338.422	212.56
338.65	226.56
338.878	220.56
339.106	208.56
339.334	222.56
339.562	212.56
339.79	219.56
340.018	219.56
340.246	205.56
340.474	193.56
340.702	183.56
340.93	201.56
341.158	192.56
341.386	213.56
341.614	189.56
341.842	181.56
342.07	197.56
342.298	200.56
342.526	203.56
342.754	206.56
342.981	194.56
343.209	214.56
343.437	193.56
343.665	205.56
343.893	197.56
344.12	217.56
344.348	209.56
344.576	204.56
344.804	191.56
345.031	205.56
345.259	198.56
345.487	202.56
345.714	195.56
345.942	182.56
346.17	202.56
346.397	185.56
346.625	194.56
346.853	192.56
347.08	181.56
347.308	183.56
347.535	192.56
347.763	199.56
347.99	176.56
348.218	184.56
348.445	204.56
348.673	188.56
348.9	193.56
349.128	190.56
349.355	190.56
349.583	172.56
349.81	172.56
350.037	184.56
350.265	193.56
350.492	200.56
350.72	183.56
350.947	195.56
351.174	189.56
351.402	185.56
351.629	180.56
351.856	187.56
352.083	184.56
352.311	179.56
352.538	188.56
352.765	173.56
352.992	185.56
353.22	200.56
353.447	197.56
353.674	181.56
353.901	189.56
354.128	183.56
354.355	189.56
354.583	179.56
354.81	199.56
355.037	187.56
355.264	185.56
355.491	182.56
355.718	175.56
355.945	176.56
356.172	173.56
356.399	171.56
356.626	169.56
356.853	178.56
357.08	189.56
357.307	194.56
357.534	185.56
357.761	199.56
357.988	189.56
358.215	185.56
358.441	167.56
358.668	167.56
358.895	177.56
359.122	186.56
359.349	183.56
359.576	209.56
359.802	184.56
360.029	181.56
360.256	168.56
360.483	192.56
360.709	178.56
360.936	180.56
361.163	186.56
361.39	174.56
361.616	187.56
361.843	192.56
362.07	190.56
362.296	178.56
362.523	169.56
362.749	170.56
362.976	179.56
363.203	183.56
363.429	201.56
363.656	182.56
363.882	174.56
364.109	179.56
364.335	170.56
364.562	184.56
364.788	192.56
365.015	191.56
365.241	186.56
365.468	185.56
365.694	187.56
365.92	175.56
366.147	182.56
366.373	169.56
366.599	195.56
366.826	176.56
367.052	172.56
367.278	189.56
367.505	174.56
367.731	172.56
367.957	183.56
368.184	183.56
368.41	187.56
368.636	184.56
368.862	190.56
369.089	167.56
369.315	194.56
369.541	185.56
369.767	194.56
369.993	169.56
370.219	197.56
370.445	180.56
370.672	180.56
370.898	204.56
371.124	195.56
371.35	191.56
371.576	176.56
371.802	184.56
372.028	210.56
372.254	192.56
372.48	177.56
372.706	184.56
372.932	186.56
373.158	209.56
373.384	203.56
373.61	185.56
373.835	190.56
374.061	190.56
374.287	179.56
374.513	178.56
374.739	180.56
374.965	200.56
375.191	203.56
375.416	184.56
375.642	180.56
375.868	176.56
376.094	186.56
376.319	202.56
376.545	209.56
376.771	197.56
376.997	183.56
377.222	182.56
377.448	182.56
377.674	181.56
377.899	187.56
378.125	183.56
378.35	191.56
378.576	181.56
378.802	173.56
379.027	219.56
379.253	194.56
379.478	189.56
379.704	209.56
379.929	186.56
380.155	196.56
380.38	185.56
380.606	188.56
380.831	193.56
381.057	200.56
381.282	180.56
381.507	171.56
381.733	180.56
381.958	182.56
382.184	202.56
382.409	208.56
382.634	200.56
382.86	189.56
383.085	200.56
383.31	204.56
383.535	210.56
383.761	202.56
383.986	194.56
384.211	185.56
384.436	187.56
384.662	192.56
384.887	199.56
385.112	190.56
385.337	189.56
385.562	200.56
385.787	199.56
386.013	222.56
386.238	192.56
386.463	195.56
386.688	209.56
386.913	216.56
387.138	217.56
387.363	195.56
387.588	225.56
387.813	217.56
388.038	201.56
388.263	209.56
388.488	212.56
388.713	205.56
388.938	195.56
389.163	202.56
389.387	226.56
389.612	204.56
389.837	211.56
390.062	206.56
390.287	210.56
390.512	212.56
390.736	208.56
390.961	212.56
391.186	198.56
391.411	213.56
391.636	216.56
391.86	226.56
392.085	233.56
392.31	207.56
392.534	220.56
392.759	209.56
392.984	221.56
393.208	233.56
393.433	212.56
393.658	202.56
393.882	225.56
394.107	205.56
394.331	214.56
394.556	233.56
394.78	218.56
395.005	207.56
395.229	225.56
395.454	216.56
395.678	220.56
395.903	212.56
396.127	236.56
396.352	201.56
396.576	214.56
396.801	224.56
397.025	199.56
397.249	224.56
397.474	231.56
397.698	222.56
397.922	210.56
398.147	243.56
398.371	220.56
398.595	230.56
398.82	248.56
399.044	237.56
399.268	251.56
399.492	272.56
399.717	286.56
399.941	279.56
400.165	272.56
400.389	243.56
400.613	255.56
400.837	248.56
401.062	236.56
401.286	241.56
401.51	232.56
401.734	233.56
401.958	252.56
402.182	231.56
402.406	239.56
402.63	262.56
402.854	244.56
403.078	243.56
403.302	258.56
403.526	235.56
403.75	251.56
403.974	257.56
404.198	256.56
404.422	268.56
404.645	260.56
404.869	286.56
405.093	298.56
405.317	323.56
405.541	317.56
405.765	298.56
405.988	256.56
406.212	255.56
406.436	242.56
406.66	276.56
406.883	257.56
407.107	258.56
407.331	261.56
407.555	268.56
407.778	259.56
408.002	273.56
408.226	258.56
408.449	265.56
408.673	258.56
408.896	263.56
409.12	263.56
409.344	255.56
409.567	253.56
409.791	248.56
410.014	232.56
410.238	251.56
410.461	246.56
410.685	254.56
410.908	259.56
411.132	254.56
411.355	230.56
411.578	260.56
411.802	272.56
412.025	280.56
412.249	310.56
412.472	324.56
412.695	326.56
412.919	308.56
413.142	283.56
413.365	274.56
413.589	281.56
413.812	257.56
414.035	258.56
414.258	278.56
414.482	266.56
414.705	255.56
414.928	250.56
415.151	256.56
415.374	249.56
415.597	257.56
415.821	254.56
416.044	257.56
416.267	255.56
416.49	236.56
416.713	248.56
416.936	236.56
417.159	262.56
417.382	251.56
417.605	252.56
417.828	273.56
418.051	248.56
418.274	252.56
418.497	257.56
418.72	242.56
418.943	236.56
419.166	242.56
419.389	263.56
419.611	286.56
419.834	267.56
420.057	296.56
420.28	308.56
420.503	301.56
420.726	284.56
420.948	284.56
421.171	267.56
421.394	256.56
421.617	249.56
421.839	252.56
422.062	242.56
422.285	248.56
422.507	243.56
422.73	259.56
422.953	255.56
423.175	232.56
423.398	259.56
423.621	255.56
423.843	240.56
424.066	241.56
424.288	262.56
424.511	246.56
424.733	256.56
424.956	238.56
425.178	261.56
425.401	260.56
425.623	246.56
425.846	229.56
426.068	241.56
426.291	228.56
426.513	238.56
426.735	262.56
426.958	241.56
427.18	260.56
427.402	246.56
427.625	273.56
427.847	326.56
428.069	326.56
428.292	286.56
428.514	251.56
428.736	254.56
428.958	235.56
429.181	252.56
429.403	237.56
429.625	233.56
429.847	213.56
430.069	226.56
430.292	237.56
430.514	213.56
430.736	228.56
430.958	243.56
431.18	220.56
431.402	220.56
431.624	226.56
431.846	216.56
432.068	219.56
432.29	214.56
432.512	232.56
432.734	230.56
432.956	242.56
433.178	237.56
433.4	218.56
433.622	231.56
433.844	218.56
434.066	200.56
434.287	231.56
434.509	217.56
434.731	229.56
434.953	233.56
435.175	217.56
435.397	225.56
435.618	217.56
435.84	233.56
436.062	222.56
436.284	200.56
436.505	234.56
436.727	235.56
436.949	213.56
437.17	230.56
437.392	213.56
437.614	215.56
437.835	215.56
438.057	196.56
438.278	224.56
438.5	206.56
438.721	230.56
438.943	204.56
439.165	227.56
439.386	203.56
439.608	219.56
439.829	220.56
440.05	206.56
440.272	217.56
440.493	233.56
440.715	228.56
440.936	223.56
441.158	236.56
441.379	221.56
441.6	229.56
441.822	216.56
442.043	215.56
442.264	239.56
442.486	230.56
442.707	218.56
442.928	223.56
443.149	235.56
443.371	222.56
443.592	241.56
443.813	241.56
444.034	234.56
444.255	244.56
444.476	253.56
444.698	244.56
444.919	247.56
445.14	335.56
445.361	262.56
445.582	232.56
445.803	215.56
446.024	226.56
446.245	241.56
446.466	226.56
446.687	216.56
446.908	223.56
447.129	225.56
447.35	206.56
447.571	215.56
447.792	232.56
448.013	206.56
448.234	199.56
448.455	205.56
448.675	204.56
448.896	205.56
449.117	204.56
449.338	213.56
449.559	213.56
449.779	218.56
450	216.56
450.221	219.56
450.442	209.56
450.662	199.56
450.883	196.56
451.104	223.56
451.324	202.56
451.545	208.56
451.766	210.56
451.986	210.56
452.207	201.56
452.428	212.56
452.648	211.56
452.869	196.56
453.089	215.56
453.31	211.56
453.53	201.56
453.751	193.56
453.971	184.56
454.192	213.56
454.412	204.56
454.633	199.56
454.853	216.56
455.073	195.56
455.294	202.56
455.514	203.56
455.734	204.56
455.955	208.56
456.175	219.56
456.395	196.56
456.616	202.56
456.836	205.56
457.056	207.56
457.276	204.56
457.497	217.56
457.717	221.56
457.937	196.56
458.157	218.56
458.377	195.56
458.598	202.56
458.818	214.56
459.038	205.56
459.258	220.56
459.478	204.56
459.698	229.56
459.918	232.56
460.138	238.56
460.358	226.56
460.578	225.56
460.798	245.56
461.018	236.56
461.238	237.56
461.458	233.56
461.678	229.56
461.898	236.56
462.118	233.56
462.338	250.56
462.558	258.56
462.777	257.56
462.997	243.56
463.217	265.56
463.437	266.56
463.657	248.56
463.876	250.56
464.096	257.56
464.316	244.56
464.536	231.56
464.755	258.56
464.975	257.56
465.195	254.56
465.414	253.56
465.634	246.56
465.854	237.56
466.073	242.56
466.293	238.56
466.512	240.56
466.732	235.56
466.951	249.56
467.171	255.56
467.391	255.56
467.61	293.56
467.829	372.56
468.049	623.56
468.268	808.56
468.488	457.56
468.707	342.56
468.927	308.56
469.146	258.56
469.365	258.56
469.585	254.56
469.804	256.56
470.023	251.56
470.243	268.56
470.462	272.56
470.681	265.56
470.901	262.56
471.12	261.56
471.339	270.56
471.558	309.56
471.777	373.56
471.997	527.56
472.216	1099.56
472.435	1701.56
472.654	947.56
472.873	548.56
473.092	422.56
473.311	375.56
473.53	356.56
473.749	333.56
473.968	293.56
474.187	290.56
474.406	262.56
474.625	273.56
474.844	262.56
475.063	273.56
475.282	248.56
475.501	276.56
475.72	253.56
475.939	266.56
476.158	256.56
476.377	262.56
476.596	238.56
476.814	271.56
477.033	257.56
477.252	258.56
477.471	272.56
477.69	268.56
477.908	256.56
478.127	266.56
478.346	265.56
478.564	281.56
478.783	273.56
479.002	299.56
479.22	294.56
479.439	314.56
479.658	318.56
479.876	317.56
480.095	327.56
480.313	386.56
480.532	442.56
480.751	608.56
480.969	1204.56
481.188	2615.56
481.406	2120.56
481.624	990.56
481.843	662.56
482.061	544.56
482.28	503.56
482.498	414.56
482.717	385.56
482.935	372.56
483.153	346.56
483.372	344.56
483.59	328.56
483.808	330.56
484.027	330.56
484.245	322.56
484.463	302.56
484.681	315.56
484.9	304.56
485.118	296.56
485.336	308.56
485.554	319.56
485.772	304.56
485.99	291.56
486.209	305.56
486.427	284.56
486.645	296.56
486.863	300.56
487.081	285.56
487.299	296.56
487.517	273.56
487.735	286.56
487.953	314.56
488.171	291.56
488.389	298.56
488.607	311.56
488.825	305.56
489.043	313.56
489.261	308.56
489.479	317.56
489.696	316.56
489.914	318.56
490.132	330.56
490.35	354.56
490.568	342.56
490.786	364.56
491.003	375.56
491.221	413.56
491.439	464.56
491.657	464.56
491.874	461.56
492.092	460.56
492.31	499.56
492.527	530.56
492.745	539.56
492.963	517.56
493.18	464.56
493.398	472.56
493.615	441.56
493.833	448.56
494.05	426.56
494.268	406.56
494.485	394.56
494.703	372.56
494.92	383.56
495.138	368.56
495.355	359.56
495.573	364.56
495.79	357.56
496.008	349.56
496.225	358.56
496.442	349.56
496.66	356.56
496.877	351.56
497.094	330.56
497.312	345.56
497.529	329.56
497.746	326.56
497.963	342.56
498.181	354.56
498.398	346.56
498.615	347.56
498.832	335.56
499.049	357.56
499.267	392.56
499.484	386.56
499.701	404.56
499.918	417.56
500.135	439.56
500.352	461.56
500.569	498.56
500.786	503.56
501.003	480.56
501.22	443.56
501.437	397.56
501.654	402.56
501.871	374.56
502.088	367.56
502.305	336.56
502.522	340.56
502.739	325.56
502.956	306.56
503.172	328.56
503.389	308.56
503.606	327.56
