Data from StdC_HRD10591_047.txt Node
Date: Fri May 16 15:29:04 EDT 2025
User: Yrep
Spectrometer: HR+D1059
Trigger mode: 1
Integration Time (sec): 1.000000E-1
Scans to average: 1
Electric dark correction enabled: true
Nonlinearity correction enabled: false
Boxcar width: 0
XAxis mode: Wavelengths
Number of Pixels in Spectrum: 2048
>>>>>Begin Spectral Data<<<<<
223.165	-7.94
223.4	-7.94
223.635	-7.94
223.869	-27.94
224.104	-32.94
224.338	-25.94
224.573	-18.94
224.808	-9.94
225.042	6.06
225.277	-8.94
225.511	8.06
225.746	-1.94
225.98	-0.94
226.215	21.06
226.449	12.06
226.683	16.06
226.918	32.06
227.152	40.06
227.387	43.06
227.621	35.06
227.856	46.06
228.09	31.06
228.324	49.06
228.559	60.06
228.793	51.06
229.027	60.06
229.262	85.06
229.496	65.06
229.73	62.06
229.964	71.06
230.199	75.06
230.433	76.06
230.667	69.06
230.901	81.06
231.136	92.06
231.37	90.06
231.604	90.06
231.838	75.06
232.072	91.06
232.306	90.06
232.541	78.06
232.775	88.06
233.009	87.06
233.243	91.06
233.477	94.06
233.711	90.06
233.945	82.06
234.179	90.06
234.413	78.06
234.647	91.06
234.881	92.06
235.115	77.06
235.349	73.06
235.583	105.06
235.817	91.06
236.051	91.06
236.285	84.06
236.519	75.06
236.753	79.06
236.987	76.06
237.221	83.06
237.455	57.06
237.689	77.06
237.922	85.06
238.156	65.06
238.39	77.06
238.624	88.06
238.858	81.06
239.091	88.06
239.325	87.06
239.559	80.06
239.793	96.06
240.027	104.06
240.26	91.06
240.494	94.06
240.728	93.06
240.961	86.06
241.195	90.06
241.429	93.06
241.662	73.06
241.896	87.06
242.13	93.06
242.363	103.06
242.597	87.06
242.83	94.06
243.064	93.06
243.298	99.06
243.531	92.06
243.765	94.06
243.998	109.06
244.232	93.06
244.465	81.06
244.699	92.06
244.932	94.06
245.166	78.06
245.399	105.06
245.633	96.06
245.866	108.06
246.099	91.06
246.333	92.06
246.566	105.06
246.8	101.06
247.033	108.06
247.266	114.06
247.5	94.06
247.733	107.06
247.966	111.06
248.2	112.06
248.433	117.06
248.666	89.06
248.899	119.06
249.133	116.06
249.366	112.06
249.599	111.06
249.832	134.06
250.066	148.06
250.299	172.06
250.532	213.06
250.765	170.06
250.998	151.06
251.231	129.06
251.465	132.06
251.698	123.06
251.931	133.06
252.164	113.06
252.397	118.06
252.63	116.06
252.863	120.06
253.096	116.06
253.329	115.06
253.562	97.06
253.795	123.06
254.028	129.06
254.261	133.06
254.494	138.06
254.727	123.06
254.96	137.06
255.193	143.06
255.426	165.06
255.659	188.06
255.892	243.06
256.124	291.06
256.357	243.06
256.59	189.06
256.823	176.06
257.056	155.06
257.289	153.06
257.521	149.06
257.754	152.06
257.987	142.06
258.22	141.06
258.452	138.06
258.685	139.06
258.918	134.06
259.151	124.06
259.383	137.06
259.616	130.06
259.849	125.06
260.081	141.06
260.314	128.06
260.547	129.06
260.779	121.06
261.012	143.06
261.244	127.06
261.477	136.06
261.71	136.06
261.942	137.06
262.175	125.06
262.407	132.06
262.64	126.06
262.872	128.06
263.105	129.06
263.337	134.06
263.57	129.06
263.802	119.06
264.035	143.06
264.267	127.06
264.499	129.06
264.732	130.06
264.964	130.06
265.197	131.06
265.429	125.06
265.661	129.06
265.894	141.06
266.126	114.06
266.358	120.06
266.591	119.06
266.823	126.06
267.055	123.06
267.287	125.06
267.52	132.06
267.752	115.06
267.984	132.06
268.216	142.06
268.448	125.06
268.681	138.06
268.913	129.06
269.145	130.06
269.377	126.06
269.609	122.06
269.841	110.06
270.073	123.06
270.306	117.06
270.538	114.06
270.77	123.06
271.002	140.06
271.234	144.06
271.466	149.06
271.698	134.06
271.93	148.06
272.162	143.06
272.394	129.06
272.626	135.06
272.858	142.06
273.09	131.06
273.322	143.06
273.553	162.06
273.785	145.06
274.017	139.06
274.249	139.06
274.481	164.06
274.713	152.06
274.945	152.06
275.176	164.06
275.408	156.06
275.64	188.06
275.872	165.06
276.104	172.06
276.335	185.06
276.567	174.06
276.799	179.06
277.031	224.06
277.262	251.06
277.494	225.06
277.726	200.06
277.957	178.06
278.189	188.06
278.421	186.06
278.652	191.06
278.884	181.06
279.115	158.06
279.347	171.06
279.579	195.06
279.81	223.06
280.042	261.06
280.273	286.06
280.505	237.06
280.736	214.06
280.968	179.06
281.199	175.06
281.431	173.06
281.662	159.06
281.894	178.06
282.125	156.06
282.356	153.06
282.588	183.06
282.819	165.06
283.051	167.06
283.282	150.06
283.513	176.06
283.745	165.06
283.976	167.06
284.207	158.06
284.439	149.06
284.67	139.06
284.901	149.06
285.132	160.06
285.364	149.06
285.595	154.06
285.826	153.06
286.057	161.06
286.288	146.06
286.52	166.06
286.751	153.06
286.982	161.06
287.213	180.06
287.444	156.06
287.675	150.06
287.906	153.06
288.138	176.06
288.369	147.06
288.6	141.06
288.831	157.06
289.062	163.06
289.293	152.06
289.524	158.06
289.755	149.06
289.986	147.06
290.217	147.06
290.448	166.06
290.679	173.06
290.91	166.06
291.141	146.06
291.371	152.06
291.602	165.06
291.833	156.06
292.064	156.06
292.295	157.06
292.526	141.06
292.757	141.06
292.987	152.06
293.218	152.06
293.449	164.06
293.68	157.06
293.91	151.06
294.141	156.06
294.372	149.06
294.603	157.06
294.833	156.06
295.064	143.06
295.295	125.06
295.525	147.06
295.756	165.06
295.987	149.06
296.217	148.06
296.448	164.06
296.679	160.06
296.909	137.06
297.14	164.06
297.37	157.06
297.601	144.06
297.831	153.06
298.062	163.06
298.292	140.06
298.523	161.06
298.753	147.06
298.984	156.06
299.214	169.06
299.445	165.06
299.675	152.06
299.905	157.06
300.136	171.06
300.366	167.06
300.597	171.06
300.827	157.06
301.057	156.06
301.288	164.06
301.518	164.06
301.748	168.06
301.979	186.06
302.209	180.06
302.439	168.06
302.669	175.06
302.9	168.06
303.13	172.06
303.36	186.06
303.59	188.06
303.82	201.06
304.051	183.06
304.281	175.06
304.511	165.06
304.741	176.06
304.971	170.06
305.201	152.06
305.431	163.06
305.661	161.06
305.891	166.06
306.121	181.06
306.352	182.06
306.582	156.06
306.812	174.06
307.042	193.06
307.272	211.06
307.502	227.06
307.731	212.06
307.961	187.06
308.191	174.06
308.421	178.06
308.651	157.06
308.881	179.06
309.111	174.06
309.341	161.06
309.571	183.06
309.8	177.06
310.03	170.06
310.26	184.06
310.49	186.06
310.72	168.06
310.949	159.06
311.179	169.06
311.409	190.06
311.639	163.06
311.868	163.06
312.098	168.06
312.328	155.06
312.557	168.06
312.787	159.06
313.017	183.06
313.246	170.06
313.476	162.06
313.706	160.06
313.935	175.06
314.165	174.06
314.394	166.06
314.624	190.06
314.853	166.06
315.083	187.06
315.312	157.06
315.542	161.06
315.771	179.06
316.001	184.06
316.23	175.06
316.46	178.06
316.689	187.06
316.919	197.06
317.148	172.06
317.377	191.06
317.607	183.06
317.836	171.06
318.065	181.06
318.295	178.06
318.524	190.06
318.753	184.06
318.983	191.06
319.212	187.06
319.441	197.06
319.67	196.06
319.9	177.06
320.129	183.06
320.358	199.06
320.587	197.06
320.816	180.06
321.046	194.06
321.275	190.06
321.504	181.06
321.733	189.06
321.962	203.06
322.191	192.06
322.42	193.06
322.649	206.06
322.878	185.06
323.108	187.06
323.337	209.06
323.566	199.06
323.795	209.06
324.024	219.06
324.253	210.06
324.482	215.06
324.71	237.06
324.939	216.06
325.168	246.06
325.397	218.06
325.626	221.06
325.855	250.06
326.084	250.06
326.313	242.06
326.542	268.06
326.77	259.06
326.999	271.06
327.228	283.06
327.457	331.06
327.686	421.06
327.914	538.06
328.143	668.06
328.372	758.06
328.6	542.06
328.829	396.06
329.058	375.06
329.287	425.06
329.515	496.06
329.744	701.06
329.972	982.06
330.201	1331.06
330.43	1325.06
330.658	789.06
330.887	469.06
331.115	390.06
331.344	340.06
331.572	341.06
331.801	334.06
332.03	347.06
332.258	313.06
332.486	315.06
332.715	325.06
332.943	361.06
333.172	389.06
333.4	452.06
333.629	550.06
333.857	710.06
334.085	1049.06
334.314	1480.06
334.542	1860.06
334.771	1483.06
334.999	751.06
335.227	503.06
335.455	400.06
335.684	358.06
335.912	322.06
336.14	319.06
336.369	278.06
336.597	275.06
336.825	260.06
337.053	254.06
337.281	241.06
337.51	251.06
337.738	239.06
337.966	233.06
338.194	229.06
338.422	240.06
338.65	204.06
338.878	228.06
339.106	211.06
339.334	216.06
339.562	216.06
339.79	201.06
340.018	200.06
340.246	198.06
340.474	196.06
340.702	202.06
340.93	207.06
341.158	196.06
341.386	205.06
341.614	182.06
341.842	195.06
342.07	191.06
342.298	193.06
342.526	196.06
342.754	192.06
342.981	186.06
343.209	209.06
343.437	209.06
343.665	203.06
343.893	202.06
344.12	199.06
344.348	215.06
344.576	205.06
344.804	205.06
345.031	202.06
345.259	178.06
345.487	181.06
345.714	177.06
345.942	165.06
346.17	189.06
346.397	187.06
346.625	196.06
346.853	194.06
347.08	177.06
347.308	194.06
347.535	198.06
347.763	195.06
347.99	178.06
348.218	193.06
348.445	183.06
348.673	182.06
348.9	188.06
349.128	202.06
349.355	191.06
349.583	181.06
349.81	180.06
350.037	183.06
350.265	189.06
350.492	186.06
350.72	169.06
350.947	191.06
351.174	169.06
351.402	184.06
351.629	197.06
351.856	190.06
352.083	170.06
352.311	169.06
352.538	176.06
352.765	185.06
352.992	193.06
353.22	200.06
353.447	176.06
353.674	174.06
353.901	178.06
354.128	182.06
354.355	200.06
354.583	178.06
354.81	185.06
355.037	205.06
355.264	188.06
355.491	167.06
355.718	164.06
355.945	189.06
356.172	184.06
356.399	171.06
356.626	177.06
356.853	182.06
357.08	190.06
357.307	193.06
357.534	186.06
357.761	168.06
357.988	186.06
358.215	183.06
358.441	179.06
358.668	172.06
358.895	185.06
359.122	172.06
359.349	186.06
359.576	187.06
359.802	161.06
360.029	190.06
360.256	181.06
360.483	167.06
360.709	185.06
360.936	193.06
361.163	183.06
361.39	190.06
361.616	173.06
361.843	177.06
362.07	177.06
362.296	160.06
362.523	169.06
362.749	166.06
362.976	178.06
363.203	169.06
363.429	179.06
363.656	194.06
363.882	193.06
364.109	193.06
364.335	183.06
364.562	179.06
364.788	160.06
365.015	163.06
365.241	165.06
365.468	197.06
365.694	173.06
365.92	180.06
366.147	169.06
366.373	191.06
366.599	178.06
366.826	173.06
367.052	159.06
367.278	190.06
367.505	193.06
367.731	176.06
367.957	187.06
368.184	179.06
368.41	188.06
368.636	168.06
368.862	168.06
369.089	191.06
369.315	179.06
369.541	169.06
369.767	168.06
369.993	190.06
370.219	194.06
370.445	182.06
370.672	190.06
370.898	180.06
371.124	191.06
371.35	195.06
371.576	169.06
371.802	172.06
372.028	191.06
372.254	193.06
372.48	190.06
372.706	187.06
372.932	196.06
373.158	193.06
373.384	207.06
373.61	198.06
373.835	190.06
374.061	194.06
374.287	182.06
374.513	198.06
374.739	183.06
374.965	195.06
375.191	179.06
375.416	197.06
375.642	186.06
375.868	191.06
376.094	183.06
376.319	188.06
376.545	188.06
376.771	194.06
376.997	199.06
377.222	183.06
377.448	187.06
377.674	193.06
377.899	183.06
378.125	204.06
378.35	197.06
378.576	183.06
378.802	192.06
379.027	191.06
379.253	182.06
379.478	171.06
379.704	193.06
379.929	197.06
380.155	181.06
380.38	187.06
380.606	190.06
380.831	189.06
381.057	183.06
381.282	191.06
381.507	210.06
381.733	185.06
381.958	192.06
382.184	188.06
382.409	207.06
382.634	198.06
382.86	189.06
383.085	194.06
383.31	192.06
383.535	195.06
383.761	206.06
383.986	197.06
384.211	200.06
384.436	191.06
384.662	200.06
384.887	208.06
385.112	216.06
385.337	196.06
385.562	198.06
385.787	204.06
386.013	207.06
386.238	205.06
386.463	213.06
386.688	220.06
386.913	196.06
387.138	213.06
387.363	212.06
387.588	203.06
387.813	211.06
388.038	213.06
388.263	201.06
388.488	206.06
388.713	210.06
388.938	208.06
389.163	185.06
389.387	199.06
389.612	207.06
389.837	201.06
390.062	206.06
390.287	190.06
390.512	198.06
390.736	199.06
390.961	205.06
391.186	197.06
391.411	218.06
391.636	217.06
391.86	214.06
392.085	207.06
392.31	208.06
392.534	209.06
392.759	211.06
392.984	215.06
393.208	215.06
393.433	216.06
393.658	221.06
393.882	203.06
394.107	219.06
394.331	225.06
394.556	218.06
394.78	203.06
395.005	211.06
395.229	213.06
395.454	217.06
395.678	212.06
395.903	207.06
396.127	224.06
396.352	211.06
396.576	241.06
396.801	213.06
397.025	217.06
397.249	214.06
397.474	224.06
397.698	220.06
397.922	253.06
398.147	232.06
398.371	232.06
398.595	245.06
398.82	230.06
399.044	256.06
399.268	269.06
399.492	276.06
399.717	276.06
399.941	282.06
400.165	254.06
400.389	268.06
400.613	250.06
400.837	245.06
401.062	241.06
401.286	241.06
401.51	224.06
401.734	241.06
401.958	220.06
402.182	239.06
402.406	230.06
402.63	240.06
402.854	238.06
403.078	242.06
403.302	249.06
403.526	257.06
403.75	242.06
403.974	234.06
404.198	249.06
404.422	272.06
404.645	275.06
404.869	293.06
405.093	288.06
405.317	323.06
405.541	311.06
405.765	293.06
405.988	291.06
406.212	272.06
406.436	243.06
406.66	256.06
406.883	252.06
407.107	279.06
407.331	267.06
407.555	271.06
407.778	254.06
408.002	264.06
408.226	272.06
408.449	260.06
408.673	254.06
408.896	237.06
409.12	237.06
409.344	253.06
409.567	238.06
409.791	258.06
410.014	264.06
410.238	254.06
410.461	240.06
410.685	264.06
410.908	255.06
411.132	247.06
411.355	247.06
411.578	256.06
411.802	249.06
412.025	275.06
412.249	299.06
412.472	297.06
412.695	337.06
412.919	337.06
413.142	305.06
413.365	279.06
413.589	257.06
413.812	271.06
414.035	264.06
414.258	276.06
414.482	252.06
414.705	249.06
414.928	240.06
415.151	249.06
415.374	243.06
415.597	247.06
415.821	237.06
416.044	257.06
416.267	246.06
416.49	248.06
416.713	240.06
416.936	238.06
417.159	253.06
417.382	265.06
417.605	270.06
417.828	261.06
418.051	229.06
418.274	240.06
418.497	247.06
418.72	249.06
418.943	229.06
419.166	241.06
419.389	281.06
419.611	269.06
419.834	281.06
420.057	288.06
420.28	300.06
420.503	293.06
420.726	272.06
420.948	289.06
421.171	276.06
421.394	249.06
421.617	250.06
421.839	264.06
422.062	252.06
422.285	254.06
422.507	236.06
422.73	248.06
422.953	251.06
423.175	266.06
423.398	247.06
423.621	249.06
423.843	256.06
424.066	238.06
424.288	234.06
424.511	240.06
424.733	247.06
424.956	246.06
425.178	237.06
425.401	231.06
425.623	253.06
425.846	256.06
426.068	227.06
426.291	229.06
426.513	233.06
426.735	247.06
426.958	228.06
427.18	244.06
427.402	276.06
427.625	271.06
427.847	325.06
428.069	325.06
428.292	283.06
428.514	263.06
428.736	243.06
428.958	231.06
429.181	239.06
429.403	230.06
429.625	236.06
429.847	231.06
430.069	237.06
430.292	243.06
430.514	237.06
430.736	214.06
430.958	243.06
431.18	232.06
431.402	239.06
431.624	236.06
431.846	208.06
432.068	213.06
432.29	207.06
432.512	206.06
432.734	235.06
432.956	219.06
433.178	212.06
433.4	236.06
433.622	245.06
433.844	231.06
434.066	220.06
434.287	231.06
434.509	231.06
434.731	217.06
434.953	216.06
435.175	211.06
435.397	222.06
435.618	229.06
435.84	224.06
436.062	225.06
436.284	226.06
436.505	200.06
436.727	216.06
436.949	216.06
437.17	221.06
437.392	211.06
437.614	210.06
437.835	214.06
438.057	197.06
438.278	213.06
438.5	211.06
438.721	214.06
438.943	221.06
439.165	212.06
439.386	210.06
439.608	222.06
439.829	222.06
440.05	215.06
440.272	235.06
440.493	208.06
440.715	216.06
440.936	224.06
441.158	227.06
441.379	222.06
441.6	230.06
441.822	236.06
442.043	246.06
442.264	231.06
442.486	237.06
442.707	225.06
442.928	254.06
443.149	218.06
443.371	241.06
443.592	246.06
443.813	220.06
444.034	238.06
444.255	239.06
444.476	253.06
444.698	257.06
444.919	258.06
445.14	318.06
445.361	278.06
445.582	259.06
445.803	230.06
446.024	222.06
446.245	224.06
446.466	232.06
446.687	233.06
446.908	243.06
447.129	225.06
447.35	220.06
447.571	217.06
447.792	204.06
448.013	221.06
448.234	210.06
448.455	215.06
448.675	217.06
448.896	216.06
449.117	207.06
449.338	205.06
449.559	208.06
449.779	206.06
450	213.06
450.221	214.06
450.442	221.06
450.662	216.06
450.883	199.06
451.104	212.06
451.324	211.06
451.545	204.06
451.766	219.06
451.986	187.06
452.207	199.06
452.428	193.06
452.648	217.06
452.869	198.06
453.089	196.06
453.31	185.06
453.53	206.06
453.751	191.06
453.971	204.06
454.192	200.06
454.412	201.06
454.633	193.06
454.853	210.06
455.073	197.06
455.294	201.06
455.514	210.06
455.734	191.06
455.955	199.06
456.175	204.06
456.395	189.06
456.616	192.06
456.836	198.06
457.056	204.06
457.276	204.06
457.497	213.06
457.717	222.06
457.937	210.06
458.157	207.06
458.377	210.06
458.598	196.06
458.818	218.06
459.038	212.06
459.258	210.06
459.478	201.06
459.698	223.06
459.918	227.06
460.138	222.06
460.358	238.06
460.578	229.06
460.798	224.06
461.018	215.06
461.238	253.06
461.458	237.06
461.678	239.06
461.898	224.06
462.118	227.06
462.338	253.06
462.558	257.06
462.777	257.06
462.997	268.06
463.217	279.06
463.437	264.06
463.657	272.06
463.876	250.06
464.096	250.06
464.316	244.06
464.536	252.06
464.755	260.06
464.975	251.06
465.195	245.06
465.414	243.06
465.634	235.06
465.854	240.06
466.073	244.06
466.293	250.06
466.512	231.06
466.732	228.06
466.951	243.06
467.171	241.06
467.391	258.06
467.61	286.06
467.829	400.06
468.049	662.06
468.268	816.06
468.488	496.06
468.707	345.06
468.927	283.06
469.146	274.06
469.365	265.06
469.585	264.06
469.804	255.06
470.023	252.06
470.243	254.06
470.462	275.06
470.681	269.06
470.901	268.06
471.12	294.06
471.339	284.06
471.558	327.06
471.777	360.06
471.997	540.06
472.216	1150.06
472.435	1709.06
472.654	944.06
472.873	566.06
473.092	436.06
473.311	366.06
473.53	336.06
473.749	320.06
473.968	318.06
474.187	282.06
474.406	299.06
474.625	271.06
474.844	261.06
475.063	272.06
475.282	268.06
475.501	278.06
475.72	254.06
475.939	249.06
476.158	253.06
476.377	264.06
476.596	245.06
476.814	245.06
477.033	260.06
477.252	262.06
477.471	235.06
477.69	267.06
477.908	248.06
478.127	257.06
478.346	269.06
478.564	276.06
478.783	271.06
479.002	280.06
479.22	304.06
479.439	295.06
479.658	322.06
479.876	319.06
480.095	347.06
480.313	392.06
480.532	456.06
480.751	602.06
480.969	1232.06
481.188	2740.06
481.406	2215.06
481.624	1034.06
481.843	701.06
482.061	551.06
482.28	483.06
482.498	423.06
482.717	398.06
482.935	379.06
483.153	361.06
483.372	341.06
483.59	327.06
483.808	335.06
484.027	319.06
484.245	311.06
484.463	305.06
484.681	292.06
484.9	287.06
485.118	293.06
485.336	299.06
485.554	302.06
485.772	299.06
485.99	289.06
486.209	291.06
486.427	296.06
486.645	294.06
486.863	278.06
487.081	305.06
487.299	279.06
487.517	288.06
487.735	285.06
487.953	300.06
488.171	305.06
488.389	320.06
488.607	294.06
488.825	298.06
489.043	309.06
489.261	313.06
489.479	316.06
489.696	318.06
489.914	333.06
490.132	345.06
490.35	330.06
490.568	342.06
490.786	386.06
491.003	398.06
491.221	432.06
491.439	455.06
491.657	450.06
491.874	477.06
492.092	474.06
492.31	501.06
492.527	520.06
492.745	539.06
492.963	495.06
493.18	480.06
493.398	439.06
493.615	434.06
493.833	425.06
494.05	408.06
494.268	395.06
494.485	367.06
494.703	391.06
494.92	389.06
495.138	360.06
495.355	377.06
495.573	367.06
495.79	375.06
496.008	365.06
496.225	346.06
496.442	346.06
496.66	350.06
496.877	358.06
497.094	347.06
497.312	350.06
497.529	316.06
497.746	331.06
497.963	322.06
498.181	341.06
498.398	350.06
498.615	363.06
498.832	354.06
499.049	359.06
499.267	374.06
499.484	389.06
499.701	406.06
499.918	437.06
500.135	445.06
500.352	484.06
500.569	509.06
500.786	495.06
501.003	467.06
501.22	425.06
501.437	417.06
501.654	393.06
501.871	371.06
502.088	337.06
502.305	349.06
502.522	350.06
502.739	343.06
502.956	330.06
503.172	321.06
503.389	298.06
503.606	311.06
