Data from StdC_HRD10591_088.txt Node
Date: Fri May 16 15:29:24 EDT 2025
User: Yrep
Spectrometer: HR+D1059
Trigger mode: 1
Integration Time (sec): 1.000000E-1
Scans to average: 1
Electric dark correction enabled: true
Nonlinearity correction enabled: false
Boxcar width: 0
XAxis mode: Wavelengths
Number of Pixels in Spectrum: 2048
>>>>>Begin Spectral Data<<<<<
223.165	-7.19
223.4	-7.19
223.635	-7.19
223.869	-21.19
224.104	-21.19
224.338	-11.19
224.573	-11.19
224.808	-17.19
225.042	0.81
225.277	-17.19
225.511	-2.19
225.746	5.81
225.98	11.81
226.215	3.81
226.449	15.81
226.683	12.81
226.918	29.81
227.152	27.81
227.387	34.81
227.621	38.81
227.856	49.81
228.09	40.81
228.324	50.81
228.559	63.81
228.793	69.81
229.027	50.81
229.262	70.81
229.496	61.81
229.73	76.81
229.964	66.81
230.199	80.81
230.433	91.81
230.667	96.81
230.901	94.81
231.136	81.81
231.37	84.81
231.604	86.81
231.838	89.81
232.072	91.81
232.306	79.81
232.541	88.81
232.775	79.81
233.009	92.81
233.243	103.81
233.477	91.81
233.711	79.81
233.945	84.81
234.179	89.81
234.413	100.81
234.647	86.81
234.881	96.81
235.115	82.81
235.349	77.81
235.583	89.81
235.817	93.81
236.051	86.81
236.285	95.81
236.519	89.81
236.753	93.81
236.987	98.81
237.221	80.81
237.455	91.81
237.689	78.81
237.922	88.81
238.156	94.81
238.39	76.81
238.624	83.81
238.858	81.81
239.091	108.81
239.325	79.81
239.559	78.81
239.793	83.81
240.027	68.81
240.26	87.81
240.494	93.81
240.728	83.81
240.961	80.81
241.195	95.81
241.429	95.81
241.662	91.81
241.896	89.81
242.13	88.81
242.363	106.81
242.597	88.81
242.83	76.81
243.064	92.81
243.298	113.81
243.531	97.81
243.765	95.81
243.998	82.81
244.232	94.81
244.465	102.81
244.699	91.81
244.932	104.81
245.166	98.81
245.399	99.81
245.633	102.81
245.866	99.81
246.099	105.81
246.333	87.81
246.566	101.81
246.8	99.81
247.033	94.81
247.266	102.81
247.5	104.81
247.733	123.81
247.966	106.81
248.2	120.81
248.433	98.81
248.666	107.81
248.899	112.81
249.133	112.81
249.366	105.81
249.599	131.81
249.832	124.81
250.066	136.81
250.299	161.81
250.532	194.81
250.765	156.81
250.998	166.81
251.231	141.81
251.465	126.81
251.698	128.81
251.931	110.81
252.164	116.81
252.397	132.81
252.63	118.81
252.863	122.81
253.096	128.81
253.329	107.81
253.562	128.81
253.795	126.81
254.028	117.81
254.261	120.81
254.494	132.81
254.727	132.81
254.96	141.81
255.193	156.81
255.426	164.81
255.659	198.81
255.892	252.81
256.124	296.81
256.357	238.81
256.59	187.81
256.823	181.81
257.056	157.81
257.289	167.81
257.521	147.81
257.754	128.81
257.987	143.81
258.22	139.81
258.452	139.81
258.685	142.81
258.918	125.81
259.151	136.81
259.383	129.81
259.616	136.81
259.849	140.81
260.081	136.81
260.314	129.81
260.547	128.81
260.779	124.81
261.012	134.81
261.244	133.81
261.477	150.81
261.71	136.81
261.942	122.81
262.175	138.81
262.407	120.81
262.64	131.81
262.872	139.81
263.105	107.81
263.337	133.81
263.57	126.81
263.802	146.81
264.035	152.81
264.267	126.81
264.499	109.81
264.732	119.81
264.964	121.81
265.197	132.81
265.429	130.81
265.661	120.81
265.894	123.81
266.126	121.81
266.358	128.81
266.591	132.81
266.823	127.81
267.055	128.81
267.287	125.81
267.52	112.81
267.752	134.81
267.984	138.81
268.216	122.81
268.448	133.81
268.681	142.81
268.913	127.81
269.145	147.81
269.377	123.81
269.609	137.81
269.841	134.81
270.073	136.81
270.306	141.81
270.538	135.81
270.77	137.81
271.002	132.81
271.234	145.81
271.466	143.81
271.698	146.81
271.93	139.81
272.162	142.81
272.394	152.81
272.626	122.81
272.858	140.81
273.09	128.81
273.322	149.81
273.553	142.81
273.785	145.81
274.017	135.81
274.249	157.81
274.481	162.81
274.713	159.81
274.945	174.81
275.176	168.81
275.408	178.81
275.64	166.81
275.872	178.81
276.104	182.81
276.335	173.81
276.567	171.81
276.799	205.81
277.031	234.81
277.262	239.81
277.494	211.81
277.726	210.81
277.957	193.81
278.189	195.81
278.421	175.81
278.652	179.81
278.884	177.81
279.115	181.81
279.347	179.81
279.579	219.81
279.81	227.81
280.042	249.81
280.273	278.81
280.505	265.81
280.736	212.81
280.968	201.81
281.199	202.81
281.431	194.81
281.662	177.81
281.894	170.81
282.125	177.81
282.356	181.81
282.588	153.81
282.819	172.81
283.051	162.81
283.282	151.81
283.513	160.81
283.745	154.81
283.976	170.81
284.207	154.81
284.439	144.81
284.67	169.81
284.901	171.81
285.132	155.81
285.364	159.81
285.595	146.81
285.826	157.81
286.057	164.81
286.288	175.81
286.52	163.81
286.751	164.81
286.982	153.81
287.213	178.81
287.444	164.81
287.675	148.81
287.906	175.81
288.138	158.81
288.369	164.81
288.6	164.81
288.831	147.81
289.062	172.81
289.293	158.81
289.524	141.81
289.755	155.81
289.986	168.81
290.217	168.81
290.448	170.81
290.679	169.81
290.91	177.81
291.141	159.81
291.371	147.81
291.602	170.81
291.833	157.81
292.064	154.81
292.295	171.81
292.526	167.81
292.757	141.81
292.987	149.81
293.218	153.81
293.449	139.81
293.68	155.81
293.91	155.81
294.141	150.81
294.372	141.81
294.603	151.81
294.833	149.81
295.064	150.81
295.295	158.81
295.525	144.81
295.756	170.81
295.987	161.81
296.217	160.81
296.448	164.81
296.679	155.81
296.909	154.81
297.14	145.81
297.37	147.81
297.601	163.81
297.831	178.81
298.062	156.81
298.292	161.81
298.523	143.81
298.753	166.81
298.984	163.81
299.214	164.81
299.445	147.81
299.675	170.81
299.905	160.81
300.136	167.81
300.366	151.81
300.597	149.81
300.827	173.81
301.057	159.81
301.288	171.81
301.518	174.81
301.748	174.81
301.979	176.81
302.209	167.81
302.439	159.81
302.669	157.81
302.9	183.81
303.13	163.81
303.36	168.81
303.59	191.81
303.82	190.81
304.051	184.81
304.281	178.81
304.511	159.81
304.741	186.81
304.971	158.81
305.201	176.81
305.431	162.81
305.661	155.81
305.891	168.81
306.121	161.81
306.352	182.81
306.582	175.81
306.812	184.81
307.042	197.81
307.272	226.81
307.502	234.81
307.731	214.81
307.961	208.81
308.191	197.81
308.421	188.81
308.651	171.81
308.881	179.81
309.111	168.81
309.341	176.81
309.571	175.81
309.8	173.81
310.03	182.81
310.26	172.81
310.49	164.81
310.72	168.81
310.949	184.81
311.179	171.81
311.409	165.81
311.639	168.81
311.868	162.81
312.098	162.81
312.328	180.81
312.557	166.81
312.787	188.81
313.017	179.81
313.246	182.81
313.476	158.81
313.706	179.81
313.935	166.81
314.165	165.81
314.394	173.81
314.624	179.81
314.853	166.81
315.083	185.81
315.312	191.81
315.542	189.81
315.771	170.81
316.001	165.81
316.23	165.81
316.46	173.81
316.689	175.81
316.919	176.81
317.148	163.81
317.377	168.81
317.607	189.81
317.836	178.81
318.065	188.81
318.295	189.81
318.524	171.81
318.753	166.81
318.983	167.81
319.212	182.81
319.441	197.81
319.67	175.81
319.9	175.81
320.129	164.81
320.358	158.81
320.587	190.81
320.816	198.81
321.046	172.81
321.275	199.81
321.504	190.81
321.733	181.81
321.962	169.81
322.191	193.81
322.42	178.81
322.649	204.81
322.878	213.81
323.108	187.81
323.337	207.81
323.566	214.81
323.795	218.81
324.024	211.81
324.253	208.81
324.482	213.81
324.71	220.81
324.939	216.81
325.168	228.81
325.397	242.81
325.626	256.81
325.855	246.81
326.084	246.81
326.313	253.81
326.542	253.81
326.77	271.81
326.999	287.81
327.228	287.81
327.457	332.81
327.686	437.81
327.914	560.81
328.143	717.81
328.372	757.81
328.6	557.81
328.829	408.81
329.058	391.81
329.287	442.81
329.515	519.81
329.744	703.81
329.972	1007.81
330.201	1319.81
330.43	1369.81
330.658	802.81
330.887	508.81
331.115	409.81
331.344	354.81
331.572	335.81
331.801	308.81
332.03	320.81
332.258	326.81
332.486	330.81
332.715	342.81
332.943	375.81
333.172	376.81
333.4	456.81
333.629	524.81
333.857	760.81
334.085	1090.81
334.314	1555.81
334.542	1915.81
334.771	1517.81
334.999	785.81
335.227	525.81
335.455	415.81
335.684	346.81
335.912	332.81
336.14	311.81
336.369	307.81
336.597	280.81
336.825	267.81
337.053	255.81
337.281	253.81
337.51	240.81
337.738	241.81
337.966	230.81
338.194	236.81
338.422	221.81
338.65	234.81
338.878	215.81
339.106	214.81
339.334	218.81
339.562	217.81
339.79	214.81
340.018	202.81
340.246	193.81
340.474	213.81
340.702	206.81
340.93	211.81
341.158	184.81
341.386	187.81
341.614	195.81
341.842	200.81
342.07	182.81
342.298	197.81
342.526	214.81
342.754	205.81
342.981	183.81
343.209	202.81
343.437	211.81
343.665	200.81
343.893	213.81
344.12	192.81
344.348	197.81
344.576	210.81
344.804	204.81
345.031	180.81
345.259	198.81
345.487	194.81
345.714	167.81
345.942	192.81
346.17	185.81
346.397	185.81
346.625	186.81
346.853	183.81
347.08	181.81
347.308	185.81
347.535	189.81
347.763	181.81
347.99	183.81
348.218	205.81
348.445	208.81
348.673	191.81
348.9	189.81
349.128	187.81
349.355	184.81
349.583	186.81
349.81	189.81
350.037	180.81
350.265	183.81
350.492	186.81
350.72	184.81
350.947	160.81
351.174	179.81
351.402	176.81
351.629	174.81
351.856	194.81
352.083	193.81
352.311	186.81
352.538	190.81
352.765	189.81
352.992	181.81
353.22	190.81
353.447	180.81
353.674	180.81
353.901	185.81
354.128	185.81
354.355	182.81
354.583	176.81
354.81	180.81
355.037	181.81
355.264	194.81
355.491	197.81
355.718	184.81
355.945	180.81
356.172	164.81
356.399	173.81
356.626	187.81
356.853	188.81
357.08	182.81
357.307	165.81
357.534	181.81
357.761	192.81
357.988	182.81
358.215	185.81
358.441	169.81
358.668	173.81
358.895	164.81
359.122	167.81
359.349	186.81
359.576	178.81
359.802	173.81
360.029	172.81
360.256	187.81
360.483	173.81
360.709	180.81
360.936	180.81
361.163	183.81
361.39	179.81
361.616	167.81
361.843	191.81
362.07	196.81
362.296	167.81
362.523	171.81
362.749	192.81
362.976	156.81
363.203	196.81
363.429	181.81
363.656	174.81
363.882	185.81
364.109	171.81
364.335	183.81
364.562	183.81
364.788	190.81
365.015	177.81
365.241	182.81
365.468	204.81
365.694	171.81
365.92	185.81
366.147	166.81
366.373	179.81
366.599	185.81
366.826	192.81
367.052	185.81
367.278	176.81
367.505	185.81
367.731	178.81
367.957	180.81
368.184	182.81
368.41	191.81
368.636	180.81
368.862	178.81
369.089	174.81
369.315	181.81
369.541	184.81
369.767	176.81
369.993	185.81
370.219	186.81
370.445	186.81
370.672	191.81
370.898	188.81
371.124	199.81
371.35	174.81
371.576	178.81
371.802	201.81
372.028	189.81
372.254	180.81
372.48	184.81
372.706	197.81
372.932	177.81
373.158	192.81
373.384	169.81
373.61	175.81
373.835	179.81
374.061	168.81
374.287	186.81
374.513	182.81
374.739	191.81
374.965	205.81
375.191	176.81
375.416	168.81
375.642	177.81
375.868	185.81
376.094	182.81
376.319	195.81
376.545	181.81
376.771	171.81
376.997	193.81
377.222	172.81
377.448	189.81
377.674	191.81
377.899	183.81
378.125	171.81
378.35	167.81
378.576	183.81
378.802	184.81
379.027	183.81
379.253	183.81
379.478	188.81
379.704	175.81
379.929	184.81
380.155	181.81
380.38	192.81
380.606	179.81
380.831	195.81
381.057	182.81
381.282	193.81
381.507	195.81
381.733	198.81
381.958	185.81
382.184	198.81
382.409	192.81
382.634	201.81
382.86	214.81
383.085	210.81
383.31	192.81
383.535	199.81
383.761	192.81
383.986	195.81
384.211	212.81
384.436	196.81
384.662	203.81
384.887	215.81
385.112	194.81
385.337	186.81
385.562	189.81
385.787	196.81
386.013	216.81
386.238	185.81
386.463	201.81
386.688	205.81
386.913	186.81
387.138	203.81
387.363	197.81
387.588	200.81
387.813	211.81
388.038	191.81
388.263	213.81
388.488	191.81
388.713	210.81
388.938	198.81
389.163	214.81
389.387	202.81
389.612	202.81
389.837	206.81
390.062	207.81
390.287	213.81
390.512	232.81
390.736	236.81
390.961	226.81
391.186	195.81
391.411	218.81
391.636	209.81
391.86	223.81
392.085	219.81
392.31	217.81
392.534	203.81
392.759	205.81
392.984	195.81
393.208	206.81
393.433	202.81
393.658	190.81
393.882	213.81
394.107	213.81
394.331	211.81
394.556	236.81
394.78	227.81
395.005	211.81
395.229	223.81
395.454	218.81
395.678	192.81
395.903	204.81
396.127	237.81
396.352	224.81
396.576	211.81
396.801	218.81
397.025	203.81
397.249	228.81
397.474	238.81
397.698	207.81
397.922	230.81
398.147	219.81
398.371	224.81
398.595	245.81
398.82	248.81
399.044	242.81
399.268	256.81
399.492	260.81
399.717	271.81
399.941	283.81
400.165	260.81
400.389	243.81
400.613	244.81
400.837	232.81
401.062	230.81
401.286	240.81
401.51	228.81
401.734	231.81
401.958	234.81
402.182	230.81
402.406	230.81
402.63	238.81
402.854	245.81
403.078	243.81
403.302	238.81
403.526	244.81
403.75	260.81
403.974	265.81
404.198	255.81
404.422	263.81
404.645	277.81
404.869	297.81
405.093	290.81
405.317	311.81
405.541	281.81
405.765	290.81
405.988	272.81
406.212	290.81
406.436	265.81
406.66	264.81
406.883	243.81
407.107	249.81
407.331	251.81
407.555	259.81
407.778	275.81
408.002	272.81
408.226	273.81
408.449	265.81
408.673	257.81
408.896	242.81
409.12	244.81
409.344	245.81
409.567	246.81
409.791	262.81
410.014	249.81
410.238	251.81
410.461	246.81
410.685	246.81
410.908	247.81
411.132	238.81
411.355	261.81
411.578	264.81
411.802	259.81
412.025	282.81
412.249	294.81
412.472	332.81
412.695	337.81
412.919	314.81
413.142	289.81
413.365	290.81
413.589	281.81
413.812	248.81
414.035	264.81
414.258	269.81
414.482	263.81
414.705	256.81
414.928	241.81
415.151	248.81
415.374	243.81
415.597	240.81
415.821	245.81
416.044	257.81
416.267	259.81
416.49	246.81
416.713	250.81
416.936	246.81
417.159	231.81
417.382	245.81
417.605	281.81
417.828	274.81
418.051	230.81
418.274	237.81
418.497	242.81
418.72	250.81
418.943	256.81
419.166	252.81
419.389	279.81
419.611	270.81
419.834	285.81
420.057	282.81
420.28	295.81
420.503	282.81
420.726	266.81
420.948	252.81
421.171	262.81
421.394	250.81
421.617	248.81
421.839	256.81
422.062	241.81
422.285	250.81
422.507	239.81
422.73	242.81
422.953	236.81
423.175	239.81
423.398	238.81
423.621	245.81
423.843	247.81
424.066	235.81
424.288	245.81
424.511	240.81
424.733	240.81
424.956	242.81
425.178	243.81
425.401	249.81
425.623	245.81
425.846	229.81
426.068	247.81
426.291	244.81
426.513	233.81
426.735	244.81
426.958	246.81
427.18	243.81
427.402	271.81
427.625	280.81
427.847	317.81
428.069	322.81
428.292	295.81
428.514	289.81
428.736	238.81
428.958	244.81
429.181	233.81
429.403	237.81
429.625	234.81
429.847	236.81
430.069	236.81
430.292	224.81
430.514	222.81
430.736	215.81
430.958	213.81
431.18	243.81
431.402	211.81
431.624	244.81
431.846	230.81
432.068	213.81
432.29	216.81
432.512	208.81
432.734	216.81
432.956	202.81
433.178	222.81
433.4	218.81
433.622	226.81
433.844	223.81
434.066	225.81
434.287	215.81
434.509	200.81
434.731	239.81
434.953	228.81
435.175	220.81
435.397	246.81
435.618	226.81
435.84	219.81
436.062	227.81
436.284	233.81
436.505	230.81
436.727	205.81
436.949	216.81
437.17	207.81
437.392	216.81
437.614	219.81
437.835	225.81
438.057	221.81
438.278	226.81
438.5	212.81
438.721	208.81
438.943	231.81
439.165	206.81
439.386	211.81
439.608	223.81
439.829	210.81
440.05	222.81
440.272	230.81
440.493	213.81
440.715	220.81
440.936	226.81
441.158	226.81
441.379	212.81
441.6	224.81
441.822	222.81
442.043	226.81
442.264	217.81
442.486	228.81
442.707	212.81
442.928	238.81
443.149	208.81
443.371	229.81
443.592	232.81
443.813	219.81
444.034	219.81
444.255	251.81
444.476	237.81
444.698	247.81
444.919	244.81
445.14	323.81
445.361	263.81
445.582	235.81
445.803	226.81
446.024	230.81
446.245	222.81
446.466	223.81
446.687	207.81
446.908	229.81
447.129	210.81
447.35	226.81
447.571	240.81
447.792	209.81
448.013	196.81
448.234	200.81
448.455	214.81
448.675	212.81
448.896	206.81
449.117	205.81
449.338	209.81
449.559	216.81
449.779	204.81
450	226.81
450.221	218.81
450.442	208.81
450.662	226.81
450.883	200.81
451.104	210.81
451.324	215.81
451.545	215.81
451.766	194.81
451.986	186.81
452.207	202.81
452.428	214.81
452.648	203.81
452.869	211.81
453.089	214.81
453.31	198.81
453.53	211.81
453.751	171.81
453.971	192.81
454.192	182.81
454.412	190.81
454.633	207.81
454.853	192.81
455.073	198.81
455.294	195.81
455.514	214.81
455.734	187.81
455.955	202.81
456.175	204.81
456.395	188.81
456.616	197.81
456.836	206.81
457.056	198.81
457.276	190.81
457.497	223.81
457.717	183.81
457.937	210.81
458.157	219.81
458.377	205.81
458.598	200.81
458.818	219.81
459.038	193.81
459.258	216.81
459.478	218.81
459.698	222.81
459.918	223.81
460.138	220.81
460.358	220.81
460.578	218.81
460.798	235.81
461.018	241.81
461.238	228.81
461.458	236.81
461.678	233.81
461.898	242.81
462.118	241.81
462.338	242.81
462.558	248.81
462.777	257.81
462.997	261.81
463.217	264.81
463.437	264.81
463.657	273.81
463.876	242.81
464.096	257.81
464.316	248.81
464.536	239.81
464.755	256.81
464.975	253.81
465.195	223.81
465.414	236.81
465.634	218.81
465.854	235.81
466.073	231.81
466.293	239.81
466.512	232.81
466.732	254.81
466.951	236.81
467.171	248.81
467.391	272.81
467.61	308.81
467.829	387.81
468.049	679.81
468.268	846.81
468.488	501.81
468.707	344.81
468.927	308.81
469.146	269.81
469.365	271.81
469.585	276.81
469.804	274.81
470.023	263.81
470.243	268.81
470.462	275.81
470.681	278.81
470.901	267.81
471.12	280.81
471.339	285.81
471.558	309.81
471.777	364.81
471.997	556.81
472.216	1191.81
472.435	1792.81
472.654	1004.81
472.873	586.81
473.092	440.81
473.311	399.81
473.53	330.81
473.749	310.81
473.968	298.81
474.187	303.81
474.406	269.81
474.625	290.81
474.844	277.81
475.063	249.81
475.282	273.81
475.501	256.81
475.72	254.81
475.939	250.81
476.158	250.81
476.377	253.81
476.596	256.81
476.814	238.81
477.033	245.81
477.252	262.81
477.471	277.81
477.69	278.81
477.908	272.81
478.127	256.81
478.346	282.81
478.564	294.81
478.783	291.81
479.002	292.81
479.22	300.81
479.439	297.81
479.658	329.81
479.876	323.81
480.095	356.81
480.313	390.81
480.532	466.81
480.751	655.81
480.969	1282.81
481.188	2792.81
481.406	2282.81
481.624	1100.81
481.843	698.81
482.061	546.81
482.28	479.81
482.498	436.81
482.717	397.81
482.935	372.81
483.153	366.81
483.372	337.81
483.59	330.81
483.808	326.81
484.027	341.81
484.245	298.81
484.463	320.81
484.681	312.81
484.9	296.81
485.118	301.81
485.336	286.81
485.554	295.81
485.772	309.81
485.99	290.81
486.209	298.81
486.427	292.81
486.645	292.81
486.863	295.81
487.081	301.81
487.299	312.81
487.517	292.81
487.735	292.81
487.953	303.81
488.171	301.81
488.389	286.81
488.607	290.81
488.825	306.81
489.043	299.81
489.261	309.81
489.479	307.81
489.696	343.81
489.914	339.81
490.132	321.81
490.35	348.81
490.568	343.81
490.786	368.81
491.003	390.81
491.221	437.81
491.439	450.81
491.657	468.81
491.874	458.81
492.092	482.81
492.31	485.81
492.527	506.81
492.745	546.81
492.963	527.81
493.18	516.81
493.398	465.81
493.615	457.81
493.833	424.81
494.05	407.81
494.268	406.81
494.485	400.81
494.703	391.81
494.92	389.81
495.138	378.81
495.355	384.81
495.573	373.81
495.79	349.81
496.008	358.81
496.225	345.81
496.442	348.81
496.66	337.81
496.877	341.81
497.094	346.81
497.312	347.81
497.529	341.81
497.746	328.81
497.963	336.81
498.181	347.81
498.398	328.81
498.615	339.81
498.832	361.81
499.049	364.81
499.267	372.81
499.484	385.81
499.701	382.81
499.918	404.81
500.135	447.81
500.352	468.81
500.569	503.81
500.786	500.81
501.003	462.81
501.22	438.81
501.437	395.81
501.654	388.81
501.871	348.81
502.088	337.81
502.305	330.81
502.522	325.81
502.739	330.81
502.956	319.81
503.172	311.81
503.389	310.81
503.606	297.81
