Data from StdC_HRD10591_027.txt Node
Date: Fri May 16 15:28:54 EDT 2025
User: Yrep
Spectrometer: HR+D1059
Trigger mode: 1
Integration Time (sec): 1.000000E-1
Scans to average: 1
Electric dark correction enabled: true
Nonlinearity correction enabled: false
Boxcar width: 0
XAxis mode: Wavelengths
Number of Pixels in Spectrum: 2048
>>>>>Begin Spectral Data<<<<<
223.165	-36.38
223.4	-36.38
223.635	-36.38
223.869	-28.38
224.104	-22.38
224.338	-14.38
224.573	-12.38
224.808	-0.38
225.042	-8.38
225.277	4.62
225.511	-5.38
225.746	4.62
225.98	9.62
226.215	19.62
226.449	19.62
226.683	19.62
226.918	26.62
227.152	23.62
227.387	34.62
227.621	48.62
227.856	42.62
228.09	54.62
228.324	48.62
228.559	55.62
228.793	71.62
229.027	74.62
229.262	68.62
229.496	76.62
229.73	82.62
229.964	82.62
230.199	78.62
230.433	85.62
230.667	82.62
230.901	86.62
231.136	95.62
231.37	90.62
231.604	81.62
231.838	97.62
232.072	85.62
232.306	92.62
232.541	99.62
232.775	90.62
233.009	92.62
233.243	97.62
233.477	90.62
233.711	98.62
233.945	103.62
234.179	97.62
234.413	81.62
234.647	90.62
234.881	89.62
235.115	104.62
235.349	93.62
235.583	93.62
235.817	82.62
236.051	91.62
236.285	90.62
236.519	95.62
236.753	96.62
236.987	103.62
237.221	90.62
237.455	82.62
237.689	88.62
237.922	95.62
238.156	91.62
238.39	109.62
238.624	82.62
238.858	82.62
239.091	96.62
239.325	87.62
239.559	84.62
239.793	91.62
240.027	89.62
240.26	104.62
240.494	95.62
240.728	102.62
240.961	99.62
241.195	89.62
241.429	97.62
241.662	83.62
241.896	80.62
242.13	87.62
242.363	97.62
242.597	114.62
242.83	91.62
243.064	99.62
243.298	92.62
243.531	100.62
243.765	104.62
243.998	98.62
244.232	96.62
244.465	96.62
244.699	98.62
244.932	104.62
245.166	105.62
245.399	96.62
245.633	108.62
245.866	108.62
246.099	108.62
246.333	107.62
246.566	103.62
246.8	96.62
247.033	111.62
247.266	110.62
247.5	96.62
247.733	108.62
247.966	103.62
248.2	123.62
248.433	125.62
248.666	102.62
248.899	106.62
249.133	115.62
249.366	113.62
249.599	118.62
249.832	135.62
250.066	148.62
250.299	190.62
250.532	200.62
250.765	174.62
250.998	146.62
251.231	139.62
251.465	141.62
251.698	130.62
251.931	119.62
252.164	107.62
252.397	111.62
252.63	119.62
252.863	143.62
253.096	132.62
253.329	131.62
253.562	112.62
253.795	115.62
254.028	132.62
254.261	112.62
254.494	123.62
254.727	130.62
254.96	138.62
255.193	139.62
255.426	143.62
255.659	202.62
255.892	272.62
256.124	297.62
256.357	250.62
256.59	210.62
256.823	157.62
257.056	151.62
257.289	153.62
257.521	154.62
257.754	142.62
257.987	151.62
258.22	128.62
258.452	145.62
258.685	139.62
258.918	135.62
259.151	122.62
259.383	114.62
259.616	125.62
259.849	137.62
260.081	143.62
260.314	137.62
260.547	138.62
260.779	131.62
261.012	129.62
261.244	156.62
261.477	135.62
261.71	135.62
261.942	126.62
262.175	130.62
262.407	115.62
262.64	115.62
262.872	135.62
263.105	136.62
263.337	141.62
263.57	132.62
263.802	134.62
264.035	148.62
264.267	133.62
264.499	132.62
264.732	132.62
264.964	137.62
265.197	118.62
265.429	144.62
265.661	132.62
265.894	135.62
266.126	128.62
266.358	121.62
266.591	104.62
266.823	128.62
267.055	135.62
267.287	134.62
267.52	128.62
267.752	134.62
267.984	135.62
268.216	130.62
268.448	129.62
268.681	134.62
268.913	112.62
269.145	138.62
269.377	135.62
269.609	141.62
269.841	131.62
270.073	124.62
270.306	137.62
270.538	133.62
270.77	119.62
271.002	129.62
271.234	135.62
271.466	146.62
271.698	132.62
271.93	148.62
272.162	160.62
272.394	144.62
272.626	146.62
272.858	134.62
273.09	147.62
273.322	168.62
273.553	138.62
273.785	139.62
274.017	153.62
274.249	144.62
274.481	144.62
274.713	148.62
274.945	158.62
275.176	158.62
275.408	168.62
275.64	163.62
275.872	183.62
276.104	194.62
276.335	171.62
276.567	178.62
276.799	180.62
277.031	222.62
277.262	233.62
277.494	224.62
277.726	190.62
277.957	170.62
278.189	175.62
278.421	173.62
278.652	159.62
278.884	170.62
279.115	168.62
279.347	199.62
279.579	185.62
279.81	222.62
280.042	252.62
280.273	272.62
280.505	247.62
280.736	219.62
280.968	190.62
281.199	180.62
281.431	182.62
281.662	173.62
281.894	172.62
282.125	172.62
282.356	187.62
282.588	159.62
282.819	173.62
283.051	171.62
283.282	151.62
283.513	186.62
283.745	154.62
283.976	169.62
284.207	151.62
284.439	170.62
284.67	153.62
284.901	147.62
285.132	169.62
285.364	159.62
285.595	157.62
285.826	144.62
286.057	168.62
286.288	153.62
286.52	152.62
286.751	162.62
286.982	168.62
287.213	160.62
287.444	148.62
287.675	168.62
287.906	155.62
288.138	164.62
288.369	161.62
288.6	154.62
288.831	161.62
289.062	162.62
289.293	157.62
289.524	155.62
289.755	169.62
289.986	158.62
290.217	158.62
290.448	171.62
290.679	166.62
290.91	176.62
291.141	164.62
291.371	158.62
291.602	148.62
291.833	171.62
292.064	158.62
292.295	144.62
292.526	163.62
292.757	175.62
292.987	152.62
293.218	148.62
293.449	155.62
293.68	159.62
293.91	166.62
294.141	151.62
294.372	140.62
294.603	151.62
294.833	146.62
295.064	164.62
295.295	164.62
295.525	163.62
295.756	167.62
295.987	148.62
296.217	145.62
296.448	153.62
296.679	159.62
296.909	156.62
297.14	163.62
297.37	152.62
297.601	149.62
297.831	164.62
298.062	168.62
298.292	154.62
298.523	156.62
298.753	163.62
298.984	156.62
299.214	159.62
299.445	153.62
299.675	181.62
299.905	156.62
300.136	153.62
300.366	157.62
300.597	157.62
300.827	166.62
301.057	169.62
301.288	160.62
301.518	168.62
301.748	176.62
301.979	177.62
302.209	171.62
302.439	159.62
302.669	163.62
302.9	171.62
303.13	163.62
303.36	186.62
303.59	193.62
303.82	196.62
304.051	200.62
304.281	187.62
304.511	160.62
304.741	171.62
304.971	180.62
305.201	176.62
305.431	162.62
305.661	173.62
305.891	183.62
306.121	163.62
306.352	161.62
306.582	187.62
306.812	196.62
307.042	204.62
307.272	208.62
307.502	230.62
307.731	227.62
307.961	207.62
308.191	184.62
308.421	166.62
308.651	194.62
308.881	190.62
309.111	184.62
309.341	179.62
309.571	180.62
309.8	173.62
310.03	184.62
310.26	160.62
310.49	174.62
310.72	168.62
310.949	167.62
311.179	171.62
311.409	180.62
311.639	184.62
311.868	167.62
312.098	184.62
312.328	177.62
312.557	155.62
312.787	176.62
313.017	188.62
313.246	177.62
313.476	167.62
313.706	180.62
313.935	163.62
314.165	191.62
314.394	159.62
314.624	172.62
314.853	182.62
315.083	189.62
315.312	170.62
315.542	186.62
315.771	179.62
316.001	181.62
316.23	203.62
316.46	166.62
316.689	168.62
316.919	161.62
317.148	168.62
317.377	182.62
317.607	201.62
317.836	172.62
318.065	167.62
318.295	171.62
318.524	185.62
318.753	174.62
318.983	194.62
319.212	175.62
319.441	175.62
319.67	191.62
319.9	189.62
320.129	184.62
320.358	186.62
320.587	176.62
320.816	192.62
321.046	186.62
321.275	199.62
321.504	188.62
321.733	188.62
321.962	195.62
322.191	174.62
322.42	196.62
322.649	190.62
322.878	197.62
323.108	212.62
323.337	222.62
323.566	214.62
323.795	225.62
324.024	208.62
324.253	222.62
324.482	218.62
324.71	238.62
324.939	219.62
325.168	236.62
325.397	227.62
325.626	231.62
325.855	225.62
326.084	246.62
326.313	220.62
326.542	235.62
326.77	274.62
326.999	268.62
327.228	288.62
327.457	340.62
327.686	428.62
327.914	524.62
328.143	701.62
328.372	753.62
328.6	534.62
328.829	400.62
329.058	386.62
329.287	431.62
329.515	478.62
329.744	688.62
329.972	994.62
330.201	1338.62
330.43	1329.62
330.658	784.62
330.887	505.62
331.115	382.62
331.344	336.62
331.572	335.62
331.801	328.62
332.03	309.62
332.258	332.62
332.486	319.62
332.715	341.62
332.943	356.62
333.172	407.62
333.4	449.62
333.629	556.62
333.857	712.62
334.085	1067.62
334.314	1493.62
334.542	1852.62
334.771	1501.62
334.999	741.62
335.227	504.62
335.455	439.62
335.684	354.62
335.912	341.62
336.14	306.62
336.369	273.62
336.597	285.62
336.825	265.62
337.053	239.62
337.281	227.62
337.51	240.62
337.738	232.62
337.966	251.62
338.194	226.62
338.422	214.62
338.65	208.62
338.878	215.62
339.106	226.62
339.334	219.62
339.562	206.62
339.79	209.62
340.018	203.62
340.246	199.62
340.474	204.62
340.702	198.62
340.93	217.62
341.158	195.62
341.386	203.62
341.614	203.62
341.842	199.62
342.07	190.62
342.298	195.62
342.526	198.62
342.754	200.62
342.981	213.62
343.209	204.62
343.437	208.62
343.665	207.62
343.893	219.62
344.12	196.62
344.348	206.62
344.576	194.62
344.804	189.62
345.031	199.62
345.259	198.62
345.487	176.62
345.714	188.62
345.942	203.62
346.17	200.62
346.397	199.62
346.625	206.62
346.853	200.62
347.08	194.62
347.308	176.62
347.535	170.62
347.763	182.62
347.99	204.62
348.218	196.62
348.445	181.62
348.673	180.62
348.9	189.62
349.128	177.62
349.355	194.62
349.583	180.62
349.81	186.62
350.037	195.62
350.265	201.62
350.492	187.62
350.72	186.62
350.947	172.62
351.174	200.62
351.402	178.62
351.629	186.62
351.856	189.62
352.083	188.62
352.311	190.62
352.538	193.62
352.765	163.62
352.992	187.62
353.22	193.62
353.447	182.62
353.674	190.62
353.901	177.62
354.128	177.62
354.355	191.62
354.583	189.62
354.81	183.62
355.037	179.62
355.264	179.62
355.491	176.62
355.718	191.62
355.945	188.62
356.172	193.62
356.399	186.62
356.626	183.62
356.853	189.62
357.08	191.62
357.307	180.62
357.534	185.62
357.761	176.62
357.988	176.62
358.215	177.62
358.441	182.62
358.668	178.62
358.895	180.62
359.122	176.62
359.349	167.62
359.576	190.62
359.802	200.62
360.029	176.62
360.256	175.62
360.483	186.62
360.709	166.62
360.936	179.62
361.163	202.62
361.39	185.62
361.616	174.62
361.843	187.62
362.07	172.62
362.296	183.62
362.523	190.62
362.749	170.62
362.976	178.62
363.203	192.62
363.429	172.62
363.656	186.62
363.882	171.62
364.109	170.62
364.335	187.62
364.562	178.62
364.788	166.62
365.015	170.62
365.241	187.62
365.468	173.62
365.694	173.62
365.92	171.62
366.147	183.62
366.373	186.62
366.599	194.62
366.826	184.62
367.052	178.62
367.278	164.62
367.505	177.62
367.731	200.62
367.957	191.62
368.184	185.62
368.41	191.62
368.636	188.62
368.862	167.62
369.089	172.62
369.315	185.62
369.541	176.62
369.767	182.62
369.993	186.62
370.219	187.62
370.445	187.62
370.672	187.62
370.898	193.62
371.124	183.62
371.35	198.62
371.576	186.62
371.802	191.62
372.028	178.62
372.254	178.62
372.48	195.62
372.706	201.62
372.932	184.62
373.158	198.62
373.384	192.62
373.61	206.62
373.835	183.62
374.061	189.62
374.287	174.62
374.513	179.62
374.739	193.62
374.965	202.62
375.191	195.62
375.416	193.62
375.642	202.62
375.868	210.62
376.094	179.62
376.319	190.62
376.545	186.62
376.771	188.62
376.997	187.62
377.222	176.62
377.448	198.62
377.674	174.62
377.899	191.62
378.125	189.62
378.35	184.62
378.576	167.62
378.802	188.62
379.027	178.62
379.253	189.62
379.478	167.62
379.704	190.62
379.929	193.62
380.155	192.62
380.38	190.62
380.606	182.62
380.831	191.62
381.057	194.62
381.282	196.62
381.507	207.62
381.733	199.62
381.958	201.62
382.184	193.62
382.409	179.62
382.634	183.62
382.86	194.62
383.085	198.62
383.31	184.62
383.535	204.62
383.761	194.62
383.986	189.62
384.211	193.62
384.436	200.62
384.662	210.62
384.887	207.62
385.112	201.62
385.337	199.62
385.562	194.62
385.787	206.62
386.013	207.62
386.238	196.62
386.463	214.62
386.688	222.62
386.913	203.62
387.138	220.62
387.363	217.62
387.588	213.62
387.813	220.62
388.038	215.62
388.263	216.62
388.488	219.62
388.713	199.62
388.938	214.62
389.163	203.62
389.387	197.62
389.612	188.62
389.837	214.62
390.062	209.62
390.287	209.62
390.512	201.62
390.736	209.62
390.961	209.62
391.186	211.62
391.411	212.62
391.636	195.62
391.86	216.62
392.085	195.62
392.31	214.62
392.534	218.62
392.759	214.62
392.984	221.62
393.208	211.62
393.433	204.62
393.658	209.62
393.882	211.62
394.107	214.62
394.331	211.62
394.556	200.62
394.78	223.62
395.005	230.62
395.229	197.62
395.454	226.62
395.678	222.62
395.903	220.62
396.127	206.62
396.352	222.62
396.576	220.62
396.801	225.62
397.025	212.62
397.249	227.62
397.474	230.62
397.698	231.62
397.922	235.62
398.147	235.62
398.371	241.62
398.595	221.62
398.82	239.62
399.044	262.62
399.268	248.62
399.492	266.62
399.717	271.62
399.941	282.62
400.165	265.62
400.389	252.62
400.613	258.62
400.837	240.62
401.062	254.62
401.286	250.62
401.51	224.62
401.734	228.62
401.958	251.62
402.182	252.62
402.406	224.62
402.63	236.62
402.854	243.62
403.078	248.62
403.302	236.62
403.526	253.62
403.75	238.62
403.974	244.62
404.198	258.62
404.422	259.62
404.645	274.62
404.869	271.62
405.093	300.62
405.317	330.62
405.541	298.62
405.765	290.62
405.988	267.62
406.212	257.62
406.436	257.62
406.66	265.62
406.883	249.62
407.107	249.62
407.331	248.62
407.555	268.62
407.778	257.62
408.002	269.62
408.226	264.62
408.449	272.62
408.673	251.62
408.896	246.62
409.12	270.62
409.344	247.62
409.567	228.62
409.791	230.62
410.014	220.62
410.238	263.62
410.461	261.62
410.685	248.62
410.908	235.62
411.132	253.62
411.355	234.62
411.578	248.62
411.802	257.62
412.025	266.62
412.249	284.62
412.472	310.62
412.695	336.62
412.919	330.62
413.142	303.62
413.365	283.62
413.589	288.62
413.812	270.62
414.035	266.62
414.258	272.62
414.482	246.62
414.705	256.62
414.928	248.62
415.151	238.62
415.374	255.62
415.597	240.62
415.821	253.62
416.044	251.62
416.267	254.62
416.49	250.62
416.713	243.62
416.936	233.62
417.159	244.62
417.382	258.62
417.605	267.62
417.828	274.62
418.051	253.62
418.274	250.62
418.497	244.62
418.72	242.62
418.943	238.62
419.166	237.62
419.389	260.62
419.611	275.62
419.834	277.62
420.057	309.62
420.28	319.62
420.503	286.62
420.726	298.62
420.948	280.62
421.171	275.62
421.394	259.62
421.617	250.62
421.839	242.62
422.062	248.62
422.285	248.62
422.507	240.62
422.73	249.62
422.953	234.62
423.175	244.62
423.398	249.62
423.621	237.62
423.843	252.62
424.066	260.62
424.288	242.62
424.511	254.62
424.733	224.62
424.956	240.62
425.178	234.62
425.401	225.62
425.623	238.62
425.846	228.62
426.068	233.62
426.291	246.62
426.513	234.62
426.735	235.62
426.958	253.62
427.18	238.62
427.402	274.62
427.625	284.62
427.847	307.62
428.069	338.62
428.292	288.62
428.514	252.62
428.736	242.62
428.958	237.62
429.181	248.62
429.403	250.62
429.625	219.62
429.847	240.62
430.069	234.62
430.292	234.62
430.514	236.62
430.736	220.62
430.958	224.62
431.18	216.62
431.402	215.62
431.624	227.62
431.846	234.62
432.068	224.62
432.29	209.62
432.512	236.62
432.734	214.62
432.956	205.62
433.178	237.62
433.4	221.62
433.622	225.62
433.844	220.62
434.066	222.62
434.287	208.62
434.509	229.62
434.731	219.62
434.953	230.62
435.175	234.62
435.397	217.62
435.618	217.62
435.84	222.62
436.062	223.62
436.284	218.62
436.505	223.62
436.727	228.62
436.949	199.62
437.17	205.62
437.392	219.62
437.614	214.62
437.835	217.62
438.057	202.62
438.278	216.62
438.5	216.62
438.721	202.62
438.943	207.62
439.165	211.62
439.386	213.62
439.608	235.62
439.829	209.62
440.05	226.62
440.272	210.62
440.493	217.62
440.715	232.62
440.936	217.62
441.158	221.62
441.379	216.62
441.6	241.62
441.822	241.62
442.043	238.62
442.264	232.62
442.486	231.62
442.707	217.62
442.928	240.62
443.149	253.62
443.371	245.62
443.592	236.62
443.813	226.62
444.034	251.62
444.255	234.62
444.476	243.62
444.698	255.62
444.919	233.62
445.14	328.62
445.361	275.62
445.582	234.62
445.803	226.62
446.024	258.62
446.245	227.62
446.466	224.62
446.687	219.62
446.908	222.62
447.129	211.62
447.35	233.62
447.571	224.62
447.792	226.62
448.013	216.62
448.234	217.62
448.455	208.62
448.675	209.62
448.896	215.62
449.117	223.62
449.338	228.62
449.559	224.62
449.779	219.62
450	217.62
450.221	217.62
450.442	198.62
450.662	205.62
450.883	203.62
451.104	208.62
451.324	213.62
451.545	234.62
451.766	204.62
451.986	208.62
452.207	204.62
452.428	221.62
452.648	209.62
452.869	205.62
453.089	203.62
453.31	204.62
453.53	196.62
453.751	197.62
453.971	213.62
454.192	214.62
454.412	187.62
454.633	208.62
454.853	190.62
455.073	197.62
455.294	186.62
455.514	211.62
455.734	202.62
455.955	204.62
456.175	211.62
456.395	192.62
456.616	204.62
456.836	203.62
457.056	194.62
457.276	217.62
457.497	204.62
457.717	204.62
457.937	211.62
458.157	200.62
458.377	202.62
458.598	199.62
458.818	216.62
459.038	225.62
459.258	214.62
459.478	230.62
459.698	228.62
459.918	219.62
460.138	213.62
460.358	229.62
460.578	239.62
460.798	234.62
461.018	228.62
461.238	238.62
461.458	262.62
461.678	231.62
461.898	247.62
462.118	246.62
462.338	251.62
462.558	247.62
462.777	263.62
462.997	267.62
463.217	278.62
463.437	274.62
463.657	269.62
463.876	238.62
464.096	259.62
464.316	250.62
464.536	250.62
464.755	252.62
464.975	241.62
465.195	222.62
465.414	240.62
465.634	221.62
465.854	232.62
466.073	249.62
466.293	233.62
466.512	233.62
466.732	253.62
466.951	242.62
467.171	243.62
467.391	271.62
467.61	281.62
467.829	380.62
468.049	681.62
468.268	830.62
468.488	494.62
468.707	339.62
468.927	314.62
469.146	291.62
469.365	266.62
469.585	261.62
469.804	246.62
470.023	262.62
470.243	267.62
470.462	270.62
470.681	265.62
470.901	270.62
471.12	278.62
471.339	281.62
471.558	304.62
471.777	352.62
471.997	537.62
472.216	1110.62
472.435	1712.62
472.654	951.62
472.873	565.62
473.092	428.62
473.311	360.62
473.53	334.62
473.749	312.62
473.968	292.62
474.187	280.62
474.406	272.62
474.625	273.62
474.844	259.62
475.063	262.62
475.282	251.62
475.501	247.62
475.72	260.62
475.939	261.62
476.158	252.62
476.377	258.62
476.596	263.62
476.814	265.62
477.033	256.62
477.252	256.62
477.471	245.62
477.69	273.62
477.908	265.62
478.127	266.62
478.346	279.62
478.564	291.62
478.783	270.62
479.002	294.62
479.22	283.62
479.439	317.62
479.658	322.62
479.876	329.62
480.095	354.62
480.313	392.62
480.532	448.62
480.751	612.62
480.969	1209.62
481.188	2762.62
481.406	2211.62
481.624	1057.62
481.843	685.62
482.061	540.62
482.28	498.62
482.498	427.62
482.717	383.62
482.935	382.62
483.153	373.62
483.372	352.62
483.59	334.62
483.808	315.62
484.027	306.62
484.245	328.62
484.463	310.62
484.681	300.62
484.9	304.62
485.118	306.62
485.336	304.62
485.554	305.62
485.772	272.62
485.99	294.62
486.209	296.62
486.427	301.62
486.645	288.62
486.863	280.62
487.081	290.62
487.299	300.62
487.517	292.62
487.735	295.62
487.953	301.62
488.171	302.62
488.389	315.62
488.607	307.62
488.825	300.62
489.043	305.62
489.261	307.62
489.479	313.62
489.696	324.62
489.914	328.62
490.132	348.62
490.35	335.62
490.568	365.62
490.786	386.62
491.003	403.62
491.221	424.62
491.439	472.62
491.657	472.62
491.874	461.62
492.092	472.62
492.31	483.62
492.527	516.62
492.745	561.62
492.963	529.62
493.18	500.62
493.398	480.62
493.615	453.62
493.833	430.62
494.05	408.62
494.268	406.62
494.485	403.62
494.703	396.62
494.92	376.62
495.138	372.62
495.355	374.62
495.573	353.62
495.79	352.62
496.008	332.62
496.225	342.62
496.442	347.62
496.66	340.62
496.877	342.62
497.094	326.62
497.312	338.62
497.529	327.62
497.746	346.62
497.963	348.62
498.181	328.62
498.398	339.62
498.615	348.62
498.832	360.62
499.049	380.62
499.267	375.62
499.484	396.62
499.701	411.62
499.918	413.62
500.135	436.62
500.352	463.62
500.569	486.62
500.786	519.62
501.003	468.62
501.22	433.62
501.437	402.62
501.654	392.62
501.871	354.62
502.088	360.62
502.305	353.62
502.522	325.62
502.739	337.62
502.956	313.62
503.172	331.62
503.389	319.62
