Data from StdC_HRD10591_034.txt Node
Date: Fri May 16 15:28:57 EDT 2025
User: Yrep
Spectrometer: HR+D1059
Trigger mode: 1
Integration Time (sec): 1.000000E-1
Scans to average: 1
Electric dark correction enabled: true
Nonlinearity correction enabled: false
Boxcar width: 0
XAxis mode: Wavelengths
Number of Pixels in Spectrum: 2048
>>>>>Begin Spectral Data<<<<<
223.165	-22.31
223.4	-22.31
223.635	-22.31
223.869	-26.31
224.104	-19.31
224.338	-20.31
224.573	-20.31
224.808	-11.31
225.042	-13.31
225.277	-6.31
225.511	4.69
225.746	6.69
225.98	-14.31
226.215	15.69
226.449	23.69
226.683	23.69
226.918	38.69
227.152	40.69
227.387	27.69
227.621	37.69
227.856	61.69
228.09	59.69
228.324	49.69
228.559	71.69
228.793	71.69
229.027	74.69
229.262	87.69
229.496	70.69
229.73	72.69
229.964	73.69
230.199	66.69
230.433	87.69
230.667	82.69
230.901	91.69
231.136	90.69
231.37	89.69
231.604	92.69
231.838	89.69
232.072	94.69
232.306	92.69
232.541	83.69
232.775	80.69
233.009	87.69
233.243	93.69
233.477	104.69
233.711	101.69
233.945	96.69
234.179	90.69
234.413	87.69
234.647	73.69
234.881	95.69
235.115	85.69
235.349	82.69
235.583	107.69
235.817	93.69
236.051	86.69
236.285	86.69
236.519	95.69
236.753	80.69
236.987	103.69
237.221	110.69
237.455	95.69
237.689	95.69
237.922	85.69
238.156	85.69
238.39	86.69
238.624	95.69
238.858	88.69
239.091	83.69
239.325	99.69
239.559	86.69
239.793	109.69
240.027	93.69
240.26	85.69
240.494	88.69
240.728	105.69
240.961	103.69
241.195	93.69
241.429	85.69
241.662	112.69
241.896	101.69
242.13	95.69
242.363	93.69
242.597	85.69
242.83	98.69
243.064	95.69
243.298	82.69
243.531	104.69
243.765	119.69
243.998	106.69
244.232	94.69
244.465	101.69
244.699	104.69
244.932	92.69
245.166	111.69
245.399	82.69
245.633	93.69
245.866	95.69
246.099	101.69
246.333	101.69
246.566	107.69
246.8	111.69
247.033	101.69
247.266	110.69
247.5	97.69
247.733	124.69
247.966	119.69
248.2	114.69
248.433	109.69
248.666	113.69
248.899	106.69
249.133	115.69
249.366	119.69
249.599	129.69
249.832	131.69
250.066	152.69
250.299	163.69
250.532	220.69
250.765	182.69
250.998	158.69
251.231	131.69
251.465	129.69
251.698	128.69
251.931	138.69
252.164	131.69
252.397	133.69
252.63	113.69
252.863	113.69
253.096	127.69
253.329	127.69
253.562	135.69
253.795	125.69
254.028	110.69
254.261	137.69
254.494	114.69
254.727	119.69
254.96	138.69
255.193	155.69
255.426	153.69
255.659	197.69
255.892	264.69
256.124	321.69
256.357	265.69
256.59	217.69
256.823	192.69
257.056	173.69
257.289	144.69
257.521	163.69
257.754	126.69
257.987	142.69
258.22	136.69
258.452	123.69
258.685	137.69
258.918	134.69
259.151	133.69
259.383	134.69
259.616	112.69
259.849	137.69
260.081	134.69
260.314	134.69
260.547	135.69
260.779	133.69
261.012	143.69
261.244	134.69
261.477	141.69
261.71	137.69
261.942	152.69
262.175	128.69
262.407	135.69
262.64	127.69
262.872	134.69
263.105	128.69
263.337	145.69
263.57	131.69
263.802	146.69
264.035	141.69
264.267	124.69
264.499	131.69
264.732	133.69
264.964	130.69
265.197	132.69
265.429	135.69
265.661	135.69
265.894	125.69
266.126	128.69
266.358	131.69
266.591	126.69
266.823	136.69
267.055	135.69
267.287	149.69
267.52	130.69
267.752	121.69
267.984	130.69
268.216	136.69
268.448	139.69
268.681	129.69
268.913	131.69
269.145	138.69
269.377	126.69
269.609	132.69
269.841	130.69
270.073	143.69
270.306	151.69
270.538	144.69
270.77	147.69
271.002	130.69
271.234	152.69
271.466	143.69
271.698	145.69
271.93	149.69
272.162	147.69
272.394	156.69
272.626	145.69
272.858	141.69
273.09	144.69
273.322	151.69
273.553	148.69
273.785	146.69
274.017	136.69
274.249	155.69
274.481	142.69
274.713	158.69
274.945	165.69
275.176	173.69
275.408	181.69
275.64	169.69
275.872	179.69
276.104	171.69
276.335	193.69
276.567	185.69
276.799	206.69
277.031	231.69
277.262	240.69
277.494	203.69
277.726	209.69
277.957	181.69
278.189	173.69
278.421	178.69
278.652	173.69
278.884	166.69
279.115	207.69
279.347	200.69
279.579	211.69
279.81	229.69
280.042	257.69
280.273	278.69
280.505	263.69
280.736	219.69
280.968	190.69
281.199	181.69
281.431	197.69
281.662	189.69
281.894	170.69
282.125	159.69
282.356	166.69
282.588	153.69
282.819	160.69
283.051	165.69
283.282	175.69
283.513	175.69
283.745	156.69
283.976	162.69
284.207	162.69
284.439	166.69
284.67	163.69
284.901	167.69
285.132	155.69
285.364	173.69
285.595	184.69
285.826	181.69
286.057	178.69
286.288	157.69
286.52	160.69
286.751	145.69
286.982	172.69
287.213	166.69
287.444	161.69
287.675	161.69
287.906	150.69
288.138	161.69
288.369	151.69
288.6	173.69
288.831	155.69
289.062	146.69
289.293	154.69
289.524	160.69
289.755	162.69
289.986	155.69
290.217	158.69
290.448	158.69
290.679	158.69
290.91	152.69
291.141	167.69
291.371	152.69
291.602	149.69
291.833	150.69
292.064	150.69
292.295	140.69
292.526	147.69
292.757	134.69
292.987	145.69
293.218	155.69
293.449	162.69
293.68	158.69
293.91	163.69
294.141	163.69
294.372	155.69
294.603	151.69
294.833	144.69
295.064	149.69
295.295	160.69
295.525	162.69
295.756	161.69
295.987	161.69
296.217	152.69
296.448	159.69
296.679	154.69
296.909	167.69
297.14	166.69
297.37	164.69
297.601	163.69
297.831	158.69
298.062	163.69
298.292	154.69
298.523	166.69
298.753	170.69
298.984	162.69
299.214	162.69
299.445	173.69
299.675	158.69
299.905	154.69
300.136	177.69
300.366	165.69
300.597	166.69
300.827	171.69
301.057	161.69
301.288	181.69
301.518	172.69
301.748	173.69
301.979	196.69
302.209	169.69
302.439	145.69
302.669	147.69
302.9	180.69
303.13	162.69
303.36	185.69
303.59	200.69
303.82	211.69
304.051	195.69
304.281	190.69
304.511	161.69
304.741	181.69
304.971	163.69
305.201	171.69
305.431	181.69
305.661	175.69
305.891	174.69
306.121	182.69
306.352	178.69
306.582	173.69
306.812	180.69
307.042	199.69
307.272	229.69
307.502	249.69
307.731	210.69
307.961	181.69
308.191	187.69
308.421	177.69
308.651	169.69
308.881	173.69
309.111	177.69
309.341	162.69
309.571	182.69
309.8	189.69
310.03	180.69
310.26	172.69
310.49	187.69
310.72	191.69
310.949	176.69
311.179	200.69
311.409	173.69
311.639	171.69
311.868	178.69
312.098	187.69
312.328	189.69
312.557	167.69
312.787	185.69
313.017	173.69
313.246	179.69
313.476	186.69
313.706	187.69
313.935	186.69
314.165	163.69
314.394	164.69
314.624	196.69
314.853	182.69
315.083	173.69
315.312	187.69
315.542	187.69
315.771	187.69
316.001	190.69
316.23	193.69
316.46	182.69
316.689	172.69
316.919	169.69
317.148	168.69
317.377	177.69
317.607	186.69
317.836	189.69
318.065	168.69
318.295	183.69
318.524	195.69
318.753	196.69
318.983	190.69
319.212	171.69
319.441	173.69
319.67	181.69
319.9	185.69
320.129	173.69
320.358	187.69
320.587	183.69
320.816	196.69
321.046	183.69
321.275	201.69
321.504	186.69
321.733	194.69
321.962	189.69
322.191	204.69
322.42	193.69
322.649	202.69
322.878	199.69
323.108	208.69
323.337	222.69
323.566	213.69
323.795	216.69
324.024	213.69
324.253	215.69
324.482	221.69
324.71	234.69
324.939	235.69
325.168	211.69
325.397	243.69
325.626	241.69
325.855	264.69
326.084	250.69
326.313	256.69
326.542	251.69
326.77	269.69
326.999	283.69
327.228	282.69
327.457	346.69
327.686	437.69
327.914	573.69
328.143	741.69
328.372	762.69
328.6	563.69
328.829	403.69
329.058	387.69
329.287	415.69
329.515	511.69
329.744	729.69
329.972	996.69
330.201	1383.69
330.43	1398.69
330.658	834.69
330.887	505.69
331.115	403.69
331.344	343.69
331.572	328.69
331.801	322.69
332.03	339.69
332.258	328.69
332.486	343.69
332.715	356.69
332.943	382.69
333.172	413.69
333.4	461.69
333.629	551.69
333.857	721.69
334.085	1104.69
334.314	1571.69
334.542	1931.69
334.771	1566.69
334.999	790.69
335.227	542.69
335.455	405.69
335.684	359.69
335.912	316.69
336.14	313.69
336.369	306.69
336.597	279.69
336.825	267.69
337.053	272.69
337.281	256.69
337.51	253.69
337.738	246.69
337.966	237.69
338.194	216.69
338.422	233.69
338.65	222.69
338.878	222.69
339.106	217.69
339.334	209.69
339.562	206.69
339.79	214.69
340.018	217.69
340.246	214.69
340.474	201.69
340.702	215.69
340.93	217.69
341.158	201.69
341.386	211.69
341.614	194.69
341.842	214.69
342.07	205.69
342.298	206.69
342.526	217.69
342.754	223.69
342.981	185.69
343.209	199.69
343.437	217.69
343.665	206.69
343.893	210.69
344.12	220.69
344.348	216.69
344.576	198.69
344.804	182.69
345.031	189.69
345.259	197.69
345.487	199.69
345.714	194.69
345.942	187.69
346.17	187.69
346.397	178.69
346.625	195.69
346.853	197.69
347.08	190.69
347.308	187.69
347.535	190.69
347.763	194.69
347.99	187.69
348.218	194.69
348.445	190.69
348.673	195.69
348.9	190.69
349.128	179.69
349.355	195.69
349.583	189.69
349.81	185.69
350.037	184.69
350.265	199.69
350.492	193.69
350.72	190.69
350.947	188.69
351.174	182.69
351.402	188.69
351.629	206.69
351.856	173.69
352.083	179.69
352.311	194.69
352.538	192.69
352.765	185.69
352.992	178.69
353.22	188.69
353.447	187.69
353.674	198.69
353.901	183.69
354.128	176.69
354.355	193.69
354.583	197.69
354.81	194.69
355.037	194.69
355.264	185.69
355.491	182.69
355.718	189.69
355.945	196.69
356.172	193.69
356.399	192.69
356.626	175.69
356.853	183.69
357.08	177.69
357.307	186.69
357.534	172.69
357.761	177.69
357.988	181.69
358.215	203.69
358.441	199.69
358.668	164.69
358.895	169.69
359.122	194.69
359.349	186.69
359.576	170.69
359.802	176.69
360.029	163.69
360.256	173.69
360.483	190.69
360.709	157.69
360.936	190.69
361.163	203.69
361.39	187.69
361.616	173.69
361.843	182.69
362.07	203.69
362.296	177.69
362.523	181.69
362.749	189.69
362.976	173.69
363.203	206.69
363.429	184.69
363.656	174.69
363.882	185.69
364.109	183.69
364.335	183.69
364.562	182.69
364.788	194.69
365.015	169.69
365.241	193.69
365.468	185.69
365.694	169.69
365.92	187.69
366.147	188.69
366.373	185.69
366.599	183.69
366.826	193.69
367.052	189.69
367.278	194.69
367.505	183.69
367.731	177.69
367.957	179.69
368.184	177.69
368.41	187.69
368.636	198.69
368.862	194.69
369.089	192.69
369.315	189.69
369.541	193.69
369.767	204.69
369.993	193.69
370.219	176.69
370.445	173.69
370.672	182.69
370.898	196.69
371.124	195.69
371.35	195.69
371.576	200.69
371.802	203.69
372.028	192.69
372.254	174.69
372.48	189.69
372.706	189.69
372.932	206.69
373.158	193.69
373.384	194.69
373.61	179.69
373.835	195.69
374.061	198.69
374.287	184.69
374.513	189.69
374.739	192.69
374.965	202.69
375.191	196.69
375.416	196.69
375.642	203.69
375.868	195.69
376.094	197.69
376.319	185.69
376.545	189.69
376.771	198.69
376.997	198.69
377.222	174.69
377.448	193.69
377.674	172.69
377.899	177.69
378.125	200.69
378.35	228.69
378.576	199.69
378.802	187.69
379.027	175.69
379.253	176.69
379.478	182.69
379.704	201.69
379.929	207.69
380.155	181.69
380.38	182.69
380.606	182.69
380.831	194.69
381.057	190.69
381.282	178.69
381.507	205.69
381.733	195.69
381.958	194.69
382.184	196.69
382.409	190.69
382.634	198.69
382.86	186.69
383.085	199.69
383.31	197.69
383.535	202.69
383.761	203.69
383.986	189.69
384.211	199.69
384.436	216.69
384.662	204.69
384.887	195.69
385.112	201.69
385.337	214.69
385.562	210.69
385.787	201.69
386.013	202.69
386.238	206.69
386.463	206.69
386.688	213.69
386.913	209.69
387.138	202.69
387.363	217.69
387.588	190.69
387.813	207.69
388.038	220.69
388.263	201.69
388.488	205.69
388.713	201.69
388.938	185.69
389.163	209.69
389.387	208.69
389.612	208.69
389.837	220.69
390.062	217.69
390.287	197.69
390.512	205.69
390.736	196.69
390.961	230.69
391.186	204.69
391.411	217.69
391.636	220.69
391.86	216.69
392.085	213.69
392.31	202.69
392.534	210.69
392.759	197.69
392.984	210.69
393.208	209.69
393.433	216.69
393.658	224.69
393.882	219.69
394.107	221.69
394.331	213.69
394.556	226.69
394.78	209.69
395.005	205.69
395.229	230.69
395.454	226.69
395.678	222.69
395.903	211.69
396.127	216.69
396.352	198.69
396.576	214.69
396.801	222.69
397.025	223.69
397.249	241.69
397.474	217.69
397.698	233.69
397.922	215.69
398.147	213.69
398.371	232.69
398.595	249.69
398.82	235.69
399.044	247.69
399.268	266.69
399.492	277.69
399.717	276.69
399.941	268.69
400.165	263.69
400.389	264.69
400.613	265.69
400.837	254.69
401.062	258.69
401.286	232.69
401.51	234.69
401.734	250.69
401.958	250.69
402.182	230.69
402.406	241.69
402.63	257.69
402.854	234.69
403.078	240.69
403.302	249.69
403.526	255.69
403.75	256.69
403.974	248.69
404.198	267.69
404.422	271.69
404.645	278.69
404.869	278.69
405.093	305.69
405.317	336.69
405.541	310.69
405.765	294.69
405.988	286.69
406.212	281.69
406.436	277.69
406.66	266.69
406.883	267.69
407.107	269.69
407.331	274.69
407.555	262.69
407.778	278.69
408.002	267.69
408.226	264.69
408.449	272.69
408.673	267.69
408.896	249.69
409.12	250.69
409.344	231.69
409.567	247.69
409.791	242.69
410.014	253.69
410.238	265.69
410.461	256.69
410.685	245.69
410.908	250.69
411.132	265.69
411.355	241.69
411.578	269.69
411.802	259.69
412.025	287.69
412.249	286.69
412.472	313.69
412.695	355.69
412.919	327.69
413.142	297.69
413.365	295.69
413.589	293.69
413.812	258.69
414.035	264.69
414.258	275.69
414.482	265.69
414.705	256.69
414.928	275.69
415.151	265.69
415.374	249.69
415.597	257.69
415.821	254.69
416.044	249.69
416.267	247.69
416.49	231.69
416.713	248.69
416.936	250.69
417.159	275.69
417.382	269.69
417.605	267.69
417.828	281.69
418.051	250.69
418.274	236.69
418.497	257.69
418.72	241.69
418.943	250.69
419.166	267.69
419.389	274.69
419.611	277.69
419.834	284.69
420.057	294.69
420.28	319.69
420.503	296.69
420.726	305.69
420.948	293.69
421.171	267.69
421.394	264.69
421.617	262.69
421.839	256.69
422.062	247.69
422.285	253.69
422.507	250.69
422.73	234.69
422.953	253.69
423.175	259.69
423.398	241.69
423.621	264.69
423.843	246.69
424.066	242.69
424.288	238.69
424.511	241.69
424.733	250.69
424.956	243.69
425.178	244.69
425.401	242.69
425.623	249.69
425.846	235.69
426.068	256.69
426.291	251.69
426.513	254.69
426.735	239.69
426.958	245.69
427.18	237.69
427.402	264.69
427.625	302.69
427.847	337.69
428.069	353.69
428.292	300.69
428.514	268.69
428.736	266.69
428.958	269.69
429.181	231.69
429.403	254.69
429.625	239.69
429.847	230.69
430.069	231.69
430.292	237.69
430.514	226.69
430.736	229.69
430.958	233.69
431.18	221.69
431.402	224.69
431.624	220.69
431.846	222.69
432.068	221.69
432.29	207.69
432.512	233.69
432.734	227.69
432.956	231.69
433.178	220.69
433.4	221.69
433.622	224.69
433.844	243.69
434.066	230.69
434.287	232.69
434.509	247.69
434.731	214.69
434.953	237.69
435.175	220.69
435.397	235.69
435.618	232.69
435.84	222.69
436.062	247.69
436.284	216.69
436.505	235.69
436.727	223.69
436.949	225.69
437.17	218.69
437.392	208.69
437.614	225.69
437.835	210.69
438.057	213.69
438.278	214.69
438.5	213.69
438.721	223.69
438.943	219.69
439.165	221.69
439.386	232.69
439.608	243.69
439.829	231.69
440.05	231.69
440.272	243.69
440.493	231.69
440.715	213.69
440.936	215.69
441.158	234.69
441.379	232.69
441.6	240.69
441.822	235.69
442.043	215.69
442.264	231.69
442.486	234.69
442.707	236.69
442.928	223.69
443.149	237.69
443.371	229.69
443.592	237.69
443.813	239.69
444.034	217.69
444.255	238.69
444.476	241.69
444.698	248.69
444.919	254.69
445.14	322.69
445.361	279.69
445.582	239.69
445.803	242.69
446.024	239.69
446.245	234.69
446.466	242.69
446.687	216.69
446.908	231.69
447.129	214.69
447.35	205.69
447.571	231.69
447.792	234.69
448.013	224.69
448.234	226.69
448.455	216.69
448.675	206.69
448.896	214.69
449.117	209.69
449.338	213.69
449.559	199.69
449.779	223.69
450	205.69
450.221	222.69
450.442	233.69
450.662	215.69
450.883	221.69
451.104	208.69
451.324	207.69
451.545	195.69
451.766	207.69
451.986	210.69
452.207	210.69
452.428	214.69
452.648	218.69
452.869	223.69
453.089	202.69
453.31	202.69
453.53	220.69
453.751	213.69
453.971	198.69
454.192	210.69
454.412	209.69
454.633	205.69
454.853	219.69
455.073	199.69
455.294	207.69
455.514	192.69
455.734	206.69
455.955	213.69
456.175	201.69
456.395	200.69
456.616	199.69
456.836	214.69
457.056	207.69
457.276	202.69
457.497	197.69
457.717	219.69
457.937	213.69
458.157	204.69
458.377	218.69
458.598	229.69
458.818	217.69
459.038	222.69
459.258	203.69
459.478	225.69
459.698	211.69
459.918	230.69
460.138	212.69
460.358	239.69
460.578	230.69
460.798	240.69
461.018	239.69
461.238	239.69
461.458	231.69
461.678	239.69
461.898	236.69
462.118	257.69
462.338	261.69
462.558	251.69
462.777	257.69
462.997	278.69
463.217	268.69
463.437	295.69
463.657	261.69
463.876	272.69
464.096	272.69
464.316	249.69
464.536	253.69
464.755	257.69
464.975	249.69
465.195	246.69
465.414	258.69
465.634	235.69
465.854	233.69
466.073	226.69
466.293	243.69
466.512	229.69
466.732	225.69
466.951	255.69
467.171	249.69
467.391	254.69
467.61	284.69
467.829	378.69
468.049	697.69
468.268	853.69
468.488	521.69
468.707	345.69
468.927	309.69
469.146	275.69
469.365	289.69
469.585	282.69
469.804	267.69
470.023	261.69
470.243	275.69
470.462	262.69
470.681	274.69
470.901	272.69
471.12	274.69
471.339	299.69
471.558	309.69
471.777	376.69
471.997	540.69
472.216	1173.69
472.435	1745.69
472.654	990.69
472.873	584.69
473.092	425.69
473.311	412.69
473.53	335.69
473.749	320.69
473.968	323.69
474.187	290.69
474.406	280.69
474.625	288.69
474.844	283.69
475.063	258.69
475.282	269.69
475.501	266.69
475.72	254.69
475.939	267.69
476.158	269.69
476.377	268.69
476.596	262.69
476.814	262.69
477.033	260.69
477.252	269.69
477.471	278.69
477.69	277.69
477.908	270.69
478.127	298.69
478.346	277.69
478.564	263.69
478.783	285.69
479.002	298.69
479.22	305.69
479.439	307.69
479.658	300.69
479.876	330.69
480.095	361.69
480.313	394.69
480.532	447.69
480.751	646.69
480.969	1263.69
481.188	2846.69
481.406	2282.69
481.624	1105.69
481.843	703.69
482.061	531.69
482.28	487.69
482.498	442.69
482.717	396.69
482.935	403.69
483.153	365.69
483.372	344.69
483.59	343.69
483.808	333.69
484.027	316.69
484.245	318.69
484.463	329.69
484.681	333.69
484.9	319.69
485.118	311.69
485.336	294.69
485.554	312.69
485.772	298.69
485.99	297.69
486.209	301.69
486.427	296.69
486.645	307.69
486.863	284.69
487.081	288.69
487.299	294.69
487.517	315.69
487.735	301.69
487.953	323.69
488.171	299.69
488.389	309.69
488.607	315.69
488.825	314.69
489.043	311.69
489.261	318.69
489.479	325.69
489.696	321.69
489.914	325.69
490.132	328.69
490.35	353.69
490.568	370.69
490.786	363.69
491.003	380.69
491.221	437.69
491.439	460.69
491.657	487.69
491.874	469.69
492.092	492.69
492.31	488.69
492.527	549.69
492.745	575.69
492.963	538.69
493.18	507.69
493.398	455.69
493.615	466.69
493.833	425.69
494.05	435.69
494.268	413.69
494.485	421.69
494.703	392.69
494.92	379.69
495.138	368.69
495.355	375.69
495.573	372.69
495.79	365.69
496.008	383.69
496.225	358.69
496.442	349.69
496.66	351.69
496.877	347.69
497.094	346.69
497.312	358.69
497.529	340.69
497.746	344.69
497.963	321.69
498.181	353.69
498.398	346.69
498.615	378.69
498.832	373.69
499.049	352.69
499.267	384.69
499.484	382.69
499.701	392.69
499.918	432.69
500.135	448.69
500.352	478.69
500.569	503.69
500.786	517.69
501.003	468.69
501.22	464.69
501.437	403.69
501.654	384.69
501.871	363.69
502.088	368.69
502.305	343.69
502.522	314.69
502.739	332.69
502.956	341.69
503.172	315.69
503.389	325.69
