Data from StdC_HRD10591_073.txt Node
Date: Fri May 16 15:29:17 EDT 2025
User: Yrep
Spectrometer: HR+D1059
Trigger mode: 1
Integration Time (sec): 1.000000E-1
Scans to average: 1
Electric dark correction enabled: true
Nonlinearity correction enabled: false
Boxcar width: 0
XAxis mode: Wavelengths
Number of Pixels in Spectrum: 2048
>>>>>Begin Spectral Data<<<<<
223.165	-15.56
223.4	-15.56
223.635	-15.56
223.869	-13.56
224.104	-18.56
224.338	-13.56
224.573	-21.56
224.808	-6.56
225.042	-7.56
225.277	-5.56
225.511	7.44
225.746	13.44
225.98	13.44
226.215	11.44
226.449	24.44
226.683	1.44
226.918	12.44
227.152	18.44
227.387	23.44
227.621	39.44
227.856	45.44
228.09	53.44
228.324	49.44
228.559	63.44
228.793	71.44
229.027	53.44
229.262	65.44
229.496	70.44
229.73	67.44
229.964	92.44
230.199	87.44
230.433	77.44
230.667	90.44
230.901	86.44
231.136	88.44
231.37	85.44
231.604	80.44
231.838	89.44
232.072	90.44
232.306	87.44
232.541	93.44
232.775	89.44
233.009	94.44
233.243	88.44
233.477	91.44
233.711	96.44
233.945	89.44
234.179	89.44
234.413	80.44
234.647	77.44
234.881	97.44
235.115	92.44
235.349	85.44
235.583	91.44
235.817	98.44
236.051	85.44
236.285	101.44
236.519	108.44
236.753	92.44
236.987	97.44
237.221	93.44
237.455	84.44
237.689	77.44
237.922	79.44
238.156	90.44
238.39	87.44
238.624	101.44
238.858	94.44
239.091	82.44
239.325	81.44
239.559	95.44
239.793	95.44
240.027	98.44
240.26	99.44
240.494	101.44
240.728	93.44
240.961	91.44
241.195	87.44
241.429	85.44
241.662	95.44
241.896	98.44
242.13	88.44
242.363	95.44
242.597	105.44
242.83	109.44
243.064	107.44
243.298	106.44
243.531	98.44
243.765	101.44
243.998	98.44
244.232	96.44
244.465	116.44
244.699	110.44
244.932	104.44
245.166	99.44
245.399	113.44
245.633	93.44
245.866	95.44
246.099	110.44
246.333	125.44
246.566	104.44
246.8	94.44
247.033	93.44
247.266	95.44
247.5	112.44
247.733	105.44
247.966	97.44
248.2	103.44
248.433	105.44
248.666	124.44
248.899	109.44
249.133	117.44
249.366	117.44
249.599	115.44
249.832	124.44
250.066	155.44
250.299	186.44
250.532	189.44
250.765	165.44
250.998	149.44
251.231	130.44
251.465	138.44
251.698	139.44
251.931	113.44
252.164	107.44
252.397	133.44
252.63	127.44
252.863	125.44
253.096	132.44
253.329	133.44
253.562	112.44
253.795	130.44
254.028	119.44
254.261	115.44
254.494	127.44
254.727	147.44
254.96	120.44
255.193	135.44
255.426	161.44
255.659	186.44
255.892	252.44
256.124	312.44
256.357	264.44
256.59	215.44
256.823	171.44
257.056	143.44
257.289	153.44
257.521	147.44
257.754	142.44
257.987	150.44
258.22	134.44
258.452	139.44
258.685	139.44
258.918	127.44
259.151	134.44
259.383	140.44
259.616	128.44
259.849	131.44
260.081	138.44
260.314	138.44
260.547	129.44
260.779	139.44
261.012	131.44
261.244	135.44
261.477	131.44
261.71	126.44
261.942	121.44
262.175	131.44
262.407	135.44
262.64	135.44
262.872	136.44
263.105	132.44
263.337	130.44
263.57	127.44
263.802	132.44
264.035	121.44
264.267	122.44
264.499	126.44
264.732	124.44
264.964	120.44
265.197	134.44
265.429	112.44
265.661	119.44
265.894	121.44
266.126	140.44
266.358	141.44
266.591	143.44
266.823	137.44
267.055	137.44
267.287	138.44
267.52	131.44
267.752	131.44
267.984	134.44
268.216	135.44
268.448	136.44
268.681	126.44
268.913	137.44
269.145	120.44
269.377	131.44
269.609	136.44
269.841	124.44
270.073	147.44
270.306	133.44
270.538	139.44
270.77	145.44
271.002	132.44
271.234	146.44
271.466	142.44
271.698	146.44
271.93	129.44
272.162	144.44
272.394	137.44
272.626	140.44
272.858	149.44
273.09	132.44
273.322	131.44
273.553	158.44
273.785	147.44
274.017	150.44
274.249	149.44
274.481	145.44
274.713	148.44
274.945	155.44
275.176	157.44
275.408	169.44
275.64	181.44
275.872	176.44
276.104	154.44
276.335	182.44
276.567	185.44
276.799	203.44
277.031	221.44
277.262	241.44
277.494	211.44
277.726	192.44
277.957	178.44
278.189	179.44
278.421	161.44
278.652	188.44
278.884	183.44
279.115	189.44
279.347	185.44
279.579	190.44
279.81	223.44
280.042	263.44
280.273	250.44
280.505	261.44
280.736	198.44
280.968	187.44
281.199	169.44
281.431	169.44
281.662	166.44
281.894	166.44
282.125	174.44
282.356	165.44
282.588	155.44
282.819	151.44
283.051	161.44
283.282	158.44
283.513	163.44
283.745	173.44
283.976	173.44
284.207	161.44
284.439	160.44
284.67	155.44
284.901	166.44
285.132	152.44
285.364	165.44
285.595	171.44
285.826	153.44
286.057	144.44
286.288	166.44
286.52	160.44
286.751	165.44
286.982	167.44
287.213	147.44
287.444	141.44
287.675	158.44
287.906	169.44
288.138	167.44
288.369	160.44
288.6	149.44
288.831	157.44
289.062	160.44
289.293	151.44
289.524	178.44
289.755	165.44
289.986	163.44
290.217	156.44
290.448	148.44
290.679	171.44
290.91	151.44
291.141	168.44
291.371	157.44
291.602	139.44
291.833	151.44
292.064	149.44
292.295	154.44
292.526	162.44
292.757	145.44
292.987	156.44
293.218	152.44
293.449	147.44
293.68	159.44
293.91	151.44
294.141	142.44
294.372	151.44
294.603	177.44
294.833	173.44
295.064	163.44
295.295	169.44
295.525	157.44
295.756	155.44
295.987	166.44
296.217	118.44
296.448	151.44
296.679	166.44
296.909	150.44
297.14	163.44
297.37	146.44
297.601	162.44
297.831	141.44
298.062	154.44
298.292	161.44
298.523	145.44
298.753	155.44
298.984	170.44
299.214	154.44
299.445	160.44
299.675	174.44
299.905	145.44
300.136	155.44
300.366	153.44
300.597	165.44
300.827	171.44
301.057	149.44
301.288	162.44
301.518	170.44
301.748	174.44
301.979	200.44
302.209	193.44
302.439	170.44
302.669	177.44
302.9	159.44
303.13	181.44
303.36	178.44
303.59	192.44
303.82	189.44
304.051	198.44
304.281	182.44
304.511	172.44
304.741	164.44
304.971	166.44
305.201	154.44
305.431	181.44
305.661	171.44
305.891	171.44
306.121	184.44
306.352	167.44
306.582	185.44
306.812	184.44
307.042	189.44
307.272	227.44
307.502	230.44
307.731	217.44
307.961	195.44
308.191	168.44
308.421	183.44
308.651	191.44
308.881	182.44
309.111	169.44
309.341	159.44
309.571	161.44
309.8	172.44
310.03	176.44
310.26	175.44
310.49	192.44
310.72	177.44
310.949	166.44
311.179	169.44
311.409	155.44
311.639	173.44
311.868	165.44
312.098	167.44
312.328	190.44
312.557	169.44
312.787	162.44
313.017	185.44
313.246	182.44
313.476	171.44
313.706	167.44
313.935	190.44
314.165	181.44
314.394	183.44
314.624	185.44
314.853	169.44
315.083	169.44
315.312	171.44
315.542	178.44
315.771	161.44
316.001	174.44
316.23	181.44
316.46	185.44
316.689	184.44
316.919	195.44
317.148	187.44
317.377	188.44
317.607	170.44
317.836	184.44
318.065	182.44
318.295	170.44
318.524	188.44
318.753	190.44
318.983	172.44
319.212	183.44
319.441	179.44
319.67	177.44
319.9	152.44
320.129	192.44
320.358	192.44
320.587	193.44
320.816	196.44
321.046	206.44
321.275	186.44
321.504	210.44
321.733	201.44
321.962	201.44
322.191	205.44
322.42	185.44
322.649	198.44
322.878	195.44
323.108	200.44
323.337	206.44
323.566	213.44
323.795	213.44
324.024	213.44
324.253	243.44
324.482	199.44
324.71	220.44
324.939	218.44
325.168	214.44
325.397	242.44
325.626	232.44
325.855	253.44
326.084	257.44
326.313	258.44
326.542	261.44
326.77	260.44
326.999	264.44
327.228	284.44
327.457	346.44
327.686	414.44
327.914	530.44
328.143	700.44
328.372	739.44
328.6	513.44
328.829	382.44
329.058	381.44
329.287	430.44
329.515	495.44
329.744	699.44
329.972	971.44
330.201	1292.44
330.43	1315.44
330.658	782.44
330.887	495.44
331.115	385.44
331.344	350.44
331.572	323.44
331.801	320.44
332.03	331.44
332.258	314.44
332.486	319.44
332.715	348.44
332.943	365.44
333.172	404.44
333.4	457.44
333.629	535.44
333.857	697.44
334.085	1029.44
334.314	1515.44
334.542	1834.44
334.771	1490.44
334.999	769.44
335.227	490.44
335.455	397.44
335.684	352.44
335.912	333.44
336.14	300.44
336.369	286.44
336.597	261.44
336.825	264.44
337.053	252.44
337.281	240.44
337.51	240.44
337.738	231.44
337.966	231.44
338.194	222.44
338.422	224.44
338.65	215.44
338.878	219.44
339.106	216.44
339.334	223.44
339.562	209.44
339.79	210.44
340.018	206.44
340.246	194.44
340.474	209.44
340.702	203.44
340.93	208.44
341.158	195.44
341.386	185.44
341.614	203.44
341.842	183.44
342.07	185.44
342.298	198.44
342.526	195.44
342.754	191.44
342.981	199.44
343.209	195.44
343.437	217.44
343.665	205.44
343.893	201.44
344.12	208.44
344.348	208.44
344.576	195.44
344.804	205.44
345.031	211.44
345.259	187.44
345.487	181.44
345.714	187.44
345.942	180.44
346.17	196.44
346.397	212.44
346.625	185.44
346.853	181.44
347.08	184.44
347.308	184.44
347.535	195.44
347.763	199.44
347.99	179.44
348.218	185.44
348.445	194.44
348.673	188.44
348.9	190.44
349.128	184.44
349.355	179.44
349.583	180.44
349.81	194.44
350.037	179.44
350.265	185.44
350.492	193.44
350.72	184.44
350.947	183.44
351.174	179.44
351.402	162.44
351.629	190.44
351.856	192.44
352.083	184.44
352.311	172.44
352.538	193.44
352.765	202.44
352.992	175.44
353.22	201.44
353.447	182.44
353.674	171.44
353.901	187.44
354.128	183.44
354.355	194.44
354.583	181.44
354.81	166.44
355.037	178.44
355.264	177.44
355.491	187.44
355.718	186.44
355.945	195.44
356.172	191.44
356.399	194.44
356.626	173.44
356.853	174.44
357.08	186.44
357.307	192.44
357.534	173.44
357.761	183.44
357.988	172.44
358.215	183.44
358.441	185.44
358.668	180.44
358.895	194.44
359.122	159.44
359.349	200.44
359.576	185.44
359.802	185.44
360.029	183.44
360.256	176.44
360.483	191.44
360.709	179.44
360.936	168.44
361.163	176.44
361.39	170.44
361.616	178.44
361.843	190.44
362.07	172.44
362.296	167.44
362.523	189.44
362.749	194.44
362.976	167.44
363.203	158.44
363.429	179.44
363.656	190.44
363.882	166.44
364.109	181.44
364.335	187.44
364.562	173.44
364.788	160.44
365.015	177.44
365.241	185.44
365.468	192.44
365.694	185.44
365.92	176.44
366.147	185.44
366.373	181.44
366.599	166.44
366.826	181.44
367.052	183.44
367.278	192.44
367.505	189.44
367.731	179.44
367.957	178.44
368.184	188.44
368.41	178.44
368.636	197.44
368.862	193.44
369.089	178.44
369.315	175.44
369.541	185.44
369.767	179.44
369.993	174.44
370.219	176.44
370.445	188.44
370.672	174.44
370.898	181.44
371.124	166.44
371.35	188.44
371.576	183.44
371.802	186.44
372.028	190.44
372.254	192.44
372.48	190.44
372.706	182.44
372.932	193.44
373.158	187.44
373.384	195.44
373.61	195.44
373.835	204.44
374.061	191.44
374.287	201.44
374.513	186.44
374.739	183.44
374.965	203.44
375.191	190.44
375.416	185.44
375.642	184.44
375.868	203.44
376.094	190.44
376.319	184.44
376.545	178.44
376.771	191.44
376.997	188.44
377.222	187.44
377.448	189.44
377.674	179.44
377.899	181.44
378.125	175.44
378.35	178.44
378.576	186.44
378.802	187.44
379.027	201.44
379.253	191.44
379.478	189.44
379.704	177.44
379.929	183.44
380.155	178.44
380.38	173.44
380.606	189.44
380.831	203.44
381.057	193.44
381.282	190.44
381.507	184.44
381.733	201.44
381.958	204.44
382.184	191.44
382.409	194.44
382.634	197.44
382.86	199.44
383.085	210.44
383.31	221.44
383.535	203.44
383.761	198.44
383.986	198.44
384.211	193.44
384.436	221.44
384.662	203.44
384.887	213.44
385.112	207.44
385.337	199.44
385.562	205.44
385.787	214.44
386.013	208.44
386.238	193.44
386.463	207.44
386.688	226.44
386.913	190.44
387.138	202.44
387.363	213.44
387.588	219.44
387.813	202.44
388.038	204.44
388.263	195.44
388.488	213.44
388.713	201.44
388.938	205.44
389.163	208.44
389.387	200.44
389.612	206.44
389.837	203.44
390.062	188.44
390.287	192.44
390.512	210.44
390.736	217.44
390.961	211.44
391.186	213.44
391.411	202.44
391.636	199.44
391.86	217.44
392.085	217.44
392.31	208.44
392.534	216.44
392.759	231.44
392.984	222.44
393.208	215.44
393.433	203.44
393.658	218.44
393.882	204.44
394.107	207.44
394.331	213.44
394.556	204.44
394.78	202.44
395.005	215.44
395.229	208.44
395.454	213.44
395.678	227.44
395.903	222.44
396.127	224.44
396.352	223.44
396.576	223.44
396.801	212.44
397.025	213.44
397.249	217.44
397.474	213.44
397.698	230.44
397.922	229.44
398.147	229.44
398.371	218.44
398.595	226.44
398.82	250.44
399.044	254.44
399.268	259.44
399.492	263.44
399.717	283.44
399.941	260.44
400.165	270.44
400.389	262.44
400.613	254.44
400.837	241.44
401.062	250.44
401.286	225.44
401.51	249.44
401.734	222.44
401.958	234.44
402.182	247.44
402.406	234.44
402.63	233.44
402.854	235.44
403.078	255.44
403.302	247.44
403.526	234.44
403.75	262.44
403.974	269.44
404.198	253.44
404.422	258.44
404.645	274.44
404.869	294.44
405.093	303.44
405.317	314.44
405.541	317.44
405.765	276.44
405.988	264.44
406.212	288.44
406.436	254.44
406.66	266.44
406.883	258.44
407.107	251.44
407.331	252.44
407.555	283.44
407.778	271.44
408.002	256.44
408.226	270.44
408.449	254.44
408.673	253.44
408.896	242.44
409.12	246.44
409.344	246.44
409.567	235.44
409.791	250.44
410.014	253.44
410.238	247.44
410.461	263.44
410.685	260.44
410.908	249.44
411.132	267.44
411.355	252.44
411.578	239.44
411.802	245.44
412.025	251.44
412.249	280.44
412.472	302.44
412.695	345.44
412.919	306.44
413.142	306.44
413.365	286.44
413.589	264.44
413.812	260.44
414.035	273.44
414.258	274.44
414.482	260.44
414.705	261.44
414.928	247.44
415.151	254.44
415.374	253.44
415.597	234.44
415.821	231.44
416.044	249.44
416.267	239.44
416.49	257.44
416.713	252.44
416.936	254.44
417.159	243.44
417.382	259.44
417.605	249.44
417.828	269.44
418.051	253.44
418.274	247.44
418.497	246.44
418.72	248.44
418.943	245.44
419.166	241.44
419.389	262.44
419.611	295.44
419.834	278.44
420.057	287.44
420.28	299.44
420.503	286.44
420.726	279.44
420.948	273.44
421.171	270.44
421.394	251.44
421.617	239.44
421.839	250.44
422.062	265.44
422.285	243.44
422.507	255.44
422.73	262.44
422.953	261.44
423.175	239.44
423.398	249.44
423.621	243.44
423.843	257.44
424.066	217.44
424.288	240.44
424.511	236.44
424.733	217.44
424.956	227.44
425.178	235.44
425.401	238.44
425.623	249.44
425.846	230.44
426.068	242.44
426.291	253.44
426.513	233.44
426.735	238.44
426.958	239.44
427.18	269.44
427.402	267.44
427.625	313.44
427.847	323.44
428.069	323.44
428.292	299.44
428.514	271.44
428.736	245.44
428.958	235.44
429.181	240.44
429.403	240.44
429.625	232.44
429.847	227.44
430.069	237.44
430.292	216.44
430.514	241.44
430.736	218.44
430.958	235.44
431.18	213.44
431.402	220.44
431.624	221.44
431.846	205.44
432.068	217.44
432.29	218.44
432.512	211.44
432.734	226.44
432.956	225.44
433.178	225.44
433.4	221.44
433.622	229.44
433.844	221.44
434.066	245.44
434.287	201.44
434.509	232.44
434.731	224.44
434.953	232.44
435.175	210.44
435.397	222.44
435.618	231.44
435.84	233.44
436.062	225.44
436.284	230.44
436.505	217.44
436.727	215.44
436.949	212.44
437.17	227.44
437.392	203.44
437.614	221.44
437.835	222.44
438.057	221.44
438.278	213.44
438.5	206.44
438.721	212.44
438.943	217.44
439.165	218.44
439.386	209.44
439.608	216.44
439.829	222.44
440.05	218.44
440.272	223.44
440.493	234.44
440.715	220.44
440.936	235.44
441.158	222.44
441.379	218.44
441.6	240.44
441.822	226.44
442.043	223.44
442.264	232.44
442.486	233.44
442.707	228.44
442.928	232.44
443.149	220.44
443.371	212.44
443.592	222.44
443.813	257.44
444.034	221.44
444.255	219.44
444.476	254.44
444.698	233.44
444.919	249.44
445.14	320.44
445.361	281.44
445.582	240.44
445.803	236.44
446.024	237.44
446.245	221.44
446.466	223.44
446.687	213.44
446.908	218.44
447.129	216.44
447.35	224.44
447.571	216.44
447.792	216.44
448.013	213.44
448.234	228.44
448.455	215.44
448.675	210.44
448.896	244.44
449.117	213.44
449.338	228.44
449.559	223.44
449.779	210.44
450	202.44
450.221	214.44
450.442	190.44
450.662	207.44
450.883	199.44
451.104	215.44
451.324	203.44
451.545	206.44
451.766	222.44
451.986	195.44
452.207	190.44
452.428	214.44
452.648	216.44
452.869	206.44
453.089	198.44
453.31	200.44
453.53	191.44
453.751	199.44
453.971	208.44
454.192	200.44
454.412	192.44
454.633	206.44
454.853	218.44
455.073	205.44
455.294	207.44
455.514	196.44
455.734	200.44
455.955	195.44
456.175	212.44
456.395	222.44
456.616	197.44
456.836	198.44
457.056	205.44
457.276	200.44
457.497	202.44
457.717	195.44
457.937	206.44
458.157	215.44
458.377	199.44
458.598	202.44
458.818	222.44
459.038	209.44
459.258	203.44
459.478	201.44
459.698	224.44
459.918	220.44
460.138	225.44
460.358	235.44
460.578	239.44
460.798	238.44
461.018	235.44
461.238	236.44
461.458	243.44
461.678	225.44
461.898	248.44
462.118	230.44
462.338	243.44
462.558	253.44
462.777	231.44
462.997	278.44
463.217	278.44
463.437	267.44
463.657	259.44
463.876	264.44
464.096	259.44
464.316	269.44
464.536	267.44
464.755	263.44
464.975	257.44
465.195	234.44
465.414	225.44
465.634	245.44
465.854	227.44
466.073	230.44
466.293	241.44
466.512	239.44
466.732	235.44
466.951	247.44
467.171	257.44
467.391	265.44
467.61	287.44
467.829	387.44
468.049	685.44
468.268	831.44
468.488	474.44
468.707	351.44
468.927	305.44
469.146	272.44
469.365	274.44
469.585	259.44
469.804	246.44
470.023	266.44
470.243	264.44
470.462	271.44
470.681	257.44
470.901	265.44
471.12	296.44
471.339	289.44
471.558	285.44
471.777	364.44
471.997	525.44
472.216	1137.44
472.435	1718.44
472.654	984.44
472.873	573.44
473.092	433.44
473.311	362.44
473.53	330.44
473.749	311.44
473.968	304.44
474.187	308.44
474.406	273.44
474.625	277.44
474.844	280.44
475.063	260.44
475.282	258.44
475.501	250.44
475.72	247.44
475.939	249.44
476.158	257.44
476.377	273.44
476.596	257.44
476.814	241.44
477.033	245.44
477.252	241.44
477.471	275.44
477.69	256.44
477.908	283.44
478.127	263.44
478.346	267.44
478.564	266.44
478.783	290.44
479.002	279.44
479.22	295.44
479.439	317.44
479.658	307.44
479.876	309.44
480.095	343.44
480.313	407.44
480.532	446.44
480.751	615.44
480.969	1195.44
481.188	2761.44
481.406	2164.44
481.624	1044.44
481.843	670.44
482.061	552.44
482.28	480.44
482.498	426.44
482.717	385.44
482.935	383.44
483.153	357.44
483.372	348.44
483.59	339.44
483.808	327.44
484.027	313.44
484.245	290.44
484.463	307.44
484.681	299.44
484.9	297.44
485.118	301.44
485.336	301.44
485.554	282.44
485.772	299.44
485.99	303.44
486.209	298.44
486.427	289.44
486.645	293.44
486.863	310.44
487.081	293.44
487.299	293.44
487.517	301.44
487.735	296.44
487.953	310.44
488.171	299.44
488.389	298.44
488.607	297.44
488.825	298.44
489.043	311.44
489.261	311.44
489.479	313.44
489.696	318.44
489.914	308.44
490.132	344.44
490.35	348.44
490.568	348.44
490.786	362.44
491.003	401.44
491.221	444.44
491.439	481.44
491.657	450.44
491.874	467.44
492.092	470.44
492.31	494.44
492.527	540.44
492.745	535.44
492.963	505.44
493.18	473.44
493.398	469.44
493.615	446.44
493.833	456.44
494.05	406.44
494.268	411.44
494.485	402.44
494.703	386.44
494.92	373.44
495.138	373.44
495.355	358.44
495.573	361.44
495.79	348.44
496.008	351.44
496.225	375.44
496.442	341.44
496.66	336.44
496.877	320.44
497.094	335.44
497.312	336.44
497.529	328.44
497.746	336.44
497.963	350.44
498.181	343.44
498.398	331.44
498.615	351.44
498.832	346.44
499.049	367.44
499.267	368.44
499.484	384.44
499.701	397.44
499.918	430.44
500.135	433.44
500.352	458.44
500.569	493.44
500.786	507.44
501.003	495.44
501.22	455.44
501.437	403.44
501.654	397.44
501.871	359.44
502.088	339.44
502.305	333.44
502.522	330.44
502.739	328.44
502.956	309.44
503.172	301.44
503.389	308.44
