Data from StdC_HRD10591_038.txt Node
Date: Fri May 16 15:28:59 EDT 2025
User: Yrep
Spectrometer: HR+D1059
Trigger mode: 1
Integration Time (sec): 1.000000E-1
Scans to average: 1
Electric dark correction enabled: true
Nonlinearity correction enabled: false
Boxcar width: 0
XAxis mode: Wavelengths
Number of Pixels in Spectrum: 2048
>>>>>Begin Spectral Data<<<<<
223.165	-16.25
223.4	-16.25
223.635	-16.25
223.869	-5.25
224.104	-27.25
224.338	-5.25
224.573	-26.25
224.808	-4.25
225.042	-1.25
225.277	-13.25
225.511	-7.25
225.746	-10.25
225.98	-0.25
226.215	11.75
226.449	23.75
226.683	22.75
226.918	17.75
227.152	40.75
227.387	39.75
227.621	47.75
227.856	47.75
228.09	51.75
228.324	50.75
228.559	59.75
228.793	59.75
229.027	70.75
229.262	85.75
229.496	80.75
229.73	72.75
229.964	90.75
230.199	76.75
230.433	88.75
230.667	93.75
230.901	91.75
231.136	86.75
231.37	82.75
231.604	92.75
231.838	84.75
232.072	94.75
232.306	87.75
232.541	89.75
232.775	92.75
233.009	94.75
233.243	88.75
233.477	105.75
233.711	86.75
233.945	107.75
234.179	105.75
234.413	93.75
234.647	100.75
234.881	107.75
235.115	99.75
235.349	91.75
235.583	91.75
235.817	87.75
236.051	81.75
236.285	89.75
236.519	91.75
236.753	89.75
236.987	91.75
237.221	83.75
237.455	99.75
237.689	95.75
237.922	88.75
238.156	105.75
238.39	90.75
238.624	96.75
238.858	90.75
239.091	106.75
239.325	99.75
239.559	93.75
239.793	101.75
240.027	101.75
240.26	88.75
240.494	96.75
240.728	97.75
240.961	88.75
241.195	94.75
241.429	93.75
241.662	92.75
241.896	97.75
242.13	104.75
242.363	96.75
242.597	117.75
242.83	120.75
243.064	111.75
243.298	113.75
243.531	94.75
243.765	92.75
243.998	95.75
244.232	96.75
244.465	97.75
244.699	99.75
244.932	107.75
245.166	116.75
245.399	105.75
245.633	101.75
245.866	106.75
246.099	111.75
246.333	96.75
246.566	106.75
246.8	92.75
247.033	95.75
247.266	112.75
247.5	109.75
247.733	110.75
247.966	109.75
248.2	110.75
248.433	109.75
248.666	117.75
248.899	121.75
249.133	113.75
249.366	118.75
249.599	126.75
249.832	116.75
250.066	158.75
250.299	161.75
250.532	206.75
250.765	173.75
250.998	161.75
251.231	136.75
251.465	119.75
251.698	121.75
251.931	121.75
252.164	124.75
252.397	134.75
252.63	119.75
252.863	118.75
253.096	129.75
253.329	126.75
253.562	117.75
253.795	117.75
254.028	133.75
254.261	135.75
254.494	127.75
254.727	135.75
254.96	142.75
255.193	144.75
255.426	159.75
255.659	187.75
255.892	263.75
256.124	297.75
256.357	258.75
256.59	211.75
256.823	167.75
257.056	167.75
257.289	154.75
257.521	141.75
257.754	144.75
257.987	127.75
258.22	135.75
258.452	127.75
258.685	137.75
258.918	137.75
259.151	123.75
259.383	132.75
259.616	120.75
259.849	137.75
260.081	113.75
260.314	130.75
260.547	126.75
260.779	143.75
261.012	141.75
261.244	139.75
261.477	148.75
261.71	129.75
261.942	127.75
262.175	129.75
262.407	134.75
262.64	126.75
262.872	129.75
263.105	121.75
263.337	121.75
263.57	127.75
263.802	141.75
264.035	139.75
264.267	138.75
264.499	125.75
264.732	133.75
264.964	124.75
265.197	128.75
265.429	131.75
265.661	126.75
265.894	133.75
266.126	125.75
266.358	137.75
266.591	119.75
266.823	131.75
267.055	128.75
267.287	126.75
267.52	130.75
267.752	129.75
267.984	132.75
268.216	133.75
268.448	140.75
268.681	138.75
268.913	142.75
269.145	127.75
269.377	125.75
269.609	130.75
269.841	140.75
270.073	150.75
270.306	138.75
270.538	137.75
270.77	136.75
271.002	136.75
271.234	135.75
271.466	140.75
271.698	134.75
271.93	153.75
272.162	147.75
272.394	150.75
272.626	146.75
272.858	157.75
273.09	150.75
273.322	155.75
273.553	153.75
273.785	151.75
274.017	160.75
274.249	157.75
274.481	147.75
274.713	150.75
274.945	145.75
275.176	152.75
275.408	171.75
275.64	184.75
275.872	179.75
276.104	173.75
276.335	184.75
276.567	189.75
276.799	214.75
277.031	222.75
277.262	237.75
277.494	240.75
277.726	208.75
277.957	203.75
278.189	188.75
278.421	173.75
278.652	163.75
278.884	179.75
279.115	182.75
279.347	182.75
279.579	193.75
279.81	231.75
280.042	257.75
280.273	281.75
280.505	252.75
280.736	223.75
280.968	186.75
281.199	192.75
281.431	186.75
281.662	197.75
281.894	176.75
282.125	179.75
282.356	166.75
282.588	155.75
282.819	162.75
283.051	139.75
283.282	152.75
283.513	157.75
283.745	161.75
283.976	162.75
284.207	149.75
284.439	167.75
284.67	152.75
284.901	157.75
285.132	168.75
285.364	161.75
285.595	165.75
285.826	166.75
286.057	166.75
286.288	150.75
286.52	142.75
286.751	141.75
286.982	145.75
287.213	146.75
287.444	151.75
287.675	163.75
287.906	192.75
288.138	157.75
288.369	173.75
288.6	166.75
288.831	152.75
289.062	161.75
289.293	159.75
289.524	156.75
289.755	156.75
289.986	152.75
290.217	164.75
290.448	160.75
290.679	137.75
290.91	156.75
291.141	156.75
291.371	144.75
291.602	155.75
291.833	159.75
292.064	169.75
292.295	167.75
292.526	158.75
292.757	146.75
292.987	159.75
293.218	142.75
293.449	152.75
293.68	133.75
293.91	146.75
294.141	152.75
294.372	190.75
294.603	169.75
294.833	151.75
295.064	132.75
295.295	144.75
295.525	153.75
295.756	171.75
295.987	164.75
296.217	165.75
296.448	146.75
296.679	155.75
296.909	154.75
297.14	123.75
297.37	161.75
297.601	153.75
297.831	152.75
298.062	138.75
298.292	160.75
298.523	161.75
298.753	162.75
298.984	145.75
299.214	153.75
299.445	156.75
299.675	149.75
299.905	147.75
300.136	152.75
300.366	161.75
300.597	179.75
300.827	167.75
301.057	157.75
301.288	170.75
301.518	174.75
301.748	178.75
301.979	192.75
302.209	183.75
302.439	163.75
302.669	156.75
302.9	163.75
303.13	170.75
303.36	183.75
303.59	209.75
303.82	206.75
304.051	181.75
304.281	162.75
304.511	174.75
304.741	177.75
304.971	165.75
305.201	168.75
305.431	159.75
305.661	168.75
305.891	159.75
306.121	167.75
306.352	161.75
306.582	168.75
306.812	181.75
307.042	212.75
307.272	215.75
307.502	203.75
307.731	211.75
307.961	193.75
308.191	177.75
308.421	165.75
308.651	161.75
308.881	170.75
309.111	157.75
309.341	150.75
309.571	162.75
309.8	173.75
310.03	187.75
310.26	173.75
310.49	172.75
310.72	174.75
310.949	176.75
311.179	178.75
311.409	177.75
311.639	182.75
311.868	193.75
312.098	185.75
312.328	173.75
312.557	182.75
312.787	175.75
313.017	172.75
313.246	183.75
313.476	169.75
313.706	187.75
313.935	181.75
314.165	161.75
314.394	186.75
314.624	174.75
314.853	169.75
315.083	170.75
315.312	170.75
315.542	171.75
315.771	165.75
316.001	190.75
316.23	190.75
316.46	168.75
316.689	176.75
316.919	180.75
317.148	189.75
317.377	196.75
317.607	179.75
317.836	174.75
318.065	188.75
318.295	172.75
318.524	196.75
318.753	184.75
318.983	169.75
319.212	187.75
319.441	190.75
319.67	203.75
319.9	179.75
320.129	185.75
320.358	192.75
320.587	186.75
320.816	198.75
321.046	185.75
321.275	202.75
321.504	185.75
321.733	195.75
321.962	189.75
322.191	186.75
322.42	187.75
322.649	200.75
322.878	207.75
323.108	200.75
323.337	212.75
323.566	213.75
323.795	214.75
324.024	213.75
324.253	219.75
324.482	216.75
324.71	221.75
324.939	229.75
325.168	231.75
325.397	230.75
325.626	233.75
325.855	230.75
326.084	234.75
326.313	246.75
326.542	248.75
326.77	277.75
326.999	264.75
327.228	289.75
327.457	318.75
327.686	429.75
327.914	545.75
328.143	687.75
328.372	753.75
328.6	538.75
328.829	400.75
329.058	391.75
329.287	402.75
329.515	499.75
329.744	686.75
329.972	968.75
330.201	1359.75
330.43	1376.75
330.658	786.75
330.887	488.75
331.115	399.75
331.344	335.75
331.572	338.75
331.801	317.75
332.03	335.75
332.258	318.75
332.486	345.75
332.715	335.75
332.943	368.75
333.172	393.75
333.4	440.75
333.629	542.75
333.857	712.75
334.085	1062.75
334.314	1532.75
334.542	1893.75
334.771	1503.75
334.999	778.75
335.227	512.75
335.455	394.75
335.684	344.75
335.912	327.75
336.14	301.75
336.369	296.75
336.597	288.75
336.825	262.75
337.053	254.75
337.281	263.75
337.51	231.75
337.738	251.75
337.966	232.75
338.194	222.75
338.422	218.75
338.65	218.75
338.878	231.75
339.106	216.75
339.334	217.75
339.562	203.75
339.79	202.75
340.018	226.75
340.246	207.75
340.474	198.75
340.702	201.75
340.93	211.75
341.158	205.75
341.386	206.75
341.614	191.75
341.842	203.75
342.07	200.75
342.298	199.75
342.526	195.75
342.754	198.75
342.981	193.75
343.209	210.75
343.437	203.75
343.665	209.75
343.893	199.75
344.12	211.75
344.348	201.75
344.576	186.75
344.804	191.75
345.031	193.75
345.259	181.75
345.487	204.75
345.714	193.75
345.942	187.75
346.17	188.75
346.397	191.75
346.625	169.75
346.853	192.75
347.08	182.75
347.308	193.75
347.535	173.75
347.763	187.75
347.99	189.75
348.218	178.75
348.445	191.75
348.673	184.75
348.9	172.75
349.128	194.75
349.355	196.75
349.583	196.75
349.81	190.75
350.037	190.75
350.265	197.75
350.492	197.75
350.72	174.75
350.947	198.75
351.174	193.75
351.402	183.75
351.629	189.75
351.856	199.75
352.083	184.75
352.311	193.75
352.538	175.75
352.765	177.75
352.992	185.75
353.22	190.75
353.447	179.75
353.674	193.75
353.901	196.75
354.128	187.75
354.355	187.75
354.583	177.75
354.81	171.75
355.037	181.75
355.264	198.75
355.491	192.75
355.718	183.75
355.945	195.75
356.172	178.75
356.399	174.75
356.626	176.75
356.853	187.75
357.08	182.75
357.307	187.75
357.534	184.75
357.761	186.75
357.988	191.75
358.215	202.75
358.441	183.75
358.668	191.75
358.895	178.75
359.122	174.75
359.349	181.75
359.576	174.75
359.802	178.75
360.029	170.75
360.256	181.75
360.483	182.75
360.709	171.75
360.936	183.75
361.163	185.75
361.39	171.75
361.616	185.75
361.843	184.75
362.07	174.75
362.296	169.75
362.523	166.75
362.749	182.75
362.976	170.75
363.203	183.75
363.429	189.75
363.656	181.75
363.882	176.75
364.109	175.75
364.335	191.75
364.562	178.75
364.788	172.75
365.015	170.75
365.241	183.75
365.468	181.75
365.694	180.75
365.92	169.75
366.147	168.75
366.373	180.75
366.599	184.75
366.826	206.75
367.052	183.75
367.278	182.75
367.505	190.75
367.731	181.75
367.957	182.75
368.184	185.75
368.41	174.75
368.636	191.75
368.862	171.75
369.089	179.75
369.315	175.75
369.541	180.75
369.767	172.75
369.993	198.75
370.219	192.75
370.445	183.75
370.672	191.75
370.898	203.75
371.124	201.75
371.35	172.75
371.576	195.75
371.802	199.75
372.028	184.75
372.254	201.75
372.48	178.75
372.706	201.75
372.932	177.75
373.158	187.75
373.384	194.75
373.61	199.75
373.835	191.75
374.061	188.75
374.287	199.75
374.513	191.75
374.739	202.75
374.965	204.75
375.191	196.75
375.416	199.75
375.642	182.75
375.868	190.75
376.094	194.75
376.319	201.75
376.545	178.75
376.771	184.75
376.997	198.75
377.222	191.75
377.448	184.75
377.674	182.75
377.899	174.75
378.125	195.75
378.35	177.75
378.576	201.75
378.802	181.75
379.027	191.75
379.253	190.75
379.478	198.75
379.704	180.75
379.929	203.75
380.155	195.75
380.38	186.75
380.606	173.75
380.831	184.75
381.057	197.75
381.282	193.75
381.507	190.75
381.733	201.75
381.958	203.75
382.184	174.75
382.409	190.75
382.634	204.75
382.86	187.75
383.085	207.75
383.31	199.75
383.535	198.75
383.761	200.75
383.986	198.75
384.211	195.75
384.436	201.75
384.662	224.75
384.887	214.75
385.112	214.75
385.337	216.75
385.562	198.75
385.787	213.75
386.013	209.75
386.238	205.75
386.463	208.75
386.688	223.75
386.913	209.75
387.138	203.75
387.363	188.75
387.588	218.75
387.813	218.75
388.038	193.75
388.263	229.75
388.488	211.75
388.713	207.75
388.938	199.75
389.163	209.75
389.387	188.75
389.612	208.75
389.837	214.75
390.062	220.75
390.287	213.75
390.512	210.75
390.736	203.75
390.961	214.75
391.186	215.75
391.411	203.75
391.636	217.75
391.86	215.75
392.085	211.75
392.31	205.75
392.534	209.75
392.759	208.75
392.984	186.75
393.208	216.75
393.433	224.75
393.658	217.75
393.882	213.75
394.107	231.75
394.331	217.75
394.556	201.75
394.78	215.75
395.005	214.75
395.229	214.75
395.454	218.75
395.678	228.75
395.903	226.75
396.127	224.75
396.352	210.75
396.576	226.75
396.801	216.75
397.025	205.75
397.249	216.75
397.474	210.75
397.698	216.75
397.922	231.75
398.147	247.75
398.371	238.75
398.595	234.75
398.82	247.75
399.044	261.75
399.268	261.75
399.492	278.75
399.717	276.75
399.941	267.75
400.165	259.75
400.389	248.75
400.613	242.75
400.837	243.75
401.062	230.75
401.286	235.75
401.51	253.75
401.734	232.75
401.958	256.75
402.182	256.75
402.406	239.75
402.63	229.75
402.854	248.75
403.078	254.75
403.302	255.75
403.526	265.75
403.75	238.75
403.974	270.75
404.198	269.75
404.422	268.75
404.645	276.75
404.869	295.75
405.093	303.75
405.317	308.75
405.541	297.75
405.765	281.75
405.988	274.75
406.212	270.75
406.436	274.75
406.66	261.75
406.883	272.75
407.107	280.75
407.331	277.75
407.555	269.75
407.778	257.75
408.002	268.75
408.226	264.75
408.449	258.75
408.673	270.75
408.896	243.75
409.12	258.75
409.344	261.75
409.567	252.75
409.791	239.75
410.014	237.75
410.238	250.75
410.461	248.75
410.685	252.75
410.908	255.75
411.132	234.75
411.355	241.75
411.578	258.75
411.802	274.75
412.025	273.75
412.249	302.75
412.472	310.75
412.695	327.75
412.919	314.75
413.142	314.75
413.365	292.75
413.589	279.75
413.812	274.75
414.035	257.75
414.258	275.75
414.482	281.75
414.705	244.75
414.928	258.75
415.151	246.75
415.374	244.75
415.597	219.75
415.821	251.75
416.044	249.75
416.267	239.75
416.49	257.75
416.713	242.75
416.936	241.75
417.159	252.75
417.382	246.75
417.605	252.75
417.828	253.75
418.051	251.75
418.274	255.75
418.497	239.75
418.72	221.75
418.943	259.75
419.166	261.75
419.389	279.75
419.611	275.75
419.834	267.75
420.057	287.75
420.28	307.75
420.503	300.75
420.726	287.75
420.948	263.75
421.171	289.75
421.394	261.75
421.617	254.75
421.839	229.75
422.062	246.75
422.285	259.75
422.507	256.75
422.73	255.75
422.953	229.75
423.175	257.75
423.398	238.75
423.621	249.75
423.843	237.75
424.066	249.75
424.288	238.75
424.511	248.75
424.733	249.75
424.956	239.75
425.178	227.75
425.401	248.75
425.623	239.75
425.846	249.75
426.068	248.75
426.291	232.75
426.513	248.75
426.735	236.75
426.958	235.75
427.18	241.75
427.402	258.75
427.625	290.75
427.847	322.75
428.069	335.75
428.292	295.75
428.514	279.75
428.736	251.75
428.958	233.75
429.181	241.75
429.403	225.75
429.625	231.75
429.847	224.75
430.069	230.75
430.292	225.75
430.514	215.75
430.736	203.75
430.958	230.75
431.18	207.75
431.402	222.75
431.624	236.75
431.846	234.75
432.068	214.75
432.29	219.75
432.512	209.75
432.734	222.75
432.956	222.75
433.178	221.75
433.4	244.75
433.622	253.75
433.844	243.75
434.066	242.75
434.287	216.75
434.509	240.75
434.731	226.75
434.953	220.75
435.175	225.75
435.397	219.75
435.618	224.75
435.84	234.75
436.062	242.75
436.284	223.75
436.505	218.75
436.727	233.75
436.949	238.75
437.17	217.75
437.392	213.75
437.614	209.75
437.835	210.75
438.057	222.75
438.278	199.75
438.5	208.75
438.721	232.75
438.943	230.75
439.165	230.75
439.386	224.75
439.608	237.75
439.829	223.75
440.05	229.75
440.272	224.75
440.493	234.75
440.715	239.75
440.936	215.75
441.158	243.75
441.379	223.75
441.6	237.75
441.822	230.75
442.043	239.75
442.264	234.75
442.486	236.75
442.707	219.75
442.928	253.75
443.149	220.75
443.371	236.75
443.592	226.75
443.813	241.75
444.034	263.75
444.255	226.75
444.476	254.75
444.698	249.75
444.919	244.75
445.14	345.75
445.361	272.75
445.582	233.75
445.803	251.75
446.024	234.75
446.245	247.75
446.466	216.75
446.687	207.75
446.908	229.75
447.129	220.75
447.35	217.75
447.571	223.75
447.792	235.75
448.013	217.75
448.234	207.75
448.455	218.75
448.675	192.75
448.896	217.75
449.117	218.75
449.338	227.75
449.559	216.75
449.779	209.75
450	219.75
450.221	210.75
450.442	215.75
450.662	195.75
450.883	206.75
451.104	190.75
451.324	220.75
451.545	215.75
451.766	217.75
451.986	214.75
452.207	216.75
452.428	195.75
452.648	203.75
452.869	205.75
453.089	195.75
453.31	201.75
453.53	202.75
453.751	215.75
453.971	209.75
454.192	196.75
454.412	205.75
454.633	202.75
454.853	194.75
455.073	208.75
455.294	216.75
455.514	196.75
455.734	206.75
455.955	187.75
456.175	215.75
456.395	209.75
456.616	206.75
456.836	209.75
457.056	198.75
457.276	210.75
457.497	225.75
457.717	222.75
457.937	225.75
458.157	213.75
458.377	217.75
458.598	207.75
458.818	219.75
459.038	217.75
459.258	214.75
459.478	226.75
459.698	226.75
459.918	224.75
460.138	229.75
460.358	239.75
460.578	239.75
460.798	254.75
461.018	242.75
461.238	228.75
461.458	229.75
461.678	243.75
461.898	240.75
462.118	254.75
462.338	246.75
462.558	235.75
462.777	265.75
462.997	281.75
463.217	268.75
463.437	269.75
463.657	259.75
463.876	271.75
464.096	264.75
464.316	237.75
464.536	269.75
464.755	255.75
464.975	243.75
465.195	255.75
465.414	254.75
465.634	263.75
465.854	245.75
466.073	241.75
466.293	238.75
466.512	249.75
466.732	234.75
466.951	241.75
467.171	241.75
467.391	256.75
467.61	278.75
467.829	369.75
468.049	670.75
468.268	815.75
468.488	501.75
468.707	348.75
468.927	303.75
469.146	277.75
469.365	265.75
469.585	246.75
469.804	258.75
470.023	259.75
470.243	253.75
470.462	274.75
470.681	259.75
470.901	274.75
471.12	279.75
471.339	288.75
471.558	333.75
471.777	381.75
471.997	535.75
472.216	1142.75
472.435	1745.75
472.654	968.75
472.873	575.75
473.092	419.75
473.311	374.75
473.53	329.75
473.749	315.75
473.968	303.75
474.187	287.75
474.406	290.75
474.625	294.75
474.844	280.75
475.063	272.75
475.282	275.75
475.501	259.75
475.72	274.75
475.939	251.75
476.158	255.75
476.377	249.75
476.596	271.75
476.814	252.75
477.033	236.75
477.252	265.75
477.471	272.75
477.69	258.75
477.908	268.75
478.127	279.75
478.346	261.75
478.564	280.75
478.783	308.75
479.002	289.75
479.22	315.75
479.439	317.75
479.658	319.75
479.876	329.75
480.095	357.75
480.313	382.75
480.532	456.75
480.751	606.75
480.969	1254.75
481.188	2755.75
481.406	2251.75
481.624	1052.75
481.843	697.75
482.061	547.75
482.28	482.75
482.498	413.75
482.717	400.75
482.935	360.75
483.153	348.75
483.372	357.75
483.59	333.75
483.808	307.75
484.027	325.75
484.245	314.75
484.463	313.75
484.681	315.75
484.9	302.75
485.118	299.75
485.336	304.75
485.554	295.75
485.772	313.75
485.99	293.75
486.209	294.75
486.427	301.75
486.645	322.75
486.863	306.75
487.081	309.75
487.299	314.75
487.517	296.75
487.735	307.75
487.953	283.75
488.171	302.75
488.389	309.75
488.607	310.75
488.825	301.75
489.043	304.75
489.261	295.75
489.479	310.75
489.696	318.75
489.914	330.75
490.132	339.75
490.35	343.75
490.568	345.75
490.786	374.75
491.003	396.75
491.221	421.75
491.439	474.75
491.657	471.75
491.874	459.75
492.092	471.75
492.31	487.75
492.527	526.75
492.745	544.75
492.963	509.75
493.18	504.75
493.398	457.75
493.615	463.75
493.833	431.75
494.05	412.75
494.268	403.75
494.485	399.75
494.703	375.75
494.92	371.75
495.138	371.75
495.355	377.75
495.573	359.75
495.79	346.75
496.008	371.75
496.225	352.75
496.442	368.75
496.66	354.75
496.877	354.75
497.094	340.75
497.312	333.75
497.529	349.75
497.746	351.75
497.963	375.75
498.181	348.75
498.398	343.75
498.615	365.75
498.832	352.75
499.049	351.75
499.267	377.75
499.484	384.75
499.701	403.75
499.918	425.75
500.135	445.75
500.352	463.75
500.569	481.75
500.786	507.75
501.003	489.75
501.22	453.75
501.437	415.75
501.654	369.75
501.871	373.75
502.088	363.75
502.305	352.75
502.522	342.75
502.739	344.75
502.956	328.75
503.172	317.75
503.389	307.75
