Data from StdC_HRD10591_042.txt Node
Date: Fri May 16 15:29:01 EDT 2025
User: Yrep
Spectrometer: HR+D1059
Trigger mode: 1
Integration Time (sec): 1.000000E-1
Scans to average: 1
Electric dark correction enabled: true
Nonlinearity correction enabled: false
Boxcar width: 0
XAxis mode: Wavelengths
Number of Pixels in Spectrum: 2048
>>>>>Begin Spectral Data<<<<<
223.165	-13.88
223.4	-13.88
223.635	-13.88
223.869	-5.88
224.104	-15.88
224.338	-26.88
224.573	-5.88
224.808	-17.88
225.042	5.12
225.277	-16.88
225.511	-2.88
225.746	14.12
225.98	13.12
226.215	7.12
226.449	3.12
226.683	16.12
226.918	21.12
227.152	26.12
227.387	40.12
227.621	36.12
227.856	51.12
228.09	50.12
228.324	62.12
228.559	64.12
228.793	60.12
229.027	68.12
229.262	69.12
229.496	65.12
229.73	69.12
229.964	79.12
230.199	80.12
230.433	78.12
230.667	84.12
230.901	90.12
231.136	83.12
231.37	88.12
231.604	86.12
231.838	76.12
232.072	79.12
232.306	96.12
232.541	96.12
232.775	90.12
233.009	97.12
233.243	94.12
233.477	73.12
233.711	100.12
233.945	83.12
234.179	91.12
234.413	88.12
234.647	96.12
234.881	85.12
235.115	103.12
235.349	87.12
235.583	91.12
235.817	88.12
236.051	77.12
236.285	91.12
236.519	92.12
236.753	79.12
236.987	93.12
237.221	82.12
237.455	98.12
237.689	96.12
237.922	105.12
238.156	89.12
238.39	98.12
238.624	101.12
238.858	90.12
239.091	98.12
239.325	84.12
239.559	105.12
239.793	104.12
240.027	96.12
240.26	88.12
240.494	92.12
240.728	96.12
240.961	86.12
241.195	102.12
241.429	103.12
241.662	111.12
241.896	95.12
242.13	89.12
242.363	92.12
242.597	105.12
242.83	94.12
243.064	104.12
243.298	89.12
243.531	94.12
243.765	106.12
243.998	94.12
244.232	118.12
244.465	116.12
244.699	106.12
244.932	87.12
245.166	97.12
245.399	96.12
245.633	100.12
245.866	100.12
246.099	97.12
246.333	110.12
246.566	116.12
246.8	104.12
247.033	101.12
247.266	110.12
247.5	101.12
247.733	107.12
247.966	114.12
248.2	101.12
248.433	106.12
248.666	94.12
248.899	113.12
249.133	112.12
249.366	128.12
249.599	121.12
249.832	135.12
250.066	146.12
250.299	186.12
250.532	196.12
250.765	180.12
250.998	164.12
251.231	133.12
251.465	130.12
251.698	128.12
251.931	134.12
252.164	141.12
252.397	112.12
252.63	109.12
252.863	120.12
253.096	122.12
253.329	111.12
253.562	123.12
253.795	112.12
254.028	128.12
254.261	134.12
254.494	127.12
254.727	128.12
254.96	134.12
255.193	147.12
255.426	158.12
255.659	196.12
255.892	264.12
256.124	302.12
256.357	252.12
256.59	202.12
256.823	174.12
257.056	162.12
257.289	154.12
257.521	151.12
257.754	145.12
257.987	130.12
258.22	141.12
258.452	129.12
258.685	146.12
258.918	128.12
259.151	117.12
259.383	144.12
259.616	130.12
259.849	123.12
260.081	133.12
260.314	139.12
260.547	142.12
260.779	135.12
261.012	144.12
261.244	131.12
261.477	158.12
261.71	120.12
261.942	139.12
262.175	137.12
262.407	115.12
262.64	121.12
262.872	117.12
263.105	146.12
263.337	128.12
263.57	125.12
263.802	125.12
264.035	128.12
264.267	119.12
264.499	134.12
264.732	138.12
264.964	129.12
265.197	122.12
265.429	127.12
265.661	133.12
265.894	124.12
266.126	128.12
266.358	123.12
266.591	134.12
266.823	125.12
267.055	125.12
267.287	131.12
267.52	127.12
267.752	129.12
267.984	134.12
268.216	138.12
268.448	134.12
268.681	130.12
268.913	137.12
269.145	138.12
269.377	137.12
269.609	131.12
269.841	145.12
270.073	128.12
270.306	142.12
270.538	135.12
270.77	132.12
271.002	146.12
271.234	150.12
271.466	141.12
271.698	134.12
271.93	145.12
272.162	141.12
272.394	144.12
272.626	140.12
272.858	131.12
273.09	153.12
273.322	159.12
273.553	140.12
273.785	140.12
274.017	154.12
274.249	145.12
274.481	171.12
274.713	157.12
274.945	158.12
275.176	156.12
275.408	172.12
275.64	175.12
275.872	172.12
276.104	183.12
276.335	196.12
276.567	188.12
276.799	194.12
277.031	225.12
277.262	237.12
277.494	225.12
277.726	215.12
277.957	184.12
278.189	178.12
278.421	162.12
278.652	174.12
278.884	180.12
279.115	176.12
279.347	184.12
279.579	194.12
279.81	216.12
280.042	258.12
280.273	304.12
280.505	255.12
280.736	212.12
280.968	196.12
281.199	184.12
281.431	197.12
281.662	188.12
281.894	158.12
282.125	167.12
282.356	164.12
282.588	168.12
282.819	167.12
283.051	164.12
283.282	158.12
283.513	155.12
283.745	153.12
283.976	167.12
284.207	169.12
284.439	156.12
284.67	147.12
284.901	164.12
285.132	153.12
285.364	164.12
285.595	156.12
285.826	162.12
286.057	162.12
286.288	161.12
286.52	160.12
286.751	161.12
286.982	148.12
287.213	155.12
287.444	150.12
287.675	164.12
287.906	160.12
288.138	153.12
288.369	149.12
288.6	167.12
288.831	158.12
289.062	162.12
289.293	146.12
289.524	156.12
289.755	145.12
289.986	145.12
290.217	164.12
290.448	182.12
290.679	158.12
290.91	148.12
291.141	158.12
291.371	157.12
291.602	152.12
291.833	143.12
292.064	166.12
292.295	147.12
292.526	147.12
292.757	154.12
292.987	149.12
293.218	147.12
293.449	161.12
293.68	147.12
293.91	148.12
294.141	158.12
294.372	144.12
294.603	143.12
294.833	154.12
295.064	150.12
295.295	141.12
295.525	148.12
295.756	151.12
295.987	153.12
296.217	156.12
296.448	150.12
296.679	166.12
296.909	156.12
297.14	162.12
297.37	173.12
297.601	155.12
297.831	163.12
298.062	160.12
298.292	152.12
298.523	164.12
298.753	171.12
298.984	149.12
299.214	162.12
299.445	156.12
299.675	165.12
299.905	161.12
300.136	146.12
300.366	165.12
300.597	155.12
300.827	167.12
301.057	161.12
301.288	162.12
301.518	168.12
301.748	153.12
301.979	206.12
302.209	183.12
302.439	153.12
302.669	164.12
302.9	168.12
303.13	167.12
303.36	178.12
303.59	188.12
303.82	202.12
304.051	199.12
304.281	174.12
304.511	170.12
304.741	165.12
304.971	169.12
305.201	174.12
305.431	150.12
305.661	158.12
305.891	173.12
306.121	175.12
306.352	175.12
306.582	158.12
306.812	176.12
307.042	191.12
307.272	230.12
307.502	227.12
307.731	199.12
307.961	201.12
308.191	176.12
308.421	166.12
308.651	160.12
308.881	184.12
309.111	164.12
309.341	167.12
309.571	168.12
309.8	168.12
310.03	182.12
310.26	183.12
310.49	172.12
310.72	177.12
310.949	164.12
311.179	180.12
311.409	165.12
311.639	170.12
311.868	177.12
312.098	169.12
312.328	159.12
312.557	190.12
312.787	177.12
313.017	176.12
313.246	161.12
313.476	159.12
313.706	168.12
313.935	180.12
314.165	168.12
314.394	184.12
314.624	180.12
314.853	181.12
315.083	182.12
315.312	184.12
315.542	171.12
315.771	170.12
316.001	170.12
316.23	183.12
316.46	174.12
316.689	169.12
316.919	174.12
317.148	199.12
317.377	190.12
317.607	173.12
317.836	180.12
318.065	190.12
318.295	186.12
318.524	188.12
318.753	191.12
318.983	193.12
319.212	172.12
319.441	196.12
319.67	184.12
319.9	178.12
320.129	172.12
320.358	181.12
320.587	186.12
320.816	187.12
321.046	189.12
321.275	208.12
321.504	180.12
321.733	180.12
321.962	192.12
322.191	185.12
322.42	195.12
322.649	208.12
322.878	208.12
323.108	222.12
323.337	208.12
323.566	209.12
323.795	211.12
324.024	212.12
324.253	209.12
324.482	225.12
324.71	221.12
324.939	225.12
325.168	215.12
325.397	237.12
325.626	232.12
325.855	234.12
326.084	258.12
326.313	247.12
326.542	257.12
326.77	275.12
326.999	277.12
327.228	289.12
327.457	344.12
327.686	425.12
327.914	551.12
328.143	727.12
328.372	779.12
328.6	561.12
328.829	414.12
329.058	396.12
329.287	410.12
329.515	526.12
329.744	703.12
329.972	965.12
330.201	1328.12
330.43	1374.12
330.658	801.12
330.887	524.12
331.115	380.12
331.344	354.12
331.572	336.12
331.801	325.12
332.03	332.12
332.258	322.12
332.486	337.12
332.715	349.12
332.943	373.12
333.172	392.12
333.4	452.12
333.629	554.12
333.857	718.12
334.085	1079.12
334.314	1558.12
334.542	1921.12
334.771	1534.12
334.999	798.12
335.227	497.12
335.455	406.12
335.684	361.12
335.912	332.12
336.14	320.12
336.369	273.12
336.597	273.12
336.825	269.12
337.053	267.12
337.281	247.12
337.51	252.12
337.738	251.12
337.966	239.12
338.194	221.12
338.422	217.12
338.65	221.12
338.878	224.12
339.106	211.12
339.334	225.12
339.562	213.12
339.79	198.12
340.018	210.12
340.246	210.12
340.474	201.12
340.702	206.12
340.93	209.12
341.158	207.12
341.386	208.12
341.614	206.12
341.842	207.12
342.07	198.12
342.298	188.12
342.526	212.12
342.754	208.12
342.981	178.12
343.209	194.12
343.437	216.12
343.665	207.12
343.893	197.12
344.12	214.12
344.348	194.12
344.576	188.12
344.804	202.12
345.031	193.12
345.259	196.12
345.487	201.12
345.714	198.12
345.942	200.12
346.17	191.12
346.397	171.12
346.625	178.12
346.853	180.12
347.08	187.12
347.308	198.12
347.535	188.12
347.763	182.12
347.99	195.12
348.218	183.12
348.445	160.12
348.673	200.12
348.9	196.12
349.128	194.12
349.355	190.12
349.583	194.12
349.81	184.12
350.037	197.12
350.265	175.12
350.492	164.12
350.72	207.12
350.947	182.12
351.174	184.12
351.402	186.12
351.629	193.12
351.856	186.12
352.083	188.12
352.311	188.12
352.538	184.12
352.765	187.12
352.992	205.12
353.22	199.12
353.447	189.12
353.674	194.12
353.901	188.12
354.128	160.12
354.355	181.12
354.583	176.12
354.81	174.12
355.037	201.12
355.264	192.12
355.491	162.12
355.718	190.12
355.945	178.12
356.172	193.12
356.399	188.12
356.626	168.12
356.853	191.12
357.08	184.12
357.307	178.12
357.534	185.12
357.761	202.12
357.988	198.12
358.215	186.12
358.441	188.12
358.668	181.12
358.895	180.12
359.122	168.12
359.349	170.12
359.576	181.12
359.802	184.12
360.029	173.12
360.256	194.12
360.483	178.12
360.709	186.12
360.936	176.12
361.163	174.12
361.39	161.12
361.616	164.12
361.843	164.12
362.07	192.12
362.296	173.12
362.523	187.12
362.749	159.12
362.976	176.12
363.203	183.12
363.429	181.12
363.656	174.12
363.882	174.12
364.109	185.12
364.335	190.12
364.562	186.12
364.788	187.12
365.015	189.12
365.241	177.12
365.468	176.12
365.694	171.12
365.92	170.12
366.147	174.12
366.373	192.12
366.599	168.12
366.826	184.12
367.052	172.12
367.278	190.12
367.505	189.12
367.731	187.12
367.957	171.12
368.184	175.12
368.41	165.12
368.636	174.12
368.862	181.12
369.089	188.12
369.315	176.12
369.541	184.12
369.767	173.12
369.993	197.12
370.219	190.12
370.445	186.12
370.672	187.12
370.898	174.12
371.124	192.12
371.35	168.12
371.576	185.12
371.802	192.12
372.028	177.12
372.254	190.12
372.48	196.12
372.706	201.12
372.932	188.12
373.158	193.12
373.384	192.12
373.61	188.12
373.835	176.12
374.061	206.12
374.287	200.12
374.513	209.12
374.739	201.12
374.965	204.12
375.191	172.12
375.416	173.12
375.642	185.12
375.868	176.12
376.094	197.12
376.319	194.12
376.545	185.12
376.771	183.12
376.997	186.12
377.222	201.12
377.448	203.12
377.674	185.12
377.899	188.12
378.125	193.12
378.35	190.12
378.576	185.12
378.802	196.12
379.027	198.12
379.253	195.12
379.478	175.12
379.704	198.12
379.929	204.12
380.155	183.12
380.38	202.12
380.606	193.12
380.831	181.12
381.057	184.12
381.282	207.12
381.507	183.12
381.733	189.12
381.958	187.12
382.184	196.12
382.409	211.12
382.634	190.12
382.86	209.12
383.085	205.12
383.31	199.12
383.535	215.12
383.761	210.12
383.986	205.12
384.211	231.12
384.436	194.12
384.662	189.12
384.887	204.12
385.112	197.12
385.337	210.12
385.562	184.12
385.787	189.12
386.013	210.12
386.238	212.12
386.463	201.12
386.688	224.12
386.913	205.12
387.138	194.12
387.363	211.12
387.588	213.12
387.813	215.12
388.038	215.12
388.263	216.12
388.488	209.12
388.713	200.12
388.938	205.12
389.163	203.12
389.387	202.12
389.612	210.12
389.837	202.12
390.062	207.12
390.287	212.12
390.512	201.12
390.736	221.12
390.961	219.12
391.186	212.12
391.411	208.12
391.636	221.12
391.86	198.12
392.085	221.12
392.31	214.12
392.534	228.12
392.759	206.12
392.984	210.12
393.208	227.12
393.433	205.12
393.658	212.12
393.882	208.12
394.107	222.12
394.331	210.12
394.556	218.12
394.78	210.12
395.005	200.12
395.229	235.12
395.454	218.12
395.678	243.12
395.903	230.12
396.127	232.12
396.352	233.12
396.576	221.12
396.801	212.12
397.025	232.12
397.249	210.12
397.474	223.12
397.698	222.12
397.922	248.12
398.147	230.12
398.371	228.12
398.595	226.12
398.82	242.12
399.044	245.12
399.268	261.12
399.492	280.12
399.717	282.12
399.941	299.12
400.165	262.12
400.389	265.12
400.613	269.12
400.837	221.12
401.062	259.12
401.286	256.12
401.51	244.12
401.734	244.12
401.958	229.12
402.182	231.12
402.406	225.12
402.63	253.12
402.854	244.12
403.078	250.12
403.302	254.12
403.526	260.12
403.75	262.12
403.974	256.12
404.198	260.12
404.422	266.12
404.645	275.12
404.869	289.12
405.093	324.12
405.317	328.12
405.541	317.12
405.765	298.12
405.988	258.12
406.212	277.12
406.436	261.12
406.66	261.12
406.883	257.12
407.107	256.12
407.331	279.12
407.555	284.12
407.778	267.12
408.002	262.12
408.226	273.12
408.449	257.12
408.673	255.12
408.896	244.12
409.12	242.12
409.344	256.12
409.567	231.12
409.791	246.12
410.014	258.12
410.238	254.12
410.461	253.12
410.685	279.12
410.908	263.12
411.132	256.12
411.355	234.12
411.578	257.12
411.802	266.12
412.025	271.12
412.249	305.12
412.472	318.12
412.695	345.12
412.919	333.12
413.142	292.12
413.365	275.12
413.589	281.12
413.812	254.12
414.035	275.12
414.258	272.12
414.482	258.12
414.705	251.12
414.928	262.12
415.151	248.12
415.374	248.12
415.597	237.12
415.821	240.12
416.044	253.12
416.267	244.12
416.49	254.12
416.713	246.12
416.936	246.12
417.159	253.12
417.382	260.12
417.605	266.12
417.828	280.12
418.051	262.12
418.274	241.12
418.497	249.12
418.72	233.12
418.943	248.12
419.166	258.12
419.389	264.12
419.611	284.12
419.834	275.12
420.057	301.12
420.28	305.12
420.503	296.12
420.726	274.12
420.948	285.12
421.171	258.12
421.394	261.12
421.617	257.12
421.839	257.12
422.062	259.12
422.285	250.12
422.507	253.12
422.73	250.12
422.953	250.12
423.175	255.12
423.398	258.12
423.621	256.12
423.843	246.12
424.066	237.12
424.288	253.12
424.511	243.12
424.733	236.12
424.956	228.12
425.178	247.12
425.401	240.12
425.623	252.12
425.846	246.12
426.068	236.12
426.291	239.12
426.513	245.12
426.735	238.12
426.958	239.12
427.18	265.12
427.402	260.12
427.625	295.12
427.847	334.12
428.069	348.12
428.292	295.12
428.514	268.12
428.736	259.12
428.958	255.12
429.181	245.12
429.403	235.12
429.625	221.12
429.847	226.12
430.069	248.12
430.292	240.12
430.514	217.12
430.736	215.12
430.958	228.12
431.18	223.12
431.402	233.12
431.624	222.12
431.846	230.12
432.068	222.12
432.29	211.12
432.512	217.12
432.734	214.12
432.956	220.12
433.178	228.12
433.4	236.12
433.622	223.12
433.844	234.12
434.066	222.12
434.287	220.12
434.509	231.12
434.731	236.12
434.953	226.12
435.175	241.12
435.397	236.12
435.618	240.12
435.84	216.12
436.062	215.12
436.284	222.12
436.505	224.12
436.727	221.12
436.949	221.12
437.17	220.12
437.392	226.12
437.614	219.12
437.835	220.12
438.057	217.12
438.278	207.12
438.5	202.12
438.721	214.12
438.943	213.12
439.165	232.12
439.386	214.12
439.608	232.12
439.829	212.12
440.05	224.12
440.272	231.12
440.493	222.12
440.715	219.12
440.936	230.12
441.158	245.12
441.379	224.12
441.6	230.12
441.822	232.12
442.043	252.12
442.264	236.12
442.486	235.12
442.707	230.12
442.928	245.12
443.149	233.12
443.371	225.12
443.592	248.12
443.813	232.12
444.034	241.12
444.255	246.12
444.476	254.12
444.698	265.12
444.919	256.12
445.14	330.12
445.361	296.12
445.582	238.12
445.803	220.12
446.024	217.12
446.245	220.12
446.466	226.12
446.687	214.12
446.908	229.12
447.129	216.12
447.35	211.12
447.571	242.12
447.792	207.12
448.013	238.12
448.234	218.12
448.455	218.12
448.675	223.12
448.896	219.12
449.117	199.12
449.338	223.12
449.559	224.12
449.779	217.12
450	211.12
450.221	226.12
450.442	219.12
450.662	200.12
450.883	207.12
451.104	216.12
451.324	208.12
451.545	203.12
451.766	210.12
451.986	224.12
452.207	201.12
452.428	215.12
452.648	204.12
452.869	203.12
453.089	200.12
453.31	212.12
453.53	219.12
453.751	208.12
453.971	197.12
454.192	196.12
454.412	191.12
454.633	206.12
454.853	194.12
455.073	183.12
455.294	214.12
455.514	218.12
455.734	222.12
455.955	198.12
456.175	211.12
456.395	228.12
456.616	215.12
456.836	196.12
457.056	232.12
457.276	216.12
457.497	199.12
457.717	206.12
457.937	215.12
458.157	216.12
458.377	200.12
458.598	208.12
458.818	207.12
459.038	225.12
459.258	223.12
459.478	220.12
459.698	216.12
459.918	220.12
460.138	221.12
460.358	228.12
460.578	217.12
460.798	232.12
461.018	249.12
461.238	221.12
461.458	227.12
461.678	242.12
461.898	269.12
462.118	247.12
462.338	262.12
462.558	255.12
462.777	254.12
462.997	272.12
463.217	287.12
463.437	272.12
463.657	266.12
463.876	264.12
464.096	261.12
464.316	271.12
464.536	253.12
464.755	258.12
464.975	255.12
465.195	254.12
465.414	265.12
465.634	245.12
465.854	242.12
466.073	244.12
466.293	227.12
466.512	246.12
466.732	240.12
466.951	236.12
467.171	235.12
467.391	266.12
467.61	294.12
467.829	372.12
468.049	704.12
468.268	828.12
468.488	501.12
468.707	369.12
468.927	302.12
469.146	298.12
469.365	278.12
469.585	268.12
469.804	272.12
470.023	268.12
470.243	268.12
470.462	262.12
470.681	280.12
470.901	270.12
471.12	299.12
471.339	305.12
471.558	314.12
471.777	376.12
471.997	577.12
472.216	1178.12
472.435	1807.12
472.654	994.12
472.873	576.12
473.092	416.12
473.311	389.12
473.53	340.12
473.749	305.12
473.968	312.12
474.187	289.12
474.406	289.12
474.625	274.12
474.844	265.12
475.063	262.12
475.282	263.12
475.501	266.12
475.72	278.12
475.939	256.12
476.158	250.12
476.377	252.12
476.596	264.12
476.814	263.12
477.033	265.12
477.252	258.12
477.471	263.12
477.69	274.12
477.908	278.12
478.127	284.12
478.346	274.12
478.564	278.12
478.783	276.12
479.002	273.12
479.22	298.12
479.439	313.12
479.658	320.12
479.876	333.12
480.095	346.12
480.313	406.12
480.532	469.12
480.751	639.12
480.969	1258.12
481.188	2818.12
481.406	2289.12
481.624	1051.12
481.843	692.12
482.061	549.12
482.28	475.12
482.498	430.12
482.717	397.12
482.935	392.12
483.153	373.12
483.372	358.12
483.59	336.12
483.808	328.12
484.027	317.12
484.245	332.12
484.463	334.12
484.681	322.12
484.9	300.12
485.118	316.12
485.336	289.12
485.554	304.12
485.772	306.12
485.99	300.12
486.209	298.12
486.427	316.12
486.645	316.12
486.863	309.12
487.081	300.12
487.299	314.12
487.517	302.12
487.735	301.12
487.953	302.12
488.171	292.12
488.389	294.12
488.607	309.12
488.825	327.12
489.043	304.12
489.261	314.12
489.479	301.12
489.696	319.12
489.914	334.12
490.132	324.12
490.35	367.12
490.568	372.12
490.786	384.12
491.003	400.12
491.221	430.12
491.439	452.12
491.657	472.12
491.874	445.12
492.092	458.12
492.31	486.12
492.527	551.12
492.745	549.12
492.963	537.12
493.18	494.12
493.398	469.12
493.615	449.12
493.833	423.12
494.05	413.12
494.268	400.12
494.485	397.12
494.703	389.12
494.92	405.12
495.138	383.12
495.355	372.12
495.573	374.12
495.79	343.12
496.008	354.12
496.225	344.12
496.442	368.12
496.66	360.12
496.877	340.12
497.094	341.12
497.312	347.12
497.529	350.12
497.746	360.12
497.963	318.12
498.181	342.12
498.398	332.12
498.615	346.12
498.832	373.12
499.049	376.12
499.267	385.12
499.484	373.12
499.701	395.12
499.918	421.12
500.135	448.12
500.352	511.12
500.569	496.12
500.786	520.12
501.003	506.12
501.22	463.12
501.437	434.12
501.654	386.12
501.871	370.12
502.088	351.12
502.305	356.12
502.522	350.12
502.739	336.12
502.956	328.12
503.172	320.12
503.389	310.12
