Data from StdC_HRD10591_014.txt Node
Date: Fri May 16 15:28:47 EDT 2025
User: Yrep
Spectrometer: HR+D1059
Trigger mode: 1
Integration Time (sec): 1.000000E-1
Scans to average: 1
Electric dark correction enabled: true
Nonlinearity correction enabled: false
Boxcar width: 0
XAxis mode: Wavelengths
Number of Pixels in Spectrum: 2048
>>>>>Begin Spectral Data<<<<<
223.165	-27.94
223.4	-27.94
223.635	-27.94
223.869	-17.94
224.104	-28.94
224.338	-10.94
224.573	-9.94
224.808	-15.94
225.042	-3.94
225.277	-4.94
225.511	-6.94
225.746	9.06
225.98	-1.94
226.215	26.06
226.449	15.06
226.683	20.06
226.918	23.06
227.152	36.06
227.387	34.06
227.621	42.06
227.856	48.06
228.09	43.06
228.324	53.06
228.559	73.06
228.793	71.06
229.027	65.06
229.262	64.06
229.496	54.06
229.73	73.06
229.964	70.06
230.199	66.06
230.433	73.06
230.667	85.06
230.901	74.06
231.136	82.06
231.37	92.06
231.604	71.06
231.838	82.06
232.072	90.06
232.306	77.06
232.541	92.06
232.775	99.06
233.009	99.06
233.243	86.06
233.477	89.06
233.711	69.06
233.945	85.06
234.179	98.06
234.413	98.06
234.647	99.06
234.881	88.06
235.115	90.06
235.349	88.06
235.583	108.06
235.817	85.06
236.051	87.06
236.285	79.06
236.519	89.06
236.753	103.06
236.987	93.06
237.221	95.06
237.455	89.06
237.689	81.06
237.922	78.06
238.156	93.06
238.39	93.06
238.624	101.06
238.858	93.06
239.091	91.06
239.325	89.06
239.559	95.06
239.793	94.06
240.027	90.06
240.26	89.06
240.494	97.06
240.728	91.06
240.961	84.06
241.195	105.06
241.429	99.06
241.662	106.06
241.896	100.06
242.13	77.06
242.363	109.06
242.597	97.06
242.83	88.06
243.064	93.06
243.298	104.06
243.531	107.06
243.765	97.06
243.998	96.06
244.232	91.06
244.465	110.06
244.699	107.06
244.932	73.06
245.166	104.06
245.399	105.06
245.633	101.06
245.866	111.06
246.099	115.06
246.333	97.06
246.566	101.06
246.8	102.06
247.033	119.06
247.266	109.06
247.5	103.06
247.733	97.06
247.966	89.06
248.2	119.06
248.433	113.06
248.666	105.06
248.899	115.06
249.133	114.06
249.366	119.06
249.599	115.06
249.832	113.06
250.066	135.06
250.299	158.06
250.532	206.06
250.765	183.06
250.998	146.06
251.231	130.06
251.465	123.06
251.698	125.06
251.931	129.06
252.164	120.06
252.397	121.06
252.63	116.06
252.863	113.06
253.096	120.06
253.329	122.06
253.562	119.06
253.795	123.06
254.028	127.06
254.261	113.06
254.494	133.06
254.727	136.06
254.96	144.06
255.193	140.06
255.426	168.06
255.659	183.06
255.892	272.06
256.124	294.06
256.357	262.06
256.59	197.06
256.823	180.06
257.056	159.06
257.289	151.06
257.521	144.06
257.754	135.06
257.987	145.06
258.22	138.06
258.452	138.06
258.685	128.06
258.918	136.06
259.151	136.06
259.383	133.06
259.616	128.06
259.849	139.06
260.081	128.06
260.314	136.06
260.547	136.06
260.779	151.06
261.012	139.06
261.244	139.06
261.477	140.06
261.71	143.06
261.942	132.06
262.175	128.06
262.407	121.06
262.64	107.06
262.872	127.06
263.105	130.06
263.337	132.06
263.57	111.06
263.802	119.06
264.035	137.06
264.267	136.06
264.499	125.06
264.732	148.06
264.964	133.06
265.197	116.06
265.429	132.06
265.661	127.06
265.894	141.06
266.126	133.06
266.358	120.06
266.591	140.06
266.823	127.06
267.055	145.06
267.287	139.06
267.52	139.06
267.752	124.06
267.984	117.06
268.216	124.06
268.448	140.06
268.681	138.06
268.913	134.06
269.145	134.06
269.377	121.06
269.609	138.06
269.841	134.06
270.073	138.06
270.306	143.06
270.538	150.06
270.77	137.06
271.002	136.06
271.234	149.06
271.466	156.06
271.698	126.06
271.93	154.06
272.162	152.06
272.394	152.06
272.626	150.06
272.858	144.06
273.09	148.06
273.322	158.06
273.553	139.06
273.785	164.06
274.017	134.06
274.249	156.06
274.481	154.06
274.713	156.06
274.945	179.06
275.176	169.06
275.408	167.06
275.64	191.06
275.872	177.06
276.104	178.06
276.335	168.06
276.567	181.06
276.799	194.06
277.031	233.06
277.262	234.06
277.494	237.06
277.726	215.06
277.957	189.06
278.189	191.06
278.421	184.06
278.652	184.06
278.884	166.06
279.115	170.06
279.347	192.06
279.579	209.06
279.81	232.06
280.042	261.06
280.273	280.06
280.505	248.06
280.736	222.06
280.968	202.06
281.199	173.06
281.431	193.06
281.662	184.06
281.894	178.06
282.125	171.06
282.356	166.06
282.588	144.06
282.819	155.06
283.051	166.06
283.282	156.06
283.513	157.06
283.745	168.06
283.976	151.06
284.207	156.06
284.439	153.06
284.67	154.06
284.901	158.06
285.132	185.06
285.364	155.06
285.595	152.06
285.826	160.06
286.057	150.06
286.288	165.06
286.52	150.06
286.751	170.06
286.982	165.06
287.213	158.06
287.444	153.06
287.675	155.06
287.906	184.06
288.138	172.06
288.369	164.06
288.6	162.06
288.831	162.06
289.062	151.06
289.293	160.06
289.524	165.06
289.755	165.06
289.986	163.06
290.217	164.06
290.448	151.06
290.679	166.06
290.91	159.06
291.141	151.06
291.371	143.06
291.602	156.06
291.833	151.06
292.064	165.06
292.295	147.06
292.526	151.06
292.757	145.06
292.987	141.06
293.218	158.06
293.449	167.06
293.68	147.06
293.91	150.06
294.141	161.06
294.372	150.06
294.603	168.06
294.833	158.06
295.064	160.06
295.295	150.06
295.525	148.06
295.756	163.06
295.987	147.06
296.217	159.06
296.448	164.06
296.679	167.06
296.909	175.06
297.14	188.06
297.37	171.06
297.601	160.06
297.831	179.06
298.062	166.06
298.292	166.06
298.523	153.06
298.753	158.06
298.984	171.06
299.214	157.06
299.445	140.06
299.675	165.06
299.905	156.06
300.136	172.06
300.366	181.06
300.597	159.06
300.827	176.06
301.057	178.06
301.288	163.06
301.518	168.06
301.748	165.06
301.979	198.06
302.209	181.06
302.439	159.06
302.669	157.06
302.9	182.06
303.13	167.06
303.36	173.06
303.59	186.06
303.82	190.06
304.051	196.06
304.281	193.06
304.511	182.06
304.741	165.06
304.971	169.06
305.201	171.06
305.431	164.06
305.661	178.06
305.891	175.06
306.121	169.06
306.352	180.06
306.582	169.06
306.812	170.06
307.042	215.06
307.272	224.06
307.502	242.06
307.731	209.06
307.961	191.06
308.191	182.06
308.421	179.06
308.651	187.06
308.881	169.06
309.111	169.06
309.341	184.06
309.571	183.06
309.8	171.06
310.03	169.06
310.26	181.06
310.49	184.06
310.72	176.06
310.949	183.06
311.179	179.06
311.409	180.06
311.639	173.06
311.868	187.06
312.098	179.06
312.328	185.06
312.557	183.06
312.787	172.06
313.017	168.06
313.246	182.06
313.476	192.06
313.706	170.06
313.935	181.06
314.165	158.06
314.394	190.06
314.624	172.06
314.853	171.06
315.083	164.06
315.312	181.06
315.542	190.06
315.771	185.06
316.001	164.06
316.23	165.06
316.46	190.06
316.689	179.06
316.919	173.06
317.148	184.06
317.377	179.06
317.607	174.06
317.836	192.06
318.065	183.06
318.295	174.06
318.524	188.06
318.753	175.06
318.983	187.06
319.212	184.06
319.441	201.06
319.67	199.06
319.9	186.06
320.129	181.06
320.358	184.06
320.587	202.06
320.816	193.06
321.046	180.06
321.275	187.06
321.504	192.06
321.733	209.06
321.962	194.06
322.191	197.06
322.42	192.06
322.649	198.06
322.878	219.06
323.108	201.06
323.337	213.06
323.566	222.06
323.795	212.06
324.024	241.06
324.253	221.06
324.482	222.06
324.71	232.06
324.939	215.06
325.168	242.06
325.397	249.06
325.626	236.06
325.855	239.06
326.084	248.06
326.313	248.06
326.542	248.06
326.77	259.06
326.999	265.06
327.228	304.06
327.457	339.06
327.686	431.06
327.914	544.06
328.143	727.06
328.372	723.06
328.6	560.06
328.829	417.06
329.058	384.06
329.287	413.06
329.515	504.06
329.744	687.06
329.972	997.06
330.201	1323.06
330.43	1353.06
330.658	786.06
330.887	476.06
331.115	379.06
331.344	346.06
331.572	318.06
331.801	327.06
332.03	327.06
332.258	334.06
332.486	344.06
332.715	333.06
332.943	380.06
333.172	401.06
333.4	454.06
333.629	531.06
333.857	692.06
334.085	1055.06
334.314	1492.06
334.542	1875.06
334.771	1515.06
334.999	799.06
335.227	511.06
335.455	419.06
335.684	371.06
335.912	355.06
336.14	305.06
336.369	299.06
336.597	281.06
336.825	257.06
337.053	271.06
337.281	253.06
337.51	245.06
337.738	252.06
337.966	242.06
338.194	216.06
338.422	222.06
338.65	223.06
338.878	218.06
339.106	219.06
339.334	223.06
339.562	232.06
339.79	198.06
340.018	199.06
340.246	214.06
340.474	212.06
340.702	210.06
340.93	197.06
341.158	189.06
341.386	199.06
341.614	203.06
341.842	208.06
342.07	216.06
342.298	205.06
342.526	190.06
342.754	203.06
342.981	203.06
343.209	181.06
343.437	200.06
343.665	204.06
343.893	206.06
344.12	221.06
344.348	212.06
344.576	179.06
344.804	193.06
345.031	201.06
345.259	201.06
345.487	187.06
345.714	169.06
345.942	208.06
346.17	195.06
346.397	168.06
346.625	188.06
346.853	173.06
347.08	195.06
347.308	171.06
347.535	186.06
347.763	187.06
347.99	204.06
348.218	189.06
348.445	187.06
348.673	181.06
348.9	186.06
349.128	191.06
349.355	190.06
349.583	186.06
349.81	196.06
350.037	194.06
350.265	176.06
350.492	164.06
350.72	194.06
350.947	180.06
351.174	195.06
351.402	192.06
351.629	198.06
351.856	200.06
352.083	188.06
352.311	200.06
352.538	179.06
352.765	189.06
352.992	200.06
353.22	188.06
353.447	199.06
353.674	189.06
353.901	191.06
354.128	205.06
354.355	184.06
354.583	187.06
354.81	178.06
355.037	187.06
355.264	192.06
355.491	190.06
355.718	184.06
355.945	181.06
356.172	192.06
356.399	193.06
356.626	186.06
356.853	197.06
357.08	181.06
357.307	189.06
357.534	200.06
357.761	182.06
357.988	180.06
358.215	191.06
358.441	194.06
358.668	192.06
358.895	181.06
359.122	165.06
359.349	177.06
359.576	189.06
359.802	199.06
360.029	183.06
360.256	187.06
360.483	189.06
360.709	187.06
360.936	191.06
361.163	192.06
361.39	188.06
361.616	172.06
361.843	167.06
362.07	173.06
362.296	192.06
362.523	186.06
362.749	185.06
362.976	183.06
363.203	193.06
363.429	178.06
363.656	185.06
363.882	181.06
364.109	172.06
364.335	173.06
364.562	193.06
364.788	183.06
365.015	183.06
365.241	170.06
365.468	187.06
365.694	176.06
365.92	169.06
366.147	189.06
366.373	187.06
366.599	213.06
366.826	185.06
367.052	185.06
367.278	185.06
367.505	195.06
367.731	188.06
367.957	177.06
368.184	183.06
368.41	175.06
368.636	195.06
368.862	204.06
369.089	186.06
369.315	197.06
369.541	209.06
369.767	193.06
369.993	179.06
370.219	189.06
370.445	184.06
370.672	198.06
370.898	168.06
371.124	184.06
371.35	188.06
371.576	205.06
371.802	190.06
372.028	188.06
372.254	191.06
372.48	187.06
372.706	172.06
372.932	191.06
373.158	183.06
373.384	207.06
373.61	184.06
373.835	193.06
374.061	182.06
374.287	180.06
374.513	200.06
374.739	187.06
374.965	196.06
375.191	180.06
375.416	189.06
375.642	193.06
375.868	198.06
376.094	192.06
376.319	186.06
376.545	176.06
376.771	192.06
376.997	182.06
377.222	179.06
377.448	202.06
377.674	206.06
377.899	177.06
378.125	193.06
378.35	186.06
378.576	200.06
378.802	183.06
379.027	187.06
379.253	199.06
379.478	185.06
379.704	186.06
379.929	197.06
380.155	175.06
380.38	187.06
380.606	187.06
380.831	197.06
381.057	194.06
381.282	191.06
381.507	186.06
381.733	209.06
381.958	191.06
382.184	198.06
382.409	199.06
382.634	208.06
382.86	191.06
383.085	196.06
383.31	207.06
383.535	228.06
383.761	208.06
383.986	193.06
384.211	207.06
384.436	203.06
384.662	199.06
384.887	214.06
385.112	212.06
385.337	203.06
385.562	216.06
385.787	205.06
386.013	212.06
386.238	208.06
386.463	204.06
386.688	204.06
386.913	218.06
387.138	201.06
387.363	199.06
387.588	204.06
387.813	197.06
388.038	196.06
388.263	208.06
388.488	199.06
388.713	204.06
388.938	215.06
389.163	203.06
389.387	199.06
389.612	208.06
389.837	221.06
390.062	208.06
390.287	225.06
390.512	213.06
390.736	200.06
390.961	203.06
391.186	209.06
391.411	199.06
391.636	222.06
391.86	211.06
392.085	215.06
392.31	213.06
392.534	214.06
392.759	205.06
392.984	199.06
393.208	210.06
393.433	217.06
393.658	210.06
393.882	186.06
394.107	202.06
394.331	221.06
394.556	220.06
394.78	218.06
395.005	214.06
395.229	217.06
395.454	219.06
395.678	224.06
395.903	231.06
396.127	218.06
396.352	215.06
396.576	222.06
396.801	216.06
397.025	222.06
397.249	221.06
397.474	223.06
397.698	230.06
397.922	235.06
398.147	220.06
398.371	235.06
398.595	249.06
398.82	235.06
399.044	257.06
399.268	263.06
399.492	268.06
399.717	282.06
399.941	268.06
400.165	266.06
400.389	247.06
400.613	240.06
400.837	260.06
401.062	212.06
401.286	229.06
401.51	243.06
401.734	222.06
401.958	239.06
402.182	232.06
402.406	253.06
402.63	246.06
402.854	251.06
403.078	246.06
403.302	239.06
403.526	268.06
403.75	251.06
403.974	253.06
404.198	260.06
404.422	254.06
404.645	269.06
404.869	297.06
405.093	313.06
405.317	337.06
405.541	329.06
405.765	281.06
405.988	261.06
406.212	278.06
406.436	259.06
406.66	267.06
406.883	253.06
407.107	289.06
407.331	263.06
407.555	273.06
407.778	265.06
408.002	271.06
408.226	259.06
408.449	266.06
408.673	271.06
408.896	265.06
409.12	276.06
409.344	273.06
409.567	256.06
409.791	244.06
410.014	258.06
410.238	243.06
410.461	259.06
410.685	262.06
410.908	263.06
411.132	267.06
411.355	247.06
411.578	249.06
411.802	261.06
412.025	272.06
412.249	292.06
412.472	317.06
412.695	332.06
412.919	320.06
413.142	297.06
413.365	278.06
413.589	284.06
413.812	260.06
414.035	280.06
414.258	254.06
414.482	268.06
414.705	259.06
414.928	277.06
415.151	244.06
415.374	268.06
415.597	238.06
415.821	227.06
416.044	268.06
416.267	235.06
416.49	232.06
416.713	247.06
416.936	250.06
417.159	249.06
417.382	261.06
417.605	260.06
417.828	276.06
418.051	251.06
418.274	246.06
418.497	261.06
418.72	264.06
418.943	251.06
419.166	256.06
419.389	267.06
419.611	278.06
419.834	278.06
420.057	301.06
420.28	319.06
420.503	316.06
420.726	267.06
420.948	277.06
421.171	260.06
421.394	258.06
421.617	257.06
421.839	255.06
422.062	247.06
422.285	241.06
422.507	247.06
422.73	239.06
422.953	249.06
423.175	261.06
423.398	248.06
423.621	232.06
423.843	238.06
424.066	251.06
424.288	250.06
424.511	257.06
424.733	260.06
424.956	236.06
425.178	245.06
425.401	245.06
425.623	241.06
425.846	235.06
426.068	262.06
426.291	246.06
426.513	245.06
426.735	233.06
426.958	241.06
427.18	248.06
427.402	259.06
427.625	298.06
427.847	307.06
428.069	346.06
428.292	295.06
428.514	268.06
428.736	266.06
428.958	255.06
429.181	231.06
429.403	253.06
429.625	245.06
429.847	229.06
430.069	233.06
430.292	230.06
430.514	211.06
430.736	219.06
430.958	218.06
431.18	225.06
431.402	251.06
431.624	228.06
431.846	228.06
432.068	233.06
432.29	222.06
432.512	237.06
432.734	229.06
432.956	242.06
433.178	208.06
433.4	227.06
433.622	217.06
433.844	232.06
434.066	227.06
434.287	237.06
434.509	247.06
434.731	236.06
434.953	240.06
435.175	231.06
435.397	238.06
435.618	223.06
435.84	216.06
436.062	232.06
436.284	228.06
436.505	214.06
436.727	242.06
436.949	231.06
437.17	199.06
437.392	218.06
437.614	211.06
437.835	224.06
438.057	192.06
438.278	224.06
438.5	216.06
438.721	207.06
438.943	231.06
439.165	223.06
439.386	228.06
439.608	223.06
439.829	237.06
440.05	214.06
440.272	227.06
440.493	219.06
440.715	231.06
440.936	231.06
441.158	209.06
441.379	226.06
441.6	243.06
441.822	250.06
442.043	246.06
442.264	252.06
442.486	224.06
442.707	238.06
442.928	238.06
443.149	245.06
443.371	240.06
443.592	238.06
443.813	248.06
444.034	241.06
444.255	233.06
444.476	249.06
444.698	230.06
444.919	262.06
445.14	336.06
445.361	276.06
445.582	227.06
445.803	232.06
446.024	233.06
446.245	248.06
446.466	223.06
446.687	235.06
446.908	233.06
447.129	223.06
447.35	231.06
447.571	237.06
447.792	226.06
448.013	216.06
448.234	221.06
448.455	231.06
448.675	229.06
448.896	209.06
449.117	204.06
449.338	209.06
449.559	209.06
449.779	194.06
450	222.06
450.221	213.06
450.442	222.06
450.662	207.06
450.883	207.06
451.104	221.06
451.324	191.06
451.545	205.06
451.766	207.06
451.986	203.06
452.207	206.06
452.428	208.06
452.648	222.06
452.869	209.06
453.089	205.06
453.31	192.06
453.53	199.06
453.751	219.06
453.971	224.06
454.192	209.06
454.412	199.06
454.633	209.06
454.853	193.06
455.073	206.06
455.294	205.06
455.514	214.06
455.734	191.06
455.955	201.06
456.175	208.06
456.395	207.06
456.616	212.06
456.836	192.06
457.056	191.06
457.276	209.06
457.497	204.06
457.717	193.06
457.937	216.06
458.157	203.06
458.377	205.06
458.598	213.06
458.818	204.06
459.038	215.06
459.258	216.06
459.478	206.06
459.698	220.06
459.918	222.06
460.138	220.06
460.358	233.06
460.578	239.06
460.798	244.06
461.018	245.06
461.238	232.06
461.458	248.06
461.678	218.06
461.898	237.06
462.118	237.06
462.338	247.06
462.558	253.06
462.777	255.06
462.997	263.06
463.217	292.06
463.437	278.06
463.657	261.06
463.876	261.06
464.096	270.06
464.316	269.06
464.536	268.06
464.755	251.06
464.975	230.06
465.195	250.06
465.414	252.06
465.634	236.06
465.854	242.06
466.073	251.06
466.293	222.06
466.512	234.06
466.732	243.06
466.951	230.06
467.171	250.06
467.391	237.06
467.61	277.06
467.829	376.06
468.049	671.06
468.268	834.06
468.488	493.06
468.707	363.06
468.927	311.06
469.146	286.06
469.365	268.06
469.585	268.06
469.804	271.06
470.023	241.06
470.243	262.06
470.462	267.06
470.681	260.06
470.901	281.06
471.12	281.06
471.339	287.06
471.558	316.06
471.777	409.06
471.997	557.06
472.216	1135.06
472.435	1716.06
472.654	986.06
472.873	577.06
473.092	433.06
473.311	386.06
473.53	358.06
473.749	328.06
473.968	323.06
474.187	283.06
474.406	280.06
474.625	292.06
474.844	281.06
475.063	250.06
475.282	276.06
475.501	252.06
475.72	272.06
475.939	261.06
476.158	267.06
476.377	261.06
476.596	260.06
476.814	268.06
477.033	260.06
477.252	249.06
477.471	266.06
477.69	280.06
477.908	269.06
478.127	276.06
478.346	268.06
478.564	291.06
478.783	287.06
479.002	301.06
479.22	323.06
479.439	313.06
479.658	336.06
479.876	344.06
480.095	345.06
480.313	400.06
480.532	459.06
480.751	612.06
480.969	1269.06
481.188	2707.06
481.406	2200.06
481.624	1087.06
481.843	714.06
482.061	547.06
482.28	471.06
482.498	451.06
482.717	417.06
482.935	383.06
483.153	382.06
483.372	373.06
483.59	342.06
483.808	320.06
484.027	316.06
484.245	310.06
484.463	320.06
484.681	332.06
484.9	327.06
485.118	288.06
485.336	303.06
485.554	303.06
485.772	296.06
485.99	296.06
486.209	299.06
486.427	295.06
486.645	292.06
486.863	304.06
487.081	311.06
487.299	317.06
487.517	303.06
487.735	333.06
487.953	311.06
488.171	298.06
488.389	313.06
488.607	317.06
488.825	314.06
489.043	312.06
489.261	321.06
489.479	299.06
489.696	335.06
489.914	326.06
490.132	353.06
490.35	352.06
490.568	350.06
490.786	383.06
491.003	396.06
491.221	429.06
491.439	457.06
491.657	478.06
491.874	469.06
492.092	490.06
492.31	500.06
492.527	548.06
492.745	539.06
492.963	526.06
493.18	483.06
493.398	488.06
493.615	478.06
493.833	439.06
494.05	436.06
494.268	418.06
494.485	401.06
494.703	403.06
494.92	389.06
495.138	386.06
495.355	394.06
495.573	368.06
495.79	358.06
496.008	368.06
496.225	340.06
496.442	365.06
496.66	343.06
496.877	348.06
497.094	361.06
497.312	347.06
497.529	328.06
497.746	344.06
497.963	347.06
498.181	356.06
498.398	344.06
498.615	357.06
498.832	355.06
499.049	378.06
499.267	368.06
499.484	410.06
499.701	410.06
499.918	405.06
500.135	436.06
500.352	488.06
500.569	509.06
500.786	513.06
501.003	465.06
501.22	441.06
501.437	411.06
501.654	388.06
501.871	382.06
502.088	371.06
502.305	342.06
502.522	334.06
502.739	335.06
502.956	348.06
503.172	334.06
503.389	341.06
