Data from StdC_HRD10591_102.txt Node
Date: Fri May 16 15:30:27 EDT 2025
User: Yrep
Spectrometer: HR+D1059
Trigger mode: 1
Integration Time (sec): 1.000000E-1
Scans to average: 1
Electric dark correction enabled: true
Nonlinearity correction enabled: false
Boxcar width: 0
XAxis mode: Wavelengths
Number of Pixels in Spectrum: 2048
>>>>>Begin Spectral Data<<<<<
223.165	-20.06
223.4	-20.06
223.635	-20.06
223.869	-24.06
224.104	-28.06
224.338	-16.06
224.573	-12.06
224.808	0.94
225.042	-2.06
225.277	0.94
225.511	-8.06
225.746	1.94
225.98	-4.06
226.215	13.94
226.449	3.94
226.683	31.94
226.918	23.94
227.152	36.94
227.387	43.94
227.621	43.94
227.856	44.94
228.09	55.94
228.324	51.94
228.559	51.94
228.793	67.94
229.027	64.94
229.262	67.94
229.496	74.94
229.73	69.94
229.964	71.94
230.199	69.94
230.433	76.94
230.667	85.94
230.901	80.94
231.136	65.94
231.37	80.94
231.604	76.94
231.838	73.94
232.072	88.94
232.306	87.94
232.541	97.94
232.775	95.94
233.009	87.94
233.243	87.94
233.477	77.94
233.711	80.94
233.945	66.94
234.179	69.94
234.413	95.94
234.647	79.94
234.881	76.94
235.115	82.94
235.349	90.94
235.583	84.94
235.817	89.94
236.051	72.94
236.285	80.94
236.519	85.94
236.753	73.94
236.987	79.94
237.221	76.94
237.455	89.94
237.689	84.94
237.922	76.94
238.156	55.94
238.39	86.94
238.624	70.94
238.858	76.94
239.091	78.94
239.325	79.94
239.559	75.94
239.793	71.94
240.027	84.94
240.26	93.94
240.494	81.94
240.728	73.94
240.961	77.94
241.195	79.94
241.429	73.94
241.662	91.94
241.896	66.94
242.13	84.94
242.363	71.94
242.597	66.94
242.83	75.94
243.064	82.94
243.298	81.94
243.531	80.94
243.765	75.94
243.998	71.94
244.232	87.94
244.465	80.94
244.699	81.94
244.932	65.94
245.166	72.94
245.399	73.94
245.633	94.94
245.866	78.94
246.099	93.94
246.333	81.94
246.566	62.94
246.8	78.94
247.033	80.94
247.266	89.94
247.5	85.94
247.733	78.94
247.966	68.94
248.2	90.94
248.433	83.94
248.666	78.94
248.899	73.94
249.133	91.94
249.366	84.94
249.599	73.94
249.832	75.94
250.066	85.94
250.299	83.94
250.532	80.94
250.765	79.94
250.998	63.94
251.231	79.94
251.465	91.94
251.698	83.94
251.931	84.94
252.164	89.94
252.397	82.94
252.63	81.94
252.863	75.94
253.096	74.94
253.329	89.94
253.562	90.94
253.795	88.94
254.028	96.94
254.261	76.94
254.494	88.94
254.727	88.94
254.96	87.94
255.193	77.94
255.426	87.94
255.659	91.94
255.892	80.94
256.124	85.94
256.357	94.94
256.59	78.94
256.823	82.94
257.056	95.94
257.289	95.94
257.521	88.94
257.754	87.94
257.987	94.94
258.22	95.94
258.452	87.94
258.685	76.94
258.918	84.94
259.151	85.94
259.383	93.94
259.616	87.94
259.849	83.94
260.081	76.94
260.314	87.94
260.547	92.94
260.779	72.94
261.012	94.94
261.244	89.94
261.477	83.94
261.71	88.94
261.942	91.94
262.175	104.94
262.407	94.94
262.64	103.94
262.872	87.94
263.105	73.94
263.337	92.94
263.57	77.94
263.802	86.94
264.035	89.94
264.267	84.94
264.499	96.94
264.732	96.94
264.964	93.94
265.197	108.94
265.429	92.94
265.661	95.94
265.894	90.94
266.126	101.94
266.358	89.94
266.591	87.94
266.823	91.94
267.055	88.94
267.287	99.94
267.52	85.94
267.752	114.94
267.984	97.94
268.216	93.94
268.448	98.94
268.681	89.94
268.913	91.94
269.145	103.94
269.377	83.94
269.609	79.94
269.841	87.94
270.073	92.94
270.306	91.94
270.538	92.94
270.77	101.94
271.002	102.94
271.234	92.94
271.466	103.94
271.698	89.94
271.93	99.94
272.162	88.94
272.394	97.94
272.626	99.94
272.858	100.94
273.09	95.94
273.322	83.94
273.553	86.94
273.785	81.94
274.017	98.94
274.249	85.94
274.481	91.94
274.713	97.94
274.945	87.94
275.176	95.94
275.408	95.94
275.64	96.94
275.872	103.94
276.104	82.94
276.335	104.94
276.567	107.94
276.799	95.94
277.031	98.94
277.262	97.94
277.494	99.94
277.726	109.94
277.957	111.94
278.189	86.94
278.421	94.94
278.652	96.94
278.884	110.94
279.115	97.94
279.347	107.94
279.579	101.94
279.81	97.94
280.042	91.94
280.273	99.94
280.505	99.94
280.736	106.94
280.968	101.94
281.199	105.94
281.431	112.94
281.662	105.94
281.894	94.94
282.125	99.94
282.356	101.94
282.588	95.94
282.819	108.94
283.051	104.94
283.282	107.94
283.513	115.94
283.745	109.94
283.976	108.94
284.207	99.94
284.439	122.94
284.67	104.94
284.901	91.94
285.132	107.94
285.364	107.94
285.595	113.94
285.826	90.94
286.057	95.94
286.288	93.94
286.52	104.94
286.751	104.94
286.982	92.94
287.213	103.94
287.444	107.94
287.675	105.94
287.906	115.94
288.138	105.94
288.369	95.94
288.6	93.94
288.831	103.94
289.062	99.94
289.293	112.94
289.524	109.94
289.755	92.94
289.986	101.94
290.217	108.94
290.448	99.94
290.679	97.94
290.91	103.94
291.141	98.94
291.371	105.94
291.602	96.94
291.833	107.94
292.064	112.94
292.295	92.94
292.526	87.94
292.757	95.94
292.987	103.94
293.218	94.94
293.449	83.94
293.68	100.94
293.91	92.94
294.141	103.94
294.372	118.94
294.603	101.94
294.833	118.94
295.064	91.94
295.295	101.94
295.525	109.94
295.756	105.94
295.987	108.94
296.217	103.94
296.448	102.94
296.679	93.94
296.909	115.94
297.14	113.94
297.37	117.94
297.601	87.94
297.831	103.94
298.062	88.94
298.292	101.94
298.523	115.94
298.753	104.94
298.984	110.94
299.214	104.94
299.445	114.94
299.675	105.94
299.905	102.94
300.136	105.94
300.366	111.94
300.597	97.94
300.827	99.94
301.057	104.94
301.288	112.94
301.518	117.94
301.748	107.94
301.979	112.94
302.209	112.94
302.439	110.94
302.669	107.94
302.9	100.94
303.13	110.94
303.36	119.94
303.59	101.94
303.82	97.94
304.051	115.94
304.281	97.94
304.511	119.94
304.741	95.94
304.971	103.94
305.201	111.94
305.431	109.94
305.661	109.94
305.891	110.94
306.121	120.94
306.352	117.94
306.582	108.94
306.812	103.94
307.042	95.94
307.272	110.94
307.502	123.94
307.731	104.94
307.961	113.94
308.191	116.94
308.421	112.94
308.651	111.94
308.881	123.94
309.111	117.94
309.341	110.94
309.571	103.94
309.8	108.94
310.03	116.94
310.26	106.94
310.49	101.94
310.72	101.94
310.949	109.94
311.179	125.94
311.409	115.94
311.639	104.94
311.868	106.94
312.098	127.94
312.328	115.94
312.557	111.94
312.787	99.94
313.017	118.94
313.246	107.94
313.476	103.94
313.706	109.94
313.935	115.94
314.165	109.94
314.394	121.94
314.624	114.94
314.853	117.94
315.083	105.94
315.312	109.94
315.542	111.94
315.771	120.94
316.001	118.94
316.23	116.94
316.46	115.94
316.689	112.94
316.919	109.94
317.148	112.94
317.377	128.94
317.607	117.94
317.836	115.94
318.065	123.94
318.295	109.94
318.524	113.94
318.753	116.94
318.983	99.94
319.212	123.94
319.441	102.94
319.67	117.94
319.9	120.94
320.129	112.94
320.358	108.94
320.587	109.94
320.816	110.94
321.046	103.94
321.275	123.94
321.504	111.94
321.733	118.94
321.962	119.94
322.191	104.94
322.42	99.94
322.649	108.94
322.878	106.94
323.108	102.94
323.337	114.94
323.566	107.94
323.795	126.94
324.024	115.94
324.253	115.94
324.482	115.94
324.71	117.94
324.939	122.94
325.168	116.94
325.397	116.94
325.626	121.94
325.855	111.94
326.084	116.94
326.313	110.94
326.542	113.94
326.77	117.94
326.999	107.94
327.228	115.94
327.457	120.94
327.686	117.94
327.914	122.94
328.143	128.94
328.372	115.94
328.6	105.94
328.829	111.94
329.058	122.94
329.287	113.94
329.515	113.94
329.744	125.94
329.972	108.94
330.201	116.94
330.43	129.94
330.658	112.94
330.887	121.94
331.115	118.94
331.344	114.94
331.572	108.94
331.801	130.94
332.03	128.94
332.258	128.94
332.486	128.94
332.715	118.94
332.943	110.94
333.172	120.94
333.4	132.94
333.629	131.94
333.857	122.94
334.085	120.94
334.314	124.94
334.542	143.94
334.771	133.94
334.999	120.94
335.227	135.94
335.455	120.94
335.684	124.94
335.912	136.94
336.14	134.94
336.369	123.94
336.597	118.94
336.825	131.94
337.053	128.94
337.281	129.94
337.51	116.94
337.738	124.94
337.966	126.94
338.194	136.94
338.422	120.94
338.65	126.94
338.878	127.94
339.106	132.94
339.334	137.94
339.562	124.94
339.79	113.94
340.018	118.94
340.246	132.94
340.474	118.94
340.702	121.94
340.93	109.94
341.158	121.94
341.386	123.94
341.614	120.94
341.842	121.94
342.07	110.94
342.298	120.94
342.526	129.94
342.754	115.94
342.981	116.94
343.209	125.94
343.437	128.94
343.665	129.94
343.893	118.94
344.12	129.94
344.348	123.94
344.576	131.94
344.804	121.94
345.031	136.94
345.259	103.94
345.487	117.94
345.714	111.94
345.942	130.94
346.17	110.94
346.397	119.94
346.625	116.94
346.853	111.94
347.08	126.94
347.308	120.94
347.535	121.94
347.763	111.94
347.99	112.94
348.218	107.94
348.445	124.94
348.673	109.94
348.9	117.94
349.128	118.94
349.355	107.94
349.583	111.94
349.81	123.94
350.037	133.94
350.265	132.94
350.492	111.94
350.72	128.94
350.947	127.94
351.174	123.94
351.402	120.94
351.629	101.94
351.856	124.94
352.083	108.94
352.311	121.94
352.538	140.94
352.765	105.94
352.992	130.94
353.22	125.94
353.447	119.94
353.674	124.94
353.901	129.94
354.128	121.94
354.355	112.94
354.583	120.94
354.81	117.94
355.037	119.94
355.264	110.94
355.491	127.94
355.718	115.94
355.945	128.94
356.172	128.94
356.399	138.94
356.626	124.94
356.853	112.94
357.08	121.94
357.307	112.94
357.534	105.94
357.761	124.94
357.988	125.94
358.215	116.94
358.441	128.94
358.668	133.94
358.895	124.94
359.122	115.94
359.349	133.94
359.576	117.94
359.802	117.94
360.029	125.94
360.256	115.94
360.483	108.94
360.709	105.94
360.936	125.94
361.163	115.94
361.39	136.94
361.616	136.94
361.843	122.94
362.07	112.94
362.296	122.94
362.523	120.94
362.749	133.94
362.976	116.94
363.203	123.94
363.429	102.94
363.656	119.94
363.882	108.94
364.109	108.94
364.335	126.94
364.562	112.94
364.788	124.94
365.015	118.94
365.241	128.94
365.468	126.94
365.694	116.94
365.92	114.94
366.147	120.94
366.373	128.94
366.599	122.94
366.826	125.94
367.052	122.94
367.278	117.94
367.505	131.94
367.731	123.94
367.957	119.94
368.184	118.94
368.41	110.94
368.636	122.94
368.862	127.94
369.089	126.94
369.315	110.94
369.541	129.94
369.767	118.94
369.993	132.94
370.219	127.94
370.445	118.94
370.672	126.94
370.898	135.94
371.124	118.94
371.35	106.94
371.576	135.94
371.802	136.94
372.028	126.94
372.254	136.94
372.48	125.94
372.706	128.94
372.932	124.94
373.158	123.94
373.384	138.94
373.61	137.94
373.835	141.94
374.061	107.94
374.287	139.94
374.513	123.94
374.739	140.94
374.965	152.94
375.191	135.94
375.416	136.94
375.642	129.94
375.868	140.94
376.094	128.94
376.319	141.94
376.545	136.94
376.771	127.94
376.997	121.94
377.222	122.94
377.448	121.94
377.674	129.94
377.899	132.94
378.125	136.94
378.35	127.94
378.576	123.94
378.802	136.94
379.027	120.94
379.253	117.94
379.478	123.94
379.704	130.94
379.929	135.94
380.155	132.94
380.38	140.94
380.606	124.94
380.831	129.94
381.057	139.94
381.282	133.94
381.507	140.94
381.733	136.94
381.958	112.94
382.184	126.94
382.409	119.94
382.634	128.94
382.86	137.94
383.085	128.94
383.31	126.94
383.535	133.94
383.761	143.94
383.986	133.94
384.211	148.94
384.436	144.94
384.662	159.94
384.887	154.94
385.112	148.94
385.337	149.94
385.562	144.94
385.787	146.94
386.013	155.94
386.238	137.94
386.463	139.94
386.688	176.94
386.913	153.94
387.138	144.94
387.363	145.94
387.588	143.94
387.813	146.94
388.038	142.94
388.263	151.94
388.488	149.94
388.713	133.94
388.938	135.94
389.163	139.94
389.387	148.94
389.612	137.94
389.837	137.94
390.062	143.94
390.287	141.94
390.512	136.94
390.736	136.94
390.961	146.94
391.186	132.94
391.411	145.94
391.636	136.94
391.86	152.94
392.085	145.94
392.31	136.94
392.534	148.94
392.759	151.94
392.984	140.94
393.208	135.94
393.433	144.94
393.658	152.94
393.882	127.94
394.107	136.94
394.331	153.94
394.556	148.94
394.78	153.94
395.005	148.94
395.229	139.94
395.454	135.94
395.678	133.94
395.903	133.94
396.127	156.94
396.352	145.94
396.576	139.94
396.801	157.94
397.025	128.94
397.249	137.94
397.474	142.94
397.698	134.94
397.922	149.94
398.147	155.94
398.371	155.94
398.595	149.94
398.82	153.94
399.044	155.94
399.268	165.94
399.492	183.94
399.717	166.94
399.941	164.94
400.165	166.94
400.389	167.94
400.613	160.94
400.837	161.94
401.062	158.94
401.286	157.94
401.51	150.94
401.734	156.94
401.958	148.94
402.182	156.94
402.406	168.94
402.63	153.94
402.854	176.94
403.078	160.94
403.302	152.94
403.526	146.94
403.75	148.94
403.974	161.94
404.198	146.94
404.422	159.94
404.645	177.94
404.869	152.94
405.093	149.94
405.317	156.94
405.541	156.94
405.765	166.94
405.988	153.94
406.212	147.94
406.436	159.94
406.66	157.94
406.883	160.94
407.107	180.94
407.331	167.94
407.555	166.94
407.778	191.94
408.002	174.94
408.226	176.94
408.449	160.94
408.673	160.94
408.896	164.94
409.12	168.94
409.344	152.94
409.567	160.94
409.791	161.94
410.014	169.94
410.238	173.94
410.461	165.94
410.685	158.94
410.908	163.94
411.132	153.94
411.355	166.94
411.578	157.94
411.802	154.94
412.025	160.94
412.249	179.94
412.472	151.94
412.695	174.94
412.919	172.94
413.142	148.94
413.365	142.94
413.589	155.94
413.812	163.94
414.035	163.94
414.258	158.94
414.482	152.94
414.705	149.94
414.928	157.94
415.151	149.94
415.374	175.94
415.597	168.94
415.821	159.94
416.044	168.94
416.267	171.94
416.49	144.94
416.713	161.94
416.936	143.94
417.159	167.94
417.382	159.94
417.605	166.94
417.828	172.94
418.051	153.94
418.274	151.94
418.497	154.94
418.72	167.94
418.943	159.94
419.166	165.94
419.389	186.94
419.611	165.94
419.834	180.94
420.057	161.94
420.28	158.94
420.503	149.94
420.726	170.94
420.948	152.94
421.171	157.94
421.394	154.94
421.617	169.94
421.839	163.94
422.062	149.94
422.285	156.94
422.507	160.94
422.73	144.94
422.953	146.94
423.175	157.94
423.398	157.94
423.621	143.94
423.843	172.94
424.066	165.94
424.288	160.94
424.511	155.94
424.733	150.94
424.956	163.94
425.178	142.94
425.401	158.94
425.623	150.94
425.846	169.94
426.068	171.94
426.291	143.94
426.513	155.94
426.735	164.94
426.958	156.94
427.18	152.94
427.402	151.94
427.625	148.94
427.847	145.94
428.069	145.94
428.292	147.94
428.514	135.94
428.736	147.94
428.958	140.94
429.181	143.94
429.403	157.94
429.625	150.94
429.847	149.94
430.069	143.94
430.292	152.94
430.514	140.94
430.736	152.94
430.958	149.94
431.18	147.94
431.402	168.94
431.624	155.94
431.846	127.94
432.068	129.94
432.29	158.94
432.512	145.94
432.734	136.94
432.956	156.94
433.178	163.94
433.4	139.94
433.622	153.94
433.844	149.94
434.066	150.94
434.287	163.94
434.509	139.94
434.731	137.94
434.953	151.94
435.175	160.94
435.397	161.94
435.618	152.94
435.84	140.94
436.062	154.94
436.284	150.94
436.505	144.94
436.727	171.94
436.949	147.94
437.17	139.94
437.392	151.94
437.614	149.94
437.835	144.94
438.057	145.94
438.278	154.94
438.5	137.94
438.721	142.94
438.943	146.94
439.165	141.94
439.386	137.94
439.608	155.94
439.829	141.94
440.05	150.94
440.272	143.94
440.493	149.94
440.715	157.94
440.936	158.94
441.158	152.94
441.379	139.94
441.6	150.94
441.822	150.94
442.043	149.94
442.264	155.94
442.486	149.94
442.707	166.94
442.928	163.94
443.149	155.94
443.371	161.94
443.592	150.94
443.813	160.94
444.034	175.94
444.255	165.94
444.476	167.94
444.698	163.94
444.919	155.94
445.14	259.94
445.361	188.94
445.582	154.94
445.803	166.94
446.024	143.94
446.245	148.94
446.466	159.94
446.687	136.94
446.908	159.94
447.129	151.94
447.35	135.94
447.571	134.94
447.792	147.94
448.013	152.94
448.234	135.94
448.455	144.94
448.675	149.94
448.896	145.94
449.117	151.94
449.338	154.94
449.559	154.94
449.779	150.94
450	138.94
450.221	147.94
450.442	139.94
450.662	140.94
450.883	143.94
451.104	148.94
451.324	129.94
451.545	137.94
451.766	154.94
451.986	146.94
452.207	147.94
452.428	144.94
452.648	148.94
452.869	164.94
453.089	138.94
453.31	126.94
453.53	131.94
453.751	128.94
453.971	129.94
454.192	141.94
454.412	142.94
454.633	134.94
454.853	124.94
455.073	144.94
455.294	142.94
455.514	141.94
455.734	143.94
455.955	131.94
456.175	141.94
456.395	125.94
456.616	133.94
456.836	147.94
457.056	125.94
457.276	137.94
457.497	120.94
457.717	126.94
457.937	152.94
458.157	125.94
458.377	131.94
458.598	128.94
458.818	142.94
459.038	130.94
459.258	140.94
459.478	146.94
459.698	148.94
459.918	146.94
460.138	135.94
460.358	151.94
460.578	156.94
460.798	148.94
461.018	156.94
461.238	159.94
461.458	139.94
461.678	156.94
461.898	157.94
462.118	156.94
462.338	172.94
462.558	176.94
462.777	180.94
462.997	172.94
463.217	159.94
463.437	160.94
463.657	168.94
463.876	171.94
464.096	158.94
464.316	176.94
464.536	161.94
464.755	163.94
464.975	168.94
465.195	158.94
465.414	150.94
465.634	126.94
465.854	150.94
466.073	160.94
466.293	162.94
466.512	155.94
466.732	158.94
466.951	154.94
467.171	152.94
467.391	154.94
467.61	158.94
467.829	146.94
468.049	146.94
468.268	155.94
468.488	140.94
468.707	149.94
468.927	161.94
469.146	140.94
469.365	151.94
469.585	143.94
469.804	150.94
470.023	126.94
470.243	156.94
470.462	152.94
470.681	155.94
470.901	152.94
471.12	157.94
471.339	151.94
471.558	150.94
471.777	153.94
471.997	139.94
472.216	143.94
472.435	142.94
472.654	148.94
472.873	133.94
473.092	142.94
473.311	139.94
473.53	153.94
473.749	147.94
473.968	143.94
474.187	142.94
474.406	134.94
474.625	143.94
474.844	149.94
475.063	136.94
475.282	155.94
475.501	131.94
475.72	156.94
475.939	160.94
476.158	156.94
476.377	150.94
476.596	146.94
476.814	137.94
477.033	156.94
477.252	151.94
477.471	165.94
477.69	155.94
477.908	160.94
478.127	168.94
478.346	153.94
478.564	165.94
478.783	175.94
479.002	168.94
479.22	169.94
479.439	163.94
479.658	182.94
479.876	183.94
480.095	155.94
480.313	156.94
480.532	182.94
480.751	164.94
480.969	161.94
481.188	163.94
481.406	165.94
481.624	167.94
481.843	158.94
482.061	163.94
482.28	177.94
482.498	169.94
482.717	157.94
482.935	156.94
483.153	145.94
483.372	167.94
483.59	173.94
483.808	160.94
484.027	150.94
484.245	157.94
484.463	146.94
484.681	170.94
484.9	165.94
485.118	169.94
485.336	164.94
485.554	158.94
485.772	175.94
485.99	150.94
486.209	173.94
486.427	172.94
486.645	156.94
486.863	160.94
487.081	160.94
487.299	172.94
487.517	163.94
487.735	181.94
487.953	175.94
488.171	174.94
488.389	163.94
488.607	167.94
488.825	166.94
489.043	147.94
489.261	158.94
489.479	167.94
489.696	183.94
489.914	165.94
490.132	158.94
490.35	160.94
490.568	184.94
490.786	172.94
491.003	168.94
491.221	193.94
491.439	168.94
491.657	160.94
491.874	183.94
492.092	173.94
492.31	171.94
492.527	187.94
492.745	173.94
492.963	173.94
493.18	183.94
493.398	168.94
493.615	175.94
493.833	175.94
494.05	187.94
494.268	162.94
494.485	181.94
494.703	177.94
494.92	187.94
495.138	154.94
495.355	179.94
495.573	186.94
495.79	175.94
496.008	206.94
496.225	184.94
496.442	179.94
496.66	179.94
496.877	188.94
497.094	179.94
497.312	180.94
497.529	175.94
497.746	171.94
497.963	176.94
498.181	181.94
498.398	192.94
498.615	198.94
498.832	201.94
499.049	211.94
499.267	236.94
499.484	234.94
499.701	247.94
499.918	262.94
500.135	263.94
500.352	269.94
500.569	295.94
500.786	270.94
501.003	282.94
501.22	272.94
501.437	224.94
501.654	212.94
501.871	220.94
502.088	209.94
502.305	207.94
502.522	187.94
502.739	191.94
502.956	196.94
503.172	202.94
503.389	176.94
503.606	199.94
503.823	192.94
504.04	185.94
504.256	182.94
504.473	181.94
504.69	175.94
504.907	193.94
505.123	185.94
505.34	182.94
505.557	168.94
505.773	175.94
505.99	165.94
506.207	154.94
