Data from StdC_HRD10591_086.txt Node
Date: Fri May 16 15:29:23 EDT 2025
User: Yrep
Spectrometer: HR+D1059
Trigger mode: 1
Integration Time (sec): 1.000000E-1
Scans to average: 1
Electric dark correction enabled: true
Nonlinearity correction enabled: false
Boxcar width: 0
XAxis mode: Wavelengths
Number of Pixels in Spectrum: 2048
>>>>>Begin Spectral Data<<<<<
223.165	-8.94
223.4	-8.94
223.635	-8.94
223.869	-32.94
224.104	-23.94
224.338	-5.94
224.573	-18.94
224.808	-15.94
225.042	-1.94
225.277	-6.94
225.511	-16.94
225.746	13.06
225.98	-1.94
226.215	8.06
226.449	23.06
226.683	30.06
226.918	23.06
227.152	37.06
227.387	41.06
227.621	40.06
227.856	39.06
228.09	61.06
228.324	49.06
228.559	46.06
228.793	55.06
229.027	74.06
229.262	68.06
229.496	69.06
229.73	78.06
229.964	82.06
230.199	85.06
230.433	87.06
230.667	85.06
230.901	93.06
231.136	98.06
231.37	90.06
231.604	90.06
231.838	100.06
232.072	80.06
232.306	92.06
232.541	86.06
232.775	89.06
233.009	88.06
233.243	93.06
233.477	83.06
233.711	96.06
233.945	107.06
234.179	106.06
234.413	96.06
234.647	89.06
234.881	89.06
235.115	97.06
235.349	95.06
235.583	94.06
235.817	77.06
236.051	92.06
236.285	92.06
236.519	101.06
236.753	78.06
236.987	88.06
237.221	89.06
237.455	80.06
237.689	90.06
237.922	95.06
238.156	92.06
238.39	87.06
238.624	90.06
238.858	104.06
239.091	87.06
239.325	90.06
239.559	98.06
239.793	72.06
240.027	97.06
240.26	102.06
240.494	93.06
240.728	96.06
240.961	108.06
241.195	101.06
241.429	94.06
241.662	86.06
241.896	98.06
242.13	102.06
242.363	93.06
242.597	92.06
242.83	97.06
243.064	100.06
243.298	106.06
243.531	105.06
243.765	101.06
243.998	98.06
244.232	100.06
244.465	93.06
244.699	97.06
244.932	101.06
245.166	98.06
245.399	96.06
245.633	84.06
245.866	112.06
246.099	107.06
246.333	105.06
246.566	106.06
246.8	98.06
247.033	105.06
247.266	104.06
247.5	100.06
247.733	103.06
247.966	125.06
248.2	114.06
248.433	102.06
248.666	113.06
248.899	111.06
249.133	130.06
249.366	109.06
249.599	112.06
249.832	119.06
250.066	134.06
250.299	160.06
250.532	196.06
250.765	161.06
250.998	144.06
251.231	136.06
251.465	128.06
251.698	129.06
251.931	125.06
252.164	117.06
252.397	116.06
252.63	118.06
252.863	120.06
253.096	121.06
253.329	111.06
253.562	125.06
253.795	123.06
254.028	125.06
254.261	113.06
254.494	133.06
254.727	126.06
254.96	137.06
255.193	143.06
255.426	145.06
255.659	183.06
255.892	257.06
256.124	288.06
256.357	252.06
256.59	201.06
256.823	170.06
257.056	153.06
257.289	142.06
257.521	154.06
257.754	152.06
257.987	149.06
258.22	131.06
258.452	127.06
258.685	138.06
258.918	135.06
259.151	132.06
259.383	135.06
259.616	144.06
259.849	127.06
260.081	127.06
260.314	141.06
260.547	136.06
260.779	135.06
261.012	136.06
261.244	121.06
261.477	142.06
261.71	133.06
261.942	124.06
262.175	129.06
262.407	149.06
262.64	116.06
262.872	127.06
263.105	131.06
263.337	129.06
263.57	125.06
263.802	130.06
264.035	121.06
264.267	127.06
264.499	112.06
264.732	136.06
264.964	128.06
265.197	118.06
265.429	123.06
265.661	125.06
265.894	124.06
266.126	124.06
266.358	126.06
266.591	127.06
266.823	142.06
267.055	113.06
267.287	114.06
267.52	122.06
267.752	131.06
267.984	130.06
268.216	140.06
268.448	124.06
268.681	120.06
268.913	142.06
269.145	138.06
269.377	129.06
269.609	142.06
269.841	137.06
270.073	130.06
270.306	129.06
270.538	133.06
270.77	132.06
271.002	132.06
271.234	143.06
271.466	152.06
271.698	161.06
271.93	130.06
272.162	140.06
272.394	132.06
272.626	141.06
272.858	144.06
273.09	136.06
273.322	147.06
273.553	128.06
273.785	135.06
274.017	139.06
274.249	143.06
274.481	145.06
274.713	167.06
274.945	154.06
275.176	153.06
275.408	148.06
275.64	171.06
275.872	192.06
276.104	184.06
276.335	167.06
276.567	182.06
276.799	169.06
277.031	214.06
277.262	212.06
277.494	208.06
277.726	197.06
277.957	182.06
278.189	200.06
278.421	186.06
278.652	169.06
278.884	158.06
279.115	174.06
279.347	194.06
279.579	202.06
279.81	210.06
280.042	244.06
280.273	264.06
280.505	235.06
280.736	220.06
280.968	183.06
281.199	184.06
281.431	165.06
281.662	154.06
281.894	164.06
282.125	142.06
282.356	164.06
282.588	154.06
282.819	170.06
283.051	168.06
283.282	152.06
283.513	172.06
283.745	172.06
283.976	167.06
284.207	168.06
284.439	153.06
284.67	169.06
284.901	158.06
285.132	159.06
285.364	159.06
285.595	158.06
285.826	171.06
286.057	159.06
286.288	139.06
286.52	169.06
286.751	153.06
286.982	146.06
287.213	151.06
287.444	159.06
287.675	166.06
287.906	152.06
288.138	157.06
288.369	155.06
288.6	170.06
288.831	154.06
289.062	162.06
289.293	169.06
289.524	157.06
289.755	156.06
289.986	149.06
290.217	146.06
290.448	148.06
290.679	161.06
290.91	162.06
291.141	164.06
291.371	161.06
291.602	147.06
291.833	153.06
292.064	146.06
292.295	169.06
292.526	148.06
292.757	155.06
292.987	135.06
293.218	135.06
293.449	142.06
293.68	145.06
293.91	154.06
294.141	150.06
294.372	151.06
294.603	147.06
294.833	168.06
295.064	150.06
295.295	150.06
295.525	144.06
295.756	150.06
295.987	141.06
296.217	149.06
296.448	151.06
296.679	151.06
296.909	161.06
297.14	157.06
297.37	157.06
297.601	142.06
297.831	165.06
298.062	152.06
298.292	153.06
298.523	152.06
298.753	145.06
298.984	156.06
299.214	167.06
299.445	150.06
299.675	169.06
299.905	164.06
300.136	160.06
300.366	158.06
300.597	166.06
300.827	167.06
301.057	141.06
301.288	154.06
301.518	165.06
301.748	180.06
301.979	181.06
302.209	168.06
302.439	174.06
302.669	175.06
302.9	158.06
303.13	161.06
303.36	181.06
303.59	188.06
303.82	208.06
304.051	188.06
304.281	175.06
304.511	161.06
304.741	168.06
304.971	159.06
305.201	150.06
305.431	167.06
305.661	179.06
305.891	180.06
306.121	159.06
306.352	167.06
306.582	186.06
306.812	180.06
307.042	187.06
307.272	225.06
307.502	223.06
307.731	225.06
307.961	192.06
308.191	168.06
308.421	177.06
308.651	157.06
308.881	153.06
309.111	177.06
309.341	165.06
309.571	177.06
309.8	167.06
310.03	165.06
310.26	170.06
310.49	168.06
310.72	183.06
310.949	171.06
311.179	166.06
311.409	178.06
311.639	176.06
311.868	170.06
312.098	180.06
312.328	177.06
312.557	160.06
312.787	184.06
313.017	172.06
313.246	159.06
313.476	198.06
313.706	166.06
313.935	165.06
314.165	166.06
314.394	165.06
314.624	179.06
314.853	166.06
315.083	161.06
315.312	171.06
315.542	184.06
315.771	160.06
316.001	172.06
316.23	179.06
316.46	192.06
316.689	173.06
316.919	176.06
317.148	194.06
317.377	178.06
317.607	188.06
317.836	177.06
318.065	177.06
318.295	177.06
318.524	166.06
318.753	184.06
318.983	177.06
319.212	191.06
319.441	175.06
319.67	178.06
319.9	189.06
320.129	188.06
320.358	181.06
320.587	189.06
320.816	184.06
321.046	188.06
321.275	186.06
321.504	198.06
321.733	182.06
321.962	191.06
322.191	205.06
322.42	201.06
322.649	203.06
322.878	198.06
323.108	207.06
323.337	212.06
323.566	192.06
323.795	208.06
324.024	214.06
324.253	202.06
324.482	201.06
324.71	218.06
324.939	216.06
325.168	220.06
325.397	222.06
325.626	225.06
325.855	226.06
326.084	247.06
326.313	255.06
326.542	237.06
326.77	281.06
326.999	268.06
327.228	294.06
327.457	328.06
327.686	406.06
327.914	509.06
328.143	693.06
328.372	720.06
328.6	511.06
328.829	393.06
329.058	381.06
329.287	402.06
329.515	478.06
329.744	640.06
329.972	954.06
330.201	1273.06
330.43	1266.06
330.658	748.06
330.887	484.06
331.115	367.06
331.344	321.06
331.572	333.06
331.801	316.06
332.03	306.06
332.258	312.06
332.486	305.06
332.715	339.06
332.943	354.06
333.172	381.06
333.4	450.06
333.629	514.06
333.857	709.06
334.085	1000.06
334.314	1432.06
334.542	1807.06
334.771	1411.06
334.999	742.06
335.227	486.06
335.455	409.06
335.684	363.06
335.912	310.06
336.14	310.06
336.369	275.06
336.597	266.06
336.825	254.06
337.053	237.06
337.281	243.06
337.51	240.06
337.738	231.06
337.966	234.06
338.194	218.06
338.422	210.06
338.65	232.06
338.878	216.06
339.106	217.06
339.334	204.06
339.562	205.06
339.79	200.06
340.018	199.06
340.246	186.06
340.474	192.06
340.702	193.06
340.93	213.06
341.158	191.06
341.386	194.06
341.614	182.06
341.842	200.06
342.07	202.06
342.298	212.06
342.526	193.06
342.754	188.06
342.981	195.06
343.209	192.06
343.437	210.06
343.665	209.06
343.893	211.06
344.12	189.06
344.348	191.06
344.576	195.06
344.804	188.06
345.031	193.06
345.259	212.06
345.487	184.06
345.714	176.06
345.942	184.06
346.17	178.06
346.397	194.06
346.625	182.06
346.853	187.06
347.08	180.06
347.308	190.06
347.535	178.06
347.763	184.06
347.99	184.06
348.218	192.06
348.445	189.06
348.673	189.06
348.9	193.06
349.128	169.06
349.355	190.06
349.583	191.06
349.81	192.06
350.037	195.06
350.265	196.06
350.492	174.06
350.72	188.06
350.947	185.06
351.174	201.06
351.402	175.06
351.629	194.06
351.856	190.06
352.083	199.06
352.311	176.06
352.538	183.06
352.765	189.06
352.992	185.06
353.22	174.06
353.447	186.06
353.674	184.06
353.901	175.06
354.128	182.06
354.355	198.06
354.583	201.06
354.81	191.06
355.037	192.06
355.264	190.06
355.491	188.06
355.718	166.06
355.945	170.06
356.172	174.06
356.399	182.06
356.626	168.06
356.853	170.06
357.08	172.06
357.307	178.06
357.534	180.06
357.761	190.06
357.988	172.06
358.215	171.06
358.441	181.06
358.668	190.06
358.895	172.06
359.122	165.06
359.349	180.06
359.576	186.06
359.802	188.06
360.029	195.06
360.256	174.06
360.483	184.06
360.709	160.06
360.936	172.06
361.163	187.06
361.39	178.06
361.616	199.06
361.843	161.06
362.07	186.06
362.296	164.06
362.523	172.06
362.749	177.06
362.976	187.06
363.203	188.06
363.429	172.06
363.656	185.06
363.882	176.06
364.109	168.06
364.335	165.06
364.562	160.06
364.788	175.06
365.015	180.06
365.241	181.06
365.468	186.06
365.694	181.06
365.92	194.06
366.147	192.06
366.373	187.06
366.599	192.06
366.826	172.06
367.052	185.06
367.278	173.06
367.505	166.06
367.731	189.06
367.957	176.06
368.184	182.06
368.41	186.06
368.636	183.06
368.862	188.06
369.089	183.06
369.315	174.06
369.541	194.06
369.767	191.06
369.993	176.06
370.219	166.06
370.445	179.06
370.672	182.06
370.898	177.06
371.124	188.06
371.35	186.06
371.576	182.06
371.802	194.06
372.028	185.06
372.254	185.06
372.48	187.06
372.706	189.06
372.932	164.06
373.158	191.06
373.384	195.06
373.61	169.06
373.835	176.06
374.061	197.06
374.287	184.06
374.513	186.06
374.739	183.06
374.965	182.06
375.191	178.06
375.416	168.06
375.642	194.06
375.868	183.06
376.094	185.06
376.319	193.06
376.545	162.06
376.771	206.06
376.997	199.06
377.222	180.06
377.448	191.06
377.674	180.06
377.899	193.06
378.125	176.06
378.35	182.06
378.576	168.06
378.802	176.06
379.027	194.06
379.253	193.06
379.478	191.06
379.704	179.06
379.929	180.06
380.155	182.06
380.38	187.06
380.606	185.06
380.831	188.06
381.057	180.06
381.282	184.06
381.507	197.06
381.733	184.06
381.958	180.06
382.184	189.06
382.409	186.06
382.634	181.06
382.86	193.06
383.085	188.06
383.31	194.06
383.535	182.06
383.761	202.06
383.986	192.06
384.211	200.06
384.436	199.06
384.662	192.06
384.887	198.06
385.112	216.06
385.337	184.06
385.562	197.06
385.787	198.06
386.013	195.06
386.238	198.06
386.463	194.06
386.688	216.06
386.913	204.06
387.138	202.06
387.363	204.06
387.588	198.06
387.813	201.06
388.038	209.06
388.263	198.06
388.488	192.06
388.713	205.06
388.938	198.06
389.163	214.06
389.387	202.06
389.612	206.06
389.837	186.06
390.062	190.06
390.287	195.06
390.512	204.06
390.736	206.06
390.961	198.06
391.186	216.06
391.411	221.06
391.636	209.06
391.86	208.06
392.085	199.06
392.31	202.06
392.534	210.06
392.759	208.06
392.984	206.06
393.208	199.06
393.433	206.06
393.658	208.06
393.882	222.06
394.107	208.06
394.331	217.06
394.556	196.06
394.78	191.06
395.005	216.06
395.229	215.06
395.454	224.06
395.678	228.06
395.903	218.06
396.127	224.06
396.352	209.06
396.576	216.06
396.801	220.06
397.025	208.06
397.249	222.06
397.474	226.06
397.698	212.06
397.922	227.06
398.147	217.06
398.371	209.06
398.595	225.06
398.82	231.06
399.044	226.06
399.268	252.06
399.492	252.06
399.717	280.06
399.941	257.06
400.165	255.06
400.389	251.06
400.613	239.06
400.837	242.06
401.062	241.06
401.286	241.06
401.51	234.06
401.734	224.06
401.958	215.06
402.182	241.06
402.406	246.06
402.63	246.06
402.854	235.06
403.078	252.06
403.302	249.06
403.526	244.06
403.75	243.06
403.974	249.06
404.198	247.06
404.422	261.06
404.645	252.06
404.869	281.06
405.093	302.06
405.317	316.06
405.541	306.06
405.765	271.06
405.988	281.06
406.212	280.06
406.436	256.06
406.66	261.06
406.883	244.06
407.107	257.06
407.331	260.06
407.555	256.06
407.778	260.06
408.002	255.06
408.226	244.06
408.449	249.06
408.673	249.06
408.896	253.06
409.12	254.06
409.344	237.06
409.567	256.06
409.791	244.06
410.014	229.06
410.238	240.06
410.461	253.06
410.685	242.06
410.908	252.06
411.132	243.06
411.355	251.06
411.578	265.06
411.802	255.06
412.025	276.06
412.249	288.06
412.472	298.06
412.695	330.06
412.919	301.06
413.142	297.06
413.365	279.06
413.589	265.06
413.812	255.06
414.035	260.06
414.258	263.06
414.482	256.06
414.705	249.06
414.928	228.06
415.151	240.06
415.374	250.06
415.597	248.06
415.821	255.06
416.044	253.06
416.267	248.06
416.49	228.06
416.713	232.06
416.936	235.06
417.159	248.06
417.382	259.06
417.605	264.06
417.828	263.06
418.051	254.06
418.274	254.06
418.497	236.06
418.72	234.06
418.943	233.06
419.166	245.06
419.389	261.06
419.611	261.06
419.834	280.06
420.057	286.06
420.28	307.06
420.503	293.06
420.726	272.06
420.948	286.06
421.171	263.06
421.394	262.06
421.617	235.06
421.839	251.06
422.062	249.06
422.285	258.06
422.507	247.06
422.73	245.06
422.953	235.06
423.175	233.06
423.398	247.06
423.621	235.06
423.843	249.06
424.066	247.06
424.288	216.06
424.511	226.06
424.733	262.06
424.956	236.06
425.178	233.06
425.401	233.06
425.623	252.06
425.846	242.06
426.068	232.06
426.291	238.06
426.513	243.06
426.735	236.06
426.958	229.06
427.18	246.06
427.402	261.06
427.625	289.06
427.847	298.06
428.069	330.06
428.292	300.06
428.514	248.06
428.736	232.06
428.958	240.06
429.181	229.06
429.403	228.06
429.625	236.06
429.847	226.06
430.069	222.06
430.292	229.06
430.514	222.06
430.736	223.06
430.958	230.06
431.18	230.06
431.402	219.06
431.624	222.06
431.846	217.06
432.068	217.06
432.29	228.06
432.512	207.06
432.734	211.06
432.956	219.06
433.178	222.06
433.4	227.06
433.622	225.06
433.844	220.06
434.066	225.06
434.287	221.06
434.509	208.06
434.731	212.06
434.953	233.06
435.175	230.06
435.397	234.06
435.618	219.06
435.84	238.06
436.062	224.06
436.284	214.06
436.505	199.06
436.727	216.06
436.949	232.06
437.17	219.06
437.392	216.06
437.614	206.06
437.835	216.06
438.057	205.06
438.278	214.06
438.5	223.06
438.721	220.06
438.943	224.06
439.165	224.06
439.386	229.06
439.608	219.06
439.829	214.06
440.05	226.06
440.272	218.06
440.493	208.06
440.715	226.06
440.936	232.06
441.158	223.06
441.379	223.06
441.6	230.06
441.822	232.06
442.043	213.06
442.264	230.06
442.486	219.06
442.707	224.06
442.928	234.06
443.149	225.06
443.371	230.06
443.592	233.06
443.813	223.06
444.034	228.06
444.255	226.06
444.476	243.06
444.698	244.06
444.919	217.06
445.14	320.06
445.361	277.06
445.582	224.06
445.803	231.06
446.024	218.06
446.245	221.06
446.466	212.06
446.687	210.06
446.908	228.06
447.129	200.06
447.35	213.06
447.571	205.06
447.792	200.06
448.013	211.06
448.234	213.06
448.455	193.06
448.675	224.06
448.896	202.06
449.117	215.06
449.338	218.06
449.559	216.06
449.779	208.06
450	204.06
450.221	205.06
450.442	206.06
450.662	203.06
450.883	202.06
451.104	220.06
451.324	206.06
451.545	207.06
451.766	204.06
451.986	194.06
452.207	205.06
452.428	204.06
452.648	192.06
452.869	196.06
453.089	176.06
453.31	199.06
453.53	184.06
453.751	187.06
453.971	188.06
454.192	200.06
454.412	209.06
454.633	201.06
454.853	202.06
455.073	214.06
455.294	191.06
455.514	196.06
455.734	204.06
455.955	188.06
456.175	212.06
456.395	206.06
456.616	210.06
456.836	205.06
457.056	195.06
457.276	193.06
457.497	224.06
457.717	208.06
457.937	207.06
458.157	217.06
458.377	207.06
458.598	205.06
458.818	224.06
459.038	216.06
459.258	212.06
459.478	208.06
459.698	214.06
459.918	212.06
460.138	222.06
460.358	230.06
460.578	231.06
460.798	223.06
461.018	236.06
461.238	234.06
461.458	239.06
461.678	231.06
461.898	222.06
462.118	232.06
462.338	240.06
462.558	246.06
462.777	253.06
462.997	249.06
463.217	270.06
463.437	255.06
463.657	269.06
463.876	257.06
464.096	253.06
464.316	242.06
464.536	237.06
464.755	233.06
464.975	253.06
465.195	248.06
465.414	242.06
465.634	232.06
465.854	235.06
466.073	229.06
466.293	237.06
466.512	238.06
466.732	252.06
466.951	256.06
467.171	265.06
467.391	244.06
467.61	281.06
467.829	370.06
468.049	638.06
468.268	784.06
468.488	456.06
468.707	338.06
468.927	278.06
469.146	268.06
469.365	261.06
469.585	268.06
469.804	261.06
470.023	260.06
470.243	266.06
470.462	246.06
470.681	266.06
470.901	262.06
471.12	262.06
471.339	290.06
471.558	296.06
471.777	340.06
471.997	526.06
472.216	1074.06
472.435	1659.06
472.654	921.06
472.873	544.06
473.092	436.06
473.311	360.06
473.53	338.06
473.749	296.06
473.968	292.06
474.187	262.06
474.406	287.06
474.625	267.06
474.844	258.06
475.063	264.06
475.282	241.06
475.501	237.06
475.72	263.06
475.939	260.06
476.158	264.06
476.377	259.06
476.596	241.06
476.814	255.06
477.033	248.06
477.252	249.06
477.471	249.06
477.69	245.06
477.908	260.06
478.127	274.06
478.346	281.06
478.564	282.06
478.783	287.06
479.002	278.06
479.22	284.06
479.439	297.06
479.658	288.06
479.876	332.06
480.095	329.06
480.313	364.06
480.532	459.06
480.751	604.06
480.969	1165.06
481.188	2588.06
481.406	2094.06
481.624	989.06
481.843	697.06
482.061	536.06
482.28	483.06
482.498	420.06
482.717	401.06
482.935	370.06
483.153	347.06
483.372	349.06
483.59	336.06
483.808	308.06
484.027	304.06
484.245	318.06
484.463	312.06
484.681	294.06
484.9	296.06
485.118	302.06
485.336	284.06
485.554	282.06
485.772	293.06
485.99	296.06
486.209	296.06
486.427	291.06
486.645	299.06
486.863	281.06
487.081	292.06
487.299	294.06
487.517	296.06
487.735	294.06
487.953	296.06
488.171	290.06
488.389	308.06
488.607	301.06
488.825	289.06
489.043	308.06
489.261	318.06
489.479	300.06
489.696	323.06
489.914	303.06
490.132	326.06
490.35	326.06
490.568	357.06
490.786	357.06
491.003	394.06
491.221	422.06
491.439	442.06
491.657	448.06
491.874	444.06
492.092	450.06
492.31	458.06
492.527	514.06
492.745	500.06
492.963	522.06
493.18	472.06
493.398	447.06
493.615	446.06
493.833	404.06
494.05	391.06
494.268	385.06
494.485	402.06
494.703	390.06
494.92	370.06
495.138	359.06
495.355	360.06
495.573	344.06
495.79	348.06
496.008	327.06
496.225	337.06
496.442	335.06
496.66	356.06
496.877	320.06
497.094	338.06
497.312	338.06
497.529	319.06
497.746	335.06
497.963	337.06
498.181	331.06
498.398	336.06
498.615	351.06
498.832	331.06
499.049	370.06
499.267	340.06
499.484	382.06
499.701	395.06
499.918	414.06
500.135	434.06
500.352	472.06
500.569	496.06
500.786	486.06
501.003	460.06
501.22	413.06
501.437	406.06
501.654	377.06
501.871	359.06
502.088	340.06
502.305	360.06
502.522	337.06
502.739	313.06
502.956	316.06
503.172	303.06
503.389	298.06
