Data from StdC_HRD10591_007.txt Node
Date: Fri May 16 15:28:44 EDT 2025
User: Yrep
Spectrometer: HR+D1059
Trigger mode: 1
Integration Time (sec): 1.000000E-1
Scans to average: 1
Electric dark correction enabled: true
Nonlinearity correction enabled: false
Boxcar width: 0
XAxis mode: Wavelengths
Number of Pixels in Spectrum: 2048
>>>>>Begin Spectral Data<<<<<
223.165	-5.81
223.4	-5.81
223.635	-5.81
223.869	-23.81
224.104	-19.81
224.338	-22.81
224.573	-11.81
224.808	-14.81
225.042	0.19
225.277	-4.81
225.511	3.19
225.746	6.19
225.98	-4.81
226.215	-8.81
226.449	26.19
226.683	25.19
226.918	33.19
227.152	23.19
227.387	26.19
227.621	38.19
227.856	34.19
228.09	48.19
228.324	57.19
228.559	57.19
228.793	53.19
229.027	56.19
229.262	72.19
229.496	53.19
229.73	66.19
229.964	70.19
230.199	90.19
230.433	74.19
230.667	74.19
230.901	76.19
231.136	79.19
231.37	84.19
231.604	82.19
231.838	91.19
232.072	75.19
232.306	91.19
232.541	74.19
232.775	80.19
233.009	86.19
233.243	75.19
233.477	89.19
233.711	74.19
233.945	85.19
234.179	76.19
234.413	79.19
234.647	85.19
234.881	81.19
235.115	79.19
235.349	82.19
235.583	81.19
235.817	72.19
236.051	69.19
236.285	66.19
236.519	80.19
236.753	69.19
236.987	64.19
237.221	69.19
237.455	88.19
237.689	61.19
237.922	61.19
238.156	92.19
238.39	79.19
238.624	75.19
238.858	82.19
239.091	76.19
239.325	78.19
239.559	80.19
239.793	94.19
240.027	96.19
240.26	77.19
240.494	76.19
240.728	69.19
240.961	76.19
241.195	72.19
241.429	75.19
241.662	74.19
241.896	88.19
242.13	83.19
242.363	70.19
242.597	73.19
242.83	102.19
243.064	68.19
243.298	69.19
243.531	74.19
243.765	68.19
243.998	81.19
244.232	83.19
244.465	72.19
244.699	80.19
244.932	73.19
245.166	80.19
245.399	93.19
245.633	84.19
245.866	68.19
246.099	63.19
246.333	74.19
246.566	74.19
246.8	85.19
247.033	64.19
247.266	60.19
247.5	77.19
247.733	72.19
247.966	67.19
248.2	76.19
248.433	72.19
248.666	89.19
248.899	79.19
249.133	74.19
249.366	93.19
249.599	77.19
249.832	81.19
250.066	82.19
250.299	59.19
250.532	69.19
250.765	80.19
250.998	86.19
251.231	79.19
251.465	84.19
251.698	78.19
251.931	79.19
252.164	88.19
252.397	74.19
252.63	83.19
252.863	68.19
253.096	67.19
253.329	80.19
253.562	73.19
253.795	68.19
254.028	81.19
254.261	68.19
254.494	82.19
254.727	84.19
254.96	73.19
255.193	84.19
255.426	76.19
255.659	70.19
255.892	86.19
256.124	90.19
256.357	87.19
256.59	86.19
256.823	85.19
257.056	72.19
257.289	74.19
257.521	77.19
257.754	72.19
257.987	70.19
258.22	85.19
258.452	71.19
258.685	76.19
258.918	97.19
259.151	74.19
259.383	77.19
259.616	81.19
259.849	79.19
260.081	75.19
260.314	76.19
260.547	80.19
260.779	71.19
261.012	80.19
261.244	91.19
261.477	86.19
261.71	76.19
261.942	85.19
262.175	68.19
262.407	72.19
262.64	67.19
262.872	77.19
263.105	72.19
263.337	82.19
263.57	78.19
263.802	65.19
264.035	77.19
264.267	65.19
264.499	77.19
264.732	82.19
264.964	81.19
265.197	73.19
265.429	76.19
265.661	89.19
265.894	76.19
266.126	86.19
266.358	82.19
266.591	93.19
266.823	72.19
267.055	79.19
267.287	90.19
267.52	90.19
267.752	88.19
267.984	85.19
268.216	82.19
268.448	85.19
268.681	85.19
268.913	84.19
269.145	90.19
269.377	73.19
269.609	80.19
269.841	76.19
270.073	92.19
270.306	93.19
270.538	82.19
270.77	86.19
271.002	75.19
271.234	75.19
271.466	89.19
271.698	73.19
271.93	71.19
272.162	73.19
272.394	91.19
272.626	72.19
272.858	69.19
273.09	79.19
273.322	82.19
273.553	91.19
273.785	83.19
274.017	82.19
274.249	80.19
274.481	79.19
274.713	90.19
274.945	88.19
275.176	86.19
275.408	84.19
275.64	80.19
275.872	89.19
276.104	81.19
276.335	90.19
276.567	90.19
276.799	85.19
277.031	70.19
277.262	84.19
277.494	93.19
277.726	88.19
277.957	65.19
278.189	75.19
278.421	88.19
278.652	80.19
278.884	92.19
279.115	86.19
279.347	91.19
279.579	105.19
279.81	82.19
280.042	86.19
280.273	104.19
280.505	95.19
280.736	88.19
280.968	76.19
281.199	86.19
281.431	73.19
281.662	89.19
281.894	85.19
282.125	86.19
282.356	74.19
282.588	93.19
282.819	95.19
283.051	82.19
283.282	87.19
283.513	89.19
283.745	73.19
283.976	81.19
284.207	82.19
284.439	91.19
284.67	81.19
284.901	90.19
285.132	90.19
285.364	82.19
285.595	84.19
285.826	65.19
286.057	86.19
286.288	86.19
286.52	88.19
286.751	92.19
286.982	101.19
287.213	101.19
287.444	98.19
287.675	88.19
287.906	76.19
288.138	69.19
288.369	86.19
288.6	98.19
288.831	90.19
289.062	86.19
289.293	88.19
289.524	78.19
289.755	86.19
289.986	84.19
290.217	84.19
290.448	77.19
290.679	86.19
290.91	68.19
291.141	81.19
291.371	92.19
291.602	79.19
291.833	88.19
292.064	90.19
292.295	91.19
292.526	91.19
292.757	77.19
292.987	86.19
293.218	85.19
293.449	75.19
293.68	92.19
293.91	80.19
294.141	85.19
294.372	73.19
294.603	78.19
294.833	82.19
295.064	91.19
295.295	76.19
295.525	101.19
295.756	83.19
295.987	92.19
296.217	80.19
296.448	85.19
296.679	95.19
296.909	98.19
297.14	103.19
297.37	68.19
297.601	84.19
297.831	101.19
298.062	74.19
298.292	79.19
298.523	85.19
298.753	78.19
298.984	77.19
299.214	89.19
299.445	86.19
299.675	73.19
299.905	81.19
300.136	81.19
300.366	73.19
300.597	75.19
300.827	88.19
301.057	75.19
301.288	89.19
301.518	82.19
301.748	85.19
301.979	108.19
302.209	79.19
302.439	86.19
302.669	84.19
302.9	92.19
303.13	80.19
303.36	88.19
303.59	93.19
303.82	85.19
304.051	83.19
304.281	81.19
304.511	94.19
304.741	89.19
304.971	75.19
305.201	86.19
305.431	97.19
305.661	79.19
305.891	83.19
306.121	81.19
306.352	74.19
306.582	91.19
306.812	83.19
307.042	93.19
307.272	79.19
307.502	88.19
307.731	81.19
307.961	81.19
308.191	86.19
308.421	74.19
308.651	78.19
308.881	73.19
309.111	97.19
309.341	78.19
309.571	94.19
309.8	85.19
310.03	91.19
310.26	86.19
310.49	80.19
310.72	80.19
310.949	79.19
311.179	80.19
311.409	75.19
311.639	81.19
311.868	82.19
312.098	77.19
312.328	90.19
312.557	91.19
312.787	84.19
313.017	71.19
313.246	80.19
313.476	74.19
313.706	77.19
313.935	96.19
314.165	87.19
314.394	97.19
314.624	91.19
314.853	83.19
315.083	87.19
315.312	98.19
315.542	87.19
315.771	86.19
316.001	77.19
316.23	82.19
316.46	77.19
316.689	76.19
316.919	65.19
317.148	74.19
317.377	100.19
317.607	86.19
317.836	87.19
318.065	84.19
318.295	73.19
318.524	84.19
318.753	81.19
318.983	87.19
319.212	79.19
319.441	86.19
319.67	88.19
319.9	79.19
320.129	86.19
320.358	86.19
320.587	81.19
320.816	86.19
321.046	85.19
321.275	78.19
321.504	92.19
321.733	86.19
321.962	84.19
322.191	77.19
322.42	82.19
322.649	81.19
322.878	85.19
323.108	80.19
323.337	81.19
323.566	77.19
323.795	77.19
324.024	88.19
324.253	84.19
324.482	87.19
324.71	88.19
324.939	87.19
325.168	83.19
325.397	77.19
325.626	77.19
325.855	88.19
326.084	88.19
326.313	94.19
326.542	75.19
326.77	89.19
326.999	89.19
327.228	79.19
327.457	78.19
327.686	104.19
327.914	94.19
328.143	130.19
328.372	116.19
328.6	95.19
328.829	94.19
329.058	93.19
329.287	92.19
329.515	103.19
329.744	112.19
329.972	137.19
330.201	158.19
330.43	188.19
330.658	118.19
330.887	88.19
331.115	93.19
331.344	89.19
331.572	84.19
331.801	106.19
332.03	86.19
332.258	86.19
332.486	86.19
332.715	80.19
332.943	88.19
333.172	94.19
333.4	88.19
333.629	89.19
333.857	95.19
334.085	122.19
334.314	164.19
334.542	230.19
334.771	190.19
334.999	113.19
335.227	70.19
335.455	90.19
335.684	81.19
335.912	85.19
336.14	81.19
336.369	83.19
336.597	79.19
336.825	93.19
337.053	82.19
337.281	85.19
337.51	88.19
337.738	77.19
337.966	86.19
338.194	88.19
338.422	91.19
338.65	90.19
338.878	90.19
339.106	71.19
339.334	78.19
339.562	85.19
339.79	73.19
340.018	88.19
340.246	64.19
340.474	78.19
340.702	87.19
340.93	77.19
341.158	65.19
341.386	94.19
341.614	84.19
341.842	88.19
342.07	93.19
342.298	85.19
342.526	79.19
342.754	86.19
342.981	87.19
343.209	64.19
343.437	89.19
343.665	80.19
343.893	87.19
344.12	87.19
344.348	80.19
344.576	91.19
344.804	86.19
345.031	72.19
345.259	75.19
345.487	89.19
345.714	88.19
345.942	97.19
346.17	82.19
346.397	92.19
346.625	74.19
346.853	95.19
347.08	98.19
347.308	62.19
347.535	73.19
347.763	88.19
347.99	91.19
348.218	89.19
348.445	80.19
348.673	86.19
348.9	86.19
349.128	89.19
349.355	68.19
349.583	81.19
349.81	64.19
350.037	76.19
350.265	84.19
350.492	95.19
350.72	78.19
350.947	79.19
351.174	98.19
351.402	93.19
351.629	76.19
351.856	89.19
352.083	78.19
352.311	95.19
352.538	84.19
352.765	83.19
352.992	84.19
353.22	93.19
353.447	66.19
353.674	89.19
353.901	78.19
354.128	72.19
354.355	80.19
354.583	79.19
354.81	89.19
355.037	88.19
355.264	85.19
355.491	63.19
355.718	95.19
355.945	77.19
356.172	78.19
356.399	93.19
356.626	77.19
356.853	80.19
357.08	90.19
357.307	92.19
357.534	88.19
357.761	92.19
357.988	84.19
358.215	88.19
358.441	72.19
358.668	88.19
358.895	69.19
359.122	87.19
359.349	68.19
359.576	77.19
359.802	80.19
360.029	73.19
360.256	92.19
360.483	86.19
360.709	81.19
360.936	77.19
361.163	69.19
361.39	85.19
361.616	84.19
361.843	83.19
362.07	93.19
362.296	80.19
362.523	88.19
362.749	70.19
362.976	88.19
363.203	85.19
363.429	78.19
363.656	90.19
363.882	82.19
364.109	89.19
364.335	103.19
364.562	87.19
364.788	79.19
365.015	85.19
365.241	86.19
365.468	70.19
365.694	71.19
365.92	86.19
366.147	87.19
366.373	90.19
366.599	85.19
366.826	94.19
367.052	83.19
367.278	99.19
367.505	85.19
367.731	93.19
367.957	80.19
368.184	82.19
368.41	92.19
368.636	92.19
368.862	85.19
369.089	87.19
369.315	88.19
369.541	85.19
369.767	72.19
369.993	86.19
370.219	66.19
370.445	78.19
370.672	90.19
370.898	80.19
371.124	86.19
371.35	87.19
371.576	80.19
371.802	89.19
372.028	82.19
372.254	84.19
372.48	82.19
372.706	87.19
372.932	82.19
373.158	77.19
373.384	89.19
373.61	89.19
373.835	74.19
374.061	78.19
374.287	97.19
374.513	82.19
374.739	78.19
374.965	85.19
375.191	85.19
375.416	73.19
375.642	79.19
375.868	74.19
376.094	82.19
376.319	71.19
376.545	77.19
376.771	88.19
376.997	85.19
377.222	86.19
377.448	72.19
377.674	95.19
377.899	84.19
378.125	72.19
378.35	72.19
378.576	76.19
378.802	79.19
379.027	90.19
379.253	84.19
379.478	74.19
379.704	84.19
379.929	70.19
380.155	66.19
380.38	80.19
380.606	76.19
380.831	92.19
381.057	83.19
381.282	65.19
381.507	76.19
381.733	86.19
381.958	89.19
382.184	79.19
382.409	72.19
382.634	98.19
382.86	91.19
383.085	86.19
383.31	86.19
383.535	89.19
383.761	88.19
383.986	92.19
384.211	80.19
384.436	80.19
384.662	80.19
384.887	81.19
385.112	76.19
385.337	80.19
385.562	86.19
385.787	89.19
386.013	70.19
386.238	74.19
386.463	88.19
386.688	107.19
386.913	97.19
387.138	94.19
387.363	90.19
387.588	85.19
387.813	85.19
388.038	88.19
388.263	86.19
388.488	90.19
388.713	82.19
388.938	92.19
389.163	70.19
389.387	75.19
389.612	81.19
389.837	85.19
390.062	81.19
390.287	86.19
390.512	89.19
390.736	85.19
390.961	82.19
391.186	81.19
391.411	77.19
391.636	66.19
391.86	81.19
392.085	78.19
392.31	88.19
392.534	95.19
392.759	81.19
392.984	69.19
393.208	88.19
393.433	84.19
393.658	82.19
393.882	85.19
394.107	76.19
394.331	86.19
394.556	82.19
394.78	96.19
395.005	81.19
395.229	90.19
395.454	60.19
395.678	91.19
395.903	97.19
396.127	80.19
396.352	89.19
396.576	101.19
396.801	95.19
397.025	80.19
397.249	78.19
397.474	85.19
397.698	66.19
397.922	95.19
398.147	76.19
398.371	86.19
398.595	74.19
398.82	93.19
399.044	78.19
399.268	88.19
399.492	82.19
399.717	79.19
399.941	89.19
400.165	69.19
400.389	92.19
400.613	80.19
400.837	87.19
401.062	84.19
401.286	87.19
401.51	78.19
401.734	65.19
401.958	83.19
402.182	102.19
402.406	80.19
402.63	82.19
402.854	77.19
403.078	86.19
403.302	74.19
403.526	71.19
403.75	88.19
403.974	75.19
404.198	87.19
404.422	84.19
404.645	74.19
404.869	87.19
405.093	90.19
405.317	83.19
405.541	91.19
405.765	81.19
405.988	92.19
406.212	80.19
406.436	67.19
406.66	88.19
406.883	76.19
407.107	78.19
407.331	84.19
407.555	95.19
407.778	84.19
408.002	61.19
408.226	79.19
408.449	79.19
408.673	62.19
408.896	80.19
409.12	83.19
409.344	80.19
409.567	82.19
409.791	68.19
410.014	80.19
410.238	89.19
410.461	81.19
410.685	83.19
410.908	80.19
411.132	74.19
411.355	83.19
411.578	93.19
411.802	82.19
412.025	75.19
412.249	85.19
412.472	90.19
412.695	88.19
412.919	85.19
413.142	89.19
413.365	92.19
413.589	82.19
413.812	70.19
414.035	89.19
414.258	82.19
414.482	92.19
414.705	86.19
414.928	83.19
415.151	74.19
415.374	82.19
415.597	80.19
415.821	78.19
416.044	90.19
416.267	65.19
416.49	68.19
416.713	71.19
416.936	70.19
417.159	76.19
417.382	94.19
417.605	78.19
417.828	93.19
418.051	84.19
418.274	74.19
418.497	81.19
418.72	88.19
418.943	79.19
419.166	75.19
419.389	87.19
419.611	89.19
419.834	63.19
420.057	83.19
420.28	77.19
420.503	94.19
420.726	86.19
420.948	80.19
421.171	74.19
421.394	84.19
421.617	81.19
421.839	82.19
422.062	82.19
422.285	83.19
422.507	89.19
422.73	90.19
422.953	86.19
423.175	69.19
423.398	63.19
423.621	66.19
423.843	73.19
424.066	84.19
424.288	89.19
424.511	87.19
424.733	79.19
424.956	78.19
425.178	92.19
425.401	93.19
425.623	72.19
425.846	66.19
426.068	84.19
426.291	78.19
426.513	90.19
426.735	80.19
426.958	90.19
427.18	84.19
427.402	72.19
427.625	97.19
427.847	93.19
428.069	87.19
428.292	90.19
428.514	80.19
428.736	84.19
428.958	87.19
429.181	84.19
429.403	74.19
429.625	92.19
429.847	65.19
430.069	80.19
430.292	95.19
430.514	60.19
430.736	78.19
430.958	89.19
431.18	78.19
431.402	72.19
431.624	79.19
431.846	89.19
432.068	82.19
432.29	88.19
432.512	87.19
432.734	77.19
432.956	88.19
433.178	74.19
433.4	80.19
433.622	91.19
433.844	70.19
434.066	88.19
434.287	77.19
434.509	90.19
434.731	84.19
434.953	81.19
435.175	72.19
435.397	81.19
435.618	78.19
435.84	89.19
436.062	74.19
436.284	88.19
436.505	87.19
436.727	78.19
436.949	80.19
437.17	87.19
437.392	88.19
437.614	80.19
437.835	89.19
438.057	70.19
438.278	90.19
438.5	86.19
438.721	89.19
438.943	93.19
439.165	85.19
439.386	65.19
439.608	87.19
439.829	80.19
440.05	88.19
440.272	78.19
440.493	91.19
440.715	86.19
440.936	91.19
441.158	76.19
441.379	81.19
441.6	92.19
441.822	96.19
442.043	84.19
442.264	80.19
442.486	92.19
442.707	102.19
442.928	88.19
443.149	92.19
443.371	74.19
443.592	79.19
443.813	77.19
444.034	81.19
444.255	70.19
444.476	81.19
444.698	91.19
444.919	74.19
445.14	139.19
445.361	116.19
445.582	104.19
445.803	79.19
446.024	72.19
446.245	87.19
446.466	88.19
446.687	75.19
446.908	88.19
447.129	79.19
447.35	61.19
447.571	74.19
447.792	79.19
448.013	76.19
448.234	80.19
448.455	95.19
448.675	71.19
448.896	97.19
449.117	97.19
449.338	70.19
449.559	78.19
449.779	78.19
450	75.19
450.221	82.19
450.442	80.19
450.662	76.19
450.883	85.19
451.104	89.19
451.324	78.19
451.545	79.19
451.766	76.19
451.986	88.19
452.207	80.19
452.428	79.19
452.648	93.19
452.869	80.19
453.089	79.19
453.31	73.19
453.53	71.19
453.751	79.19
453.971	94.19
454.192	64.19
454.412	86.19
454.633	78.19
454.853	77.19
455.073	74.19
455.294	63.19
455.514	74.19
455.734	83.19
455.955	82.19
456.175	87.19
456.395	91.19
456.616	67.19
456.836	80.19
457.056	72.19
457.276	86.19
457.497	78.19
457.717	85.19
457.937	77.19
458.157	78.19
458.377	74.19
458.598	92.19
458.818	89.19
459.038	90.19
459.258	64.19
459.478	58.19
459.698	78.19
459.918	88.19
460.138	78.19
460.358	91.19
460.578	72.19
460.798	77.19
461.018	86.19
461.238	79.19
461.458	87.19
461.678	80.19
461.898	88.19
462.118	84.19
462.338	89.19
462.558	76.19
462.777	74.19
462.997	107.19
463.217	96.19
463.437	84.19
463.657	71.19
463.876	82.19
464.096	92.19
464.316	80.19
464.536	74.19
464.755	70.19
464.975	70.19
465.195	72.19
465.414	90.19
465.634	89.19
465.854	83.19
466.073	90.19
466.293	91.19
466.512	72.19
466.732	84.19
466.951	85.19
467.171	88.19
467.391	90.19
467.61	94.19
467.829	100.19
468.049	161.19
468.268	182.19
468.488	101.19
468.707	72.19
468.927	77.19
469.146	78.19
469.365	90.19
469.585	84.19
469.804	82.19
470.023	83.19
470.243	90.19
470.462	79.19
470.681	79.19
470.901	85.19
471.12	100.19
471.339	81.19
471.558	77.19
471.777	100.19
471.997	117.19
472.216	233.19
472.435	301.19
472.654	117.19
472.873	91.19
473.092	83.19
473.311	82.19
473.53	85.19
473.749	84.19
473.968	86.19
474.187	80.19
474.406	90.19
474.625	87.19
474.844	100.19
475.063	88.19
475.282	87.19
475.501	101.19
475.72	90.19
475.939	88.19
476.158	77.19
476.377	78.19
476.596	89.19
476.814	86.19
477.033	72.19
477.252	83.19
477.471	90.19
477.69	90.19
477.908	92.19
478.127	86.19
478.346	79.19
478.564	85.19
478.783	75.19
479.002	91.19
479.22	95.19
479.439	105.19
479.658	82.19
479.876	90.19
480.095	77.19
480.313	91.19
480.532	93.19
480.751	110.19
480.969	219.19
481.188	472.19
481.406	264.19
481.624	94.19
481.843	80.19
482.061	86.19
482.28	86.19
482.498	74.19
482.717	85.19
482.935	99.19
483.153	88.19
483.372	90.19
483.59	86.19
483.808	90.19
484.027	87.19
484.245	89.19
484.463	71.19
484.681	83.19
484.9	71.19
485.118	73.19
485.336	75.19
485.554	81.19
485.772	72.19
485.99	86.19
486.209	79.19
486.427	82.19
486.645	86.19
486.863	78.19
487.081	79.19
487.299	80.19
487.517	79.19
487.735	96.19
487.953	94.19
488.171	89.19
488.389	72.19
488.607	78.19
488.825	76.19
489.043	80.19
489.261	82.19
489.479	90.19
489.696	75.19
489.914	81.19
490.132	92.19
490.35	84.19
490.568	84.19
490.786	80.19
491.003	84.19
491.221	80.19
491.439	104.19
491.657	102.19
491.874	87.19
492.092	86.19
492.31	85.19
492.527	74.19
492.745	77.19
492.963	97.19
493.18	102.19
493.398	96.19
493.615	91.19
493.833	89.19
494.05	87.19
494.268	86.19
494.485	92.19
494.703	78.19
494.92	85.19
495.138	82.19
495.355	89.19
495.573	83.19
495.79	90.19
496.008	94.19
496.225	78.19
496.442	87.19
496.66	93.19
496.877	92.19
497.094	89.19
497.312	86.19
497.529	88.19
497.746	83.19
497.963	93.19
498.181	83.19
498.398	76.19
498.615	86.19
498.832	81.19
499.049	84.19
499.267	92.19
499.484	85.19
499.701	80.19
499.918	89.19
500.135	72.19
500.352	86.19
500.569	78.19
500.786	62.19
501.003	82.19
501.22	84.19
501.437	92.19
501.654	79.19
501.871	73.19
502.088	85.19
502.305	93.19
502.522	87.19
502.739	94.19
502.956	82.19
503.172	87.19
503.389	87.19
503.606	95.19
503.823	66.19
504.04	69.19
504.256	81.19
504.473	97.19
504.69	91.19
504.907	87.19
505.123	88.19
505.34	80.19
505.557	84.19
505.773	74.19
505.99	77.19
506.207	78.19
506.423	86.19
506.64	80.19
506.856	104.19
507.073	86.19
507.289	92.19
507.506	85.19
507.722	80.19
507.939	84.19
508.155	86.19
508.372	78.19
508.588	73.19
508.805	79.19
509.021	95.19
509.238	90.19
509.454	83.19
509.67	89.19
509.887	81.19
510.103	74.19
510.319	76.19
510.536	82.19
510.752	83.19
510.968	92.19
511.184	79.19
511.401	79.19
511.617	89.19
511.833	66.19
512.049	77.19
512.265	70.19
512.481	67.19
512.698	91.19
512.914	80.19
513.13	86.19
513.346	72.19
513.562	96.19
513.778	78.19
513.994	87.19
514.21	90.19
514.426	93.19
514.642	85.19
514.858	84.19
515.074	74.19
515.29	89.19
515.506	86.19
515.721	84.19
515.937	81.19
516.153	83.19
516.369	74.19
516.585	88.19
516.801	89.19
517.016	78.19
517.232	83.19
517.448	82.19
517.664	78.19
517.879	79.19
518.095	92.19
518.311	93.19
518.527	88.19
518.742	105.19
518.958	92.19
519.173	76.19
519.389	78.19
519.605	86.19
