Data from StdC_HRD10591_020.txt Node
Date: Fri May 16 15:28:50 EDT 2025
User: Yrep
Spectrometer: HR+D1059
Trigger mode: 1
Integration Time (sec): 1.000000E-1
Scans to average: 1
Electric dark correction enabled: true
Nonlinearity correction enabled: false
Boxcar width: 0
XAxis mode: Wavelengths
Number of Pixels in Spectrum: 2048
>>>>>Begin Spectral Data<<<<<
223.165	-21.5
223.4	-21.5
223.635	-21.5
223.869	-17.5
224.104	-18.5
224.338	-15.5
224.573	-14.5
224.808	-1.5
225.042	-15.5
225.277	-7.5
225.511	4.5
225.746	-13.5
225.98	10.5
226.215	18.5
226.449	18.5
226.683	31.5
226.918	22.5
227.152	19.5
227.387	29.5
227.621	46.5
227.856	41.5
228.09	68.5
228.324	62.5
228.559	58.5
228.793	68.5
229.027	68.5
229.262	82.5
229.496	73.5
229.73	82.5
229.964	73.5
230.199	74.5
230.433	86.5
230.667	90.5
230.901	84.5
231.136	80.5
231.37	96.5
231.604	85.5
231.838	88.5
232.072	98.5
232.306	89.5
232.541	88.5
232.775	97.5
233.009	88.5
233.243	73.5
233.477	101.5
233.711	99.5
233.945	90.5
234.179	80.5
234.413	92.5
234.647	87.5
234.881	95.5
235.115	89.5
235.349	79.5
235.583	91.5
235.817	87.5
236.051	96.5
236.285	88.5
236.519	93.5
236.753	83.5
236.987	94.5
237.221	93.5
237.455	74.5
237.689	93.5
237.922	87.5
238.156	106.5
238.39	88.5
238.624	93.5
238.858	107.5
239.091	92.5
239.325	89.5
239.559	85.5
239.793	92.5
240.027	94.5
240.26	86.5
240.494	101.5
240.728	99.5
240.961	99.5
241.195	98.5
241.429	95.5
241.662	84.5
241.896	90.5
242.13	73.5
242.363	101.5
242.597	102.5
242.83	100.5
243.064	102.5
243.298	90.5
243.531	92.5
243.765	104.5
243.998	99.5
244.232	91.5
244.465	106.5
244.699	90.5
244.932	84.5
245.166	104.5
245.399	101.5
245.633	103.5
245.866	99.5
246.099	90.5
246.333	111.5
246.566	87.5
246.8	95.5
247.033	109.5
247.266	105.5
247.5	111.5
247.733	103.5
247.966	92.5
248.2	98.5
248.433	108.5
248.666	107.5
248.899	96.5
249.133	121.5
249.366	95.5
249.599	115.5
249.832	128.5
250.066	139.5
250.299	169.5
250.532	201.5
250.765	165.5
250.998	152.5
251.231	146.5
251.465	135.5
251.698	122.5
251.931	119.5
252.164	114.5
252.397	104.5
252.63	113.5
252.863	128.5
253.096	102.5
253.329	130.5
253.562	120.5
253.795	132.5
254.028	136.5
254.261	117.5
254.494	129.5
254.727	142.5
254.96	142.5
255.193	166.5
255.426	150.5
255.659	209.5
255.892	255.5
256.124	302.5
256.357	240.5
256.59	221.5
256.823	191.5
257.056	160.5
257.289	167.5
257.521	154.5
257.754	137.5
257.987	138.5
258.22	141.5
258.452	147.5
258.685	131.5
258.918	135.5
259.151	127.5
259.383	145.5
259.616	137.5
259.849	121.5
260.081	131.5
260.314	117.5
260.547	102.5
260.779	140.5
261.012	140.5
261.244	128.5
261.477	139.5
261.71	114.5
261.942	130.5
262.175	123.5
262.407	121.5
262.64	121.5
262.872	135.5
263.105	125.5
263.337	136.5
263.57	113.5
263.802	144.5
264.035	130.5
264.267	137.5
264.499	131.5
264.732	122.5
264.964	122.5
265.197	123.5
265.429	125.5
265.661	131.5
265.894	118.5
266.126	130.5
266.358	137.5
266.591	127.5
266.823	138.5
267.055	129.5
267.287	118.5
267.52	141.5
267.752	133.5
267.984	121.5
268.216	138.5
268.448	126.5
268.681	139.5
268.913	133.5
269.145	138.5
269.377	139.5
269.609	132.5
269.841	131.5
270.073	114.5
270.306	123.5
270.538	137.5
270.77	147.5
271.002	136.5
271.234	138.5
271.466	137.5
271.698	141.5
271.93	143.5
272.162	148.5
272.394	138.5
272.626	126.5
272.858	152.5
273.09	141.5
273.322	147.5
273.553	151.5
273.785	161.5
274.017	160.5
274.249	157.5
274.481	160.5
274.713	148.5
274.945	166.5
275.176	149.5
275.408	159.5
275.64	199.5
275.872	169.5
276.104	186.5
276.335	165.5
276.567	191.5
276.799	197.5
277.031	220.5
277.262	227.5
277.494	213.5
277.726	193.5
277.957	195.5
278.189	169.5
278.421	173.5
278.652	169.5
278.884	173.5
279.115	172.5
279.347	179.5
279.579	211.5
279.81	230.5
280.042	263.5
280.273	261.5
280.505	252.5
280.736	207.5
280.968	197.5
281.199	185.5
281.431	181.5
281.662	182.5
281.894	180.5
282.125	173.5
282.356	169.5
282.588	166.5
282.819	170.5
283.051	163.5
283.282	175.5
283.513	169.5
283.745	160.5
283.976	156.5
284.207	175.5
284.439	171.5
284.67	169.5
284.901	152.5
285.132	141.5
285.364	154.5
285.595	172.5
285.826	154.5
286.057	168.5
286.288	153.5
286.52	171.5
286.751	176.5
286.982	167.5
287.213	161.5
287.444	158.5
287.675	163.5
287.906	159.5
288.138	162.5
288.369	163.5
288.6	153.5
288.831	148.5
289.062	173.5
289.293	161.5
289.524	172.5
289.755	158.5
289.986	150.5
290.217	162.5
290.448	165.5
290.679	173.5
290.91	164.5
291.141	163.5
291.371	156.5
291.602	152.5
291.833	158.5
292.064	154.5
292.295	153.5
292.526	151.5
292.757	165.5
292.987	159.5
293.218	150.5
293.449	167.5
293.68	177.5
293.91	149.5
294.141	150.5
294.372	156.5
294.603	154.5
294.833	166.5
295.064	140.5
295.295	154.5
295.525	162.5
295.756	152.5
295.987	168.5
296.217	146.5
296.448	144.5
296.679	158.5
296.909	173.5
297.14	167.5
297.37	169.5
297.601	166.5
297.831	148.5
298.062	158.5
298.292	157.5
298.523	162.5
298.753	175.5
298.984	162.5
299.214	152.5
299.445	155.5
299.675	173.5
299.905	160.5
300.136	155.5
300.366	166.5
300.597	153.5
300.827	175.5
301.057	175.5
301.288	162.5
301.518	163.5
301.748	185.5
301.979	186.5
302.209	177.5
302.439	169.5
302.669	184.5
302.9	174.5
303.13	185.5
303.36	191.5
303.59	189.5
303.82	195.5
304.051	191.5
304.281	176.5
304.511	183.5
304.741	197.5
304.971	162.5
305.201	159.5
305.431	161.5
305.661	181.5
305.891	170.5
306.121	162.5
306.352	153.5
306.582	161.5
306.812	193.5
307.042	216.5
307.272	247.5
307.502	219.5
307.731	219.5
307.961	179.5
308.191	154.5
308.421	173.5
308.651	175.5
308.881	175.5
309.111	181.5
309.341	170.5
309.571	159.5
309.8	173.5
310.03	181.5
310.26	168.5
310.49	166.5
310.72	166.5
310.949	172.5
311.179	171.5
311.409	190.5
311.639	187.5
311.868	173.5
312.098	165.5
312.328	177.5
312.557	173.5
312.787	167.5
313.017	189.5
313.246	188.5
313.476	184.5
313.706	188.5
313.935	178.5
314.165	181.5
314.394	174.5
314.624	183.5
314.853	184.5
315.083	166.5
315.312	187.5
315.542	166.5
315.771	170.5
316.001	173.5
316.23	173.5
316.46	176.5
316.689	175.5
316.919	180.5
317.148	185.5
317.377	188.5
317.607	174.5
317.836	202.5
318.065	189.5
318.295	184.5
318.524	190.5
318.753	201.5
318.983	181.5
319.212	189.5
319.441	171.5
319.67	181.5
319.9	205.5
320.129	193.5
320.358	186.5
320.587	193.5
320.816	201.5
321.046	192.5
321.275	198.5
321.504	194.5
321.733	191.5
321.962	192.5
322.191	200.5
322.42	207.5
322.649	195.5
322.878	217.5
323.108	205.5
323.337	191.5
323.566	216.5
323.795	208.5
324.024	205.5
324.253	226.5
324.482	231.5
324.71	219.5
324.939	226.5
325.168	231.5
325.397	225.5
325.626	238.5
325.855	235.5
326.084	247.5
326.313	263.5
326.542	252.5
326.77	274.5
326.999	276.5
327.228	293.5
327.457	325.5
327.686	414.5
327.914	555.5
328.143	696.5
328.372	729.5
328.6	521.5
328.829	382.5
329.058	388.5
329.287	405.5
329.515	513.5
329.744	694.5
329.972	927.5
330.201	1276.5
330.43	1323.5
330.658	783.5
330.887	475.5
331.115	391.5
331.344	352.5
331.572	335.5
331.801	317.5
332.03	303.5
332.258	316.5
332.486	311.5
332.715	331.5
332.943	374.5
333.172	374.5
333.4	447.5
333.629	532.5
333.857	717.5
334.085	1013.5
334.314	1420.5
334.542	1795.5
334.771	1459.5
334.999	767.5
335.227	512.5
335.455	403.5
335.684	361.5
335.912	313.5
336.14	305.5
336.369	302.5
336.597	270.5
336.825	276.5
337.053	259.5
337.281	240.5
337.51	244.5
337.738	239.5
337.966	233.5
338.194	229.5
338.422	216.5
338.65	227.5
338.878	215.5
339.106	208.5
339.334	210.5
339.562	224.5
339.79	215.5
340.018	206.5
340.246	216.5
340.474	213.5
340.702	210.5
340.93	195.5
341.158	200.5
341.386	187.5
341.614	191.5
341.842	198.5
342.07	189.5
342.298	193.5
342.526	211.5
342.754	201.5
342.981	195.5
343.209	194.5
343.437	205.5
343.665	187.5
343.893	203.5
344.12	213.5
344.348	204.5
344.576	206.5
344.804	203.5
345.031	186.5
345.259	178.5
345.487	185.5
345.714	185.5
345.942	194.5
346.17	169.5
346.397	190.5
346.625	197.5
346.853	177.5
347.08	187.5
347.308	188.5
347.535	193.5
347.763	190.5
347.99	199.5
348.218	187.5
348.445	189.5
348.673	181.5
348.9	200.5
349.128	189.5
349.355	170.5
349.583	178.5
349.81	200.5
350.037	191.5
350.265	191.5
350.492	179.5
350.72	192.5
350.947	187.5
351.174	187.5
351.402	191.5
351.629	183.5
351.856	188.5
352.083	195.5
352.311	202.5
352.538	191.5
352.765	184.5
352.992	178.5
353.22	178.5
353.447	184.5
353.674	190.5
353.901	204.5
354.128	190.5
354.355	185.5
354.583	171.5
354.81	168.5
355.037	192.5
355.264	187.5
355.491	183.5
355.718	193.5
355.945	172.5
356.172	178.5
356.399	189.5
356.626	183.5
356.853	170.5
357.08	183.5
357.307	188.5
357.534	176.5
357.761	194.5
357.988	192.5
358.215	191.5
358.441	187.5
358.668	169.5
358.895	165.5
359.122	176.5
359.349	157.5
359.576	170.5
359.802	169.5
360.029	194.5
360.256	171.5
360.483	189.5
360.709	173.5
360.936	183.5
361.163	176.5
361.39	176.5
361.616	165.5
361.843	185.5
362.07	175.5
362.296	186.5
362.523	183.5
362.749	202.5
362.976	186.5
363.203	176.5
363.429	165.5
363.656	191.5
363.882	183.5
364.109	191.5
364.335	193.5
364.562	171.5
364.788	185.5
365.015	183.5
365.241	172.5
365.468	175.5
365.694	177.5
365.92	182.5
366.147	174.5
366.373	166.5
366.599	179.5
366.826	171.5
367.052	173.5
367.278	191.5
367.505	174.5
367.731	190.5
367.957	189.5
368.184	183.5
368.41	182.5
368.636	187.5
368.862	173.5
369.089	166.5
369.315	189.5
369.541	191.5
369.767	189.5
369.993	171.5
370.219	176.5
370.445	191.5
370.672	183.5
370.898	193.5
371.124	163.5
371.35	183.5
371.576	194.5
371.802	187.5
372.028	205.5
372.254	193.5
372.48	191.5
372.706	191.5
372.932	182.5
373.158	187.5
373.384	193.5
373.61	179.5
373.835	195.5
374.061	182.5
374.287	193.5
374.513	186.5
374.739	182.5
374.965	208.5
375.191	205.5
375.416	189.5
375.642	198.5
375.868	200.5
376.094	199.5
376.319	203.5
376.545	177.5
376.771	190.5
376.997	181.5
377.222	188.5
377.448	195.5
377.674	199.5
377.899	196.5
378.125	209.5
378.35	176.5
378.576	201.5
378.802	188.5
379.027	208.5
379.253	192.5
379.478	187.5
379.704	185.5
379.929	198.5
380.155	193.5
380.38	188.5
380.606	191.5
380.831	190.5
381.057	198.5
381.282	186.5
381.507	185.5
381.733	191.5
381.958	189.5
382.184	197.5
382.409	198.5
382.634	201.5
382.86	187.5
383.085	202.5
383.31	195.5
383.535	202.5
383.761	185.5
383.986	207.5
384.211	210.5
384.436	191.5
384.662	224.5
384.887	204.5
385.112	218.5
385.337	213.5
385.562	213.5
385.787	203.5
386.013	198.5
386.238	203.5
386.463	207.5
386.688	211.5
386.913	192.5
387.138	211.5
387.363	195.5
387.588	211.5
387.813	217.5
388.038	225.5
388.263	222.5
388.488	209.5
388.713	215.5
388.938	185.5
389.163	193.5
389.387	206.5
389.612	209.5
389.837	225.5
390.062	200.5
390.287	213.5
390.512	211.5
390.736	210.5
390.961	198.5
391.186	221.5
391.411	221.5
391.636	210.5
391.86	202.5
392.085	217.5
392.31	214.5
392.534	214.5
392.759	186.5
392.984	193.5
393.208	217.5
393.433	213.5
393.658	212.5
393.882	219.5
394.107	203.5
394.331	217.5
394.556	213.5
394.78	235.5
395.005	215.5
395.229	219.5
395.454	232.5
395.678	215.5
395.903	216.5
396.127	227.5
396.352	234.5
396.576	217.5
396.801	224.5
397.025	218.5
397.249	208.5
397.474	214.5
397.698	220.5
397.922	233.5
398.147	237.5
398.371	222.5
398.595	231.5
398.82	249.5
399.044	241.5
399.268	248.5
399.492	273.5
399.717	279.5
399.941	289.5
400.165	273.5
400.389	249.5
400.613	265.5
400.837	232.5
401.062	243.5
401.286	241.5
401.51	232.5
401.734	234.5
401.958	262.5
402.182	245.5
402.406	251.5
402.63	251.5
402.854	242.5
403.078	236.5
403.302	254.5
403.526	264.5
403.75	261.5
403.974	253.5
404.198	258.5
404.422	275.5
404.645	261.5
404.869	288.5
405.093	310.5
405.317	314.5
405.541	305.5
405.765	291.5
405.988	277.5
406.212	262.5
406.436	277.5
406.66	267.5
406.883	274.5
407.107	273.5
407.331	271.5
407.555	265.5
407.778	263.5
408.002	258.5
408.226	268.5
408.449	271.5
408.673	257.5
408.896	263.5
409.12	246.5
409.344	260.5
409.567	253.5
409.791	259.5
410.014	243.5
410.238	242.5
410.461	239.5
410.685	250.5
410.908	266.5
411.132	255.5
411.355	243.5
411.578	254.5
411.802	275.5
412.025	284.5
412.249	288.5
412.472	310.5
412.695	330.5
412.919	315.5
413.142	321.5
413.365	294.5
413.589	277.5
413.812	259.5
414.035	280.5
414.258	251.5
414.482	269.5
414.705	259.5
414.928	241.5
415.151	258.5
415.374	258.5
415.597	235.5
415.821	232.5
416.044	256.5
416.267	245.5
416.49	241.5
416.713	262.5
416.936	250.5
417.159	236.5
417.382	264.5
417.605	267.5
417.828	293.5
418.051	245.5
418.274	267.5
418.497	243.5
418.72	245.5
418.943	237.5
419.166	255.5
419.389	277.5
419.611	265.5
419.834	279.5
420.057	302.5
420.28	315.5
420.503	305.5
420.726	276.5
420.948	275.5
421.171	276.5
421.394	270.5
421.617	242.5
421.839	254.5
422.062	243.5
422.285	255.5
422.507	236.5
422.73	266.5
422.953	249.5
423.175	237.5
423.398	250.5
423.621	256.5
423.843	239.5
424.066	243.5
424.288	254.5
424.511	251.5
424.733	236.5
424.956	239.5
425.178	236.5
425.401	244.5
425.623	235.5
425.846	253.5
426.068	245.5
426.291	259.5
426.513	241.5
426.735	243.5
426.958	244.5
427.18	253.5
427.402	264.5
427.625	283.5
427.847	327.5
428.069	339.5
428.292	304.5
428.514	279.5
428.736	252.5
428.958	259.5
429.181	263.5
429.403	227.5
429.625	238.5
429.847	237.5
430.069	229.5
430.292	248.5
430.514	226.5
430.736	229.5
430.958	224.5
431.18	236.5
431.402	221.5
431.624	219.5
431.846	210.5
432.068	226.5
432.29	209.5
432.512	205.5
432.734	223.5
432.956	215.5
433.178	223.5
433.4	219.5
433.622	226.5
433.844	223.5
434.066	225.5
434.287	234.5
434.509	224.5
434.731	218.5
434.953	238.5
435.175	231.5
435.397	221.5
435.618	226.5
435.84	236.5
436.062	224.5
436.284	240.5
436.505	222.5
436.727	219.5
436.949	229.5
437.17	215.5
437.392	214.5
437.614	214.5
437.835	221.5
438.057	220.5
438.278	222.5
438.5	221.5
438.721	224.5
438.943	207.5
439.165	209.5
439.386	223.5
439.608	237.5
439.829	221.5
440.05	227.5
440.272	232.5
440.493	239.5
440.715	212.5
440.936	235.5
441.158	223.5
441.379	226.5
441.6	243.5
441.822	239.5
442.043	220.5
442.264	243.5
442.486	224.5
442.707	232.5
442.928	229.5
443.149	242.5
443.371	240.5
443.592	239.5
443.813	245.5
444.034	234.5
444.255	242.5
444.476	255.5
444.698	252.5
444.919	256.5
445.14	350.5
445.361	286.5
445.582	255.5
445.803	237.5
446.024	230.5
446.245	233.5
446.466	230.5
446.687	225.5
446.908	231.5
447.129	217.5
447.35	220.5
447.571	223.5
447.792	209.5
448.013	223.5
448.234	222.5
448.455	214.5
448.675	217.5
448.896	210.5
449.117	197.5
449.338	221.5
449.559	210.5
449.779	219.5
450	226.5
450.221	240.5
450.442	213.5
450.662	213.5
450.883	201.5
451.104	237.5
451.324	220.5
451.545	218.5
451.766	214.5
451.986	226.5
452.207	200.5
452.428	216.5
452.648	199.5
452.869	209.5
453.089	199.5
453.31	199.5
453.53	195.5
453.751	219.5
453.971	215.5
454.192	203.5
454.412	190.5
454.633	204.5
454.853	211.5
455.073	194.5
455.294	207.5
455.514	217.5
455.734	216.5
455.955	192.5
456.175	197.5
456.395	205.5
456.616	195.5
456.836	215.5
457.056	221.5
457.276	206.5
457.497	226.5
457.717	231.5
457.937	203.5
458.157	215.5
458.377	217.5
458.598	207.5
458.818	219.5
459.038	213.5
459.258	215.5
459.478	224.5
459.698	225.5
459.918	221.5
460.138	230.5
460.358	225.5
460.578	225.5
460.798	232.5
461.018	242.5
461.238	229.5
461.458	230.5
461.678	231.5
461.898	236.5
462.118	253.5
462.338	240.5
462.558	249.5
462.777	269.5
462.997	286.5
463.217	283.5
463.437	286.5
463.657	270.5
463.876	263.5
464.096	258.5
464.316	263.5
464.536	260.5
464.755	255.5
464.975	263.5
465.195	239.5
465.414	235.5
465.634	246.5
465.854	235.5
466.073	240.5
466.293	239.5
466.512	225.5
466.732	237.5
466.951	247.5
467.171	250.5
467.391	255.5
467.61	293.5
467.829	368.5
468.049	665.5
468.268	802.5
468.488	465.5
468.707	348.5
468.927	304.5
469.146	285.5
469.365	274.5
469.585	272.5
469.804	269.5
470.023	273.5
470.243	259.5
470.462	267.5
470.681	271.5
470.901	269.5
471.12	272.5
471.339	284.5
471.558	309.5
471.777	377.5
471.997	525.5
472.216	1103.5
472.435	1719.5
472.654	967.5
472.873	569.5
473.092	443.5
473.311	376.5
473.53	347.5
473.749	314.5
473.968	331.5
474.187	316.5
474.406	281.5
474.625	287.5
474.844	270.5
475.063	264.5
475.282	256.5
475.501	258.5
475.72	253.5
475.939	267.5
476.158	258.5
476.377	261.5
476.596	256.5
476.814	269.5
477.033	264.5
477.252	256.5
477.471	280.5
477.69	270.5
477.908	273.5
478.127	272.5
478.346	291.5
478.564	282.5
478.783	269.5
479.002	299.5
479.22	315.5
479.439	309.5
479.658	320.5
479.876	317.5
480.095	334.5
480.313	386.5
480.532	459.5
480.751	626.5
480.969	1205.5
481.188	2630.5
481.406	2115.5
481.624	1046.5
481.843	668.5
482.061	554.5
482.28	495.5
482.498	439.5
482.717	400.5
482.935	367.5
483.153	371.5
483.372	344.5
483.59	323.5
483.808	336.5
484.027	327.5
484.245	322.5
484.463	318.5
484.681	304.5
484.9	307.5
485.118	319.5
485.336	303.5
485.554	305.5
485.772	319.5
485.99	301.5
486.209	288.5
486.427	280.5
486.645	305.5
486.863	299.5
487.081	299.5
487.299	306.5
487.517	308.5
487.735	286.5
487.953	316.5
488.171	304.5
488.389	304.5
488.607	302.5
488.825	313.5
489.043	307.5
489.261	333.5
489.479	315.5
489.696	329.5
489.914	338.5
490.132	338.5
490.35	331.5
490.568	368.5
490.786	384.5
491.003	418.5
491.221	431.5
491.439	445.5
491.657	495.5
491.874	483.5
492.092	482.5
492.31	502.5
492.527	540.5
492.745	557.5
492.963	524.5
493.18	503.5
493.398	484.5
493.615	444.5
493.833	443.5
494.05	443.5
494.268	415.5
494.485	411.5
494.703	399.5
494.92	397.5
495.138	382.5
495.355	378.5
495.573	376.5
495.79	379.5
496.008	361.5
496.225	361.5
496.442	348.5
496.66	366.5
496.877	347.5
497.094	341.5
497.312	350.5
497.529	341.5
497.746	342.5
497.963	344.5
498.181	356.5
498.398	345.5
498.615	343.5
498.832	359.5
499.049	367.5
499.267	382.5
499.484	391.5
499.701	418.5
499.918	424.5
500.135	437.5
500.352	501.5
500.569	503.5
500.786	531.5
501.003	482.5
501.22	453.5
501.437	415.5
501.654	402.5
501.871	383.5
502.088	348.5
502.305	354.5
502.522	342.5
502.739	350.5
502.956	329.5
503.172	317.5
503.389	306.5
503.606	317.5
503.823	303.5
504.04	297.5
504.256	295.5
504.473	303.5
504.69	295.5
504.907	307.5
505.123	297.5
505.34	285.5
505.557	269.5
505.773	259.5
505.99	262.5
506.207	273.5
506.423	266.5
506.64	285.5
506.856	264.5
507.073	262.5
507.289	245.5
507.506	249.5
507.722	262.5
507.939	246.5
508.155	254.5
508.372	261.5
508.588	251.5
508.805	256.5
509.021	255.5
509.238	234.5
509.454	266.5
509.67	249.5
509.887	258.5
510.103	250.5
510.319	246.5
510.536	250.5
510.752	246.5
510.968	258.5
511.184	235.5
511.401	260.5
511.617	295.5
511.833	349.5
512.049	322.5
512.265	285.5
512.481	257.5
512.698	282.5
512.914	242.5
513.13	251.5
513.346	269.5
513.562	269.5
513.778	270.5
513.994	231.5
514.21	262.5
514.426	252.5
514.642	241.5
514.858	234.5
515.074	237.5
515.29	259.5
515.506	258.5
515.721	253.5
515.937	239.5
516.153	255.5
516.369	257.5
516.585	255.5
516.801	257.5
517.016	261.5
517.232	280.5
517.448	270.5
517.664	259.5
517.879	255.5
518.095	280.5
518.311	262.5
518.527	280.5
518.742	254.5
518.958	274.5
519.173	246.5
519.389	245.5
519.605	253.5
519.82	242.5
520.036	246.5
520.251	241.5
520.467	237.5
520.682	254.5
520.898	239.5
521.113	238.5
521.329	247.5
521.544	227.5
