Data from StdC_HRD10591_066.txt Node
Date: Fri May 16 15:29:13 EDT 2025
User: Yrep
Spectrometer: HR+D1059
Trigger mode: 1
Integration Time (sec): 1.000000E-1
Scans to average: 1
Electric dark correction enabled: true
Nonlinearity correction enabled: false
Boxcar width: 0
XAxis mode: Wavelengths
Number of Pixels in Spectrum: 2048
>>>>>Begin Spectral Data<<<<<
223.165	-15.06
223.4	-15.06
223.635	-15.06
223.869	-35.06
224.104	-14.06
224.338	-26.06
224.573	-19.06
224.808	-7.06
225.042	2.94
225.277	-6.06
225.511	-0.06
225.746	0.94
225.98	5.94
226.215	12.94
226.449	9.94
226.683	28.94
226.918	31.94
227.152	28.94
227.387	33.94
227.621	44.94
227.856	41.94
228.09	45.94
228.324	48.94
228.559	57.94
228.793	66.94
229.027	64.94
229.262	60.94
229.496	71.94
229.73	81.94
229.964	77.94
230.199	90.94
230.433	93.94
230.667	81.94
230.901	60.94
231.136	78.94
231.37	73.94
231.604	87.94
231.838	84.94
232.072	83.94
232.306	88.94
232.541	93.94
232.775	87.94
233.009	88.94
233.243	97.94
233.477	89.94
233.711	82.94
233.945	88.94
234.179	82.94
234.413	95.94
234.647	92.94
234.881	98.94
235.115	87.94
235.349	93.94
235.583	78.94
235.817	83.94
236.051	95.94
236.285	98.94
236.519	87.94
236.753	89.94
236.987	95.94
237.221	93.94
237.455	90.94
237.689	85.94
237.922	87.94
238.156	98.94
238.39	88.94
238.624	100.94
238.858	76.94
239.091	90.94
239.325	89.94
239.559	85.94
239.793	87.94
240.027	93.94
240.26	97.94
240.494	88.94
240.728	87.94
240.961	103.94
241.195	118.94
241.429	97.94
241.662	91.94
241.896	76.94
242.13	94.94
242.363	97.94
242.597	96.94
242.83	97.94
243.064	104.94
243.298	93.94
243.531	97.94
243.765	93.94
243.998	114.94
244.232	105.94
244.465	88.94
244.699	103.94
244.932	94.94
245.166	107.94
245.399	96.94
245.633	90.94
245.866	99.94
246.099	95.94
246.333	118.94
246.566	105.94
246.8	107.94
247.033	115.94
247.266	103.94
247.5	93.94
247.733	88.94
247.966	102.94
248.2	107.94
248.433	111.94
248.666	107.94
248.899	123.94
249.133	101.94
249.366	117.94
249.599	114.94
249.832	114.94
250.066	145.94
250.299	165.94
250.532	192.94
250.765	185.94
250.998	160.94
251.231	138.94
251.465	126.94
251.698	136.94
251.931	123.94
252.164	122.94
252.397	113.94
252.63	121.94
252.863	125.94
253.096	121.94
253.329	115.94
253.562	124.94
253.795	139.94
254.028	127.94
254.261	119.94
254.494	146.94
254.727	136.94
254.96	116.94
255.193	136.94
255.426	160.94
255.659	185.94
255.892	265.94
256.124	303.94
256.357	247.94
256.59	189.94
256.823	172.94
257.056	156.94
257.289	153.94
257.521	141.94
257.754	138.94
257.987	137.94
258.22	139.94
258.452	127.94
258.685	126.94
258.918	119.94
259.151	129.94
259.383	144.94
259.616	130.94
259.849	137.94
260.081	137.94
260.314	119.94
260.547	148.94
260.779	139.94
261.012	142.94
261.244	138.94
261.477	140.94
261.71	155.94
261.942	121.94
262.175	125.94
262.407	115.94
262.64	138.94
262.872	126.94
263.105	124.94
263.337	130.94
263.57	137.94
263.802	133.94
264.035	132.94
264.267	132.94
264.499	120.94
264.732	131.94
264.964	129.94
265.197	120.94
265.429	128.94
265.661	148.94
265.894	115.94
266.126	118.94
266.358	131.94
266.591	125.94
266.823	136.94
267.055	117.94
267.287	143.94
267.52	134.94
267.752	135.94
267.984	142.94
268.216	128.94
268.448	140.94
268.681	134.94
268.913	142.94
269.145	140.94
269.377	115.94
269.609	130.94
269.841	136.94
270.073	145.94
270.306	136.94
270.538	139.94
270.77	142.94
271.002	145.94
271.234	160.94
271.466	139.94
271.698	144.94
271.93	141.94
272.162	137.94
272.394	147.94
272.626	131.94
272.858	136.94
273.09	135.94
273.322	141.94
273.553	130.94
273.785	153.94
274.017	143.94
274.249	161.94
274.481	157.94
274.713	144.94
274.945	155.94
275.176	143.94
275.408	183.94
275.64	168.94
275.872	170.94
276.104	182.94
276.335	177.94
276.567	179.94
276.799	193.94
277.031	210.94
277.262	233.94
277.494	217.94
277.726	198.94
277.957	195.94
278.189	175.94
278.421	166.94
278.652	161.94
278.884	170.94
279.115	168.94
279.347	193.94
279.579	190.94
279.81	220.94
280.042	258.94
280.273	285.94
280.505	236.94
280.736	212.94
280.968	181.94
281.199	177.94
281.431	170.94
281.662	178.94
281.894	174.94
282.125	168.94
282.356	172.94
282.588	140.94
282.819	165.94
283.051	154.94
283.282	146.94
283.513	159.94
283.745	150.94
283.976	165.94
284.207	166.94
284.439	183.94
284.67	158.94
284.901	152.94
285.132	158.94
285.364	154.94
285.595	150.94
285.826	167.94
286.057	150.94
286.288	162.94
286.52	162.94
286.751	147.94
286.982	155.94
287.213	153.94
287.444	155.94
287.675	155.94
287.906	159.94
288.138	158.94
288.369	157.94
288.6	161.94
288.831	141.94
289.062	166.94
289.293	169.94
289.524	150.94
289.755	157.94
289.986	155.94
290.217	179.94
290.448	168.94
290.679	162.94
290.91	153.94
291.141	152.94
291.371	154.94
291.602	160.94
291.833	157.94
292.064	159.94
292.295	138.94
292.526	148.94
292.757	148.94
292.987	147.94
293.218	151.94
293.449	157.94
293.68	156.94
293.91	141.94
294.141	161.94
294.372	146.94
294.603	150.94
294.833	173.94
295.064	149.94
295.295	153.94
295.525	140.94
295.756	143.94
295.987	151.94
296.217	158.94
296.448	182.94
296.679	158.94
296.909	160.94
297.14	154.94
297.37	171.94
297.601	153.94
297.831	159.94
298.062	162.94
298.292	161.94
298.523	159.94
298.753	167.94
298.984	168.94
299.214	150.94
299.445	160.94
299.675	166.94
299.905	149.94
300.136	157.94
300.366	163.94
300.597	158.94
300.827	155.94
301.057	175.94
301.288	161.94
301.518	149.94
301.748	169.94
301.979	195.94
302.209	179.94
302.439	156.94
302.669	169.94
302.9	171.94
303.13	179.94
303.36	169.94
303.59	165.94
303.82	197.94
304.051	182.94
304.281	181.94
304.511	178.94
304.741	167.94
304.971	167.94
305.201	174.94
305.431	150.94
305.661	163.94
305.891	157.94
306.121	163.94
306.352	170.94
306.582	179.94
306.812	192.94
307.042	204.94
307.272	221.94
307.502	246.94
307.731	199.94
307.961	201.94
308.191	166.94
308.421	183.94
308.651	171.94
308.881	173.94
309.111	165.94
309.341	160.94
309.571	167.94
309.8	175.94
310.03	186.94
310.26	155.94
310.49	185.94
310.72	166.94
310.949	163.94
311.179	170.94
311.409	169.94
311.639	171.94
311.868	171.94
312.098	168.94
312.328	176.94
312.557	178.94
312.787	169.94
313.017	184.94
313.246	189.94
313.476	181.94
313.706	183.94
313.935	182.94
314.165	159.94
314.394	164.94
314.624	162.94
314.853	177.94
315.083	175.94
315.312	175.94
315.542	166.94
315.771	176.94
316.001	175.94
316.23	166.94
316.46	184.94
316.689	181.94
316.919	185.94
317.148	194.94
317.377	188.94
317.607	198.94
317.836	179.94
318.065	198.94
318.295	190.94
318.524	181.94
318.753	190.94
318.983	182.94
319.212	202.94
319.441	181.94
319.67	181.94
319.9	182.94
320.129	187.94
320.358	189.94
320.587	200.94
320.816	178.94
321.046	180.94
321.275	195.94
321.504	174.94
321.733	192.94
321.962	183.94
322.191	191.94
322.42	191.94
322.649	204.94
322.878	218.94
323.108	212.94
323.337	208.94
323.566	222.94
323.795	215.94
324.024	199.94
324.253	225.94
324.482	213.94
324.71	221.94
324.939	231.94
325.168	237.94
325.397	220.94
325.626	253.94
325.855	251.94
326.084	251.94
326.313	250.94
326.542	233.94
326.77	270.94
326.999	283.94
327.228	277.94
327.457	333.94
327.686	418.94
327.914	535.94
328.143	702.94
328.372	743.94
328.6	526.94
328.829	408.94
329.058	394.94
329.287	439.94
329.515	502.94
329.744	680.94
329.972	951.94
330.201	1342.94
330.43	1336.94
330.658	783.94
330.887	499.94
331.115	407.94
331.344	343.94
331.572	327.94
331.801	323.94
332.03	312.94
332.258	315.94
332.486	334.94
332.715	332.94
332.943	360.94
333.172	398.94
333.4	469.94
333.629	560.94
333.857	708.94
334.085	1081.94
334.314	1529.94
334.542	1873.94
334.771	1488.94
334.999	777.94
335.227	506.94
335.455	412.94
335.684	350.94
335.912	317.94
336.14	298.94
336.369	281.94
336.597	299.94
336.825	258.94
337.053	251.94
337.281	250.94
337.51	243.94
337.738	239.94
337.966	229.94
338.194	209.94
338.422	225.94
338.65	213.94
338.878	219.94
339.106	225.94
339.334	208.94
339.562	222.94
339.79	214.94
340.018	205.94
340.246	210.94
340.474	190.94
340.702	189.94
340.93	199.94
341.158	216.94
341.386	202.94
341.614	208.94
341.842	189.94
342.07	197.94
342.298	184.94
342.526	202.94
342.754	201.94
342.981	190.94
343.209	190.94
343.437	197.94
343.665	194.94
343.893	219.94
344.12	198.94
344.348	187.94
344.576	208.94
344.804	199.94
345.031	192.94
345.259	196.94
345.487	191.94
345.714	177.94
345.942	190.94
346.17	197.94
346.397	187.94
346.625	199.94
346.853	174.94
347.08	187.94
347.308	206.94
347.535	175.94
347.763	181.94
347.99	187.94
348.218	192.94
348.445	219.94
348.673	185.94
348.9	186.94
349.128	171.94
349.355	183.94
349.583	204.94
349.81	187.94
350.037	185.94
350.265	183.94
350.492	162.94
350.72	173.94
350.947	191.94
351.174	186.94
351.402	193.94
351.629	183.94
351.856	180.94
352.083	187.94
352.311	185.94
352.538	192.94
352.765	175.94
352.992	186.94
353.22	179.94
353.447	184.94
353.674	185.94
353.901	202.94
354.128	181.94
354.355	192.94
354.583	178.94
354.81	183.94
355.037	187.94
355.264	191.94
355.491	179.94
355.718	176.94
355.945	171.94
356.172	189.94
356.399	187.94
356.626	182.94
356.853	176.94
357.08	195.94
357.307	171.94
357.534	185.94
357.761	176.94
357.988	169.94
358.215	186.94
358.441	187.94
358.668	189.94
358.895	176.94
359.122	170.94
359.349	175.94
359.576	171.94
359.802	186.94
360.029	180.94
360.256	197.94
360.483	190.94
360.709	181.94
360.936	176.94
361.163	183.94
361.39	179.94
361.616	181.94
361.843	173.94
362.07	187.94
362.296	180.94
362.523	183.94
362.749	173.94
362.976	168.94
363.203	187.94
363.429	187.94
363.656	182.94
363.882	189.94
364.109	181.94
364.335	180.94
364.562	184.94
364.788	207.94
365.015	182.94
365.241	165.94
365.468	165.94
365.694	180.94
365.92	177.94
366.147	164.94
366.373	171.94
366.599	174.94
366.826	173.94
367.052	185.94
367.278	188.94
367.505	210.94
367.731	201.94
367.957	198.94
368.184	194.94
368.41	187.94
368.636	186.94
368.862	183.94
369.089	193.94
369.315	203.94
369.541	178.94
369.767	182.94
369.993	181.94
370.219	188.94
370.445	186.94
370.672	186.94
370.898	184.94
371.124	192.94
371.35	182.94
371.576	196.94
371.802	174.94
372.028	185.94
372.254	193.94
372.48	181.94
372.706	192.94
372.932	179.94
373.158	193.94
373.384	179.94
373.61	180.94
373.835	195.94
374.061	186.94
374.287	185.94
374.513	192.94
374.739	189.94
374.965	182.94
375.191	171.94
375.416	201.94
375.642	200.94
375.868	210.94
376.094	187.94
376.319	194.94
376.545	184.94
376.771	185.94
376.997	186.94
377.222	197.94
377.448	199.94
377.674	183.94
377.899	174.94
378.125	186.94
378.35	186.94
378.576	181.94
378.802	170.94
379.027	185.94
379.253	189.94
379.478	179.94
379.704	193.94
379.929	194.94
380.155	186.94
380.38	193.94
380.606	196.94
380.831	187.94
381.057	201.94
381.282	193.94
381.507	194.94
381.733	184.94
381.958	182.94
382.184	199.94
382.409	185.94
382.634	199.94
382.86	203.94
383.085	218.94
383.31	204.94
383.535	203.94
383.761	210.94
383.986	207.94
384.211	203.94
384.436	206.94
384.662	193.94
384.887	190.94
385.112	191.94
385.337	203.94
385.562	216.94
385.787	195.94
386.013	213.94
386.238	217.94
386.463	194.94
386.688	207.94
386.913	201.94
387.138	205.94
387.363	205.94
387.588	204.94
387.813	212.94
388.038	217.94
388.263	199.94
388.488	190.94
388.713	205.94
388.938	185.94
389.163	211.94
389.387	208.94
389.612	202.94
389.837	216.94
390.062	191.94
390.287	199.94
390.512	209.94
390.736	214.94
390.961	220.94
391.186	213.94
391.411	209.94
391.636	214.94
391.86	218.94
392.085	210.94
392.31	229.94
392.534	218.94
392.759	215.94
392.984	219.94
393.208	228.94
393.433	205.94
393.658	207.94
393.882	208.94
394.107	221.94
394.331	210.94
394.556	210.94
394.78	222.94
395.005	219.94
395.229	216.94
395.454	230.94
395.678	231.94
395.903	229.94
396.127	221.94
396.352	219.94
396.576	207.94
396.801	213.94
397.025	224.94
397.249	235.94
397.474	235.94
397.698	215.94
397.922	225.94
398.147	224.94
398.371	228.94
398.595	233.94
398.82	243.94
399.044	242.94
399.268	272.94
399.492	285.94
399.717	280.94
399.941	278.94
400.165	266.94
400.389	262.94
400.613	227.94
400.837	246.94
401.062	245.94
401.286	248.94
401.51	245.94
401.734	234.94
401.958	215.94
402.182	235.94
402.406	248.94
402.63	243.94
402.854	243.94
403.078	246.94
403.302	246.94
403.526	246.94
403.75	261.94
403.974	259.94
404.198	264.94
404.422	259.94
404.645	245.94
404.869	288.94
405.093	311.94
405.317	333.94
405.541	314.94
405.765	282.94
405.988	276.94
406.212	262.94
406.436	278.94
406.66	261.94
406.883	253.94
407.107	261.94
407.331	265.94
407.555	250.94
407.778	258.94
408.002	243.94
408.226	258.94
408.449	260.94
408.673	249.94
408.896	247.94
409.12	239.94
409.344	279.94
409.567	233.94
409.791	255.94
410.014	225.94
410.238	245.94
410.461	239.94
410.685	238.94
410.908	245.94
411.132	244.94
411.355	246.94
411.578	239.94
411.802	258.94
412.025	251.94
412.249	290.94
412.472	328.94
412.695	343.94
412.919	313.94
413.142	293.94
413.365	280.94
413.589	270.94
413.812	263.94
414.035	264.94
414.258	261.94
414.482	251.94
414.705	250.94
414.928	247.94
415.151	262.94
415.374	266.94
415.597	252.94
415.821	258.94
416.044	232.94
416.267	242.94
416.49	254.94
416.713	237.94
416.936	229.94
417.159	248.94
417.382	261.94
417.605	253.94
417.828	283.94
418.051	255.94
418.274	257.94
418.497	258.94
418.72	262.94
418.943	240.94
419.166	250.94
419.389	269.94
419.611	274.94
419.834	264.94
420.057	296.94
420.28	316.94
420.503	292.94
420.726	277.94
420.948	277.94
421.171	268.94
421.394	246.94
421.617	252.94
421.839	243.94
422.062	254.94
422.285	243.94
422.507	232.94
422.73	240.94
422.953	244.94
423.175	241.94
423.398	240.94
423.621	249.94
423.843	238.94
424.066	250.94
424.288	244.94
424.511	220.94
424.733	239.94
424.956	232.94
425.178	257.94
425.401	235.94
425.623	230.94
425.846	240.94
426.068	241.94
426.291	246.94
426.513	233.94
426.735	252.94
426.958	242.94
427.18	258.94
427.402	263.94
427.625	285.94
427.847	316.94
428.069	349.94
428.292	298.94
428.514	266.94
428.736	229.94
428.958	227.94
429.181	238.94
429.403	246.94
429.625	225.94
429.847	243.94
430.069	245.94
430.292	240.94
430.514	217.94
430.736	229.94
430.958	234.94
431.18	240.94
431.402	219.94
431.624	213.94
431.846	218.94
432.068	221.94
432.29	218.94
432.512	230.94
432.734	238.94
432.956	238.94
433.178	223.94
433.4	245.94
433.622	224.94
433.844	226.94
434.066	233.94
434.287	219.94
434.509	226.94
434.731	231.94
434.953	230.94
435.175	230.94
435.397	244.94
435.618	223.94
435.84	226.94
436.062	227.94
436.284	229.94
436.505	219.94
436.727	223.94
436.949	217.94
437.17	215.94
437.392	221.94
437.614	216.94
437.835	219.94
438.057	239.94
438.278	215.94
438.5	203.94
438.721	233.94
438.943	240.94
439.165	225.94
439.386	203.94
439.608	220.94
439.829	206.94
440.05	220.94
440.272	238.94
440.493	224.94
440.715	211.94
440.936	225.94
441.158	222.94
441.379	219.94
441.6	228.94
441.822	214.94
442.043	240.94
442.264	234.94
442.486	212.94
442.707	226.94
442.928	218.94
443.149	241.94
443.371	227.94
443.592	221.94
443.813	237.94
444.034	232.94
444.255	246.94
444.476	237.94
444.698	242.94
444.919	240.94
445.14	346.94
445.361	257.94
445.582	226.94
445.803	226.94
446.024	217.94
446.245	236.94
446.466	217.94
446.687	213.94
446.908	213.94
447.129	216.94
447.35	209.94
447.571	217.94
447.792	210.94
448.013	215.94
448.234	203.94
448.455	230.94
448.675	217.94
448.896	193.94
449.117	218.94
449.338	194.94
449.559	224.94
449.779	220.94
450	204.94
450.221	214.94
450.442	193.94
450.662	202.94
450.883	218.94
451.104	222.94
451.324	201.94
451.545	199.94
451.766	203.94
451.986	187.94
452.207	212.94
452.428	189.94
452.648	213.94
452.869	207.94
453.089	198.94
453.31	195.94
453.53	214.94
453.751	210.94
453.971	193.94
454.192	188.94
454.412	193.94
454.633	196.94
454.853	210.94
455.073	208.94
455.294	203.94
455.514	209.94
455.734	190.94
455.955	190.94
456.175	211.94
456.395	183.94
456.616	197.94
456.836	199.94
457.056	211.94
457.276	212.94
457.497	214.94
457.717	217.94
457.937	209.94
458.157	230.94
458.377	219.94
458.598	212.94
458.818	214.94
459.038	219.94
459.258	216.94
459.478	230.94
459.698	231.94
459.918	214.94
460.138	215.94
460.358	225.94
460.578	223.94
460.798	240.94
461.018	237.94
461.238	241.94
461.458	222.94
461.678	241.94
461.898	241.94
462.118	235.94
462.338	248.94
462.558	260.94
462.777	245.94
462.997	277.94
463.217	270.94
463.437	266.94
463.657	271.94
463.876	247.94
464.096	258.94
464.316	244.94
464.536	257.94
464.755	243.94
464.975	246.94
465.195	247.94
465.414	241.94
465.634	241.94
465.854	247.94
466.073	233.94
466.293	244.94
466.512	235.94
466.732	224.94
466.951	242.94
467.171	257.94
467.391	262.94
467.61	277.94
467.829	357.94
468.049	665.94
468.268	793.94
468.488	470.94
468.707	369.94
468.927	297.94
469.146	295.94
469.365	267.94
469.585	270.94
469.804	263.94
470.023	257.94
470.243	249.94
470.462	262.94
470.681	265.94
470.901	255.94
471.12	272.94
471.339	270.94
471.558	311.94
471.777	359.94
471.997	521.94
472.216	1132.94
472.435	1696.94
472.654	923.94
472.873	559.94
473.092	423.94
473.311	389.94
473.53	333.94
473.749	333.94
473.968	315.94
474.187	291.94
474.406	296.94
474.625	297.94
474.844	266.94
475.063	263.94
475.282	261.94
475.501	258.94
475.72	234.94
475.939	267.94
476.158	261.94
476.377	278.94
476.596	265.94
476.814	254.94
477.033	264.94
477.252	275.94
477.471	249.94
477.69	269.94
477.908	268.94
478.127	271.94
478.346	275.94
478.564	278.94
478.783	282.94
479.002	286.94
479.22	295.94
479.439	285.94
479.658	301.94
479.876	339.94
480.095	341.94
480.313	399.94
480.532	463.94
480.751	613.94
480.969	1212.94
481.188	2696.94
481.406	2193.94
481.624	1021.94
481.843	679.94
482.061	565.94
482.28	464.94
482.498	409.94
482.717	390.94
482.935	367.94
483.153	331.94
483.372	345.94
483.59	329.94
483.808	310.94
484.027	321.94
484.245	312.94
484.463	297.94
484.681	302.94
484.9	299.94
485.118	309.94
485.336	290.94
485.554	313.94
485.772	297.94
485.99	283.94
486.209	282.94
486.427	298.94
486.645	299.94
486.863	300.94
487.081	289.94
487.299	284.94
487.517	289.94
487.735	295.94
487.953	297.94
488.171	295.94
488.389	302.94
488.607	298.94
488.825	305.94
489.043	312.94
489.261	303.94
489.479	324.94
489.696	333.94
489.914	347.94
490.132	343.94
490.35	361.94
490.568	370.94
490.786	385.94
491.003	395.94
491.221	427.94
491.439	474.94
491.657	455.94
491.874	462.94
492.092	471.94
492.31	490.94
492.527	532.94
492.745	565.94
492.963	525.94
493.18	489.94
493.398	455.94
493.615	434.94
493.833	443.94
494.05	423.94
494.268	378.94
494.485	384.94
494.703	395.94
494.92	402.94
495.138	357.94
495.355	369.94
495.573	345.94
495.79	360.94
496.008	374.94
496.225	342.94
496.442	348.94
496.66	359.94
496.877	341.94
497.094	336.94
497.312	330.94
497.529	333.94
497.746	334.94
497.963	342.94
498.181	341.94
498.398	337.94
498.615	339.94
498.832	351.94
499.049	382.94
499.267	366.94
499.484	395.94
499.701	406.94
499.918	417.94
500.135	450.94
500.352	481.94
500.569	486.94
500.786	497.94
501.003	462.94
501.22	430.94
501.437	415.94
501.654	387.94
501.871	368.94
502.088	335.94
502.305	351.94
502.522	318.94
502.739	322.94
502.956	316.94
503.172	326.94
503.389	297.94
503.606	294.94
