Data from StdC_HRD10591_053.txt Node
Date: Fri May 16 15:29:07 EDT 2025
User: Yrep
Spectrometer: HR+D1059
Trigger mode: 1
Integration Time (sec): 1.000000E-1
Scans to average: 1
Electric dark correction enabled: true
Nonlinearity correction enabled: false
Boxcar width: 0
XAxis mode: Wavelengths
Number of Pixels in Spectrum: 2048
>>>>>Begin Spectral Data<<<<<
223.165	-25.12
223.4	-25.12
223.635	-25.12
223.869	-18.12
224.104	-20.12
224.338	-7.12
224.573	-9.12
224.808	-7.12
225.042	-15.12
225.277	-10.12
225.511	-9.12
225.746	0.88
225.98	15.88
226.215	8.88
226.449	25.88
226.683	16.88
226.918	23.88
227.152	28.88
227.387	30.88
227.621	45.88
227.856	35.88
228.09	44.88
228.324	38.88
228.559	50.88
228.793	71.88
229.027	59.88
229.262	62.88
229.496	73.88
229.73	80.88
229.964	72.88
230.199	89.88
230.433	85.88
230.667	74.88
230.901	87.88
231.136	96.88
231.37	86.88
231.604	84.88
231.838	93.88
232.072	97.88
232.306	96.88
232.541	86.88
232.775	94.88
233.009	73.88
233.243	75.88
233.477	93.88
233.711	85.88
233.945	97.88
234.179	86.88
234.413	90.88
234.647	89.88
234.881	94.88
235.115	80.88
235.349	84.88
235.583	92.88
235.817	80.88
236.051	104.88
236.285	93.88
236.519	93.88
236.753	88.88
236.987	89.88
237.221	93.88
237.455	80.88
237.689	95.88
237.922	98.88
238.156	104.88
238.39	94.88
238.624	82.88
238.858	94.88
239.091	102.88
239.325	91.88
239.559	100.88
239.793	95.88
240.027	91.88
240.26	94.88
240.494	104.88
240.728	101.88
240.961	76.88
241.195	103.88
241.429	91.88
241.662	100.88
241.896	98.88
242.13	111.88
242.363	94.88
242.597	91.88
242.83	105.88
243.064	85.88
243.298	90.88
243.531	93.88
243.765	106.88
243.998	88.88
244.232	94.88
244.465	108.88
244.699	110.88
244.932	91.88
245.166	86.88
245.399	105.88
245.633	115.88
245.866	103.88
246.099	107.88
246.333	91.88
246.566	104.88
246.8	95.88
247.033	108.88
247.266	109.88
247.5	98.88
247.733	109.88
247.966	101.88
248.2	102.88
248.433	93.88
248.666	122.88
248.899	104.88
249.133	110.88
249.366	122.88
249.599	121.88
249.832	111.88
250.066	124.88
250.299	178.88
250.532	195.88
250.765	168.88
250.998	142.88
251.231	153.88
251.465	118.88
251.698	137.88
251.931	113.88
252.164	134.88
252.397	114.88
252.63	126.88
252.863	117.88
253.096	124.88
253.329	118.88
253.562	132.88
253.795	122.88
254.028	127.88
254.261	121.88
254.494	130.88
254.727	118.88
254.96	123.88
255.193	134.88
255.426	158.88
255.659	186.88
255.892	256.88
256.124	296.88
256.357	251.88
256.59	199.88
256.823	185.88
257.056	178.88
257.289	139.88
257.521	154.88
257.754	143.88
257.987	140.88
258.22	156.88
258.452	138.88
258.685	135.88
258.918	133.88
259.151	138.88
259.383	141.88
259.616	126.88
259.849	144.88
260.081	132.88
260.314	126.88
260.547	130.88
260.779	124.88
261.012	130.88
261.244	125.88
261.477	132.88
261.71	134.88
261.942	129.88
262.175	135.88
262.407	117.88
262.64	125.88
262.872	116.88
263.105	130.88
263.337	129.88
263.57	118.88
263.802	135.88
264.035	137.88
264.267	125.88
264.499	134.88
264.732	130.88
264.964	138.88
265.197	119.88
265.429	134.88
265.661	130.88
265.894	129.88
266.126	156.88
266.358	144.88
266.591	122.88
266.823	135.88
267.055	126.88
267.287	115.88
267.52	135.88
267.752	125.88
267.984	129.88
268.216	139.88
268.448	128.88
268.681	141.88
268.913	128.88
269.145	142.88
269.377	136.88
269.609	135.88
269.841	134.88
270.073	136.88
270.306	148.88
270.538	121.88
270.77	155.88
271.002	147.88
271.234	131.88
271.466	138.88
271.698	144.88
271.93	141.88
272.162	148.88
272.394	151.88
272.626	141.88
272.858	150.88
273.09	142.88
273.322	151.88
273.553	127.88
273.785	152.88
274.017	146.88
274.249	142.88
274.481	156.88
274.713	140.88
274.945	161.88
275.176	152.88
275.408	171.88
275.64	164.88
275.872	184.88
276.104	186.88
276.335	189.88
276.567	187.88
276.799	199.88
277.031	219.88
277.262	226.88
277.494	228.88
277.726	210.88
277.957	179.88
278.189	178.88
278.421	180.88
278.652	176.88
278.884	184.88
279.115	172.88
279.347	193.88
279.579	201.88
279.81	217.88
280.042	263.88
280.273	283.88
280.505	261.88
280.736	226.88
280.968	195.88
281.199	175.88
281.431	170.88
281.662	177.88
281.894	161.88
282.125	159.88
282.356	164.88
282.588	160.88
282.819	159.88
283.051	143.88
283.282	137.88
283.513	156.88
283.745	172.88
283.976	168.88
284.207	166.88
284.439	169.88
284.67	182.88
284.901	161.88
285.132	161.88
285.364	154.88
285.595	152.88
285.826	158.88
286.057	156.88
286.288	154.88
286.52	163.88
286.751	173.88
286.982	161.88
287.213	153.88
287.444	152.88
287.675	161.88
287.906	189.88
288.138	153.88
288.369	159.88
288.6	178.88
288.831	158.88
289.062	171.88
289.293	168.88
289.524	165.88
289.755	160.88
289.986	172.88
290.217	152.88
290.448	157.88
290.679	157.88
290.91	148.88
291.141	157.88
291.371	175.88
291.602	155.88
291.833	150.88
292.064	152.88
292.295	144.88
292.526	144.88
292.757	154.88
292.987	142.88
293.218	129.88
293.449	148.88
293.68	153.88
293.91	178.88
294.141	141.88
294.372	152.88
294.603	138.88
294.833	166.88
295.064	166.88
295.295	145.88
295.525	174.88
295.756	165.88
295.987	152.88
296.217	164.88
296.448	157.88
296.679	159.88
296.909	158.88
297.14	155.88
297.37	160.88
297.601	160.88
297.831	169.88
298.062	165.88
298.292	157.88
298.523	152.88
298.753	145.88
298.984	154.88
299.214	156.88
299.445	150.88
299.675	165.88
299.905	156.88
300.136	170.88
300.366	157.88
300.597	163.88
300.827	166.88
301.057	164.88
301.288	182.88
301.518	158.88
301.748	177.88
301.979	190.88
302.209	145.88
302.439	178.88
302.669	175.88
302.9	179.88
303.13	170.88
303.36	184.88
303.59	200.88
303.82	208.88
304.051	176.88
304.281	174.88
304.511	160.88
304.741	167.88
304.971	154.88
305.201	186.88
305.431	187.88
305.661	176.88
305.891	163.88
306.121	176.88
306.352	168.88
306.582	169.88
306.812	178.88
307.042	208.88
307.272	205.88
307.502	218.88
307.731	232.88
307.961	191.88
308.191	189.88
308.421	168.88
308.651	183.88
308.881	173.88
309.111	204.88
309.341	180.88
309.571	177.88
309.8	190.88
310.03	175.88
310.26	194.88
310.49	164.88
310.72	167.88
310.949	168.88
311.179	184.88
311.409	184.88
311.639	192.88
311.868	172.88
312.098	176.88
312.328	182.88
312.557	159.88
312.787	168.88
313.017	183.88
313.246	179.88
313.476	165.88
313.706	171.88
313.935	170.88
314.165	190.88
314.394	164.88
314.624	182.88
314.853	170.88
315.083	161.88
315.312	188.88
315.542	172.88
315.771	162.88
316.001	179.88
316.23	184.88
316.46	169.88
316.689	162.88
316.919	186.88
317.148	200.88
317.377	182.88
317.607	173.88
317.836	182.88
318.065	165.88
318.295	183.88
318.524	182.88
318.753	178.88
318.983	183.88
319.212	209.88
319.441	184.88
319.67	193.88
319.9	184.88
320.129	176.88
320.358	195.88
320.587	194.88
320.816	188.88
321.046	184.88
321.275	194.88
321.504	182.88
321.733	195.88
321.962	189.88
322.191	203.88
322.42	188.88
322.649	200.88
322.878	198.88
323.108	210.88
323.337	226.88
323.566	195.88
323.795	214.88
324.024	209.88
324.253	219.88
324.482	224.88
324.71	217.88
324.939	232.88
325.168	237.88
325.397	243.88
325.626	243.88
325.855	238.88
326.084	232.88
326.313	246.88
326.542	249.88
326.77	249.88
326.999	278.88
327.228	294.88
327.457	333.88
327.686	420.88
327.914	539.88
328.143	698.88
328.372	750.88
328.6	555.88
328.829	412.88
329.058	392.88
329.287	419.88
329.515	514.88
329.744	698.88
329.972	968.88
330.201	1319.88
330.43	1370.88
330.658	802.88
330.887	482.88
331.115	404.88
331.344	368.88
331.572	327.88
331.801	327.88
332.03	321.88
332.258	319.88
332.486	331.88
332.715	347.88
332.943	393.88
333.172	405.88
333.4	461.88
333.629	543.88
333.857	688.88
334.085	1045.88
334.314	1492.88
334.542	1881.88
334.771	1493.88
334.999	772.88
335.227	520.88
335.455	412.88
335.684	359.88
335.912	327.88
336.14	310.88
336.369	279.88
336.597	283.88
336.825	260.88
337.053	261.88
337.281	237.88
337.51	237.88
337.738	251.88
337.966	230.88
338.194	218.88
338.422	220.88
338.65	220.88
338.878	213.88
339.106	205.88
339.334	219.88
339.562	206.88
339.79	212.88
340.018	221.88
340.246	199.88
340.474	197.88
340.702	213.88
340.93	182.88
341.158	195.88
341.386	194.88
341.614	188.88
341.842	200.88
342.07	178.88
342.298	190.88
342.526	192.88
342.754	196.88
342.981	196.88
343.209	191.88
343.437	215.88
343.665	216.88
343.893	208.88
344.12	221.88
344.348	215.88
344.576	198.88
344.804	204.88
345.031	187.88
345.259	177.88
345.487	194.88
345.714	182.88
345.942	167.88
346.17	186.88
346.397	182.88
346.625	189.88
346.853	176.88
347.08	184.88
347.308	183.88
347.535	179.88
347.763	180.88
347.99	179.88
348.218	185.88
348.445	190.88
348.673	185.88
348.9	192.88
349.128	186.88
349.355	182.88
349.583	185.88
349.81	189.88
350.037	209.88
350.265	189.88
350.492	186.88
350.72	165.88
350.947	187.88
351.174	192.88
351.402	169.88
351.629	191.88
351.856	196.88
352.083	191.88
352.311	189.88
352.538	172.88
352.765	184.88
352.992	196.88
353.22	179.88
353.447	198.88
353.674	182.88
353.901	191.88
354.128	180.88
354.355	191.88
354.583	178.88
354.81	194.88
355.037	186.88
355.264	170.88
355.491	190.88
355.718	189.88
355.945	182.88
356.172	182.88
356.399	193.88
356.626	172.88
356.853	186.88
357.08	167.88
357.307	180.88
357.534	170.88
357.761	180.88
357.988	176.88
358.215	194.88
358.441	172.88
358.668	168.88
358.895	167.88
359.122	185.88
359.349	185.88
359.576	198.88
359.802	198.88
360.029	183.88
360.256	186.88
360.483	174.88
360.709	202.88
360.936	192.88
361.163	183.88
361.39	180.88
361.616	169.88
361.843	173.88
362.07	192.88
362.296	189.88
362.523	188.88
362.749	183.88
362.976	166.88
363.203	178.88
363.429	177.88
363.656	186.88
363.882	188.88
364.109	186.88
364.335	182.88
364.562	190.88
364.788	180.88
365.015	175.88
365.241	191.88
365.468	169.88
365.694	188.88
365.92	184.88
366.147	187.88
366.373	184.88
366.599	178.88
366.826	177.88
367.052	196.88
367.278	184.88
367.505	183.88
367.731	184.88
367.957	167.88
368.184	185.88
368.41	188.88
368.636	185.88
368.862	198.88
369.089	197.88
369.315	178.88
369.541	173.88
369.767	189.88
369.993	184.88
370.219	175.88
370.445	175.88
370.672	174.88
370.898	191.88
371.124	189.88
371.35	176.88
371.576	188.88
371.802	188.88
372.028	188.88
372.254	181.88
372.48	188.88
372.706	182.88
372.932	200.88
373.158	184.88
373.384	215.88
373.61	178.88
373.835	185.88
374.061	200.88
374.287	188.88
374.513	171.88
374.739	184.88
374.965	192.88
375.191	199.88
375.416	192.88
375.642	188.88
375.868	191.88
376.094	182.88
376.319	194.88
376.545	190.88
376.771	197.88
376.997	187.88
377.222	192.88
377.448	183.88
377.674	187.88
377.899	197.88
378.125	204.88
378.35	195.88
378.576	176.88
378.802	188.88
379.027	178.88
379.253	183.88
379.478	175.88
379.704	186.88
379.929	184.88
380.155	183.88
380.38	194.88
380.606	205.88
380.831	192.88
381.057	188.88
381.282	191.88
381.507	178.88
381.733	191.88
381.958	214.88
382.184	192.88
382.409	200.88
382.634	189.88
382.86	200.88
383.085	196.88
383.31	200.88
383.535	197.88
383.761	200.88
383.986	201.88
384.211	198.88
384.436	200.88
384.662	205.88
384.887	205.88
385.112	217.88
385.337	208.88
385.562	222.88
385.787	209.88
386.013	201.88
386.238	213.88
386.463	218.88
386.688	214.88
386.913	237.88
387.138	222.88
387.363	214.88
387.588	201.88
387.813	207.88
388.038	220.88
388.263	192.88
388.488	201.88
388.713	192.88
388.938	211.88
389.163	197.88
389.387	212.88
389.612	222.88
389.837	193.88
390.062	203.88
390.287	218.88
390.512	207.88
390.736	186.88
390.961	226.88
391.186	204.88
391.411	225.88
391.636	206.88
391.86	214.88
392.085	218.88
392.31	217.88
392.534	214.88
392.759	208.88
392.984	214.88
393.208	225.88
393.433	212.88
393.658	207.88
393.882	214.88
394.107	214.88
394.331	230.88
394.556	214.88
394.78	218.88
395.005	229.88
395.229	211.88
395.454	239.88
395.678	220.88
395.903	219.88
396.127	218.88
396.352	236.88
396.576	216.88
396.801	238.88
397.025	225.88
397.249	221.88
397.474	241.88
397.698	247.88
397.922	215.88
398.147	232.88
398.371	224.88
398.595	232.88
398.82	244.88
399.044	249.88
399.268	268.88
399.492	285.88
399.717	287.88
399.941	272.88
400.165	258.88
400.389	275.88
400.613	258.88
400.837	253.88
401.062	254.88
401.286	245.88
401.51	226.88
401.734	258.88
401.958	242.88
402.182	233.88
402.406	245.88
402.63	225.88
402.854	242.88
403.078	244.88
403.302	243.88
403.526	245.88
403.75	249.88
403.974	243.88
404.198	268.88
404.422	271.88
404.645	267.88
404.869	282.88
405.093	299.88
405.317	322.88
405.541	309.88
405.765	316.88
405.988	272.88
406.212	280.88
406.436	280.88
406.66	269.88
406.883	254.88
407.107	275.88
407.331	275.88
407.555	257.88
407.778	255.88
408.002	258.88
408.226	242.88
408.449	253.88
408.673	258.88
408.896	242.88
409.12	258.88
409.344	259.88
409.567	249.88
409.791	247.88
410.014	260.88
410.238	247.88
410.461	252.88
410.685	257.88
410.908	265.88
411.132	249.88
411.355	257.88
411.578	237.88
411.802	257.88
412.025	265.88
412.249	310.88
412.472	332.88
412.695	340.88
412.919	309.88
413.142	296.88
413.365	293.88
413.589	276.88
413.812	270.88
414.035	278.88
414.258	286.88
414.482	280.88
414.705	259.88
414.928	245.88
415.151	256.88
415.374	252.88
415.597	237.88
415.821	240.88
416.044	239.88
416.267	238.88
416.49	249.88
416.713	249.88
416.936	237.88
417.159	253.88
417.382	261.88
417.605	250.88
417.828	273.88
418.051	264.88
418.274	252.88
418.497	255.88
418.72	245.88
418.943	256.88
419.166	262.88
419.389	270.88
419.611	259.88
419.834	281.88
420.057	298.88
420.28	324.88
420.503	321.88
420.726	275.88
420.948	271.88
421.171	262.88
421.394	257.88
421.617	248.88
421.839	266.88
422.062	250.88
422.285	242.88
422.507	253.88
422.73	251.88
422.953	266.88
423.175	250.88
423.398	262.88
423.621	228.88
423.843	257.88
424.066	250.88
424.288	246.88
424.511	244.88
424.733	249.88
424.956	242.88
425.178	254.88
425.401	235.88
425.623	230.88
425.846	240.88
426.068	235.88
426.291	245.88
426.513	244.88
426.735	258.88
426.958	250.88
427.18	244.88
427.402	279.88
427.625	301.88
427.847	306.88
428.069	342.88
428.292	286.88
428.514	264.88
428.736	254.88
428.958	247.88
429.181	235.88
429.403	223.88
429.625	232.88
429.847	247.88
430.069	221.88
430.292	240.88
430.514	220.88
430.736	235.88
430.958	223.88
431.18	209.88
431.402	228.88
431.624	208.88
431.846	230.88
432.068	213.88
432.29	219.88
432.512	213.88
432.734	217.88
432.956	223.88
433.178	235.88
433.4	232.88
433.622	246.88
433.844	235.88
434.066	244.88
434.287	224.88
434.509	222.88
434.731	216.88
434.953	230.88
435.175	235.88
435.397	242.88
435.618	234.88
435.84	230.88
436.062	228.88
436.284	226.88
436.505	235.88
436.727	230.88
436.949	227.88
437.17	223.88
437.392	203.88
437.614	224.88
437.835	221.88
438.057	230.88
438.278	213.88
438.5	215.88
438.721	220.88
438.943	213.88
439.165	221.88
439.386	216.88
439.608	217.88
439.829	233.88
440.05	220.88
440.272	219.88
440.493	223.88
440.715	218.88
440.936	214.88
441.158	229.88
441.379	201.88
441.6	220.88
441.822	247.88
442.043	233.88
442.264	218.88
442.486	239.88
442.707	240.88
442.928	245.88
443.149	241.88
443.371	246.88
443.592	246.88
443.813	236.88
444.034	232.88
444.255	237.88
444.476	248.88
444.698	241.88
444.919	242.88
445.14	321.88
445.361	273.88
445.582	224.88
445.803	255.88
446.024	246.88
446.245	233.88
446.466	228.88
446.687	218.88
446.908	230.88
447.129	224.88
447.35	220.88
447.571	228.88
447.792	217.88
448.013	213.88
448.234	228.88
448.455	230.88
448.675	229.88
448.896	217.88
449.117	216.88
449.338	225.88
449.559	214.88
449.779	213.88
450	217.88
450.221	217.88
450.442	214.88
450.662	216.88
450.883	210.88
451.104	193.88
451.324	222.88
451.545	218.88
451.766	197.88
451.986	218.88
452.207	202.88
452.428	220.88
452.648	206.88
452.869	204.88
453.089	217.88
453.31	196.88
453.53	207.88
453.751	194.88
453.971	196.88
454.192	204.88
454.412	209.88
454.633	198.88
454.853	215.88
455.073	200.88
455.294	209.88
455.514	213.88
455.734	197.88
455.955	205.88
456.175	218.88
456.395	200.88
456.616	209.88
456.836	206.88
457.056	204.88
457.276	219.88
457.497	215.88
457.717	204.88
457.937	204.88
458.157	203.88
458.377	221.88
458.598	214.88
458.818	218.88
459.038	214.88
459.258	206.88
459.478	210.88
459.698	206.88
459.918	233.88
460.138	230.88
460.358	231.88
460.578	228.88
460.798	255.88
461.018	245.88
461.238	261.88
461.458	245.88
461.678	229.88
461.898	249.88
462.118	245.88
462.338	248.88
462.558	273.88
462.777	258.88
462.997	264.88
463.217	250.88
463.437	270.88
463.657	269.88
463.876	269.88
464.096	264.88
464.316	253.88
464.536	257.88
464.755	258.88
464.975	247.88
465.195	254.88
465.414	239.88
465.634	238.88
465.854	264.88
466.073	232.88
466.293	241.88
466.512	232.88
466.732	231.88
466.951	230.88
467.171	250.88
467.391	262.88
467.61	274.88
467.829	375.88
468.049	673.88
468.268	818.88
468.488	505.88
468.707	352.88
468.927	304.88
469.146	278.88
469.365	294.88
469.585	265.88
469.804	266.88
470.023	270.88
470.243	250.88
470.462	263.88
470.681	265.88
470.901	300.88
471.12	260.88
471.339	299.88
471.558	314.88
471.777	368.88
471.997	529.88
472.216	1118.88
472.435	1723.88
472.654	956.88
472.873	564.88
473.092	427.88
473.311	383.88
473.53	352.88
473.749	322.88
473.968	314.88
474.187	288.88
474.406	274.88
474.625	284.88
474.844	273.88
475.063	288.88
475.282	262.88
475.501	252.88
475.72	257.88
475.939	260.88
476.158	253.88
476.377	278.88
476.596	258.88
476.814	257.88
477.033	264.88
477.252	268.88
477.471	269.88
477.69	277.88
477.908	269.88
478.127	276.88
478.346	272.88
478.564	286.88
478.783	278.88
479.002	285.88
479.22	295.88
479.439	314.88
479.658	299.88
479.876	300.88
480.095	339.88
480.313	386.88
480.532	486.88
480.751	618.88
480.969	1211.88
481.188	2782.88
481.406	2202.88
481.624	1064.88
481.843	701.88
482.061	548.88
482.28	466.88
482.498	418.88
482.717	377.88
482.935	367.88
483.153	352.88
483.372	366.88
483.59	340.88
483.808	329.88
484.027	314.88
484.245	321.88
484.463	302.88
484.681	311.88
484.9	316.88
485.118	310.88
485.336	301.88
485.554	292.88
485.772	291.88
485.99	293.88
486.209	296.88
486.427	283.88
486.645	287.88
486.863	303.88
487.081	295.88
487.299	281.88
487.517	302.88
487.735	281.88
487.953	289.88
488.171	313.88
488.389	303.88
488.607	304.88
488.825	311.88
489.043	304.88
489.261	322.88
489.479	322.88
489.696	334.88
489.914	328.88
490.132	337.88
490.35	338.88
490.568	335.88
490.786	392.88
491.003	380.88
491.221	454.88
491.439	497.88
491.657	475.88
491.874	489.88
492.092	467.88
492.31	480.88
492.527	530.88
492.745	535.88
492.963	514.88
493.18	468.88
493.398	476.88
493.615	432.88
493.833	416.88
494.05	407.88
494.268	398.88
494.485	414.88
494.703	408.88
494.92	388.88
495.138	383.88
495.355	380.88
495.573	369.88
495.79	352.88
496.008	346.88
496.225	353.88
496.442	332.88
496.66	352.88
496.877	350.88
497.094	360.88
497.312	344.88
497.529	351.88
497.746	349.88
497.963	337.88
498.181	330.88
498.398	335.88
498.615	364.88
498.832	358.88
499.049	386.88
499.267	365.88
499.484	401.88
499.701	408.88
499.918	436.88
500.135	447.88
500.352	490.88
500.569	494.88
500.786	520.88
501.003	465.88
501.22	444.88
501.437	416.88
501.654	385.88
501.871	377.88
502.088	345.88
502.305	357.88
502.522	321.88
502.739	330.88
502.956	334.88
503.172	311.88
503.389	300.88
