Data from StdC_HRD10591_005.txt Node
Date: Fri May 16 15:28:43 EDT 2025
User: Yrep
Spectrometer: HR+D1059
Trigger mode: 1
Integration Time (sec): 1.000000E-1
Scans to average: 1
Electric dark correction enabled: true
Nonlinearity correction enabled: false
Boxcar width: 0
XAxis mode: Wavelengths
Number of Pixels in Spectrum: 2048
>>>>>Begin Spectral Data<<<<<
223.165	-16.44
223.4	-16.44
223.635	-16.44
223.869	-20.44
224.104	-10.44
224.338	-10.44
224.573	-15.44
224.808	-5.44
225.042	-2.44
225.277	4.56
225.511	-15.44
225.746	-11.44
225.98	7.56
226.215	0.56
226.449	17.56
226.683	16.56
226.918	31.56
227.152	29.56
227.387	28.56
227.621	40.56
227.856	38.56
228.09	51.56
228.324	45.56
228.559	69.56
228.793	66.56
229.027	70.56
229.262	55.56
229.496	55.56
229.73	68.56
229.964	72.56
230.199	62.56
230.433	80.56
230.667	66.56
230.901	85.56
231.136	70.56
231.37	89.56
231.604	83.56
231.838	69.56
232.072	83.56
232.306	83.56
232.541	87.56
232.775	75.56
233.009	73.56
233.243	66.56
233.477	85.56
233.711	75.56
233.945	67.56
234.179	66.56
234.413	78.56
234.647	89.56
234.881	73.56
235.115	90.56
235.349	69.56
235.583	86.56
235.817	75.56
236.051	54.56
236.285	76.56
236.519	75.56
236.753	69.56
236.987	68.56
237.221	61.56
237.455	77.56
237.689	85.56
237.922	85.56
238.156	69.56
238.39	74.56
238.624	74.56
238.858	63.56
239.091	71.56
239.325	73.56
239.559	68.56
239.793	79.56
240.027	69.56
240.26	81.56
240.494	78.56
240.728	69.56
240.961	67.56
241.195	74.56
241.429	76.56
241.662	79.56
241.896	70.56
242.13	69.56
242.363	69.56
242.597	78.56
242.83	71.56
243.064	72.56
243.298	76.56
243.531	75.56
243.765	75.56
243.998	82.56
244.232	83.56
244.465	91.56
244.699	82.56
244.932	65.56
245.166	88.56
245.399	81.56
245.633	68.56
245.866	65.56
246.099	78.56
246.333	77.56
246.566	79.56
246.8	64.56
247.033	64.56
247.266	69.56
247.5	81.56
247.733	89.56
247.966	74.56
248.2	77.56
248.433	70.56
248.666	81.56
248.899	75.56
249.133	69.56
249.366	66.56
249.599	67.56
249.832	73.56
250.066	83.56
250.299	63.56
250.532	64.56
250.765	71.56
250.998	91.56
251.231	70.56
251.465	88.56
251.698	75.56
251.931	81.56
252.164	61.56
252.397	63.56
252.63	74.56
252.863	71.56
253.096	70.56
253.329	77.56
253.562	70.56
253.795	85.56
254.028	75.56
254.261	76.56
254.494	69.56
254.727	75.56
254.96	60.56
255.193	77.56
255.426	62.56
255.659	71.56
255.892	67.56
256.124	73.56
256.357	75.56
256.59	89.56
256.823	83.56
257.056	75.56
257.289	78.56
257.521	97.56
257.754	82.56
257.987	85.56
258.22	83.56
258.452	87.56
258.685	87.56
258.918	85.56
259.151	67.56
259.383	87.56
259.616	76.56
259.849	80.56
260.081	82.56
260.314	69.56
260.547	81.56
260.779	87.56
261.012	76.56
261.244	70.56
261.477	70.56
261.71	75.56
261.942	75.56
262.175	86.56
262.407	83.56
262.64	75.56
262.872	82.56
263.105	70.56
263.337	80.56
263.57	76.56
263.802	72.56
264.035	83.56
264.267	69.56
264.499	72.56
264.732	69.56
264.964	64.56
265.197	93.56
265.429	85.56
265.661	78.56
265.894	95.56
266.126	87.56
266.358	77.56
266.591	76.56
266.823	69.56
267.055	69.56
267.287	84.56
267.52	56.56
267.752	72.56
267.984	85.56
268.216	78.56
268.448	90.56
268.681	84.56
268.913	94.56
269.145	74.56
269.377	77.56
269.609	78.56
269.841	82.56
270.073	88.56
270.306	78.56
270.538	85.56
270.77	95.56
271.002	76.56
271.234	63.56
271.466	81.56
271.698	75.56
271.93	91.56
272.162	86.56
272.394	83.56
272.626	85.56
272.858	86.56
273.09	86.56
273.322	81.56
273.553	69.56
273.785	61.56
274.017	82.56
274.249	71.56
274.481	92.56
274.713	83.56
274.945	77.56
275.176	74.56
275.408	82.56
275.64	77.56
275.872	80.56
276.104	89.56
276.335	78.56
276.567	92.56
276.799	81.56
277.031	81.56
277.262	92.56
277.494	75.56
277.726	88.56
277.957	79.56
278.189	84.56
278.421	73.56
278.652	78.56
278.884	85.56
279.115	99.56
279.347	89.56
279.579	80.56
279.81	86.56
280.042	82.56
280.273	88.56
280.505	101.56
280.736	79.56
280.968	76.56
281.199	89.56
281.431	75.56
281.662	83.56
281.894	91.56
282.125	80.56
282.356	87.56
282.588	97.56
282.819	98.56
283.051	81.56
283.282	102.56
283.513	83.56
283.745	71.56
283.976	93.56
284.207	82.56
284.439	77.56
284.67	75.56
284.901	77.56
285.132	85.56
285.364	68.56
285.595	82.56
285.826	60.56
286.057	84.56
286.288	89.56
286.52	69.56
286.751	75.56
286.982	84.56
287.213	62.56
287.444	76.56
287.675	83.56
287.906	88.56
288.138	78.56
288.369	82.56
288.6	87.56
288.831	84.56
289.062	70.56
289.293	73.56
289.524	74.56
289.755	76.56
289.986	63.56
290.217	75.56
290.448	88.56
290.679	91.56
290.91	76.56
291.141	76.56
291.371	77.56
291.602	84.56
291.833	83.56
292.064	68.56
292.295	78.56
292.526	81.56
292.757	79.56
292.987	66.56
293.218	92.56
293.449	88.56
293.68	81.56
293.91	76.56
294.141	76.56
294.372	88.56
294.603	86.56
294.833	87.56
295.064	79.56
295.295	69.56
295.525	71.56
295.756	69.56
295.987	92.56
296.217	97.56
296.448	83.56
296.679	72.56
296.909	84.56
297.14	82.56
297.37	83.56
297.601	77.56
297.831	85.56
298.062	81.56
298.292	81.56
298.523	69.56
298.753	85.56
298.984	77.56
299.214	74.56
299.445	66.56
299.675	81.56
299.905	74.56
300.136	75.56
300.366	69.56
300.597	75.56
300.827	87.56
301.057	74.56
301.288	81.56
301.518	87.56
301.748	75.56
301.979	87.56
302.209	74.56
302.439	71.56
302.669	81.56
302.9	80.56
303.13	86.56
303.36	83.56
303.59	86.56
303.82	91.56
304.051	91.56
304.281	84.56
304.511	84.56
304.741	69.56
304.971	85.56
305.201	82.56
305.431	92.56
305.661	73.56
305.891	81.56
306.121	76.56
306.352	71.56
306.582	90.56
306.812	98.56
307.042	81.56
307.272	70.56
307.502	94.56
307.731	99.56
307.961	82.56
308.191	88.56
308.421	90.56
308.651	74.56
308.881	86.56
309.111	75.56
309.341	73.56
309.571	78.56
309.8	81.56
310.03	78.56
310.26	82.56
310.49	69.56
310.72	76.56
310.949	79.56
311.179	83.56
311.409	78.56
311.639	79.56
311.868	82.56
312.098	73.56
312.328	93.56
312.557	77.56
312.787	93.56
313.017	82.56
313.246	86.56
313.476	85.56
313.706	85.56
313.935	86.56
314.165	83.56
314.394	78.56
314.624	84.56
314.853	89.56
315.083	83.56
315.312	89.56
315.542	74.56
315.771	81.56
316.001	82.56
316.23	78.56
316.46	87.56
316.689	81.56
316.919	77.56
317.148	71.56
317.377	91.56
317.607	86.56
317.836	83.56
318.065	88.56
318.295	87.56
318.524	78.56
318.753	92.56
318.983	79.56
319.212	83.56
319.441	88.56
319.67	79.56
319.9	74.56
320.129	81.56
320.358	74.56
320.587	79.56
320.816	63.56
321.046	74.56
321.275	89.56
321.504	82.56
321.733	77.56
321.962	89.56
322.191	85.56
322.42	81.56
322.649	79.56
322.878	86.56
323.108	72.56
323.337	65.56
323.566	97.56
323.795	81.56
324.024	87.56
324.253	69.56
324.482	70.56
324.71	89.56
324.939	90.56
325.168	81.56
325.397	83.56
325.626	85.56
325.855	65.56
326.084	77.56
326.313	91.56
326.542	84.56
326.77	79.56
326.999	81.56
327.228	92.56
327.457	87.56
327.686	87.56
327.914	101.56
328.143	127.56
328.372	130.56
328.6	100.56
328.829	84.56
329.058	87.56
329.287	87.56
329.515	93.56
329.744	91.56
329.972	136.56
330.201	165.56
330.43	204.56
330.658	113.56
330.887	87.56
331.115	88.56
331.344	87.56
331.572	97.56
331.801	81.56
332.03	86.56
332.258	74.56
332.486	77.56
332.715	74.56
332.943	73.56
333.172	81.56
333.4	84.56
333.629	83.56
333.857	107.56
334.085	130.56
334.314	190.56
334.542	220.56
334.771	190.56
334.999	115.56
335.227	90.56
335.455	70.56
335.684	83.56
335.912	74.56
336.14	87.56
336.369	81.56
336.597	76.56
336.825	73.56
337.053	73.56
337.281	78.56
337.51	78.56
337.738	70.56
337.966	78.56
338.194	74.56
338.422	81.56
338.65	67.56
338.878	73.56
339.106	65.56
339.334	80.56
339.562	85.56
339.79	75.56
340.018	81.56
340.246	90.56
340.474	78.56
340.702	83.56
340.93	83.56
341.158	79.56
341.386	79.56
341.614	88.56
341.842	87.56
342.07	78.56
342.298	80.56
342.526	77.56
342.754	63.56
342.981	86.56
343.209	89.56
343.437	95.56
343.665	71.56
343.893	85.56
344.12	79.56
344.348	87.56
344.576	84.56
344.804	78.56
345.031	85.56
345.259	77.56
345.487	82.56
345.714	83.56
345.942	82.56
346.17	86.56
346.397	89.56
346.625	78.56
346.853	76.56
347.08	80.56
347.308	82.56
347.535	77.56
347.763	74.56
347.99	91.56
348.218	62.56
348.445	86.56
348.673	68.56
348.9	79.56
349.128	82.56
349.355	82.56
349.583	74.56
349.81	72.56
350.037	82.56
350.265	87.56
350.492	77.56
350.72	61.56
350.947	79.56
351.174	75.56
351.402	80.56
351.629	78.56
351.856	74.56
352.083	86.56
352.311	66.56
352.538	89.56
352.765	83.56
352.992	87.56
353.22	81.56
353.447	75.56
353.674	81.56
353.901	77.56
354.128	67.56
354.355	86.56
354.583	92.56
354.81	76.56
355.037	71.56
355.264	91.56
355.491	83.56
355.718	86.56
355.945	86.56
356.172	73.56
356.399	88.56
356.626	73.56
356.853	87.56
357.08	88.56
357.307	73.56
357.534	71.56
357.761	74.56
357.988	75.56
358.215	84.56
358.441	86.56
358.668	90.56
358.895	78.56
359.122	83.56
359.349	77.56
359.576	72.56
359.802	82.56
360.029	71.56
360.256	77.56
360.483	81.56
360.709	78.56
360.936	94.56
361.163	82.56
361.39	79.56
361.616	84.56
361.843	85.56
362.07	73.56
362.296	74.56
362.523	89.56
362.749	86.56
362.976	71.56
363.203	64.56
363.429	72.56
363.656	67.56
363.882	77.56
364.109	69.56
364.335	93.56
364.562	70.56
364.788	85.56
365.015	71.56
365.241	70.56
365.468	78.56
365.694	73.56
365.92	73.56
366.147	90.56
366.373	79.56
366.599	88.56
366.826	70.56
367.052	76.56
367.278	89.56
367.505	79.56
367.731	95.56
367.957	87.56
368.184	86.56
368.41	75.56
368.636	88.56
368.862	94.56
369.089	78.56
369.315	77.56
369.541	75.56
369.767	85.56
369.993	83.56
370.219	69.56
370.445	81.56
370.672	68.56
370.898	69.56
371.124	64.56
371.35	77.56
371.576	69.56
371.802	89.56
372.028	71.56
372.254	78.56
372.48	89.56
372.706	80.56
372.932	85.56
373.158	69.56
373.384	66.56
373.61	80.56
373.835	78.56
374.061	73.56
374.287	77.56
374.513	85.56
374.739	73.56
374.965	79.56
375.191	69.56
375.416	80.56
375.642	71.56
375.868	70.56
376.094	100.56
376.319	81.56
376.545	85.56
376.771	77.56
376.997	79.56
377.222	74.56
377.448	69.56
377.674	85.56
377.899	77.56
378.125	86.56
378.35	77.56
378.576	69.56
378.802	101.56
379.027	83.56
379.253	82.56
379.478	71.56
379.704	76.56
379.929	65.56
380.155	73.56
380.38	75.56
380.606	75.56
380.831	73.56
381.057	82.56
381.282	68.56
381.507	76.56
381.733	87.56
381.958	83.56
382.184	62.56
382.409	84.56
382.634	91.56
382.86	97.56
383.085	78.56
383.31	66.56
383.535	67.56
383.761	89.56
383.986	77.56
384.211	81.56
384.436	68.56
384.662	88.56
384.887	75.56
385.112	71.56
385.337	76.56
385.562	81.56
385.787	73.56
386.013	85.56
386.238	93.56
386.463	75.56
386.688	91.56
386.913	73.56
387.138	94.56
387.363	69.56
387.588	77.56
387.813	89.56
388.038	77.56
388.263	73.56
388.488	56.56
388.713	73.56
388.938	85.56
389.163	80.56
389.387	73.56
389.612	78.56
389.837	73.56
390.062	87.56
390.287	81.56
390.512	64.56
390.736	78.56
390.961	81.56
391.186	79.56
391.411	85.56
391.636	71.56
391.86	72.56
392.085	81.56
392.31	82.56
392.534	97.56
392.759	85.56
392.984	87.56
393.208	67.56
393.433	71.56
393.658	73.56
393.882	90.56
394.107	70.56
394.331	85.56
394.556	98.56
394.78	85.56
395.005	74.56
395.229	82.56
395.454	84.56
395.678	70.56
395.903	81.56
396.127	95.56
396.352	84.56
396.576	69.56
396.801	81.56
397.025	74.56
397.249	92.56
397.474	85.56
397.698	70.56
397.922	80.56
398.147	83.56
398.371	84.56
398.595	81.56
398.82	89.56
399.044	72.56
399.268	74.56
399.492	73.56
399.717	69.56
399.941	85.56
400.165	81.56
400.389	81.56
400.613	75.56
400.837	74.56
401.062	72.56
401.286	74.56
401.51	82.56
401.734	79.56
401.958	78.56
402.182	79.56
402.406	82.56
402.63	89.56
402.854	88.56
403.078	69.56
403.302	73.56
403.526	84.56
403.75	92.56
403.974	100.56
404.198	82.56
404.422	86.56
404.645	61.56
404.869	88.56
405.093	81.56
405.317	87.56
405.541	90.56
405.765	77.56
405.988	81.56
406.212	93.56
406.436	78.56
406.66	86.56
406.883	99.56
407.107	80.56
407.331	75.56
407.555	84.56
407.778	90.56
408.002	77.56
408.226	67.56
408.449	72.56
408.673	77.56
408.896	86.56
409.12	89.56
409.344	69.56
409.567	83.56
409.791	77.56
410.014	81.56
410.238	79.56
410.461	78.56
410.685	75.56
410.908	76.56
411.132	75.56
411.355	73.56
411.578	76.56
411.802	83.56
412.025	77.56
412.249	81.56
412.472	95.56
412.695	69.56
412.919	83.56
413.142	92.56
413.365	68.56
413.589	87.56
413.812	70.56
414.035	77.56
414.258	64.56
414.482	83.56
414.705	83.56
414.928	78.56
415.151	87.56
415.374	67.56
415.597	82.56
415.821	80.56
416.044	86.56
416.267	74.56
416.49	81.56
416.713	91.56
416.936	71.56
417.159	77.56
417.382	71.56
417.605	89.56
417.828	81.56
418.051	81.56
418.274	87.56
418.497	69.56
418.72	74.56
418.943	99.56
419.166	85.56
419.389	88.56
419.611	81.56
419.834	79.56
420.057	85.56
420.28	92.56
420.503	80.56
420.726	67.56
420.948	76.56
421.171	88.56
421.394	81.56
421.617	73.56
421.839	82.56
422.062	83.56
422.285	79.56
422.507	69.56
422.73	79.56
422.953	72.56
423.175	66.56
423.398	74.56
423.621	74.56
423.843	82.56
424.066	78.56
424.288	84.56
424.511	70.56
424.733	82.56
424.956	92.56
425.178	78.56
425.401	81.56
425.623	68.56
425.846	79.56
426.068	85.56
426.291	85.56
426.513	83.56
426.735	76.56
426.958	74.56
427.18	79.56
427.402	81.56
427.625	76.56
427.847	74.56
428.069	82.56
428.292	75.56
428.514	85.56
428.736	73.56
428.958	72.56
429.181	69.56
429.403	73.56
429.625	77.56
429.847	77.56
430.069	79.56
430.292	91.56
430.514	77.56
430.736	86.56
430.958	84.56
431.18	67.56
431.402	61.56
431.624	74.56
431.846	75.56
432.068	78.56
432.29	86.56
432.512	83.56
432.734	80.56
432.956	85.56
433.178	86.56
433.4	75.56
433.622	91.56
433.844	83.56
434.066	88.56
434.287	70.56
434.509	74.56
434.731	79.56
434.953	87.56
435.175	83.56
435.397	76.56
435.618	97.56
435.84	76.56
436.062	75.56
436.284	86.56
436.505	74.56
436.727	78.56
436.949	75.56
437.17	85.56
437.392	58.56
437.614	67.56
437.835	75.56
438.057	66.56
438.278	85.56
438.5	71.56
438.721	79.56
438.943	93.56
439.165	76.56
439.386	86.56
439.608	84.56
439.829	88.56
440.05	87.56
440.272	80.56
440.493	102.56
440.715	90.56
440.936	83.56
441.158	86.56
441.379	81.56
441.6	80.56
441.822	86.56
442.043	73.56
442.264	84.56
442.486	82.56
442.707	70.56
442.928	78.56
443.149	75.56
443.371	75.56
443.592	78.56
443.813	90.56
444.034	75.56
444.255	84.56
444.476	75.56
444.698	88.56
444.919	81.56
445.14	166.56
445.361	109.56
445.582	77.56
445.803	88.56
446.024	79.56
446.245	86.56
446.466	82.56
446.687	75.56
446.908	66.56
447.129	83.56
447.35	93.56
447.571	82.56
447.792	85.56
448.013	91.56
448.234	82.56
448.455	92.56
448.675	89.56
448.896	90.56
449.117	85.56
449.338	84.56
449.559	84.56
449.779	78.56
450	74.56
450.221	92.56
450.442	99.56
450.662	75.56
450.883	77.56
451.104	88.56
451.324	71.56
451.545	85.56
451.766	72.56
451.986	83.56
452.207	76.56
452.428	85.56
452.648	73.56
452.869	77.56
453.089	74.56
453.31	77.56
453.53	87.56
453.751	75.56
453.971	77.56
454.192	81.56
454.412	78.56
454.633	93.56
454.853	82.56
455.073	77.56
455.294	85.56
455.514	73.56
455.734	63.56
455.955	77.56
456.175	83.56
456.395	91.56
456.616	71.56
456.836	80.56
457.056	71.56
457.276	81.56
457.497	84.56
457.717	73.56
457.937	91.56
458.157	84.56
458.377	94.56
458.598	77.56
458.818	84.56
459.038	77.56
459.258	67.56
459.478	74.56
459.698	82.56
459.918	87.56
460.138	81.56
460.358	91.56
460.578	79.56
460.798	79.56
461.018	84.56
461.238	77.56
461.458	78.56
461.678	72.56
461.898	80.56
462.118	69.56
462.338	75.56
462.558	76.56
462.777	65.56
462.997	84.56
463.217	87.56
463.437	77.56
463.657	92.56
463.876	93.56
464.096	77.56
464.316	85.56
464.536	82.56
464.755	83.56
464.975	70.56
465.195	84.56
465.414	70.56
465.634	78.56
465.854	78.56
466.073	86.56
466.293	79.56
466.512	94.56
466.732	85.56
466.951	80.56
467.171	86.56
467.391	89.56
467.61	95.56
467.829	97.56
468.049	179.56
468.268	176.56
468.488	103.56
468.707	84.56
468.927	77.56
469.146	81.56
469.365	75.56
469.585	92.56
469.804	91.56
470.023	85.56
470.243	77.56
470.462	79.56
470.681	79.56
470.901	81.56
471.12	94.56
471.339	86.56
471.558	102.56
471.777	94.56
471.997	125.56
472.216	236.56
472.435	325.56
472.654	133.56
472.873	87.56
473.092	94.56
473.311	83.56
473.53	92.56
473.749	83.56
473.968	78.56
474.187	93.56
474.406	81.56
474.625	91.56
474.844	77.56
475.063	78.56
475.282	86.56
475.501	81.56
475.72	89.56
475.939	74.56
476.158	69.56
476.377	88.56
476.596	83.56
476.814	74.56
477.033	75.56
477.252	76.56
477.471	89.56
477.69	91.56
477.908	82.56
478.127	94.56
478.346	86.56
478.564	67.56
478.783	86.56
479.002	84.56
479.22	74.56
479.439	79.56
479.658	83.56
479.876	74.56
480.095	78.56
480.313	87.56
480.532	83.56
480.751	116.56
480.969	238.56
481.188	518.56
481.406	277.56
481.624	111.56
481.843	89.56
482.061	92.56
482.28	80.56
482.498	74.56
482.717	81.56
482.935	79.56
483.153	87.56
483.372	76.56
483.59	73.56
483.808	72.56
484.027	79.56
484.245	89.56
484.463	76.56
484.681	82.56
484.9	91.56
485.118	85.56
485.336	84.56
485.554	71.56
485.772	81.56
485.99	76.56
486.209	77.56
486.427	77.56
486.645	71.56
486.863	76.56
487.081	88.56
487.299	85.56
487.517	78.56
487.735	89.56
487.953	73.56
488.171	81.56
488.389	78.56
488.607	85.56
488.825	82.56
489.043	84.56
489.261	77.56
489.479	67.56
489.696	73.56
489.914	84.56
490.132	81.56
490.35	79.56
490.568	91.56
490.786	81.56
491.003	87.56
491.221	81.56
491.439	81.56
491.657	86.56
491.874	81.56
492.092	97.56
492.31	91.56
492.527	92.56
492.745	69.56
492.963	97.56
493.18	89.56
493.398	99.56
493.615	85.56
493.833	83.56
494.05	87.56
494.268	74.56
494.485	93.56
494.703	73.56
494.92	74.56
495.138	72.56
495.355	86.56
495.573	78.56
495.79	80.56
496.008	83.56
496.225	87.56
496.442	76.56
496.66	86.56
496.877	86.56
497.094	83.56
497.312	80.56
497.529	82.56
497.746	82.56
497.963	75.56
498.181	79.56
498.398	81.56
498.615	78.56
498.832	70.56
499.049	97.56
499.267	91.56
499.484	85.56
499.701	79.56
499.918	82.56
500.135	93.56
500.352	85.56
500.569	83.56
500.786	81.56
501.003	80.56
501.22	88.56
501.437	85.56
501.654	73.56
501.871	87.56
502.088	81.56
502.305	74.56
502.522	99.56
502.739	92.56
502.956	77.56
503.172	84.56
503.389	72.56
503.606	84.56
503.823	80.56
504.04	85.56
504.256	85.56
504.473	77.56
504.69	82.56
504.907	92.56
505.123	86.56
505.34	91.56
505.557	84.56
505.773	82.56
505.99	86.56
506.207	59.56
506.423	83.56
506.64	83.56
506.856	90.56
507.073	76.56
507.289	79.56
507.506	97.56
507.722	94.56
507.939	87.56
508.155	81.56
508.372	88.56
508.588	90.56
508.805	73.56
509.021	85.56
509.238	92.56
509.454	79.56
509.67	95.56
509.887	83.56
510.103	86.56
510.319	67.56
510.536	78.56
510.752	79.56
510.968	90.56
511.184	85.56
511.401	70.56
511.617	92.56
511.833	86.56
512.049	82.56
512.265	78.56
512.481	85.56
512.698	81.56
512.914	91.56
513.13	83.56
513.346	78.56
513.562	73.56
513.778	90.56
513.994	79.56
514.21	80.56
514.426	89.56
514.642	81.56
514.858	80.56
515.074	79.56
515.29	75.56
515.506	67.56
515.721	81.56
515.937	76.56
516.153	73.56
516.369	99.56
516.585	89.56
516.801	79.56
517.016	98.56
517.232	83.56
517.448	88.56
517.664	74.56
517.879	99.56
518.095	84.56
518.311	86.56
518.527	89.56
518.742	81.56
518.958	68.56
519.173	63.56
519.389	80.56
519.605	86.56
519.82	77.56
