Data from StdC_HRD10591_060.txt Node
Date: Fri May 16 15:29:10 EDT 2025
User: Yrep
Spectrometer: HR+D1059
Trigger mode: 1
Integration Time (sec): 1.000000E-1
Scans to average: 1
Electric dark correction enabled: true
Nonlinearity correction enabled: false
Boxcar width: 0
XAxis mode: Wavelengths
Number of Pixels in Spectrum: 2048
>>>>>Begin Spectral Data<<<<<
223.165	-20.56
223.4	-20.56
223.635	-20.56
223.869	-12.56
224.104	-14.56
224.338	-2.56
224.573	-9.56
224.808	-13.56
225.042	-7.56
225.277	-0.56
225.511	-11.56
225.746	14.44
225.98	1.44
226.215	-9.56
226.449	28.44
226.683	9.44
226.918	19.44
227.152	29.44
227.387	32.44
227.621	38.44
227.856	46.44
228.09	39.44
228.324	39.44
228.559	55.44
228.793	57.44
229.027	57.44
229.262	71.44
229.496	74.44
229.73	84.44
229.964	88.44
230.199	78.44
230.433	63.44
230.667	79.44
230.901	68.44
231.136	72.44
231.37	76.44
231.604	92.44
231.838	81.44
232.072	78.44
232.306	88.44
232.541	86.44
232.775	100.44
233.009	100.44
233.243	85.44
233.477	98.44
233.711	106.44
233.945	84.44
234.179	83.44
234.413	93.44
234.647	95.44
234.881	81.44
235.115	100.44
235.349	96.44
235.583	82.44
235.817	82.44
236.051	90.44
236.285	94.44
236.519	79.44
236.753	83.44
236.987	96.44
237.221	90.44
237.455	92.44
237.689	89.44
237.922	97.44
238.156	88.44
238.39	99.44
238.624	92.44
238.858	83.44
239.091	87.44
239.325	74.44
239.559	90.44
239.793	86.44
240.027	98.44
240.26	103.44
240.494	93.44
240.728	84.44
240.961	81.44
241.195	103.44
241.429	99.44
241.662	94.44
241.896	87.44
242.13	85.44
242.363	95.44
242.597	95.44
242.83	92.44
243.064	99.44
243.298	96.44
243.531	93.44
243.765	100.44
243.998	93.44
244.232	92.44
244.465	94.44
244.699	107.44
244.932	93.44
245.166	92.44
245.399	95.44
245.633	103.44
245.866	100.44
246.099	101.44
246.333	82.44
246.566	84.44
246.8	105.44
247.033	113.44
247.266	111.44
247.5	88.44
247.733	95.44
247.966	109.44
248.2	100.44
248.433	111.44
248.666	115.44
248.899	108.44
249.133	108.44
249.366	104.44
249.599	116.44
249.832	133.44
250.066	139.44
250.299	167.44
250.532	195.44
250.765	170.44
250.998	136.44
251.231	135.44
251.465	119.44
251.698	131.44
251.931	127.44
252.164	104.44
252.397	109.44
252.63	123.44
252.863	124.44
253.096	119.44
253.329	105.44
253.562	108.44
253.795	133.44
254.028	133.44
254.261	120.44
254.494	121.44
254.727	133.44
254.96	136.44
255.193	140.44
255.426	154.44
255.659	186.44
255.892	250.44
256.124	311.44
256.357	261.44
256.59	199.44
256.823	182.44
257.056	163.44
257.289	145.44
257.521	151.44
257.754	143.44
257.987	142.44
258.22	142.44
258.452	130.44
258.685	136.44
258.918	127.44
259.151	138.44
259.383	119.44
259.616	134.44
259.849	133.44
260.081	136.44
260.314	137.44
260.547	132.44
260.779	132.44
261.012	144.44
261.244	128.44
261.477	137.44
261.71	136.44
261.942	121.44
262.175	130.44
262.407	133.44
262.64	116.44
262.872	110.44
263.105	120.44
263.337	120.44
263.57	118.44
263.802	129.44
264.035	128.44
264.267	129.44
264.499	123.44
264.732	117.44
264.964	126.44
265.197	134.44
265.429	132.44
265.661	147.44
265.894	134.44
266.126	126.44
266.358	126.44
266.591	120.44
266.823	134.44
267.055	123.44
267.287	132.44
267.52	127.44
267.752	118.44
267.984	134.44
268.216	132.44
268.448	127.44
268.681	131.44
268.913	128.44
269.145	119.44
269.377	131.44
269.609	134.44
269.841	123.44
270.073	124.44
270.306	147.44
270.538	142.44
270.77	132.44
271.002	133.44
271.234	141.44
271.466	152.44
271.698	140.44
271.93	144.44
272.162	132.44
272.394	147.44
272.626	143.44
272.858	151.44
273.09	142.44
273.322	128.44
273.553	133.44
273.785	148.44
274.017	139.44
274.249	154.44
274.481	145.44
274.713	151.44
274.945	173.44
275.176	175.44
275.408	171.44
275.64	153.44
275.872	174.44
276.104	166.44
276.335	167.44
276.567	188.44
276.799	192.44
277.031	220.44
277.262	225.44
277.494	225.44
277.726	190.44
277.957	181.44
278.189	181.44
278.421	183.44
278.652	171.44
278.884	182.44
279.115	187.44
279.347	187.44
279.579	204.44
279.81	215.44
280.042	271.44
280.273	288.44
280.505	247.44
280.736	231.44
280.968	196.44
281.199	173.44
281.431	179.44
281.662	171.44
281.894	163.44
282.125	182.44
282.356	141.44
282.588	165.44
282.819	174.44
283.051	161.44
283.282	155.44
283.513	153.44
283.745	173.44
283.976	161.44
284.207	167.44
284.439	137.44
284.67	154.44
284.901	155.44
285.132	165.44
285.364	156.44
285.595	167.44
285.826	153.44
286.057	170.44
286.288	153.44
286.52	144.44
286.751	145.44
286.982	145.44
287.213	167.44
287.444	151.44
287.675	166.44
287.906	148.44
288.138	159.44
288.369	155.44
288.6	146.44
288.831	159.44
289.062	164.44
289.293	139.44
289.524	151.44
289.755	148.44
289.986	155.44
290.217	141.44
290.448	164.44
290.679	167.44
290.91	164.44
291.141	157.44
291.371	151.44
291.602	152.44
291.833	146.44
292.064	136.44
292.295	153.44
292.526	145.44
292.757	146.44
292.987	148.44
293.218	154.44
293.449	156.44
293.68	145.44
293.91	155.44
294.141	141.44
294.372	150.44
294.603	146.44
294.833	160.44
295.064	143.44
295.295	157.44
295.525	155.44
295.756	164.44
295.987	147.44
296.217	167.44
296.448	158.44
296.679	166.44
296.909	164.44
297.14	151.44
297.37	164.44
297.601	141.44
297.831	148.44
298.062	149.44
298.292	168.44
298.523	174.44
298.753	148.44
298.984	150.44
299.214	152.44
299.445	153.44
299.675	153.44
299.905	178.44
300.136	168.44
300.366	171.44
300.597	157.44
300.827	181.44
301.057	152.44
301.288	149.44
301.518	165.44
301.748	169.44
301.979	198.44
302.209	177.44
302.439	189.44
302.669	165.44
302.9	173.44
303.13	183.44
303.36	183.44
303.59	181.44
303.82	192.44
304.051	193.44
304.281	174.44
304.511	170.44
304.741	172.44
304.971	160.44
305.201	166.44
305.431	160.44
305.661	159.44
305.891	179.44
306.121	156.44
306.352	179.44
306.582	164.44
306.812	170.44
307.042	212.44
307.272	224.44
307.502	231.44
307.731	213.44
307.961	195.44
308.191	182.44
308.421	176.44
308.651	182.44
308.881	180.44
309.111	187.44
309.341	166.44
309.571	182.44
309.8	174.44
310.03	166.44
310.26	163.44
310.49	168.44
310.72	161.44
310.949	179.44
311.179	158.44
311.409	159.44
311.639	166.44
311.868	188.44
312.098	185.44
312.328	173.44
312.557	170.44
312.787	165.44
313.017	171.44
313.246	187.44
313.476	180.44
313.706	168.44
313.935	175.44
314.165	161.44
314.394	165.44
314.624	168.44
314.853	181.44
315.083	169.44
315.312	168.44
315.542	176.44
315.771	185.44
316.001	184.44
316.23	174.44
316.46	189.44
316.689	156.44
316.919	187.44
317.148	182.44
317.377	199.44
317.607	194.44
317.836	190.44
318.065	189.44
318.295	185.44
318.524	172.44
318.753	191.44
318.983	175.44
319.212	194.44
319.441	197.44
319.67	191.44
319.9	173.44
320.129	200.44
320.358	190.44
320.587	197.44
320.816	173.44
321.046	185.44
321.275	189.44
321.504	185.44
321.733	182.44
321.962	204.44
322.191	197.44
322.42	182.44
322.649	207.44
322.878	204.44
323.108	189.44
323.337	202.44
323.566	201.44
323.795	206.44
324.024	211.44
324.253	217.44
324.482	237.44
324.71	227.44
324.939	229.44
325.168	220.44
325.397	218.44
325.626	228.44
325.855	245.44
326.084	249.44
326.313	233.44
326.542	248.44
326.77	260.44
326.999	263.44
327.228	297.44
327.457	332.44
327.686	424.44
327.914	553.44
328.143	715.44
328.372	759.44
328.6	544.44
328.829	416.44
329.058	393.44
329.287	438.44
329.515	484.44
329.744	661.44
329.972	987.44
330.201	1360.44
330.43	1391.44
330.658	791.44
330.887	507.44
331.115	371.44
331.344	345.44
331.572	314.44
331.801	316.44
332.03	320.44
332.258	310.44
332.486	325.44
332.715	339.44
332.943	369.44
333.172	424.44
333.4	446.44
333.629	535.44
333.857	725.44
334.085	1033.44
334.314	1528.44
334.542	1913.44
334.771	1499.44
334.999	775.44
335.227	528.44
335.455	427.44
335.684	358.44
335.912	347.44
336.14	299.44
336.369	299.44
336.597	268.44
336.825	259.44
337.053	255.44
337.281	238.44
337.51	241.44
337.738	255.44
337.966	229.44
338.194	233.44
338.422	218.44
338.65	232.44
338.878	227.44
339.106	214.44
339.334	230.44
339.562	209.44
339.79	208.44
340.018	213.44
340.246	215.44
340.474	206.44
340.702	203.44
340.93	217.44
341.158	211.44
341.386	196.44
341.614	188.44
341.842	195.44
342.07	197.44
342.298	208.44
342.526	183.44
342.754	195.44
342.981	189.44
343.209	179.44
343.437	203.44
343.665	213.44
343.893	203.44
344.12	198.44
344.348	200.44
344.576	191.44
344.804	203.44
345.031	198.44
345.259	205.44
345.487	199.44
345.714	187.44
345.942	183.44
346.17	186.44
346.397	183.44
346.625	170.44
346.853	187.44
347.08	189.44
347.308	194.44
347.535	192.44
347.763	198.44
347.99	169.44
348.218	183.44
348.445	191.44
348.673	173.44
348.9	175.44
349.128	182.44
349.355	193.44
349.583	182.44
349.81	189.44
350.037	181.44
350.265	200.44
350.492	192.44
350.72	185.44
350.947	185.44
351.174	193.44
351.402	202.44
351.629	187.44
351.856	188.44
352.083	183.44
352.311	191.44
352.538	175.44
352.765	181.44
352.992	179.44
353.22	174.44
353.447	181.44
353.674	187.44
353.901	189.44
354.128	197.44
354.355	169.44
354.583	199.44
354.81	176.44
355.037	203.44
355.264	194.44
355.491	192.44
355.718	191.44
355.945	168.44
356.172	184.44
356.399	187.44
356.626	188.44
356.853	181.44
357.08	181.44
357.307	189.44
357.534	171.44
357.761	166.44
357.988	173.44
358.215	187.44
358.441	188.44
358.668	179.44
358.895	164.44
359.122	182.44
359.349	175.44
359.576	171.44
359.802	171.44
360.029	183.44
360.256	193.44
360.483	185.44
360.709	178.44
360.936	187.44
361.163	173.44
361.39	172.44
361.616	184.44
361.843	193.44
362.07	188.44
362.296	165.44
362.523	183.44
362.749	166.44
362.976	180.44
363.203	175.44
363.429	177.44
363.656	171.44
363.882	165.44
364.109	190.44
364.335	181.44
364.562	187.44
364.788	199.44
365.015	170.44
365.241	186.44
365.468	191.44
365.694	165.44
365.92	200.44
366.147	161.44
366.373	200.44
366.599	182.44
366.826	190.44
367.052	177.44
367.278	186.44
367.505	183.44
367.731	179.44
367.957	180.44
368.184	175.44
368.41	183.44
368.636	156.44
368.862	163.44
369.089	178.44
369.315	173.44
369.541	195.44
369.767	181.44
369.993	168.44
370.219	177.44
370.445	184.44
370.672	193.44
370.898	189.44
371.124	195.44
371.35	176.44
371.576	203.44
371.802	179.44
372.028	166.44
372.254	179.44
372.48	180.44
372.706	191.44
372.932	181.44
373.158	176.44
373.384	184.44
373.61	183.44
373.835	183.44
374.061	177.44
374.287	195.44
374.513	170.44
374.739	197.44
374.965	169.44
375.191	185.44
375.416	187.44
375.642	190.44
375.868	194.44
376.094	177.44
376.319	190.44
376.545	188.44
376.771	185.44
376.997	194.44
377.222	197.44
377.448	181.44
377.674	199.44
377.899	181.44
378.125	168.44
378.35	180.44
378.576	189.44
378.802	195.44
379.027	185.44
379.253	184.44
379.478	192.44
379.704	182.44
379.929	197.44
380.155	186.44
380.38	203.44
380.606	202.44
380.831	194.44
381.057	200.44
381.282	198.44
381.507	196.44
381.733	193.44
381.958	199.44
382.184	197.44
382.409	203.44
382.634	192.44
382.86	183.44
383.085	185.44
383.31	214.44
383.535	215.44
383.761	204.44
383.986	199.44
384.211	195.44
384.436	207.44
384.662	190.44
384.887	212.44
385.112	192.44
385.337	208.44
385.562	205.44
385.787	197.44
386.013	214.44
386.238	209.44
386.463	194.44
386.688	209.44
386.913	191.44
387.138	218.44
387.363	204.44
387.588	200.44
387.813	204.44
388.038	213.44
388.263	196.44
388.488	212.44
388.713	206.44
388.938	209.44
389.163	201.44
389.387	213.44
389.612	203.44
389.837	197.44
390.062	201.44
390.287	205.44
390.512	193.44
390.736	214.44
390.961	211.44
391.186	191.44
391.411	224.44
391.636	197.44
391.86	221.44
392.085	204.44
392.31	217.44
392.534	191.44
392.759	192.44
392.984	204.44
393.208	228.44
393.433	210.44
393.658	204.44
393.882	214.44
394.107	207.44
394.331	198.44
394.556	213.44
394.78	203.44
395.005	202.44
395.229	217.44
395.454	216.44
395.678	221.44
395.903	227.44
396.127	224.44
396.352	213.44
396.576	221.44
396.801	207.44
397.025	223.44
397.249	233.44
397.474	214.44
397.698	209.44
397.922	220.44
398.147	228.44
398.371	210.44
398.595	243.44
398.82	251.44
399.044	255.44
399.268	263.44
399.492	273.44
399.717	281.44
399.941	271.44
400.165	255.44
400.389	265.44
400.613	256.44
400.837	224.44
401.062	235.44
401.286	235.44
401.51	237.44
401.734	247.44
401.958	230.44
402.182	236.44
402.406	245.44
402.63	238.44
402.854	257.44
403.078	254.44
403.302	237.44
403.526	253.44
403.75	250.44
403.974	270.44
404.198	255.44
404.422	260.44
404.645	281.44
404.869	285.44
405.093	314.44
405.317	329.44
405.541	335.44
405.765	284.44
405.988	278.44
406.212	276.44
406.436	235.44
406.66	261.44
406.883	263.44
407.107	260.44
407.331	277.44
407.555	271.44
407.778	268.44
408.002	256.44
408.226	272.44
408.449	261.44
408.673	256.44
408.896	245.44
409.12	248.44
409.344	247.44
409.567	257.44
409.791	246.44
410.014	256.44
410.238	258.44
410.461	247.44
410.685	246.44
410.908	251.44
411.132	251.44
411.355	251.44
411.578	278.44
411.802	264.44
412.025	248.44
412.249	293.44
412.472	338.44
412.695	339.44
412.919	322.44
413.142	313.44
413.365	295.44
413.589	263.44
413.812	270.44
414.035	245.44
414.258	264.44
414.482	275.44
414.705	268.44
414.928	250.44
415.151	256.44
415.374	248.44
415.597	249.44
415.821	244.44
416.044	250.44
416.267	255.44
416.49	246.44
416.713	243.44
416.936	259.44
417.159	234.44
417.382	249.44
417.605	268.44
417.828	272.44
418.051	244.44
418.274	244.44
418.497	232.44
418.72	243.44
418.943	228.44
419.166	237.44
419.389	269.44
419.611	278.44
419.834	294.44
420.057	300.44
420.28	304.44
420.503	300.44
420.726	292.44
420.948	270.44
421.171	256.44
421.394	241.44
421.617	231.44
421.839	245.44
422.062	251.44
422.285	249.44
422.507	243.44
422.73	239.44
422.953	248.44
423.175	251.44
423.398	251.44
423.621	227.44
423.843	245.44
424.066	252.44
424.288	253.44
424.511	239.44
424.733	231.44
424.956	247.44
425.178	238.44
425.401	247.44
425.623	254.44
425.846	248.44
426.068	229.44
426.291	237.44
426.513	244.44
426.735	247.44
426.958	255.44
427.18	248.44
427.402	256.44
427.625	298.44
427.847	324.44
428.069	339.44
428.292	308.44
428.514	256.44
428.736	259.44
428.958	242.44
429.181	233.44
429.403	244.44
429.625	232.44
429.847	219.44
430.069	231.44
430.292	231.44
430.514	221.44
430.736	227.44
430.958	223.44
431.18	214.44
431.402	232.44
431.624	212.44
431.846	221.44
432.068	223.44
432.29	217.44
432.512	220.44
432.734	221.44
432.956	240.44
433.178	208.44
433.4	207.44
433.622	216.44
433.844	223.44
434.066	232.44
434.287	208.44
434.509	214.44
434.731	227.44
434.953	231.44
435.175	215.44
435.397	251.44
435.618	216.44
435.84	219.44
436.062	227.44
436.284	211.44
436.505	235.44
436.727	225.44
436.949	224.44
437.17	223.44
437.392	224.44
437.614	219.44
437.835	201.44
438.057	224.44
438.278	236.44
438.5	223.44
438.721	216.44
438.943	233.44
439.165	230.44
439.386	201.44
439.608	222.44
439.829	216.44
440.05	205.44
440.272	227.44
440.493	232.44
440.715	220.44
440.936	208.44
441.158	248.44
441.379	252.44
441.6	228.44
441.822	233.44
442.043	228.44
442.264	228.44
442.486	238.44
442.707	250.44
442.928	236.44
443.149	250.44
443.371	237.44
443.592	239.44
443.813	219.44
444.034	217.44
444.255	238.44
444.476	245.44
444.698	233.44
444.919	251.44
445.14	351.44
445.361	274.44
445.582	237.44
445.803	221.44
446.024	228.44
446.245	217.44
446.466	229.44
446.687	234.44
446.908	230.44
447.129	221.44
447.35	214.44
447.571	209.44
447.792	214.44
448.013	210.44
448.234	214.44
448.455	196.44
448.675	203.44
448.896	227.44
449.117	217.44
449.338	204.44
449.559	183.44
449.779	216.44
450	220.44
450.221	211.44
450.442	207.44
450.662	215.44
450.883	213.44
451.104	219.44
451.324	209.44
451.545	217.44
451.766	214.44
451.986	222.44
452.207	201.44
452.428	197.44
452.648	210.44
452.869	205.44
453.089	199.44
453.31	207.44
453.53	192.44
453.751	198.44
453.971	209.44
454.192	201.44
454.412	219.44
454.633	201.44
454.853	197.44
455.073	202.44
455.294	197.44
455.514	204.44
455.734	194.44
455.955	185.44
456.175	201.44
456.395	204.44
456.616	210.44
456.836	221.44
457.056	211.44
457.276	207.44
457.497	207.44
457.717	200.44
457.937	220.44
458.157	192.44
458.377	225.44
458.598	210.44
458.818	219.44
459.038	203.44
459.258	218.44
459.478	207.44
459.698	209.44
459.918	225.44
460.138	238.44
460.358	206.44
460.578	232.44
460.798	220.44
461.018	213.44
461.238	238.44
461.458	227.44
461.678	235.44
461.898	255.44
462.118	242.44
462.338	230.44
462.558	242.44
462.777	246.44
462.997	279.44
463.217	272.44
463.437	255.44
463.657	258.44
463.876	257.44
464.096	244.44
464.316	247.44
464.536	245.44
464.755	267.44
464.975	238.44
465.195	229.44
465.414	238.44
465.634	252.44
465.854	236.44
466.073	255.44
466.293	233.44
466.512	214.44
466.732	237.44
466.951	228.44
467.171	243.44
467.391	244.44
467.61	282.44
467.829	352.44
468.049	686.44
468.268	847.44
468.488	488.44
468.707	336.44
468.927	292.44
469.146	277.44
469.365	271.44
469.585	278.44
469.804	263.44
470.023	251.44
470.243	264.44
470.462	274.44
470.681	276.44
470.901	276.44
471.12	268.44
471.339	286.44
471.558	320.44
471.777	365.44
471.997	564.44
472.216	1132.44
472.435	1749.44
472.654	961.44
472.873	583.44
473.092	423.44
473.311	370.44
473.53	349.44
473.749	319.44
473.968	291.44
474.187	297.44
474.406	281.44
474.625	269.44
474.844	285.44
475.063	274.44
475.282	283.44
475.501	257.44
475.72	253.44
475.939	263.44
476.158	256.44
476.377	270.44
476.596	263.44
476.814	268.44
477.033	245.44
477.252	273.44
477.471	271.44
477.69	256.44
477.908	247.44
478.127	271.44
478.346	282.44
478.564	268.44
478.783	281.44
479.002	297.44
479.22	310.44
479.439	299.44
479.658	327.44
479.876	322.44
480.095	352.44
480.313	377.44
480.532	461.44
480.751	635.44
480.969	1257.44
481.188	2812.44
481.406	2267.44
481.624	1064.44
481.843	693.44
482.061	565.44
482.28	496.44
482.498	423.44
482.717	401.44
482.935	390.44
483.153	368.44
483.372	347.44
483.59	339.44
483.808	324.44
484.027	333.44
484.245	319.44
484.463	301.44
484.681	303.44
484.9	278.44
485.118	299.44
485.336	303.44
485.554	297.44
485.772	274.44
485.99	299.44
486.209	293.44
486.427	294.44
486.645	281.44
486.863	315.44
487.081	281.44
487.299	280.44
487.517	309.44
487.735	305.44
487.953	303.44
488.171	308.44
488.389	300.44
488.607	286.44
488.825	301.44
489.043	299.44
489.261	325.44
489.479	328.44
489.696	307.44
489.914	332.44
490.132	352.44
490.35	352.44
490.568	358.44
490.786	386.44
491.003	379.44
491.221	435.44
491.439	456.44
491.657	476.44
491.874	480.44
492.092	466.44
492.31	489.44
492.527	526.44
492.745	554.44
492.963	511.44
493.18	464.44
493.398	451.44
493.615	443.44
493.833	433.44
494.05	435.44
494.268	395.44
494.485	389.44
494.703	396.44
494.92	374.44
495.138	389.44
495.355	384.44
495.573	367.44
495.79	365.44
496.008	357.44
496.225	342.44
496.442	326.44
496.66	321.44
496.877	326.44
497.094	330.44
497.312	353.44
497.529	350.44
497.746	339.44
497.963	350.44
498.181	349.44
498.398	331.44
498.615	360.44
498.832	353.44
499.049	384.44
499.267	396.44
499.484	389.44
499.701	416.44
499.918	414.44
500.135	438.44
500.352	466.44
500.569	511.44
500.786	500.44
501.003	491.44
501.22	439.44
501.437	409.44
501.654	403.44
501.871	373.44
502.088	347.44
502.305	355.44
502.522	364.44
502.739	334.44
502.956	315.44
503.172	319.44
503.389	301.44
503.606	300.44
