Data from StdC_HRD10591_024.txt Node
Date: Fri May 16 15:28:52 EDT 2025
User: Yrep
Spectrometer: HR+D1059
Trigger mode: 1
Integration Time (sec): 1.000000E-1
Scans to average: 1
Electric dark correction enabled: true
Nonlinearity correction enabled: false
Boxcar width: 0
XAxis mode: Wavelengths
Number of Pixels in Spectrum: 2048
>>>>>Begin Spectral Data<<<<<
223.165	-8.44
223.4	-8.44
223.635	-8.44
223.869	-23.44
224.104	-23.44
224.338	-3.44
224.573	-11.44
224.808	-18.44
225.042	-20.44
225.277	-7.44
225.511	-7.44
225.746	13.56
225.98	12.56
226.215	4.56
226.449	20.56
226.683	12.56
226.918	22.56
227.152	37.56
227.387	35.56
227.621	33.56
227.856	46.56
228.09	40.56
228.324	58.56
228.559	49.56
228.793	61.56
229.027	80.56
229.262	78.56
229.496	65.56
229.73	70.56
229.964	91.56
230.199	92.56
230.433	94.56
230.667	89.56
230.901	93.56
231.136	73.56
231.37	99.56
231.604	89.56
231.838	90.56
232.072	81.56
232.306	96.56
232.541	97.56
232.775	103.56
233.009	93.56
233.243	84.56
233.477	88.56
233.711	98.56
233.945	88.56
234.179	82.56
234.413	79.56
234.647	97.56
234.881	86.56
235.115	79.56
235.349	75.56
235.583	93.56
235.817	94.56
236.051	90.56
236.285	86.56
236.519	108.56
236.753	92.56
236.987	77.56
237.221	100.56
237.455	91.56
237.689	92.56
237.922	79.56
238.156	86.56
238.39	72.56
238.624	73.56
238.858	89.56
239.091	90.56
239.325	79.56
239.559	86.56
239.793	97.56
240.027	95.56
240.26	112.56
240.494	105.56
240.728	86.56
240.961	94.56
241.195	96.56
241.429	102.56
241.662	96.56
241.896	113.56
242.13	107.56
242.363	93.56
242.597	110.56
242.83	86.56
243.064	87.56
243.298	80.56
243.531	97.56
243.765	93.56
243.998	104.56
244.232	112.56
244.465	89.56
244.699	101.56
244.932	84.56
245.166	90.56
245.399	94.56
245.633	98.56
245.866	90.56
246.099	100.56
246.333	108.56
246.566	105.56
246.8	105.56
247.033	89.56
247.266	104.56
247.5	101.56
247.733	95.56
247.966	100.56
248.2	116.56
248.433	114.56
248.666	111.56
248.899	107.56
249.133	117.56
249.366	120.56
249.599	133.56
249.832	116.56
250.066	137.56
250.299	167.56
250.532	208.56
250.765	179.56
250.998	153.56
251.231	129.56
251.465	135.56
251.698	117.56
251.931	131.56
252.164	121.56
252.397	113.56
252.63	112.56
252.863	118.56
253.096	148.56
253.329	126.56
253.562	137.56
253.795	129.56
254.028	134.56
254.261	125.56
254.494	136.56
254.727	139.56
254.96	138.56
255.193	138.56
255.426	152.56
255.659	192.56
255.892	251.56
256.124	289.56
256.357	242.56
256.59	200.56
256.823	163.56
257.056	159.56
257.289	150.56
257.521	135.56
257.754	136.56
257.987	137.56
258.22	144.56
258.452	124.56
258.685	134.56
258.918	128.56
259.151	134.56
259.383	140.56
259.616	131.56
259.849	126.56
260.081	138.56
260.314	150.56
260.547	144.56
260.779	149.56
261.012	141.56
261.244	144.56
261.477	126.56
261.71	125.56
261.942	126.56
262.175	138.56
262.407	143.56
262.64	125.56
262.872	117.56
263.105	118.56
263.337	134.56
263.57	129.56
263.802	134.56
264.035	126.56
264.267	138.56
264.499	131.56
264.732	127.56
264.964	144.56
265.197	126.56
265.429	104.56
265.661	125.56
265.894	116.56
266.126	129.56
266.358	124.56
266.591	125.56
266.823	135.56
267.055	129.56
267.287	128.56
267.52	145.56
267.752	120.56
267.984	140.56
268.216	131.56
268.448	151.56
268.681	130.56
268.913	133.56
269.145	140.56
269.377	138.56
269.609	119.56
269.841	138.56
270.073	142.56
270.306	134.56
270.538	125.56
270.77	131.56
271.002	120.56
271.234	131.56
271.466	142.56
271.698	137.56
271.93	134.56
272.162	166.56
272.394	147.56
272.626	141.56
272.858	136.56
273.09	145.56
273.322	138.56
273.553	143.56
273.785	154.56
274.017	154.56
274.249	135.56
274.481	149.56
274.713	152.56
274.945	149.56
275.176	155.56
275.408	170.56
275.64	185.56
275.872	181.56
276.104	188.56
276.335	178.56
276.567	194.56
276.799	189.56
277.031	208.56
277.262	226.56
277.494	214.56
277.726	189.56
277.957	184.56
278.189	180.56
278.421	168.56
278.652	165.56
278.884	161.56
279.115	186.56
279.347	180.56
279.579	198.56
279.81	220.56
280.042	272.56
280.273	279.56
280.505	250.56
280.736	208.56
280.968	201.56
281.199	196.56
281.431	180.56
281.662	161.56
281.894	184.56
282.125	139.56
282.356	168.56
282.588	174.56
282.819	152.56
283.051	148.56
283.282	165.56
283.513	154.56
283.745	158.56
283.976	155.56
284.207	145.56
284.439	162.56
284.67	164.56
284.901	146.56
285.132	154.56
285.364	158.56
285.595	160.56
285.826	170.56
286.057	159.56
286.288	168.56
286.52	146.56
286.751	159.56
286.982	160.56
287.213	144.56
287.444	145.56
287.675	152.56
287.906	147.56
288.138	168.56
288.369	172.56
288.6	164.56
288.831	170.56
289.062	152.56
289.293	167.56
289.524	158.56
289.755	146.56
289.986	136.56
290.217	164.56
290.448	166.56
290.679	145.56
290.91	157.56
291.141	161.56
291.371	170.56
291.602	151.56
291.833	158.56
292.064	160.56
292.295	152.56
292.526	164.56
292.757	153.56
292.987	168.56
293.218	162.56
293.449	158.56
293.68	166.56
293.91	151.56
294.141	168.56
294.372	159.56
294.603	146.56
294.833	161.56
295.064	149.56
295.295	149.56
295.525	157.56
295.756	178.56
295.987	148.56
296.217	157.56
296.448	152.56
296.679	166.56
296.909	157.56
297.14	150.56
297.37	168.56
297.601	175.56
297.831	156.56
298.062	157.56
298.292	161.56
298.523	163.56
298.753	159.56
298.984	159.56
299.214	165.56
299.445	142.56
299.675	168.56
299.905	168.56
300.136	150.56
300.366	151.56
300.597	180.56
300.827	143.56
301.057	161.56
301.288	171.56
301.518	167.56
301.748	168.56
301.979	190.56
302.209	192.56
302.439	166.56
302.669	159.56
302.9	166.56
303.13	172.56
303.36	182.56
303.59	191.56
303.82	200.56
304.051	201.56
304.281	183.56
304.511	169.56
304.741	157.56
304.971	174.56
305.201	158.56
305.431	180.56
305.661	162.56
305.891	165.56
306.121	171.56
306.352	169.56
306.582	173.56
306.812	188.56
307.042	199.56
307.272	211.56
307.502	215.56
307.731	209.56
307.961	192.56
308.191	169.56
308.421	168.56
308.651	184.56
308.881	162.56
309.111	166.56
309.341	168.56
309.571	174.56
309.8	164.56
310.03	153.56
310.26	168.56
310.49	168.56
310.72	158.56
310.949	176.56
311.179	191.56
311.409	180.56
311.639	159.56
311.868	180.56
312.098	170.56
312.328	166.56
312.557	165.56
312.787	167.56
313.017	176.56
313.246	173.56
313.476	154.56
313.706	182.56
313.935	184.56
314.165	164.56
314.394	176.56
314.624	185.56
314.853	179.56
315.083	185.56
315.312	178.56
315.542	192.56
315.771	181.56
316.001	184.56
316.23	176.56
316.46	182.56
316.689	173.56
316.919	171.56
317.148	175.56
317.377	172.56
317.607	188.56
317.836	181.56
318.065	191.56
318.295	167.56
318.524	182.56
318.753	184.56
318.983	188.56
319.212	187.56
319.441	179.56
319.67	171.56
319.9	190.56
320.129	181.56
320.358	182.56
320.587	177.56
320.816	184.56
321.046	187.56
321.275	201.56
321.504	211.56
321.733	196.56
321.962	195.56
322.191	192.56
322.42	203.56
322.649	211.56
322.878	195.56
323.108	208.56
323.337	213.56
323.566	221.56
323.795	202.56
324.024	215.56
324.253	229.56
324.482	234.56
324.71	228.56
324.939	228.56
325.168	228.56
325.397	225.56
325.626	244.56
325.855	246.56
326.084	247.56
326.313	234.56
326.542	245.56
326.77	253.56
326.999	268.56
327.228	274.56
327.457	330.56
327.686	404.56
327.914	508.56
328.143	657.56
328.372	726.56
328.6	527.56
328.829	414.56
329.058	385.56
329.287	416.56
329.515	472.56
329.744	678.56
329.972	942.56
330.201	1270.56
330.43	1257.56
330.658	760.56
330.887	457.56
331.115	387.56
331.344	326.56
331.572	328.56
331.801	314.56
332.03	305.56
332.258	334.56
332.486	335.56
332.715	338.56
332.943	372.56
333.172	383.56
333.4	438.56
333.629	520.56
333.857	698.56
334.085	1038.56
334.314	1464.56
334.542	1776.56
334.771	1421.56
334.999	756.56
335.227	477.56
335.455	406.56
335.684	364.56
335.912	321.56
336.14	268.56
336.369	271.56
336.597	275.56
336.825	278.56
337.053	245.56
337.281	246.56
337.51	245.56
337.738	253.56
337.966	231.56
338.194	231.56
338.422	221.56
338.65	216.56
338.878	235.56
339.106	221.56
339.334	222.56
339.562	209.56
339.79	204.56
340.018	216.56
340.246	216.56
340.474	220.56
340.702	195.56
340.93	184.56
341.158	200.56
341.386	200.56
341.614	210.56
341.842	210.56
342.07	212.56
342.298	204.56
342.526	197.56
342.754	201.56
342.981	205.56
343.209	193.56
343.437	186.56
343.665	194.56
343.893	222.56
344.12	201.56
344.348	212.56
344.576	201.56
344.804	210.56
345.031	191.56
345.259	204.56
345.487	198.56
345.714	200.56
345.942	191.56
346.17	190.56
346.397	194.56
346.625	197.56
346.853	191.56
347.08	195.56
347.308	160.56
347.535	201.56
347.763	204.56
347.99	181.56
348.218	199.56
348.445	189.56
348.673	182.56
348.9	186.56
349.128	189.56
349.355	170.56
349.583	176.56
349.81	191.56
350.037	186.56
350.265	183.56
350.492	182.56
350.72	193.56
350.947	183.56
351.174	180.56
351.402	173.56
351.629	196.56
351.856	172.56
352.083	182.56
352.311	180.56
352.538	187.56
352.765	192.56
352.992	192.56
353.22	180.56
353.447	196.56
353.674	197.56
353.901	197.56
354.128	181.56
354.355	197.56
354.583	180.56
354.81	186.56
355.037	184.56
355.264	177.56
355.491	173.56
355.718	183.56
355.945	186.56
356.172	191.56
356.399	182.56
356.626	168.56
356.853	175.56
357.08	184.56
357.307	164.56
357.534	165.56
357.761	171.56
357.988	188.56
358.215	203.56
358.441	187.56
358.668	184.56
358.895	178.56
359.122	181.56
359.349	196.56
359.576	170.56
359.802	189.56
360.029	191.56
360.256	196.56
360.483	184.56
360.709	185.56
360.936	180.56
361.163	171.56
361.39	188.56
361.616	187.56
361.843	194.56
362.07	164.56
362.296	186.56
362.523	203.56
362.749	184.56
362.976	179.56
363.203	183.56
363.429	187.56
363.656	177.56
363.882	174.56
364.109	186.56
364.335	174.56
364.562	174.56
364.788	183.56
365.015	180.56
365.241	182.56
365.468	187.56
365.694	171.56
365.92	185.56
366.147	187.56
366.373	170.56
366.599	179.56
366.826	197.56
367.052	182.56
367.278	177.56
367.505	185.56
367.731	185.56
367.957	172.56
368.184	184.56
368.41	181.56
368.636	186.56
368.862	177.56
369.089	189.56
369.315	191.56
369.541	171.56
369.767	182.56
369.993	183.56
370.219	174.56
370.445	185.56
370.672	176.56
370.898	178.56
371.124	192.56
371.35	190.56
371.576	193.56
371.802	176.56
372.028	174.56
372.254	179.56
372.48	204.56
372.706	190.56
372.932	184.56
373.158	175.56
373.384	201.56
373.61	199.56
373.835	195.56
374.061	173.56
374.287	190.56
374.513	170.56
374.739	192.56
374.965	197.56
375.191	186.56
375.416	193.56
375.642	177.56
375.868	177.56
376.094	191.56
376.319	194.56
376.545	190.56
376.771	197.56
376.997	195.56
377.222	182.56
377.448	193.56
377.674	170.56
377.899	156.56
378.125	185.56
378.35	157.56
378.576	195.56
378.802	189.56
379.027	181.56
379.253	181.56
379.478	191.56
379.704	186.56
379.929	188.56
380.155	191.56
380.38	174.56
380.606	182.56
380.831	191.56
381.057	204.56
381.282	180.56
381.507	190.56
381.733	194.56
381.958	190.56
382.184	184.56
382.409	195.56
382.634	194.56
382.86	202.56
383.085	178.56
383.31	185.56
383.535	180.56
383.761	192.56
383.986	190.56
384.211	185.56
384.436	182.56
384.662	201.56
384.887	204.56
385.112	212.56
385.337	197.56
385.562	194.56
385.787	209.56
386.013	212.56
386.238	209.56
386.463	223.56
386.688	216.56
386.913	198.56
387.138	210.56
387.363	186.56
387.588	207.56
387.813	217.56
388.038	206.56
388.263	212.56
388.488	197.56
388.713	202.56
388.938	201.56
389.163	198.56
389.387	214.56
389.612	203.56
389.837	198.56
390.062	209.56
390.287	209.56
390.512	207.56
390.736	200.56
390.961	214.56
391.186	211.56
391.411	204.56
391.636	212.56
391.86	213.56
392.085	222.56
392.31	212.56
392.534	199.56
392.759	230.56
392.984	215.56
393.208	214.56
393.433	216.56
393.658	217.56
393.882	203.56
394.107	197.56
394.331	204.56
394.556	225.56
394.78	207.56
395.005	217.56
395.229	207.56
395.454	200.56
395.678	230.56
395.903	218.56
396.127	211.56
396.352	214.56
396.576	228.56
396.801	217.56
397.025	209.56
397.249	235.56
397.474	233.56
397.698	229.56
397.922	223.56
398.147	221.56
398.371	240.56
398.595	253.56
398.82	241.56
399.044	251.56
399.268	268.56
399.492	285.56
399.717	294.56
399.941	273.56
400.165	255.56
400.389	270.56
400.613	255.56
400.837	260.56
401.062	248.56
401.286	239.56
401.51	251.56
401.734	236.56
401.958	256.56
402.182	249.56
402.406	245.56
402.63	252.56
402.854	239.56
403.078	242.56
403.302	241.56
403.526	264.56
403.75	266.56
403.974	266.56
404.198	261.56
404.422	250.56
404.645	276.56
404.869	281.56
405.093	295.56
405.317	297.56
405.541	311.56
405.765	272.56
405.988	270.56
406.212	269.56
406.436	264.56
406.66	271.56
406.883	270.56
407.107	260.56
407.331	283.56
407.555	280.56
407.778	268.56
408.002	268.56
408.226	253.56
408.449	252.56
408.673	262.56
408.896	251.56
409.12	262.56
409.344	249.56
409.567	242.56
409.791	240.56
410.014	226.56
410.238	261.56
410.461	248.56
410.685	251.56
410.908	278.56
411.132	271.56
411.355	253.56
411.578	262.56
411.802	260.56
412.025	281.56
412.249	297.56
412.472	312.56
412.695	359.56
412.919	312.56
413.142	300.56
413.365	296.56
413.589	265.56
413.812	260.56
414.035	266.56
414.258	277.56
414.482	259.56
414.705	246.56
414.928	258.56
415.151	268.56
415.374	255.56
415.597	232.56
415.821	244.56
416.044	253.56
416.267	257.56
416.49	237.56
416.713	252.56
416.936	234.56
417.159	268.56
417.382	264.56
417.605	277.56
417.828	253.56
418.051	240.56
418.274	255.56
418.497	257.56
418.72	244.56
418.943	259.56
419.166	260.56
419.389	271.56
419.611	294.56
419.834	291.56
420.057	276.56
420.28	308.56
420.503	297.56
420.726	294.56
420.948	261.56
421.171	253.56
421.394	272.56
421.617	246.56
421.839	239.56
422.062	254.56
422.285	239.56
422.507	253.56
422.73	243.56
422.953	249.56
423.175	250.56
423.398	238.56
423.621	261.56
423.843	247.56
424.066	241.56
424.288	246.56
424.511	233.56
424.733	241.56
424.956	249.56
425.178	241.56
425.401	246.56
425.623	240.56
425.846	229.56
426.068	225.56
426.291	230.56
426.513	217.56
426.735	246.56
426.958	249.56
427.18	247.56
427.402	287.56
427.625	297.56
427.847	321.56
428.069	351.56
428.292	285.56
428.514	256.56
428.736	256.56
428.958	247.56
429.181	237.56
429.403	226.56
429.625	220.56
429.847	221.56
430.069	226.56
430.292	238.56
430.514	209.56
430.736	211.56
430.958	238.56
431.18	223.56
431.402	215.56
431.624	220.56
431.846	223.56
432.068	218.56
432.29	221.56
432.512	238.56
432.734	222.56
432.956	224.56
433.178	215.56
433.4	229.56
433.622	216.56
433.844	223.56
434.066	226.56
434.287	209.56
434.509	216.56
434.731	229.56
434.953	237.56
435.175	221.56
435.397	237.56
435.618	238.56
435.84	213.56
436.062	216.56
436.284	229.56
436.505	215.56
436.727	212.56
436.949	236.56
437.17	216.56
437.392	209.56
437.614	209.56
437.835	218.56
438.057	212.56
438.278	223.56
438.5	235.56
438.721	213.56
438.943	215.56
439.165	214.56
439.386	239.56
439.608	217.56
439.829	189.56
440.05	220.56
440.272	210.56
440.493	230.56
440.715	220.56
440.936	234.56
441.158	230.56
441.379	231.56
441.6	233.56
441.822	240.56
442.043	230.56
442.264	229.56
442.486	238.56
442.707	229.56
442.928	232.56
443.149	220.56
443.371	240.56
443.592	239.56
443.813	249.56
444.034	235.56
444.255	245.56
444.476	241.56
444.698	238.56
444.919	252.56
445.14	328.56
445.361	267.56
445.582	234.56
445.803	232.56
446.024	219.56
446.245	220.56
446.466	237.56
446.687	247.56
446.908	234.56
447.129	224.56
447.35	224.56
447.571	209.56
447.792	239.56
448.013	228.56
448.234	215.56
448.455	210.56
448.675	202.56
448.896	211.56
449.117	217.56
449.338	218.56
449.559	222.56
449.779	215.56
450	199.56
450.221	208.56
450.442	207.56
450.662	221.56
450.883	198.56
451.104	222.56
451.324	215.56
451.545	205.56
451.766	196.56
451.986	198.56
452.207	219.56
452.428	196.56
452.648	210.56
452.869	219.56
453.089	204.56
453.31	189.56
453.53	192.56
453.751	200.56
453.971	201.56
454.192	204.56
454.412	212.56
454.633	210.56
454.853	229.56
455.073	185.56
455.294	202.56
455.514	203.56
455.734	217.56
455.955	204.56
456.175	193.56
456.395	213.56
456.616	218.56
456.836	220.56
457.056	223.56
457.276	203.56
457.497	227.56
457.717	207.56
457.937	216.56
458.157	201.56
458.377	200.56
458.598	204.56
458.818	222.56
459.038	199.56
459.258	202.56
459.478	208.56
459.698	221.56
459.918	221.56
460.138	252.56
460.358	223.56
460.578	236.56
460.798	248.56
461.018	229.56
461.238	244.56
461.458	243.56
461.678	245.56
461.898	240.56
462.118	245.56
462.338	248.56
462.558	251.56
462.777	272.56
462.997	281.56
463.217	286.56
463.437	267.56
463.657	256.56
463.876	251.56
464.096	262.56
464.316	271.56
464.536	258.56
464.755	238.56
464.975	250.56
465.195	245.56
465.414	233.56
465.634	248.56
465.854	230.56
466.073	247.56
466.293	228.56
466.512	236.56
466.732	258.56
466.951	262.56
467.171	236.56
467.391	273.56
467.61	294.56
467.829	363.56
468.049	642.56
468.268	785.56
468.488	460.56
468.707	356.56
468.927	312.56
469.146	288.56
469.365	271.56
469.585	254.56
469.804	255.56
470.023	277.56
470.243	253.56
470.462	261.56
470.681	267.56
470.901	272.56
471.12	278.56
471.339	277.56
471.558	298.56
471.777	384.56
471.997	534.56
472.216	1068.56
472.435	1631.56
472.654	924.56
472.873	537.56
473.092	444.56
473.311	372.56
473.53	329.56
473.749	300.56
473.968	309.56
474.187	281.56
474.406	274.56
474.625	274.56
474.844	270.56
475.063	255.56
475.282	254.56
475.501	258.56
475.72	257.56
475.939	257.56
476.158	266.56
476.377	253.56
476.596	244.56
476.814	258.56
477.033	262.56
477.252	256.56
477.471	252.56
477.69	256.56
477.908	276.56
478.127	270.56
478.346	270.56
478.564	289.56
478.783	285.56
479.002	274.56
479.22	301.56
479.439	301.56
479.658	312.56
479.876	308.56
480.095	336.56
480.313	387.56
480.532	437.56
480.751	605.56
480.969	1190.56
481.188	2621.56
481.406	2096.56
481.624	1028.56
481.843	677.56
482.061	545.56
482.28	464.56
482.498	423.56
482.717	381.56
482.935	386.56
483.153	368.56
483.372	356.56
483.59	322.56
483.808	329.56
484.027	326.56
484.245	313.56
484.463	314.56
484.681	315.56
484.9	299.56
485.118	310.56
485.336	300.56
485.554	300.56
485.772	305.56
485.99	289.56
486.209	294.56
486.427	292.56
486.645	291.56
486.863	326.56
487.081	297.56
487.299	307.56
487.517	302.56
487.735	312.56
487.953	318.56
488.171	309.56
488.389	306.56
488.607	323.56
488.825	306.56
489.043	302.56
489.261	306.56
489.479	321.56
489.696	320.56
489.914	327.56
490.132	345.56
490.35	344.56
490.568	367.56
490.786	378.56
491.003	413.56
491.221	425.56
491.439	469.56
491.657	481.56
491.874	471.56
492.092	464.56
492.31	501.56
492.527	536.56
492.745	525.56
492.963	515.56
493.18	499.56
493.398	474.56
493.615	461.56
493.833	428.56
494.05	397.56
494.268	402.56
494.485	401.56
494.703	385.56
494.92	376.56
495.138	393.56
495.355	370.56
495.573	376.56
495.79	359.56
496.008	350.56
496.225	341.56
496.442	339.56
496.66	354.56
496.877	342.56
497.094	339.56
497.312	332.56
497.529	340.56
497.746	327.56
497.963	329.56
498.181	359.56
498.398	341.56
498.615	358.56
498.832	366.56
499.049	365.56
499.267	390.56
499.484	397.56
499.701	412.56
499.918	440.56
500.135	445.56
500.352	475.56
500.569	487.56
500.786	509.56
501.003	471.56
501.22	428.56
501.437	431.56
501.654	382.56
501.871	361.56
502.088	370.56
502.305	351.56
502.522	347.56
502.739	314.56
502.956	328.56
503.172	301.56
503.389	292.56
