Data from StdC_HRD10591_057.txt Node
Date: Fri May 16 15:29:09 EDT 2025
User: Yrep
Spectrometer: HR+D1059
Trigger mode: 1
Integration Time (sec): 1.000000E-1
Scans to average: 1
Electric dark correction enabled: true
Nonlinearity correction enabled: false
Boxcar width: 0
XAxis mode: Wavelengths
Number of Pixels in Spectrum: 2048
>>>>>Begin Spectral Data<<<<<
223.165	-18.75
223.4	-18.75
223.635	-18.75
223.869	-26.75
224.104	-14.75
224.338	-17.75
224.573	-3.75
224.808	-9.75
225.042	-5.75
225.277	-6.75
225.511	-1.75
225.746	15.25
225.98	8.25
226.215	11.25
226.449	8.25
226.683	12.25
226.918	9.25
227.152	41.25
227.387	35.25
227.621	29.25
227.856	32.25
228.09	51.25
228.324	50.25
228.559	52.25
228.793	62.25
229.027	73.25
229.262	71.25
229.496	63.25
229.73	74.25
229.964	68.25
230.199	71.25
230.433	84.25
230.667	78.25
230.901	92.25
231.136	101.25
231.37	100.25
231.604	86.25
231.838	87.25
232.072	80.25
232.306	90.25
232.541	96.25
232.775	94.25
233.009	88.25
233.243	85.25
233.477	97.25
233.711	89.25
233.945	93.25
234.179	83.25
234.413	97.25
234.647	93.25
234.881	92.25
235.115	86.25
235.349	82.25
235.583	94.25
235.817	80.25
236.051	93.25
236.285	94.25
236.519	81.25
236.753	78.25
236.987	92.25
237.221	94.25
237.455	89.25
237.689	80.25
237.922	92.25
238.156	95.25
238.39	85.25
238.624	91.25
238.858	85.25
239.091	94.25
239.325	107.25
239.559	86.25
239.793	98.25
240.027	101.25
240.26	86.25
240.494	79.25
240.728	82.25
240.961	85.25
241.195	88.25
241.429	87.25
241.662	93.25
241.896	89.25
242.13	93.25
242.363	110.25
242.597	112.25
242.83	100.25
243.064	109.25
243.298	93.25
243.531	93.25
243.765	101.25
243.998	113.25
244.232	87.25
244.465	97.25
244.699	101.25
244.932	92.25
245.166	108.25
245.399	97.25
245.633	108.25
245.866	102.25
246.099	102.25
246.333	101.25
246.566	119.25
246.8	98.25
247.033	92.25
247.266	98.25
247.5	104.25
247.733	119.25
247.966	93.25
248.2	126.25
248.433	103.25
248.666	104.25
248.899	115.25
249.133	113.25
249.366	109.25
249.599	124.25
249.832	124.25
250.066	154.25
250.299	150.25
250.532	188.25
250.765	190.25
250.998	158.25
251.231	137.25
251.465	118.25
251.698	123.25
251.931	118.25
252.164	130.25
252.397	122.25
252.63	122.25
252.863	116.25
253.096	116.25
253.329	103.25
253.562	111.25
253.795	132.25
254.028	114.25
254.261	122.25
254.494	133.25
254.727	126.25
254.96	127.25
255.193	144.25
255.426	144.25
255.659	173.25
255.892	242.25
256.124	311.25
256.357	256.25
256.59	192.25
256.823	185.25
257.056	164.25
257.289	171.25
257.521	159.25
257.754	137.25
257.987	131.25
258.22	134.25
258.452	144.25
258.685	126.25
258.918	137.25
259.151	119.25
259.383	136.25
259.616	139.25
259.849	148.25
260.081	130.25
260.314	132.25
260.547	120.25
260.779	133.25
261.012	149.25
261.244	126.25
261.477	138.25
261.71	128.25
261.942	131.25
262.175	129.25
262.407	138.25
262.64	117.25
262.872	120.25
263.105	112.25
263.337	136.25
263.57	131.25
263.802	123.25
264.035	129.25
264.267	123.25
264.499	112.25
264.732	126.25
264.964	139.25
265.197	136.25
265.429	126.25
265.661	138.25
265.894	126.25
266.126	142.25
266.358	144.25
266.591	134.25
266.823	130.25
267.055	124.25
267.287	120.25
267.52	126.25
267.752	145.25
267.984	127.25
268.216	146.25
268.448	133.25
268.681	141.25
268.913	138.25
269.145	137.25
269.377	135.25
269.609	136.25
269.841	142.25
270.073	132.25
270.306	129.25
270.538	139.25
270.77	120.25
271.002	141.25
271.234	140.25
271.466	140.25
271.698	148.25
271.93	127.25
272.162	141.25
272.394	146.25
272.626	141.25
272.858	144.25
273.09	140.25
273.322	130.25
273.553	161.25
273.785	156.25
274.017	153.25
274.249	147.25
274.481	149.25
274.713	156.25
274.945	173.25
275.176	157.25
275.408	157.25
275.64	176.25
275.872	182.25
276.104	174.25
276.335	177.25
276.567	184.25
276.799	170.25
277.031	210.25
277.262	225.25
277.494	207.25
277.726	213.25
277.957	184.25
278.189	164.25
278.421	179.25
278.652	157.25
278.884	179.25
279.115	172.25
279.347	186.25
279.579	196.25
279.81	225.25
280.042	248.25
280.273	270.25
280.505	260.25
280.736	211.25
280.968	186.25
281.199	170.25
281.431	182.25
281.662	184.25
281.894	157.25
282.125	165.25
282.356	164.25
282.588	167.25
282.819	170.25
283.051	170.25
283.282	158.25
283.513	150.25
283.745	174.25
283.976	156.25
284.207	167.25
284.439	157.25
284.67	157.25
284.901	149.25
285.132	151.25
285.364	157.25
285.595	164.25
285.826	147.25
286.057	149.25
286.288	138.25
286.52	145.25
286.751	162.25
286.982	154.25
287.213	158.25
287.444	155.25
287.675	172.25
287.906	162.25
288.138	145.25
288.369	157.25
288.6	166.25
288.831	164.25
289.062	165.25
289.293	166.25
289.524	162.25
289.755	158.25
289.986	150.25
290.217	158.25
290.448	161.25
290.679	172.25
290.91	148.25
291.141	150.25
291.371	149.25
291.602	154.25
291.833	158.25
292.064	156.25
292.295	145.25
292.526	146.25
292.757	145.25
292.987	156.25
293.218	143.25
293.449	169.25
293.68	174.25
293.91	157.25
294.141	155.25
294.372	154.25
294.603	142.25
294.833	153.25
295.064	148.25
295.295	172.25
295.525	154.25
295.756	150.25
295.987	155.25
296.217	182.25
296.448	148.25
296.679	153.25
296.909	156.25
297.14	156.25
297.37	156.25
297.601	164.25
297.831	153.25
298.062	150.25
298.292	153.25
298.523	161.25
298.753	150.25
298.984	169.25
299.214	150.25
299.445	166.25
299.675	144.25
299.905	153.25
300.136	159.25
300.366	163.25
300.597	153.25
300.827	152.25
301.057	161.25
301.288	172.25
301.518	167.25
301.748	167.25
301.979	194.25
302.209	174.25
302.439	144.25
302.669	163.25
302.9	164.25
303.13	159.25
303.36	174.25
303.59	186.25
303.82	205.25
304.051	187.25
304.281	182.25
304.511	164.25
304.741	161.25
304.971	155.25
305.201	147.25
305.431	181.25
305.661	159.25
305.891	161.25
306.121	161.25
306.352	162.25
306.582	160.25
306.812	172.25
307.042	188.25
307.272	205.25
307.502	222.25
307.731	225.25
307.961	192.25
308.191	176.25
308.421	179.25
308.651	159.25
308.881	167.25
309.111	170.25
309.341	161.25
309.571	165.25
309.8	172.25
310.03	161.25
310.26	155.25
310.49	180.25
310.72	169.25
310.949	165.25
311.179	163.25
311.409	153.25
311.639	180.25
311.868	170.25
312.098	191.25
312.328	169.25
312.557	176.25
312.787	173.25
313.017	178.25
313.246	169.25
313.476	157.25
313.706	165.25
313.935	177.25
314.165	171.25
314.394	150.25
314.624	165.25
314.853	177.25
315.083	172.25
315.312	171.25
315.542	165.25
315.771	181.25
316.001	182.25
316.23	186.25
316.46	177.25
316.689	181.25
316.919	184.25
317.148	186.25
317.377	170.25
317.607	179.25
317.836	181.25
318.065	177.25
318.295	184.25
318.524	180.25
318.753	168.25
318.983	169.25
319.212	179.25
319.441	182.25
319.67	185.25
319.9	184.25
320.129	187.25
320.358	176.25
320.587	191.25
320.816	177.25
321.046	177.25
321.275	184.25
321.504	200.25
321.733	193.25
321.962	200.25
322.191	187.25
322.42	200.25
322.649	208.25
322.878	187.25
323.108	200.25
323.337	206.25
323.566	195.25
323.795	219.25
324.024	225.25
324.253	217.25
324.482	222.25
324.71	210.25
324.939	204.25
325.168	215.25
325.397	223.25
325.626	238.25
325.855	246.25
326.084	264.25
326.313	253.25
326.542	246.25
326.77	250.25
326.999	274.25
327.228	288.25
327.457	343.25
327.686	397.25
327.914	530.25
328.143	693.25
328.372	737.25
328.6	528.25
328.829	411.25
329.058	381.25
329.287	401.25
329.515	478.25
329.744	660.25
329.972	967.25
330.201	1334.25
330.43	1318.25
330.658	788.25
330.887	492.25
331.115	380.25
331.344	344.25
331.572	333.25
331.801	321.25
332.03	323.25
332.258	308.25
332.486	328.25
332.715	313.25
332.943	359.25
333.172	402.25
333.4	429.25
333.629	527.25
333.857	725.25
334.085	1054.25
334.314	1508.25
334.542	1844.25
334.771	1465.25
334.999	767.25
335.227	529.25
335.455	418.25
335.684	363.25
335.912	330.25
336.14	285.25
336.369	277.25
336.597	275.25
336.825	271.25
337.053	247.25
337.281	251.25
337.51	229.25
337.738	232.25
337.966	230.25
338.194	229.25
338.422	215.25
338.65	230.25
338.878	210.25
339.106	200.25
339.334	223.25
339.562	217.25
339.79	213.25
340.018	201.25
340.246	198.25
340.474	202.25
340.702	197.25
340.93	191.25
341.158	192.25
341.386	219.25
341.614	193.25
341.842	188.25
342.07	193.25
342.298	188.25
342.526	188.25
342.754	195.25
342.981	180.25
343.209	195.25
343.437	220.25
343.665	201.25
343.893	195.25
344.12	212.25
344.348	200.25
344.576	184.25
344.804	199.25
345.031	204.25
345.259	188.25
345.487	194.25
345.714	198.25
345.942	187.25
346.17	195.25
346.397	177.25
346.625	181.25
346.853	178.25
347.08	193.25
347.308	193.25
347.535	202.25
347.763	184.25
347.99	172.25
348.218	190.25
348.445	172.25
348.673	181.25
348.9	183.25
349.128	189.25
349.355	156.25
349.583	175.25
349.81	172.25
350.037	185.25
350.265	189.25
350.492	175.25
350.72	180.25
350.947	185.25
351.174	180.25
351.402	165.25
351.629	190.25
351.856	186.25
352.083	176.25
352.311	151.25
352.538	175.25
352.765	196.25
352.992	185.25
353.22	166.25
353.447	155.25
353.674	191.25
353.901	177.25
354.128	186.25
354.355	188.25
354.583	173.25
354.81	173.25
355.037	174.25
355.264	192.25
355.491	182.25
355.718	188.25
355.945	182.25
356.172	179.25
356.399	180.25
356.626	194.25
356.853	187.25
357.08	191.25
357.307	179.25
357.534	167.25
357.761	173.25
357.988	169.25
358.215	178.25
358.441	181.25
358.668	177.25
358.895	172.25
359.122	170.25
359.349	172.25
359.576	194.25
359.802	178.25
360.029	180.25
360.256	175.25
360.483	179.25
360.709	190.25
360.936	175.25
361.163	181.25
361.39	180.25
361.616	181.25
361.843	179.25
362.07	172.25
362.296	170.25
362.523	177.25
362.749	184.25
362.976	157.25
363.203	199.25
363.429	174.25
363.656	192.25
363.882	188.25
364.109	171.25
364.335	159.25
364.562	168.25
364.788	171.25
365.015	181.25
365.241	187.25
365.468	183.25
365.694	192.25
365.92	185.25
366.147	186.25
366.373	177.25
366.599	187.25
366.826	166.25
367.052	191.25
367.278	182.25
367.505	187.25
367.731	193.25
367.957	169.25
368.184	185.25
368.41	172.25
368.636	165.25
368.862	188.25
369.089	182.25
369.315	185.25
369.541	195.25
369.767	174.25
369.993	180.25
370.219	165.25
370.445	174.25
370.672	186.25
370.898	187.25
371.124	161.25
371.35	168.25
371.576	186.25
371.802	172.25
372.028	189.25
372.254	194.25
372.48	189.25
372.706	190.25
372.932	183.25
373.158	188.25
373.384	178.25
373.61	183.25
373.835	196.25
374.061	210.25
374.287	186.25
374.513	182.25
374.739	206.25
374.965	184.25
375.191	182.25
375.416	198.25
375.642	171.25
375.868	174.25
376.094	193.25
376.319	186.25
376.545	188.25
376.771	187.25
376.997	193.25
377.222	181.25
377.448	185.25
377.674	189.25
377.899	206.25
378.125	180.25
378.35	192.25
378.576	177.25
378.802	202.25
379.027	195.25
379.253	187.25
379.478	188.25
379.704	175.25
379.929	181.25
380.155	184.25
380.38	192.25
380.606	184.25
380.831	170.25
381.057	190.25
381.282	182.25
381.507	190.25
381.733	194.25
381.958	194.25
382.184	182.25
382.409	183.25
382.634	184.25
382.86	194.25
383.085	189.25
383.31	195.25
383.535	188.25
383.761	188.25
383.986	204.25
384.211	208.25
384.436	206.25
384.662	192.25
384.887	199.25
385.112	208.25
385.337	205.25
385.562	203.25
385.787	205.25
386.013	203.25
386.238	207.25
386.463	191.25
386.688	205.25
386.913	200.25
387.138	200.25
387.363	192.25
387.588	202.25
387.813	182.25
388.038	212.25
388.263	222.25
388.488	188.25
388.713	204.25
388.938	188.25
389.163	209.25
389.387	204.25
389.612	190.25
389.837	206.25
390.062	197.25
390.287	205.25
390.512	198.25
390.736	217.25
390.961	212.25
391.186	215.25
391.411	209.25
391.636	218.25
391.86	210.25
392.085	215.25
392.31	217.25
392.534	213.25
392.759	205.25
392.984	215.25
393.208	203.25
393.433	215.25
393.658	202.25
393.882	211.25
394.107	208.25
394.331	201.25
394.556	208.25
394.78	229.25
395.005	218.25
395.229	225.25
395.454	224.25
395.678	212.25
395.903	224.25
396.127	203.25
396.352	213.25
396.576	212.25
396.801	219.25
397.025	219.25
397.249	209.25
397.474	228.25
397.698	221.25
397.922	204.25
398.147	217.25
398.371	229.25
398.595	251.25
398.82	245.25
399.044	254.25
399.268	245.25
399.492	272.25
399.717	267.25
399.941	264.25
400.165	255.25
400.389	268.25
400.613	229.25
400.837	246.25
401.062	245.25
401.286	243.25
401.51	227.25
401.734	215.25
401.958	222.25
402.182	245.25
402.406	242.25
402.63	236.25
402.854	255.25
403.078	252.25
403.302	245.25
403.526	253.25
403.75	237.25
403.974	240.25
404.198	237.25
404.422	266.25
404.645	259.25
404.869	269.25
405.093	284.25
405.317	315.25
405.541	319.25
405.765	279.25
405.988	271.25
406.212	272.25
406.436	271.25
406.66	269.25
406.883	255.25
407.107	263.25
407.331	264.25
407.555	255.25
407.778	248.25
408.002	259.25
408.226	253.25
408.449	266.25
408.673	257.25
408.896	231.25
409.12	255.25
409.344	254.25
409.567	247.25
409.791	247.25
410.014	258.25
410.238	254.25
410.461	246.25
410.685	247.25
410.908	258.25
411.132	266.25
411.355	244.25
411.578	269.25
411.802	276.25
412.025	296.25
412.249	294.25
412.472	313.25
412.695	337.25
412.919	313.25
413.142	303.25
413.365	260.25
413.589	260.25
413.812	260.25
414.035	261.25
414.258	255.25
414.482	263.25
414.705	240.25
414.928	237.25
415.151	239.25
415.374	241.25
415.597	257.25
415.821	239.25
416.044	251.25
416.267	242.25
416.49	241.25
416.713	233.25
416.936	230.25
417.159	251.25
417.382	246.25
417.605	266.25
417.828	259.25
418.051	251.25
418.274	251.25
418.497	246.25
418.72	252.25
418.943	237.25
419.166	259.25
419.389	266.25
419.611	281.25
419.834	284.25
420.057	286.25
420.28	316.25
420.503	303.25
420.726	273.25
420.948	258.25
421.171	271.25
421.394	258.25
421.617	245.25
421.839	241.25
422.062	257.25
422.285	232.25
422.507	263.25
422.73	224.25
422.953	245.25
423.175	251.25
423.398	232.25
423.621	222.25
423.843	244.25
424.066	236.25
424.288	244.25
424.511	256.25
424.733	232.25
424.956	235.25
425.178	218.25
425.401	230.25
425.623	235.25
425.846	241.25
426.068	234.25
426.291	234.25
426.513	239.25
426.735	228.25
426.958	241.25
427.18	240.25
427.402	274.25
427.625	274.25
427.847	330.25
428.069	321.25
428.292	295.25
428.514	266.25
428.736	244.25
428.958	257.25
429.181	224.25
429.403	229.25
429.625	236.25
429.847	241.25
430.069	225.25
430.292	240.25
430.514	229.25
430.736	228.25
430.958	226.25
431.18	234.25
431.402	224.25
431.624	220.25
431.846	222.25
432.068	206.25
432.29	229.25
432.512	223.25
432.734	234.25
432.956	209.25
433.178	225.25
433.4	218.25
433.622	204.25
433.844	209.25
434.066	225.25
434.287	226.25
434.509	216.25
434.731	232.25
434.953	218.25
435.175	233.25
435.397	210.25
435.618	214.25
435.84	216.25
436.062	214.25
436.284	224.25
436.505	225.25
436.727	221.25
436.949	226.25
437.17	232.25
437.392	213.25
437.614	219.25
437.835	213.25
438.057	218.25
438.278	210.25
438.5	219.25
438.721	222.25
438.943	198.25
439.165	216.25
439.386	225.25
439.608	219.25
439.829	220.25
440.05	228.25
440.272	219.25
440.493	226.25
440.715	232.25
440.936	223.25
441.158	212.25
441.379	204.25
441.6	225.25
441.822	238.25
442.043	215.25
442.264	245.25
442.486	221.25
442.707	236.25
442.928	224.25
443.149	230.25
443.371	239.25
443.592	245.25
443.813	220.25
444.034	241.25
444.255	236.25
444.476	252.25
444.698	253.25
444.919	254.25
445.14	309.25
445.361	262.25
445.582	230.25
445.803	229.25
446.024	234.25
446.245	250.25
446.466	241.25
446.687	224.25
446.908	219.25
447.129	220.25
447.35	232.25
447.571	232.25
447.792	207.25
448.013	206.25
448.234	223.25
448.455	234.25
448.675	213.25
448.896	214.25
449.117	230.25
449.338	214.25
449.559	215.25
449.779	210.25
450	197.25
450.221	211.25
450.442	211.25
450.662	208.25
450.883	213.25
451.104	210.25
451.324	201.25
451.545	194.25
451.766	212.25
451.986	199.25
452.207	194.25
452.428	193.25
452.648	186.25
452.869	194.25
453.089	222.25
453.31	177.25
453.53	199.25
453.751	206.25
453.971	183.25
454.192	199.25
454.412	202.25
454.633	205.25
454.853	208.25
455.073	201.25
455.294	204.25
455.514	207.25
455.734	202.25
455.955	186.25
456.175	192.25
456.395	192.25
456.616	215.25
456.836	198.25
457.056	217.25
457.276	187.25
457.497	208.25
457.717	205.25
457.937	205.25
458.157	201.25
458.377	198.25
458.598	217.25
458.818	220.25
459.038	205.25
459.258	205.25
459.478	210.25
459.698	223.25
459.918	230.25
460.138	232.25
460.358	224.25
460.578	246.25
460.798	213.25
461.018	240.25
461.238	232.25
461.458	229.25
461.678	224.25
461.898	244.25
462.118	228.25
462.338	235.25
462.558	242.25
462.777	255.25
462.997	279.25
463.217	273.25
463.437	283.25
463.657	279.25
463.876	269.25
464.096	252.25
464.316	250.25
464.536	247.25
464.755	237.25
464.975	248.25
465.195	236.25
465.414	230.25
465.634	261.25
465.854	228.25
466.073	250.25
466.293	245.25
466.512	229.25
466.732	242.25
466.951	236.25
467.171	231.25
467.391	257.25
467.61	286.25
467.829	383.25
468.049	684.25
468.268	827.25
468.488	494.25
468.707	342.25
468.927	310.25
469.146	284.25
469.365	270.25
469.585	276.25
469.804	244.25
470.023	267.25
470.243	262.25
470.462	258.25
470.681	267.25
470.901	258.25
471.12	264.25
471.339	280.25
471.558	310.25
471.777	364.25
471.997	532.25
472.216	1124.25
472.435	1725.25
472.654	958.25
472.873	574.25
473.092	426.25
473.311	370.25
473.53	330.25
473.749	326.25
473.968	314.25
474.187	285.25
474.406	278.25
474.625	285.25
474.844	272.25
475.063	259.25
475.282	275.25
475.501	253.25
475.72	260.25
475.939	246.25
476.158	239.25
476.377	246.25
476.596	250.25
476.814	253.25
477.033	248.25
477.252	249.25
477.471	239.25
477.69	264.25
477.908	270.25
478.127	293.25
478.346	300.25
478.564	284.25
478.783	268.25
479.002	285.25
479.22	280.25
479.439	314.25
479.658	318.25
479.876	334.25
480.095	350.25
480.313	398.25
480.532	460.25
480.751	635.25
480.969	1240.25
481.188	2724.25
481.406	2206.25
481.624	1048.25
481.843	698.25
482.061	550.25
482.28	463.25
482.498	448.25
482.717	382.25
482.935	385.25
483.153	344.25
483.372	345.25
483.59	345.25
483.808	319.25
484.027	331.25
484.245	304.25
484.463	315.25
484.681	313.25
484.9	289.25
485.118	292.25
485.336	283.25
485.554	304.25
485.772	295.25
485.99	282.25
486.209	292.25
486.427	295.25
486.645	290.25
486.863	296.25
487.081	308.25
487.299	327.25
487.517	296.25
487.735	293.25
487.953	302.25
488.171	325.25
488.389	301.25
488.607	296.25
488.825	301.25
489.043	305.25
489.261	296.25
489.479	299.25
489.696	313.25
489.914	327.25
490.132	312.25
490.35	318.25
490.568	359.25
490.786	380.25
491.003	390.25
491.221	432.25
491.439	471.25
491.657	456.25
491.874	452.25
492.092	465.25
492.31	495.25
492.527	530.25
492.745	532.25
492.963	510.25
493.18	480.25
493.398	450.25
493.615	428.25
493.833	425.25
494.05	403.25
494.268	386.25
494.485	388.25
494.703	376.25
494.92	386.25
495.138	351.25
495.355	358.25
495.573	363.25
495.79	350.25
496.008	358.25
496.225	352.25
496.442	349.25
496.66	351.25
496.877	340.25
497.094	341.25
497.312	344.25
497.529	329.25
497.746	333.25
497.963	346.25
498.181	344.25
498.398	342.25
498.615	352.25
498.832	327.25
499.049	375.25
499.267	383.25
499.484	395.25
499.701	412.25
499.918	424.25
500.135	456.25
500.352	470.25
500.569	489.25
500.786	512.25
501.003	465.25
501.22	446.25
501.437	411.25
501.654	392.25
501.871	384.25
502.088	382.25
502.305	342.25
502.522	343.25
502.739	321.25
502.956	317.25
503.172	305.25
503.389	290.25
