Data from StdC_HRD10591_064.txt Node
Date: Fri May 16 15:29:12 EDT 2025
User: Yrep
Spectrometer: HR+D1059
Trigger mode: 1
Integration Time (sec): 1.000000E-1
Scans to average: 1
Electric dark correction enabled: true
Nonlinearity correction enabled: false
Boxcar width: 0
XAxis mode: Wavelengths
Number of Pixels in Spectrum: 2048
>>>>>Begin Spectral Data<<<<<
223.165	-10.5
223.4	-10.5
223.635	-10.5
223.869	-30.5
224.104	-3.5
224.338	-8.5
224.573	-17.5
224.808	-16.5
225.042	-6.5
225.277	-14.5
225.511	-10.5
225.746	-15.5
225.98	13.5
226.215	10.5
226.449	14.5
226.683	34.5
226.918	31.5
227.152	29.5
227.387	19.5
227.621	32.5
227.856	51.5
228.09	38.5
228.324	61.5
228.559	66.5
228.793	65.5
229.027	68.5
229.262	73.5
229.496	78.5
229.73	70.5
229.964	82.5
230.199	88.5
230.433	80.5
230.667	86.5
230.901	86.5
231.136	94.5
231.37	87.5
231.604	90.5
231.838	85.5
232.072	85.5
232.306	78.5
232.541	96.5
232.775	94.5
233.009	87.5
233.243	73.5
233.477	88.5
233.711	93.5
233.945	83.5
234.179	66.5
234.413	90.5
234.647	101.5
234.881	95.5
235.115	78.5
235.349	90.5
235.583	90.5
235.817	101.5
236.051	91.5
236.285	97.5
236.519	101.5
236.753	83.5
236.987	93.5
237.221	89.5
237.455	84.5
237.689	95.5
237.922	96.5
238.156	88.5
238.39	95.5
238.624	87.5
238.858	95.5
239.091	89.5
239.325	86.5
239.559	95.5
239.793	78.5
240.027	95.5
240.26	89.5
240.494	90.5
240.728	92.5
240.961	86.5
241.195	92.5
241.429	105.5
241.662	91.5
241.896	99.5
242.13	94.5
242.363	102.5
242.597	96.5
242.83	102.5
243.064	110.5
243.298	97.5
243.531	101.5
243.765	94.5
243.998	79.5
244.232	105.5
244.465	107.5
244.699	112.5
244.932	96.5
245.166	106.5
245.399	113.5
245.633	99.5
245.866	110.5
246.099	94.5
246.333	90.5
246.566	122.5
246.8	106.5
247.033	103.5
247.266	110.5
247.5	89.5
247.733	111.5
247.966	113.5
248.2	117.5
248.433	117.5
248.666	117.5
248.899	121.5
249.133	131.5
249.366	118.5
249.599	128.5
249.832	135.5
250.066	140.5
250.299	173.5
250.532	210.5
250.765	187.5
250.998	145.5
251.231	145.5
251.465	142.5
251.698	123.5
251.931	107.5
252.164	134.5
252.397	119.5
252.63	118.5
252.863	123.5
253.096	120.5
253.329	136.5
253.562	126.5
253.795	117.5
254.028	120.5
254.261	130.5
254.494	132.5
254.727	123.5
254.96	143.5
255.193	151.5
255.426	173.5
255.659	188.5
255.892	250.5
256.124	302.5
256.357	262.5
256.59	205.5
256.823	181.5
257.056	178.5
257.289	145.5
257.521	144.5
257.754	139.5
257.987	139.5
258.22	139.5
258.452	145.5
258.685	136.5
258.918	144.5
259.151	134.5
259.383	149.5
259.616	143.5
259.849	141.5
260.081	148.5
260.314	133.5
260.547	150.5
260.779	123.5
261.012	128.5
261.244	136.5
261.477	136.5
261.71	125.5
261.942	145.5
262.175	126.5
262.407	136.5
262.64	140.5
262.872	141.5
263.105	122.5
263.337	132.5
263.57	126.5
263.802	122.5
264.035	126.5
264.267	132.5
264.499	137.5
264.732	129.5
264.964	133.5
265.197	137.5
265.429	135.5
265.661	119.5
265.894	127.5
266.126	130.5
266.358	136.5
266.591	134.5
266.823	134.5
267.055	149.5
267.287	137.5
267.52	134.5
267.752	134.5
267.984	148.5
268.216	140.5
268.448	140.5
268.681	142.5
268.913	130.5
269.145	138.5
269.377	128.5
269.609	112.5
269.841	148.5
270.073	137.5
270.306	151.5
270.538	138.5
270.77	139.5
271.002	116.5
271.234	129.5
271.466	138.5
271.698	140.5
271.93	152.5
272.162	149.5
272.394	158.5
272.626	139.5
272.858	150.5
273.09	157.5
273.322	151.5
273.553	152.5
273.785	151.5
274.017	169.5
274.249	147.5
274.481	167.5
274.713	160.5
274.945	153.5
275.176	163.5
275.408	170.5
275.64	183.5
275.872	200.5
276.104	181.5
276.335	188.5
276.567	190.5
276.799	201.5
277.031	209.5
277.262	237.5
277.494	233.5
277.726	193.5
277.957	168.5
278.189	208.5
278.421	181.5
278.652	175.5
278.884	184.5
279.115	166.5
279.347	196.5
279.579	212.5
279.81	223.5
280.042	278.5
280.273	283.5
280.505	249.5
280.736	222.5
280.968	197.5
281.199	193.5
281.431	191.5
281.662	183.5
281.894	176.5
282.125	161.5
282.356	167.5
282.588	177.5
282.819	162.5
283.051	180.5
283.282	152.5
283.513	169.5
283.745	154.5
283.976	165.5
284.207	152.5
284.439	173.5
284.67	160.5
284.901	160.5
285.132	174.5
285.364	173.5
285.595	169.5
285.826	165.5
286.057	160.5
286.288	163.5
286.52	159.5
286.751	161.5
286.982	168.5
287.213	151.5
287.444	158.5
287.675	154.5
287.906	165.5
288.138	168.5
288.369	156.5
288.6	172.5
288.831	162.5
289.062	159.5
289.293	155.5
289.524	157.5
289.755	150.5
289.986	167.5
290.217	161.5
290.448	172.5
290.679	178.5
290.91	176.5
291.141	173.5
291.371	162.5
291.602	152.5
291.833	158.5
292.064	154.5
292.295	154.5
292.526	162.5
292.757	159.5
292.987	146.5
293.218	151.5
293.449	158.5
293.68	154.5
293.91	164.5
294.141	158.5
294.372	148.5
294.603	156.5
294.833	138.5
295.064	150.5
295.295	144.5
295.525	156.5
295.756	160.5
295.987	149.5
296.217	170.5
296.448	155.5
296.679	166.5
296.909	165.5
297.14	158.5
297.37	174.5
297.601	156.5
297.831	153.5
298.062	152.5
298.292	159.5
298.523	146.5
298.753	162.5
298.984	169.5
299.214	165.5
299.445	162.5
299.675	173.5
299.905	150.5
300.136	162.5
300.366	161.5
300.597	160.5
300.827	153.5
301.057	162.5
301.288	161.5
301.518	165.5
301.748	169.5
301.979	206.5
302.209	182.5
302.439	165.5
302.669	170.5
302.9	169.5
303.13	165.5
303.36	186.5
303.59	199.5
303.82	206.5
304.051	214.5
304.281	193.5
304.511	162.5
304.741	164.5
304.971	170.5
305.201	170.5
305.431	177.5
305.661	160.5
305.891	170.5
306.121	174.5
306.352	162.5
306.582	183.5
306.812	181.5
307.042	196.5
307.272	226.5
307.502	240.5
307.731	227.5
307.961	209.5
308.191	170.5
308.421	178.5
308.651	175.5
308.881	175.5
309.111	196.5
309.341	194.5
309.571	174.5
309.8	172.5
310.03	161.5
310.26	170.5
310.49	188.5
310.72	185.5
310.949	167.5
311.179	179.5
311.409	180.5
311.639	192.5
311.868	187.5
312.098	180.5
312.328	174.5
312.557	176.5
312.787	183.5
313.017	171.5
313.246	190.5
313.476	171.5
313.706	168.5
313.935	180.5
314.165	175.5
314.394	191.5
314.624	187.5
314.853	195.5
315.083	188.5
315.312	184.5
315.542	174.5
315.771	182.5
316.001	175.5
316.23	172.5
316.46	190.5
316.689	192.5
316.919	184.5
317.148	180.5
317.377	173.5
317.607	189.5
317.836	183.5
318.065	180.5
318.295	183.5
318.524	188.5
318.753	199.5
318.983	185.5
319.212	185.5
319.441	182.5
319.67	175.5
319.9	189.5
320.129	173.5
320.358	171.5
320.587	193.5
320.816	189.5
321.046	203.5
321.275	191.5
321.504	202.5
321.733	202.5
321.962	189.5
322.191	210.5
322.42	215.5
322.649	208.5
322.878	217.5
323.108	214.5
323.337	210.5
323.566	221.5
323.795	205.5
324.024	216.5
324.253	209.5
324.482	222.5
324.71	213.5
324.939	225.5
325.168	236.5
325.397	238.5
325.626	232.5
325.855	259.5
326.084	251.5
326.313	251.5
326.542	270.5
326.77	280.5
326.999	299.5
327.228	293.5
327.457	349.5
327.686	420.5
327.914	554.5
328.143	718.5
328.372	737.5
328.6	538.5
328.829	392.5
329.058	394.5
329.287	409.5
329.515	505.5
329.744	700.5
329.972	975.5
330.201	1322.5
330.43	1339.5
330.658	802.5
330.887	504.5
331.115	393.5
331.344	363.5
331.572	343.5
331.801	335.5
332.03	317.5
332.258	337.5
332.486	338.5
332.715	349.5
332.943	371.5
333.172	406.5
333.4	457.5
333.629	543.5
333.857	726.5
334.085	1057.5
334.314	1512.5
334.542	1855.5
334.771	1485.5
334.999	770.5
335.227	530.5
335.455	429.5
335.684	359.5
335.912	312.5
336.14	283.5
336.369	300.5
336.597	281.5
336.825	265.5
337.053	254.5
337.281	255.5
337.51	252.5
337.738	241.5
337.966	231.5
338.194	229.5
338.422	239.5
338.65	219.5
338.878	231.5
339.106	247.5
339.334	218.5
339.562	217.5
339.79	214.5
340.018	215.5
340.246	211.5
340.474	211.5
340.702	211.5
340.93	210.5
341.158	214.5
341.386	210.5
341.614	210.5
341.842	202.5
342.07	211.5
342.298	199.5
342.526	207.5
342.754	199.5
342.981	184.5
343.209	200.5
343.437	221.5
343.665	213.5
343.893	209.5
344.12	212.5
344.348	196.5
344.576	214.5
344.804	195.5
345.031	213.5
345.259	206.5
345.487	202.5
345.714	186.5
345.942	203.5
346.17	195.5
346.397	199.5
346.625	188.5
346.853	185.5
347.08	185.5
347.308	203.5
347.535	196.5
347.763	194.5
347.99	188.5
348.218	192.5
348.445	185.5
348.673	184.5
348.9	193.5
349.128	204.5
349.355	199.5
349.583	196.5
349.81	194.5
350.037	196.5
350.265	189.5
350.492	175.5
350.72	194.5
350.947	181.5
351.174	194.5
351.402	191.5
351.629	185.5
351.856	198.5
352.083	193.5
352.311	185.5
352.538	185.5
352.765	194.5
352.992	185.5
353.22	173.5
353.447	183.5
353.674	194.5
353.901	194.5
354.128	187.5
354.355	200.5
354.583	184.5
354.81	199.5
355.037	185.5
355.264	175.5
355.491	190.5
355.718	193.5
355.945	181.5
356.172	189.5
356.399	190.5
356.626	192.5
356.853	188.5
357.08	166.5
357.307	190.5
357.534	202.5
357.761	193.5
357.988	185.5
358.215	187.5
358.441	205.5
358.668	190.5
358.895	170.5
359.122	186.5
359.349	202.5
359.576	180.5
359.802	181.5
360.029	191.5
360.256	188.5
360.483	172.5
360.709	190.5
360.936	178.5
361.163	191.5
361.39	177.5
361.616	175.5
361.843	190.5
362.07	202.5
362.296	178.5
362.523	197.5
362.749	197.5
362.976	171.5
363.203	175.5
363.429	179.5
363.656	191.5
363.882	182.5
364.109	173.5
364.335	198.5
364.562	198.5
364.788	194.5
365.015	202.5
365.241	195.5
365.468	186.5
365.694	190.5
365.92	178.5
366.147	199.5
366.373	199.5
366.599	194.5
366.826	191.5
367.052	179.5
367.278	176.5
367.505	187.5
367.731	178.5
367.957	167.5
368.184	185.5
368.41	186.5
368.636	191.5
368.862	171.5
369.089	181.5
369.315	183.5
369.541	187.5
369.767	185.5
369.993	174.5
370.219	181.5
370.445	187.5
370.672	185.5
370.898	154.5
371.124	200.5
371.35	187.5
371.576	182.5
371.802	186.5
372.028	186.5
372.254	196.5
372.48	181.5
372.706	194.5
372.932	198.5
373.158	187.5
373.384	182.5
373.61	192.5
373.835	196.5
374.061	188.5
374.287	191.5
374.513	195.5
374.739	190.5
374.965	197.5
375.191	195.5
375.416	185.5
375.642	176.5
375.868	202.5
376.094	205.5
376.319	187.5
376.545	180.5
376.771	190.5
376.997	189.5
377.222	191.5
377.448	188.5
377.674	193.5
377.899	210.5
378.125	201.5
378.35	195.5
378.576	189.5
378.802	190.5
379.027	182.5
379.253	179.5
379.478	208.5
379.704	199.5
379.929	193.5
380.155	185.5
380.38	192.5
380.606	184.5
380.831	182.5
381.057	205.5
381.282	195.5
381.507	192.5
381.733	196.5
381.958	197.5
382.184	187.5
382.409	212.5
382.634	209.5
382.86	197.5
383.085	201.5
383.31	203.5
383.535	212.5
383.761	201.5
383.986	195.5
384.211	213.5
384.436	211.5
384.662	216.5
384.887	206.5
385.112	195.5
385.337	222.5
385.562	219.5
385.787	202.5
386.013	214.5
386.238	222.5
386.463	203.5
386.688	213.5
386.913	206.5
387.138	200.5
387.363	211.5
387.588	205.5
387.813	206.5
388.038	202.5
388.263	215.5
388.488	205.5
388.713	204.5
388.938	213.5
389.163	222.5
389.387	203.5
389.612	215.5
389.837	198.5
390.062	202.5
390.287	207.5
390.512	204.5
390.736	209.5
390.961	219.5
391.186	208.5
391.411	216.5
391.636	218.5
391.86	220.5
392.085	219.5
392.31	223.5
392.534	222.5
392.759	209.5
392.984	217.5
393.208	210.5
393.433	207.5
393.658	208.5
393.882	205.5
394.107	211.5
394.331	207.5
394.556	202.5
394.78	218.5
395.005	218.5
395.229	199.5
395.454	217.5
395.678	232.5
395.903	240.5
396.127	217.5
396.352	215.5
396.576	214.5
396.801	225.5
397.025	218.5
397.249	231.5
397.474	229.5
397.698	240.5
397.922	216.5
398.147	222.5
398.371	248.5
398.595	240.5
398.82	243.5
399.044	240.5
399.268	251.5
399.492	274.5
399.717	282.5
399.941	277.5
400.165	277.5
400.389	260.5
400.613	242.5
400.837	243.5
401.062	238.5
401.286	237.5
401.51	245.5
401.734	262.5
401.958	253.5
402.182	254.5
402.406	239.5
402.63	233.5
402.854	244.5
403.078	249.5
403.302	239.5
403.526	241.5
403.75	263.5
403.974	276.5
404.198	253.5
404.422	267.5
404.645	272.5
404.869	296.5
405.093	318.5
405.317	334.5
405.541	306.5
405.765	307.5
405.988	277.5
406.212	277.5
406.436	250.5
406.66	277.5
406.883	264.5
407.107	280.5
407.331	269.5
407.555	276.5
407.778	293.5
408.002	271.5
408.226	260.5
408.449	265.5
408.673	263.5
408.896	236.5
409.12	269.5
409.344	266.5
409.567	270.5
409.791	261.5
410.014	245.5
410.238	254.5
410.461	260.5
410.685	261.5
410.908	263.5
411.132	268.5
411.355	253.5
411.578	267.5
411.802	262.5
412.025	274.5
412.249	302.5
412.472	325.5
412.695	332.5
412.919	322.5
413.142	306.5
413.365	292.5
413.589	287.5
413.812	270.5
414.035	251.5
414.258	265.5
414.482	265.5
414.705	262.5
414.928	265.5
415.151	245.5
415.374	273.5
415.597	247.5
415.821	249.5
416.044	263.5
416.267	247.5
416.49	241.5
416.713	237.5
416.936	237.5
417.159	266.5
417.382	260.5
417.605	267.5
417.828	271.5
418.051	247.5
418.274	236.5
418.497	229.5
418.72	252.5
418.943	246.5
419.166	253.5
419.389	272.5
419.611	275.5
419.834	280.5
420.057	294.5
420.28	320.5
420.503	293.5
420.726	275.5
420.948	272.5
421.171	285.5
421.394	252.5
421.617	252.5
421.839	250.5
422.062	250.5
422.285	242.5
422.507	263.5
422.73	249.5
422.953	259.5
423.175	265.5
423.398	253.5
423.621	239.5
423.843	237.5
424.066	251.5
424.288	248.5
424.511	251.5
424.733	239.5
424.956	222.5
425.178	237.5
425.401	239.5
425.623	255.5
425.846	238.5
426.068	251.5
426.291	236.5
426.513	231.5
426.735	226.5
426.958	244.5
427.18	261.5
427.402	270.5
427.625	286.5
427.847	317.5
428.069	347.5
428.292	313.5
428.514	271.5
428.736	265.5
428.958	253.5
429.181	237.5
429.403	246.5
429.625	219.5
429.847	246.5
430.069	242.5
430.292	237.5
430.514	230.5
430.736	226.5
430.958	225.5
431.18	225.5
431.402	227.5
431.624	223.5
431.846	229.5
432.068	237.5
432.29	238.5
432.512	223.5
432.734	237.5
432.956	216.5
433.178	209.5
433.4	201.5
433.622	220.5
433.844	227.5
434.066	213.5
434.287	230.5
434.509	235.5
434.731	238.5
434.953	236.5
435.175	230.5
435.397	246.5
435.618	211.5
435.84	241.5
436.062	226.5
436.284	222.5
436.505	209.5
436.727	207.5
436.949	210.5
437.17	203.5
437.392	230.5
437.614	219.5
437.835	207.5
438.057	237.5
438.278	218.5
438.5	201.5
438.721	232.5
438.943	220.5
439.165	203.5
439.386	223.5
439.608	235.5
439.829	207.5
440.05	219.5
440.272	218.5
440.493	226.5
440.715	224.5
440.936	233.5
441.158	221.5
441.379	222.5
441.6	230.5
441.822	236.5
442.043	238.5
442.264	240.5
442.486	232.5
442.707	232.5
442.928	238.5
443.149	243.5
443.371	248.5
443.592	238.5
443.813	219.5
444.034	235.5
444.255	239.5
444.476	246.5
444.698	242.5
444.919	263.5
445.14	336.5
445.361	277.5
445.582	234.5
445.803	229.5
446.024	236.5
446.245	237.5
446.466	224.5
446.687	229.5
446.908	240.5
447.129	234.5
447.35	212.5
447.571	217.5
447.792	234.5
448.013	212.5
448.234	226.5
448.455	209.5
448.675	224.5
448.896	200.5
449.117	204.5
449.338	197.5
449.559	208.5
449.779	215.5
450	215.5
450.221	227.5
450.442	221.5
450.662	204.5
450.883	204.5
451.104	218.5
451.324	230.5
451.545	210.5
451.766	217.5
451.986	208.5
452.207	215.5
452.428	201.5
452.648	210.5
452.869	227.5
453.089	207.5
453.31	223.5
453.53	217.5
453.751	209.5
453.971	195.5
454.192	215.5
454.412	205.5
454.633	207.5
454.853	201.5
455.073	207.5
455.294	194.5
455.514	219.5
455.734	205.5
455.955	209.5
456.175	205.5
456.395	219.5
456.616	195.5
456.836	219.5
457.056	211.5
457.276	213.5
457.497	213.5
457.717	209.5
457.937	211.5
458.157	203.5
458.377	196.5
458.598	206.5
458.818	208.5
459.038	225.5
459.258	229.5
459.478	227.5
459.698	213.5
459.918	222.5
460.138	233.5
460.358	233.5
460.578	238.5
460.798	252.5
461.018	224.5
461.238	246.5
461.458	247.5
461.678	230.5
461.898	241.5
462.118	245.5
462.338	232.5
462.558	269.5
462.777	260.5
462.997	262.5
463.217	275.5
463.437	267.5
463.657	250.5
463.876	262.5
464.096	259.5
464.316	251.5
464.536	265.5
464.755	270.5
464.975	241.5
465.195	249.5
465.414	235.5
465.634	246.5
465.854	239.5
466.073	259.5
466.293	232.5
466.512	237.5
466.732	236.5
466.951	257.5
467.171	265.5
467.391	272.5
467.61	296.5
467.829	357.5
468.049	691.5
468.268	821.5
468.488	504.5
468.707	347.5
468.927	299.5
469.146	273.5
469.365	275.5
469.585	276.5
469.804	256.5
470.023	266.5
470.243	270.5
470.462	265.5
470.681	274.5
470.901	265.5
471.12	290.5
471.339	314.5
471.558	337.5
471.777	394.5
471.997	559.5
472.216	1153.5
472.435	1794.5
472.654	987.5
472.873	563.5
473.092	418.5
473.311	382.5
473.53	338.5
473.749	323.5
473.968	318.5
474.187	290.5
474.406	296.5
474.625	261.5
474.844	276.5
475.063	269.5
475.282	262.5
475.501	270.5
475.72	271.5
475.939	266.5
476.158	281.5
476.377	254.5
476.596	263.5
476.814	275.5
477.033	255.5
477.252	260.5
477.471	271.5
477.69	281.5
477.908	279.5
478.127	267.5
478.346	254.5
478.564	286.5
478.783	302.5
479.002	285.5
479.22	295.5
479.439	305.5
479.658	310.5
479.876	318.5
480.095	346.5
480.313	402.5
480.532	470.5
480.751	626.5
480.969	1213.5
481.188	2747.5
481.406	2233.5
481.624	1067.5
481.843	722.5
482.061	568.5
482.28	477.5
482.498	447.5
482.717	403.5
482.935	381.5
483.153	366.5
483.372	367.5
483.59	334.5
483.808	334.5
484.027	319.5
484.245	298.5
484.463	314.5
484.681	317.5
484.9	309.5
485.118	309.5
485.336	288.5
485.554	311.5
485.772	309.5
485.99	305.5
486.209	295.5
486.427	293.5
486.645	290.5
486.863	315.5
487.081	309.5
487.299	306.5
487.517	321.5
487.735	312.5
487.953	318.5
488.171	305.5
488.389	297.5
488.607	294.5
488.825	295.5
489.043	317.5
489.261	315.5
489.479	321.5
489.696	325.5
489.914	323.5
490.132	332.5
490.35	341.5
490.568	355.5
490.786	393.5
491.003	389.5
491.221	428.5
491.439	474.5
491.657	465.5
491.874	485.5
492.092	481.5
492.31	484.5
492.527	544.5
492.745	530.5
492.963	518.5
493.18	486.5
493.398	476.5
493.615	449.5
493.833	416.5
494.05	417.5
494.268	411.5
494.485	405.5
494.703	400.5
494.92	379.5
495.138	373.5
495.355	360.5
495.573	366.5
495.79	376.5
496.008	359.5
496.225	367.5
496.442	340.5
496.66	347.5
496.877	336.5
497.094	353.5
497.312	344.5
497.529	361.5
497.746	359.5
497.963	353.5
498.181	347.5
498.398	335.5
498.615	351.5
498.832	362.5
499.049	361.5
499.267	374.5
499.484	405.5
499.701	410.5
499.918	424.5
500.135	435.5
500.352	481.5
500.569	502.5
500.786	505.5
501.003	493.5
501.22	442.5
501.437	437.5
501.654	387.5
501.871	390.5
502.088	359.5
502.305	345.5
502.522	353.5
502.739	343.5
502.956	328.5
503.172	307.5
503.389	300.5
503.606	311.5
503.823	301.5
504.04	291.5
504.256	313.5
504.473	310.5
504.69	293.5
504.907	295.5
505.123	292.5
505.34	284.5
505.557	275.5
505.773	271.5
505.99	274.5
506.207	252.5
506.423	277.5
506.64	288.5
506.856	272.5
507.073	262.5
507.289	256.5
507.506	254.5
507.722	250.5
507.939	254.5
508.155	258.5
508.372	262.5
508.588	272.5
508.805	283.5
509.021	247.5
509.238	258.5
509.454	247.5
509.67	254.5
509.887	253.5
510.103	265.5
510.319	245.5
510.536	232.5
510.752	253.5
510.968	241.5
511.184	268.5
511.401	259.5
511.617	298.5
511.833	330.5
512.049	332.5
512.265	305.5
512.481	290.5
512.698	275.5
512.914	248.5
513.13	247.5
513.346	288.5
513.562	258.5
513.778	261.5
513.994	257.5
514.21	244.5
514.426	254.5
514.642	253.5
514.858	243.5
515.074	248.5
515.29	239.5
515.506	275.5
515.721	267.5
515.937	257.5
516.153	249.5
516.369	258.5
516.585	268.5
516.801	257.5
517.016	257.5
517.232	266.5
517.448	261.5
517.664	258.5
517.879	258.5
518.095	278.5
518.311	258.5
518.527	279.5
518.742	250.5
518.958	262.5
519.173	258.5
519.389	253.5
519.605	242.5
519.82	247.5
520.036	236.5
520.251	253.5
520.467	235.5
520.682	220.5
520.898	235.5
521.113	237.5
521.329	229.5
