Data from StdC_HRD10591_092.txt Node
Date: Fri May 16 15:29:26 EDT 2025
User: Yrep
Spectrometer: HR+D1059
Trigger mode: 1
Integration Time (sec): 1.000000E-1
Scans to average: 1
Electric dark correction enabled: true
Nonlinearity correction enabled: false
Boxcar width: 0
XAxis mode: Wavelengths
Number of Pixels in Spectrum: 2048
>>>>>Begin Spectral Data<<<<<
223.165	-12.88
223.4	-12.88
223.635	-12.88
223.869	-30.88
224.104	-19.88
224.338	0.12
224.573	-6.88
224.808	-9.88
225.042	5.12
225.277	-11.88
225.511	-30.88
225.746	-0.88
225.98	2.12
226.215	11.12
226.449	12.12
226.683	25.12
226.918	27.12
227.152	41.12
227.387	32.12
227.621	30.12
227.856	45.12
228.09	49.12
228.324	63.12
228.559	50.12
228.793	72.12
229.027	68.12
229.262	67.12
229.496	71.12
229.73	65.12
229.964	86.12
230.199	90.12
230.433	84.12
230.667	76.12
230.901	87.12
231.136	79.12
231.37	94.12
231.604	91.12
231.838	90.12
232.072	88.12
232.306	79.12
232.541	91.12
232.775	91.12
233.009	103.12
233.243	100.12
233.477	92.12
233.711	98.12
233.945	100.12
234.179	107.12
234.413	99.12
234.647	93.12
234.881	95.12
235.115	88.12
235.349	90.12
235.583	90.12
235.817	96.12
236.051	94.12
236.285	88.12
236.519	103.12
236.753	98.12
236.987	87.12
237.221	97.12
237.455	90.12
237.689	83.12
237.922	93.12
238.156	91.12
238.39	86.12
238.624	81.12
238.858	99.12
239.091	84.12
239.325	84.12
239.559	90.12
239.793	90.12
240.027	88.12
240.26	87.12
240.494	99.12
240.728	105.12
240.961	90.12
241.195	96.12
241.429	100.12
241.662	79.12
241.896	99.12
242.13	89.12
242.363	99.12
242.597	95.12
242.83	108.12
243.064	100.12
243.298	97.12
243.531	104.12
243.765	95.12
243.998	98.12
244.232	102.12
244.465	104.12
244.699	96.12
244.932	91.12
245.166	101.12
245.399	111.12
245.633	108.12
245.866	96.12
246.099	107.12
246.333	123.12
246.566	103.12
246.8	94.12
247.033	82.12
247.266	115.12
247.5	108.12
247.733	94.12
247.966	106.12
248.2	118.12
248.433	96.12
248.666	108.12
248.899	113.12
249.133	109.12
249.366	123.12
249.599	111.12
249.832	132.12
250.066	157.12
250.299	156.12
250.532	204.12
250.765	185.12
250.998	154.12
251.231	129.12
251.465	125.12
251.698	127.12
251.931	136.12
252.164	120.12
252.397	104.12
252.63	131.12
252.863	112.12
253.096	124.12
253.329	131.12
253.562	121.12
253.795	121.12
254.028	122.12
254.261	119.12
254.494	126.12
254.727	120.12
254.96	141.12
255.193	151.12
255.426	167.12
255.659	184.12
255.892	280.12
256.124	307.12
256.357	251.12
256.59	212.12
256.823	163.12
257.056	158.12
257.289	163.12
257.521	154.12
257.754	144.12
257.987	131.12
258.22	152.12
258.452	134.12
258.685	132.12
258.918	131.12
259.151	132.12
259.383	137.12
259.616	135.12
259.849	139.12
260.081	139.12
260.314	145.12
260.547	129.12
260.779	141.12
261.012	159.12
261.244	131.12
261.477	136.12
261.71	136.12
261.942	108.12
262.175	128.12
262.407	133.12
262.64	113.12
262.872	122.12
263.105	131.12
263.337	119.12
263.57	133.12
263.802	128.12
264.035	120.12
264.267	135.12
264.499	118.12
264.732	119.12
264.964	123.12
265.197	140.12
265.429	140.12
265.661	140.12
265.894	143.12
266.126	131.12
266.358	117.12
266.591	139.12
266.823	127.12
267.055	121.12
267.287	136.12
267.52	138.12
267.752	130.12
267.984	140.12
268.216	132.12
268.448	137.12
268.681	126.12
268.913	135.12
269.145	129.12
269.377	131.12
269.609	142.12
269.841	139.12
270.073	135.12
270.306	135.12
270.538	132.12
270.77	150.12
271.002	143.12
271.234	131.12
271.466	136.12
271.698	128.12
271.93	138.12
272.162	162.12
272.394	149.12
272.626	146.12
272.858	141.12
273.09	132.12
273.322	134.12
273.553	145.12
273.785	140.12
274.017	169.12
274.249	145.12
274.481	168.12
274.713	166.12
274.945	157.12
275.176	171.12
275.408	162.12
275.64	202.12
275.872	167.12
276.104	186.12
276.335	176.12
276.567	188.12
276.799	190.12
277.031	220.12
277.262	219.12
277.494	218.12
277.726	175.12
277.957	188.12
278.189	188.12
278.421	180.12
278.652	176.12
278.884	170.12
279.115	187.12
279.347	182.12
279.579	192.12
279.81	230.12
280.042	250.12
280.273	276.12
280.505	241.12
280.736	216.12
280.968	191.12
281.199	186.12
281.431	179.12
281.662	179.12
281.894	187.12
282.125	167.12
282.356	177.12
282.588	150.12
282.819	170.12
283.051	169.12
283.282	170.12
283.513	151.12
283.745	155.12
283.976	164.12
284.207	170.12
284.439	173.12
284.67	162.12
284.901	163.12
285.132	154.12
285.364	154.12
285.595	160.12
285.826	151.12
286.057	161.12
286.288	151.12
286.52	170.12
286.751	173.12
286.982	163.12
287.213	164.12
287.444	179.12
287.675	173.12
287.906	163.12
288.138	152.12
288.369	164.12
288.6	157.12
288.831	167.12
289.062	172.12
289.293	157.12
289.524	158.12
289.755	167.12
289.986	155.12
290.217	170.12
290.448	153.12
290.679	157.12
290.91	155.12
291.141	157.12
291.371	156.12
291.602	139.12
291.833	150.12
292.064	161.12
292.295	144.12
292.526	138.12
292.757	149.12
292.987	149.12
293.218	161.12
293.449	160.12
293.68	151.12
293.91	160.12
294.141	157.12
294.372	162.12
294.603	157.12
294.833	160.12
295.064	146.12
295.295	163.12
295.525	164.12
295.756	151.12
295.987	166.12
296.217	156.12
296.448	157.12
296.679	170.12
296.909	166.12
297.14	154.12
297.37	180.12
297.601	161.12
297.831	145.12
298.062	167.12
298.292	163.12
298.523	168.12
298.753	155.12
298.984	155.12
299.214	170.12
299.445	166.12
299.675	169.12
299.905	162.12
300.136	166.12
300.366	161.12
300.597	158.12
300.827	173.12
301.057	169.12
301.288	161.12
301.518	149.12
301.748	168.12
301.979	190.12
302.209	171.12
302.439	166.12
302.669	167.12
302.9	196.12
303.13	163.12
303.36	191.12
303.59	206.12
303.82	187.12
304.051	191.12
304.281	195.12
304.511	182.12
304.741	139.12
304.971	168.12
305.201	158.12
305.431	161.12
305.661	180.12
305.891	167.12
306.121	159.12
306.352	173.12
306.582	182.12
306.812	182.12
307.042	201.12
307.272	226.12
307.502	236.12
307.731	230.12
307.961	195.12
308.191	165.12
308.421	188.12
308.651	175.12
308.881	168.12
309.111	167.12
309.341	158.12
309.571	158.12
309.8	168.12
310.03	184.12
310.26	170.12
310.49	177.12
310.72	182.12
310.949	180.12
311.179	182.12
311.409	186.12
311.639	173.12
311.868	173.12
312.098	159.12
312.328	157.12
312.557	178.12
312.787	170.12
313.017	179.12
313.246	180.12
313.476	182.12
313.706	190.12
313.935	168.12
314.165	171.12
314.394	183.12
314.624	178.12
314.853	173.12
315.083	173.12
315.312	171.12
315.542	163.12
315.771	186.12
316.001	180.12
316.23	167.12
316.46	165.12
316.689	186.12
316.919	174.12
317.148	180.12
317.377	179.12
317.607	166.12
317.836	167.12
318.065	174.12
318.295	194.12
318.524	183.12
318.753	177.12
318.983	182.12
319.212	185.12
319.441	185.12
319.67	183.12
319.9	187.12
320.129	183.12
320.358	187.12
320.587	195.12
320.816	199.12
321.046	187.12
321.275	200.12
321.504	172.12
321.733	195.12
321.962	186.12
322.191	186.12
322.42	178.12
322.649	194.12
322.878	194.12
323.108	218.12
323.337	211.12
323.566	203.12
323.795	231.12
324.024	221.12
324.253	224.12
324.482	227.12
324.71	227.12
324.939	230.12
325.168	226.12
325.397	230.12
325.626	236.12
325.855	241.12
326.084	258.12
326.313	255.12
326.542	231.12
326.77	250.12
326.999	277.12
327.228	282.12
327.457	325.12
327.686	407.12
327.914	567.12
328.143	699.12
328.372	730.12
328.6	559.12
328.829	393.12
329.058	374.12
329.287	443.12
329.515	504.12
329.744	686.12
329.972	950.12
330.201	1297.12
330.43	1320.12
330.658	802.12
330.887	499.12
331.115	364.12
331.344	332.12
331.572	332.12
331.801	337.12
332.03	318.12
332.258	312.12
332.486	327.12
332.715	354.12
332.943	366.12
333.172	400.12
333.4	431.12
333.629	530.12
333.857	715.12
334.085	1027.12
334.314	1492.12
334.542	1810.12
334.771	1481.12
334.999	777.12
335.227	512.12
335.455	419.12
335.684	354.12
335.912	327.12
336.14	301.12
336.369	290.12
336.597	262.12
336.825	263.12
337.053	246.12
337.281	262.12
337.51	233.12
337.738	223.12
337.966	232.12
338.194	244.12
338.422	219.12
338.65	217.12
338.878	236.12
339.106	208.12
339.334	220.12
339.562	234.12
339.79	214.12
340.018	201.12
340.246	196.12
340.474	210.12
340.702	212.12
340.93	201.12
341.158	196.12
341.386	196.12
341.614	193.12
341.842	177.12
342.07	195.12
342.298	219.12
342.526	202.12
342.754	167.12
342.981	203.12
343.209	209.12
343.437	226.12
343.665	213.12
343.893	201.12
344.12	196.12
344.348	208.12
344.576	205.12
344.804	184.12
345.031	195.12
345.259	202.12
345.487	194.12
345.714	190.12
345.942	202.12
346.17	196.12
346.397	194.12
346.625	192.12
346.853	196.12
347.08	194.12
347.308	191.12
347.535	194.12
347.763	191.12
347.99	194.12
348.218	201.12
348.445	201.12
348.673	186.12
348.9	177.12
349.128	181.12
349.355	188.12
349.583	186.12
349.81	182.12
350.037	182.12
350.265	188.12
350.492	177.12
350.72	181.12
350.947	190.12
351.174	173.12
351.402	201.12
351.629	171.12
351.856	182.12
352.083	190.12
352.311	188.12
352.538	194.12
352.765	195.12
352.992	195.12
353.22	179.12
353.447	195.12
353.674	179.12
353.901	188.12
354.128	191.12
354.355	185.12
354.583	189.12
354.81	172.12
355.037	186.12
355.264	203.12
355.491	187.12
355.718	180.12
355.945	169.12
356.172	180.12
356.399	188.12
356.626	189.12
356.853	183.12
357.08	176.12
357.307	190.12
357.534	168.12
357.761	178.12
357.988	187.12
358.215	192.12
358.441	183.12
358.668	180.12
358.895	193.12
359.122	178.12
359.349	163.12
359.576	182.12
359.802	170.12
360.029	184.12
360.256	176.12
360.483	193.12
360.709	200.12
360.936	191.12
361.163	185.12
361.39	186.12
361.616	185.12
361.843	181.12
362.07	192.12
362.296	174.12
362.523	181.12
362.749	176.12
362.976	173.12
363.203	186.12
363.429	185.12
363.656	191.12
363.882	184.12
364.109	177.12
364.335	160.12
364.562	171.12
364.788	180.12
365.015	166.12
365.241	179.12
365.468	187.12
365.694	199.12
365.92	185.12
366.147	190.12
366.373	190.12
366.599	178.12
366.826	185.12
367.052	188.12
367.278	172.12
367.505	176.12
367.731	175.12
367.957	163.12
368.184	188.12
368.41	177.12
368.636	181.12
368.862	190.12
369.089	173.12
369.315	172.12
369.541	192.12
369.767	174.12
369.993	186.12
370.219	184.12
370.445	184.12
370.672	194.12
370.898	187.12
371.124	174.12
371.35	170.12
371.576	196.12
371.802	200.12
372.028	182.12
372.254	180.12
372.48	182.12
372.706	177.12
372.932	196.12
373.158	185.12
373.384	182.12
373.61	178.12
373.835	187.12
374.061	185.12
374.287	209.12
374.513	202.12
374.739	199.12
374.965	184.12
375.191	188.12
375.416	183.12
375.642	181.12
375.868	176.12
376.094	179.12
376.319	189.12
376.545	199.12
376.771	197.12
376.997	177.12
377.222	201.12
377.448	194.12
377.674	189.12
377.899	189.12
378.125	182.12
378.35	185.12
378.576	194.12
378.802	198.12
379.027	171.12
379.253	178.12
379.478	179.12
379.704	186.12
379.929	186.12
380.155	193.12
380.38	181.12
380.606	206.12
380.831	189.12
381.057	196.12
381.282	182.12
381.507	198.12
381.733	195.12
381.958	184.12
382.184	190.12
382.409	190.12
382.634	191.12
382.86	207.12
383.085	197.12
383.31	208.12
383.535	203.12
383.761	203.12
383.986	210.12
384.211	212.12
384.436	209.12
384.662	200.12
384.887	194.12
385.112	189.12
385.337	206.12
385.562	212.12
385.787	191.12
386.013	194.12
386.238	202.12
386.463	195.12
386.688	212.12
386.913	203.12
387.138	200.12
387.363	216.12
387.588	205.12
387.813	206.12
388.038	199.12
388.263	206.12
388.488	207.12
388.713	211.12
388.938	223.12
389.163	204.12
389.387	219.12
389.612	204.12
389.837	189.12
390.062	219.12
390.287	208.12
390.512	200.12
390.736	206.12
390.961	202.12
391.186	212.12
391.411	217.12
391.636	202.12
391.86	211.12
392.085	219.12
392.31	217.12
392.534	219.12
392.759	219.12
392.984	203.12
393.208	211.12
393.433	208.12
393.658	207.12
393.882	199.12
394.107	209.12
394.331	221.12
394.556	199.12
394.78	217.12
395.005	228.12
395.229	224.12
395.454	227.12
395.678	231.12
395.903	218.12
396.127	209.12
396.352	220.12
396.576	214.12
396.801	208.12
397.025	218.12
397.249	222.12
397.474	232.12
397.698	212.12
397.922	243.12
398.147	215.12
398.371	218.12
398.595	239.12
398.82	241.12
399.044	257.12
399.268	256.12
399.492	270.12
399.717	284.12
399.941	277.12
400.165	267.12
400.389	252.12
400.613	270.12
400.837	246.12
401.062	239.12
401.286	244.12
401.51	256.12
401.734	243.12
401.958	261.12
402.182	251.12
402.406	270.12
402.63	239.12
402.854	248.12
403.078	251.12
403.302	265.12
403.526	249.12
403.75	245.12
403.974	258.12
404.198	264.12
404.422	243.12
404.645	288.12
404.869	278.12
405.093	298.12
405.317	326.12
405.541	315.12
405.765	291.12
405.988	264.12
406.212	270.12
406.436	265.12
406.66	275.12
406.883	273.12
407.107	260.12
407.331	256.12
407.555	262.12
407.778	267.12
408.002	250.12
408.226	269.12
408.449	256.12
408.673	260.12
408.896	243.12
409.12	254.12
409.344	258.12
409.567	250.12
409.791	274.12
410.014	248.12
410.238	267.12
410.461	248.12
410.685	247.12
410.908	240.12
411.132	263.12
411.355	265.12
411.578	244.12
411.802	260.12
412.025	267.12
412.249	282.12
412.472	322.12
412.695	340.12
412.919	309.12
413.142	298.12
413.365	272.12
413.589	262.12
413.812	270.12
414.035	255.12
414.258	254.12
414.482	265.12
414.705	248.12
414.928	271.12
415.151	243.12
415.374	239.12
415.597	238.12
415.821	243.12
416.044	242.12
416.267	243.12
416.49	258.12
416.713	248.12
416.936	244.12
417.159	234.12
417.382	248.12
417.605	255.12
417.828	265.12
418.051	260.12
418.274	279.12
418.497	250.12
418.72	248.12
418.943	254.12
419.166	252.12
419.389	270.12
419.611	281.12
419.834	280.12
420.057	287.12
420.28	307.12
420.503	299.12
420.726	291.12
420.948	268.12
421.171	275.12
421.394	258.12
421.617	250.12
421.839	237.12
422.062	250.12
422.285	263.12
422.507	273.12
422.73	248.12
422.953	249.12
423.175	250.12
423.398	231.12
423.621	248.12
423.843	239.12
424.066	227.12
424.288	230.12
424.511	246.12
424.733	263.12
424.956	242.12
425.178	246.12
425.401	246.12
425.623	241.12
425.846	227.12
426.068	244.12
426.291	256.12
426.513	248.12
426.735	246.12
426.958	239.12
427.18	232.12
427.402	258.12
427.625	284.12
427.847	332.12
428.069	320.12
428.292	295.12
428.514	266.12
428.736	250.12
428.958	234.12
429.181	225.12
429.403	247.12
429.625	224.12
429.847	220.12
430.069	243.12
430.292	210.12
430.514	217.12
430.736	240.12
430.958	246.12
431.18	236.12
431.402	223.12
431.624	211.12
431.846	238.12
432.068	223.12
432.29	223.12
432.512	221.12
432.734	217.12
432.956	243.12
433.178	226.12
433.4	227.12
433.622	220.12
433.844	210.12
434.066	233.12
434.287	227.12
434.509	221.12
434.731	233.12
434.953	232.12
435.175	234.12
435.397	232.12
435.618	231.12
435.84	220.12
436.062	219.12
436.284	209.12
436.505	215.12
436.727	225.12
436.949	221.12
437.17	233.12
437.392	210.12
437.614	211.12
437.835	212.12
438.057	224.12
438.278	208.12
438.5	212.12
438.721	226.12
438.943	234.12
439.165	224.12
439.386	220.12
439.608	236.12
439.829	226.12
440.05	234.12
440.272	221.12
440.493	221.12
440.715	243.12
440.936	233.12
441.158	222.12
441.379	225.12
441.6	234.12
441.822	213.12
442.043	226.12
442.264	226.12
442.486	227.12
442.707	233.12
442.928	222.12
443.149	255.12
443.371	230.12
443.592	222.12
443.813	242.12
444.034	237.12
444.255	233.12
444.476	228.12
444.698	248.12
444.919	246.12
445.14	324.12
445.361	260.12
445.582	229.12
445.803	246.12
446.024	243.12
446.245	228.12
446.466	239.12
446.687	221.12
446.908	219.12
447.129	220.12
447.35	233.12
447.571	220.12
447.792	216.12
448.013	208.12
448.234	204.12
448.455	220.12
448.675	226.12
448.896	214.12
449.117	209.12
449.338	199.12
449.559	210.12
449.779	205.12
450	215.12
450.221	225.12
450.442	203.12
450.662	203.12
450.883	211.12
451.104	218.12
451.324	197.12
451.545	200.12
451.766	207.12
451.986	198.12
452.207	212.12
452.428	187.12
452.648	209.12
452.869	205.12
453.089	215.12
453.31	183.12
453.53	176.12
453.751	187.12
453.971	200.12
454.192	190.12
454.412	187.12
454.633	195.12
454.853	197.12
455.073	198.12
455.294	190.12
455.514	205.12
455.734	216.12
455.955	208.12
456.175	192.12
456.395	183.12
456.616	203.12
456.836	209.12
457.056	220.12
457.276	203.12
457.497	201.12
457.717	218.12
457.937	218.12
458.157	211.12
458.377	219.12
458.598	202.12
458.818	205.12
459.038	209.12
459.258	210.12
459.478	211.12
459.698	226.12
459.918	211.12
460.138	222.12
460.358	232.12
460.578	229.12
460.798	213.12
461.018	244.12
461.238	235.12
461.458	237.12
461.678	244.12
461.898	230.12
462.118	236.12
462.338	228.12
462.558	247.12
462.777	258.12
462.997	259.12
463.217	264.12
463.437	278.12
463.657	246.12
463.876	253.12
464.096	253.12
464.316	257.12
464.536	251.12
464.755	241.12
464.975	243.12
465.195	248.12
465.414	252.12
465.634	243.12
465.854	256.12
466.073	254.12
466.293	228.12
466.512	241.12
466.732	230.12
466.951	260.12
467.171	259.12
467.391	248.12
467.61	291.12
467.829	382.12
468.049	666.12
468.268	787.12
468.488	492.12
468.707	365.12
468.927	307.12
469.146	270.12
469.365	273.12
469.585	258.12
469.804	260.12
470.023	263.12
470.243	270.12
470.462	274.12
470.681	275.12
470.901	276.12
471.12	279.12
471.339	292.12
471.558	315.12
471.777	356.12
471.997	512.12
472.216	1111.12
472.435	1683.12
472.654	930.12
472.873	545.12
473.092	432.12
473.311	385.12
473.53	349.12
473.749	309.12
473.968	314.12
474.187	278.12
474.406	290.12
474.625	275.12
474.844	272.12
475.063	255.12
475.282	263.12
475.501	251.12
475.72	267.12
475.939	250.12
476.158	250.12
476.377	255.12
476.596	250.12
476.814	253.12
477.033	253.12
477.252	263.12
477.471	260.12
477.69	264.12
477.908	284.12
478.127	276.12
478.346	269.12
478.564	281.12
478.783	284.12
479.002	279.12
479.22	290.12
479.439	295.12
479.658	316.12
479.876	331.12
480.095	340.12
480.313	392.12
480.532	465.12
480.751	608.12
480.969	1216.12
481.188	2676.12
481.406	2127.12
481.624	1022.12
481.843	698.12
482.061	545.12
482.28	490.12
482.498	425.12
482.717	390.12
482.935	378.12
483.153	368.12
483.372	366.12
483.59	349.12
483.808	331.12
484.027	316.12
484.245	302.12
484.463	327.12
484.681	299.12
484.9	301.12
485.118	307.12
485.336	288.12
485.554	290.12
485.772	299.12
485.99	303.12
486.209	289.12
486.427	304.12
486.645	302.12
486.863	307.12
487.081	280.12
487.299	294.12
487.517	299.12
487.735	297.12
487.953	307.12
488.171	306.12
488.389	297.12
488.607	302.12
488.825	301.12
489.043	298.12
489.261	294.12
489.479	335.12
489.696	328.12
489.914	339.12
490.132	330.12
490.35	340.12
490.568	353.12
490.786	382.12
491.003	391.12
491.221	432.12
491.439	472.12
491.657	457.12
491.874	475.12
492.092	465.12
492.31	481.12
492.527	510.12
492.745	540.12
492.963	514.12
493.18	471.12
493.398	465.12
493.615	471.12
493.833	432.12
494.05	411.12
494.268	398.12
494.485	385.12
494.703	389.12
494.92	383.12
495.138	367.12
495.355	395.12
495.573	368.12
495.79	367.12
496.008	351.12
496.225	348.12
496.442	353.12
496.66	376.12
496.877	333.12
497.094	350.12
497.312	339.12
497.529	337.12
497.746	337.12
497.963	336.12
498.181	343.12
498.398	324.12
498.615	372.12
498.832	353.12
499.049	359.12
499.267	386.12
499.484	369.12
499.701	393.12
499.918	432.12
500.135	446.12
500.352	492.12
500.569	498.12
500.786	518.12
501.003	472.12
501.22	461.12
501.437	420.12
501.654	399.12
501.871	381.12
502.088	360.12
502.305	340.12
502.522	337.12
502.739	327.12
502.956	310.12
503.172	295.12
503.389	301.12
