Data from StdC_HRD10591_009.txt Node
Date: Fri May 16 15:28:45 EDT 2025
User: Yrep
Spectrometer: HR+D1059
Trigger mode: 1
Integration Time (sec): 1.000000E-1
Scans to average: 1
Electric dark correction enabled: true
Nonlinearity correction enabled: false
Boxcar width: 0
XAxis mode: Wavelengths
Number of Pixels in Spectrum: 2048
>>>>>Begin Spectral Data<<<<<
223.165	-20.69
223.4	-20.69
223.635	-20.69
223.869	-15.69
224.104	-20.69
224.338	-4.69
224.573	-17.69
224.808	-8.69
225.042	-13.69
225.277	-4.69
225.511	6.31
225.746	1.31
225.98	1.31
226.215	9.31
226.449	15.31
226.683	34.31
226.918	12.31
227.152	26.31
227.387	30.31
227.621	43.31
227.856	32.31
228.09	40.31
228.324	46.31
228.559	54.31
228.793	62.31
229.027	64.31
229.262	61.31
229.496	58.31
229.73	64.31
229.964	72.31
230.199	72.31
230.433	64.31
230.667	73.31
230.901	81.31
231.136	87.31
231.37	86.31
231.604	67.31
231.838	88.31
232.072	82.31
232.306	89.31
232.541	87.31
232.775	85.31
233.009	78.31
233.243	82.31
233.477	78.31
233.711	86.31
233.945	73.31
234.179	72.31
234.413	82.31
234.647	65.31
234.881	86.31
235.115	82.31
235.349	64.31
235.583	74.31
235.817	82.31
236.051	77.31
236.285	76.31
236.519	71.31
236.753	84.31
236.987	78.31
237.221	81.31
237.455	68.31
237.689	68.31
237.922	83.31
238.156	70.31
238.39	66.31
238.624	69.31
238.858	75.31
239.091	75.31
239.325	79.31
239.559	76.31
239.793	68.31
240.027	54.31
240.26	62.31
240.494	75.31
240.728	65.31
240.961	71.31
241.195	78.31
241.429	68.31
241.662	70.31
241.896	58.31
242.13	86.31
242.363	80.31
242.597	80.31
242.83	74.31
243.064	94.31
243.298	68.31
243.531	63.31
243.765	72.31
243.998	70.31
244.232	75.31
244.465	83.31
244.699	75.31
244.932	83.31
245.166	73.31
245.399	84.31
245.633	70.31
245.866	67.31
246.099	76.31
246.333	68.31
246.566	79.31
246.8	70.31
247.033	81.31
247.266	75.31
247.5	81.31
247.733	72.31
247.966	85.31
248.2	63.31
248.433	82.31
248.666	75.31
248.899	79.31
249.133	83.31
249.366	100.31
249.599	72.31
249.832	82.31
250.066	89.31
250.299	86.31
250.532	73.31
250.765	88.31
250.998	74.31
251.231	65.31
251.465	79.31
251.698	65.31
251.931	84.31
252.164	71.31
252.397	70.31
252.63	78.31
252.863	92.31
253.096	72.31
253.329	83.31
253.562	87.31
253.795	91.31
254.028	86.31
254.261	82.31
254.494	88.31
254.727	100.31
254.96	78.31
255.193	90.31
255.426	90.31
255.659	88.31
255.892	88.31
256.124	92.31
256.357	76.31
256.59	84.31
256.823	76.31
257.056	85.31
257.289	81.31
257.521	90.31
257.754	91.31
257.987	78.31
258.22	78.31
258.452	77.31
258.685	69.31
258.918	90.31
259.151	77.31
259.383	88.31
259.616	87.31
259.849	80.31
260.081	74.31
260.314	75.31
260.547	78.31
260.779	91.31
261.012	83.31
261.244	73.31
261.477	84.31
261.71	74.31
261.942	68.31
262.175	87.31
262.407	76.31
262.64	66.31
262.872	95.31
263.105	75.31
263.337	84.31
263.57	66.31
263.802	90.31
264.035	80.31
264.267	78.31
264.499	80.31
264.732	92.31
264.964	85.31
265.197	87.31
265.429	101.31
265.661	85.31
265.894	81.31
266.126	91.31
266.358	86.31
266.591	64.31
266.823	79.31
267.055	75.31
267.287	67.31
267.52	75.31
267.752	70.31
267.984	70.31
268.216	77.31
268.448	74.31
268.681	81.31
268.913	72.31
269.145	78.31
269.377	79.31
269.609	75.31
269.841	85.31
270.073	73.31
270.306	94.31
270.538	72.31
270.77	77.31
271.002	78.31
271.234	75.31
271.466	74.31
271.698	75.31
271.93	82.31
272.162	89.31
272.394	89.31
272.626	75.31
272.858	95.31
273.09	76.31
273.322	102.31
273.553	84.31
273.785	88.31
274.017	79.31
274.249	77.31
274.481	85.31
274.713	90.31
274.945	71.31
275.176	70.31
275.408	79.31
275.64	79.31
275.872	91.31
276.104	84.31
276.335	88.31
276.567	75.31
276.799	79.31
277.031	102.31
277.262	100.31
277.494	86.31
277.726	93.31
277.957	86.31
278.189	86.31
278.421	76.31
278.652	91.31
278.884	90.31
279.115	80.31
279.347	88.31
279.579	80.31
279.81	100.31
280.042	94.31
280.273	89.31
280.505	98.31
280.736	92.31
280.968	79.31
281.199	74.31
281.431	85.31
281.662	85.31
281.894	88.31
282.125	72.31
282.356	77.31
282.588	101.31
282.819	73.31
283.051	78.31
283.282	86.31
283.513	91.31
283.745	86.31
283.976	86.31
284.207	88.31
284.439	90.31
284.67	78.31
284.901	81.31
285.132	93.31
285.364	94.31
285.595	81.31
285.826	86.31
286.057	81.31
286.288	79.31
286.52	98.31
286.751	93.31
286.982	82.31
287.213	68.31
287.444	72.31
287.675	80.31
287.906	81.31
288.138	72.31
288.369	84.31
288.6	80.31
288.831	85.31
289.062	88.31
289.293	75.31
289.524	95.31
289.755	81.31
289.986	87.31
290.217	83.31
290.448	73.31
290.679	83.31
290.91	89.31
291.141	82.31
291.371	86.31
291.602	77.31
291.833	62.31
292.064	90.31
292.295	99.31
292.526	88.31
292.757	95.31
292.987	78.31
293.218	82.31
293.449	88.31
293.68	77.31
293.91	89.31
294.141	100.31
294.372	101.31
294.603	86.31
294.833	92.31
295.064	90.31
295.295	88.31
295.525	79.31
295.756	79.31
295.987	85.31
296.217	92.31
296.448	83.31
296.679	70.31
296.909	88.31
297.14	87.31
297.37	93.31
297.601	75.31
297.831	95.31
298.062	86.31
298.292	70.31
298.523	79.31
298.753	82.31
298.984	80.31
299.214	87.31
299.445	100.31
299.675	91.31
299.905	76.31
300.136	78.31
300.366	83.31
300.597	80.31
300.827	86.31
301.057	107.31
301.288	62.31
301.518	90.31
301.748	79.31
301.979	100.31
302.209	82.31
302.439	77.31
302.669	69.31
302.9	74.31
303.13	76.31
303.36	87.31
303.59	80.31
303.82	88.31
304.051	86.31
304.281	83.31
304.511	102.31
304.741	76.31
304.971	85.31
305.201	82.31
305.431	83.31
305.661	91.31
305.891	82.31
306.121	82.31
306.352	85.31
306.582	91.31
306.812	98.31
307.042	94.31
307.272	91.31
307.502	94.31
307.731	82.31
307.961	87.31
308.191	91.31
308.421	90.31
308.651	87.31
308.881	75.31
309.111	89.31
309.341	84.31
309.571	91.31
309.8	83.31
310.03	83.31
310.26	93.31
310.49	78.31
310.72	93.31
310.949	91.31
311.179	92.31
311.409	73.31
311.639	78.31
311.868	87.31
312.098	82.31
312.328	83.31
312.557	67.31
312.787	83.31
313.017	87.31
313.246	90.31
313.476	108.31
313.706	80.31
313.935	72.31
314.165	68.31
314.394	82.31
314.624	71.31
314.853	76.31
315.083	98.31
315.312	84.31
315.542	88.31
315.771	75.31
316.001	88.31
316.23	87.31
316.46	93.31
316.689	84.31
316.919	84.31
317.148	82.31
317.377	79.31
317.607	92.31
317.836	80.31
318.065	84.31
318.295	84.31
318.524	80.31
318.753	84.31
318.983	79.31
319.212	83.31
319.441	77.31
319.67	89.31
319.9	68.31
320.129	84.31
320.358	79.31
320.587	88.31
320.816	83.31
321.046	89.31
321.275	84.31
321.504	70.31
321.733	87.31
321.962	92.31
322.191	87.31
322.42	76.31
322.649	78.31
322.878	74.31
323.108	79.31
323.337	82.31
323.566	70.31
323.795	86.31
324.024	92.31
324.253	72.31
324.482	90.31
324.71	91.31
324.939	94.31
325.168	84.31
325.397	96.31
325.626	90.31
325.855	98.31
326.084	92.31
326.313	82.31
326.542	82.31
326.77	83.31
326.999	72.31
327.228	90.31
327.457	83.31
327.686	82.31
327.914	98.31
328.143	127.31
328.372	118.31
328.6	112.31
328.829	95.31
329.058	92.31
329.287	92.31
329.515	86.31
329.744	90.31
329.972	137.31
330.201	188.31
330.43	185.31
330.658	112.31
330.887	83.31
331.115	82.31
331.344	80.31
331.572	84.31
331.801	91.31
332.03	67.31
332.258	87.31
332.486	85.31
332.715	93.31
332.943	78.31
333.172	81.31
333.4	92.31
333.629	87.31
333.857	98.31
334.085	129.31
334.314	163.31
334.542	222.31
334.771	185.31
334.999	100.31
335.227	82.31
335.455	87.31
335.684	93.31
335.912	83.31
336.14	92.31
336.369	87.31
336.597	79.31
336.825	72.31
337.053	68.31
337.281	77.31
337.51	76.31
337.738	76.31
337.966	89.31
338.194	78.31
338.422	84.31
338.65	88.31
338.878	87.31
339.106	74.31
339.334	83.31
339.562	88.31
339.79	90.31
340.018	83.31
340.246	89.31
340.474	85.31
340.702	88.31
340.93	88.31
341.158	83.31
341.386	82.31
341.614	75.31
341.842	83.31
342.07	74.31
342.298	95.31
342.526	73.31
342.754	65.31
342.981	77.31
343.209	86.31
343.437	94.31
343.665	78.31
343.893	78.31
344.12	75.31
344.348	70.31
344.576	82.31
344.804	79.31
345.031	76.31
345.259	100.31
345.487	87.31
345.714	89.31
345.942	85.31
346.17	87.31
346.397	90.31
346.625	86.31
346.853	94.31
347.08	71.31
347.308	76.31
347.535	80.31
347.763	90.31
347.99	78.31
348.218	88.31
348.445	80.31
348.673	74.31
348.9	80.31
349.128	70.31
349.355	73.31
349.583	86.31
349.81	90.31
350.037	83.31
350.265	91.31
350.492	78.31
350.72	74.31
350.947	75.31
351.174	81.31
351.402	79.31
351.629	78.31
351.856	64.31
352.083	75.31
352.311	89.31
352.538	70.31
352.765	87.31
352.992	110.31
353.22	81.31
353.447	79.31
353.674	86.31
353.901	88.31
354.128	76.31
354.355	78.31
354.583	90.31
354.81	76.31
355.037	79.31
355.264	92.31
355.491	78.31
355.718	74.31
355.945	102.31
356.172	82.31
356.399	86.31
356.626	62.31
356.853	71.31
357.08	78.31
357.307	87.31
357.534	81.31
357.761	82.31
357.988	89.31
358.215	73.31
358.441	78.31
358.668	75.31
358.895	78.31
359.122	79.31
359.349	86.31
359.576	74.31
359.802	82.31
360.029	88.31
360.256	94.31
360.483	79.31
360.709	94.31
360.936	95.31
361.163	91.31
361.39	84.31
361.616	96.31
361.843	85.31
362.07	70.31
362.296	84.31
362.523	73.31
362.749	91.31
362.976	80.31
363.203	82.31
363.429	80.31
363.656	85.31
363.882	94.31
364.109	83.31
364.335	97.31
364.562	80.31
364.788	101.31
365.015	91.31
365.241	81.31
365.468	82.31
365.694	83.31
365.92	78.31
366.147	79.31
366.373	82.31
366.599	89.31
366.826	81.31
367.052	79.31
367.278	92.31
367.505	98.31
367.731	84.31
367.957	86.31
368.184	86.31
368.41	85.31
368.636	89.31
368.862	77.31
369.089	70.31
369.315	89.31
369.541	82.31
369.767	74.31
369.993	88.31
370.219	75.31
370.445	66.31
370.672	67.31
370.898	84.31
371.124	89.31
371.35	83.31
371.576	82.31
371.802	82.31
372.028	86.31
372.254	94.31
372.48	77.31
372.706	72.31
372.932	84.31
373.158	75.31
373.384	88.31
373.61	87.31
373.835	92.31
374.061	62.31
374.287	82.31
374.513	91.31
374.739	88.31
374.965	93.31
375.191	91.31
375.416	90.31
375.642	95.31
375.868	84.31
376.094	86.31
376.319	69.31
376.545	91.31
376.771	84.31
376.997	80.31
377.222	65.31
377.448	88.31
377.674	77.31
377.899	75.31
378.125	78.31
378.35	80.31
378.576	70.31
378.802	78.31
379.027	91.31
379.253	75.31
379.478	78.31
379.704	94.31
379.929	79.31
380.155	84.31
380.38	68.31
380.606	89.31
380.831	85.31
381.057	87.31
381.282	58.31
381.507	73.31
381.733	79.31
381.958	86.31
382.184	74.31
382.409	77.31
382.634	85.31
382.86	71.31
383.085	73.31
383.31	91.31
383.535	82.31
383.761	86.31
383.986	86.31
384.211	85.31
384.436	78.31
384.662	81.31
384.887	77.31
385.112	69.31
385.337	84.31
385.562	74.31
385.787	75.31
386.013	87.31
386.238	77.31
386.463	83.31
386.688	95.31
386.913	84.31
387.138	79.31
387.363	81.31
387.588	79.31
387.813	96.31
388.038	72.31
388.263	75.31
388.488	91.31
388.713	82.31
388.938	71.31
389.163	80.31
389.387	80.31
389.612	87.31
389.837	80.31
390.062	92.31
390.287	79.31
390.512	95.31
390.736	76.31
390.961	83.31
391.186	77.31
391.411	82.31
391.636	74.31
391.86	68.31
392.085	78.31
392.31	91.31
392.534	78.31
392.759	87.31
392.984	86.31
393.208	77.31
393.433	80.31
393.658	73.31
393.882	92.31
394.107	84.31
394.331	92.31
394.556	80.31
394.78	71.31
395.005	79.31
395.229	85.31
395.454	79.31
395.678	89.31
395.903	77.31
396.127	88.31
396.352	82.31
396.576	91.31
396.801	75.31
397.025	89.31
397.249	83.31
397.474	68.31
397.698	79.31
397.922	87.31
398.147	75.31
398.371	72.31
398.595	82.31
398.82	82.31
399.044	78.31
399.268	72.31
399.492	77.31
399.717	94.31
399.941	82.31
400.165	87.31
400.389	70.31
400.613	80.31
400.837	89.31
401.062	78.31
401.286	90.31
401.51	95.31
401.734	71.31
401.958	80.31
402.182	77.31
402.406	90.31
402.63	85.31
402.854	80.31
403.078	90.31
403.302	73.31
403.526	79.31
403.75	79.31
403.974	73.31
404.198	67.31
404.422	85.31
404.645	75.31
404.869	83.31
405.093	82.31
405.317	93.31
405.541	94.31
405.765	80.31
405.988	84.31
406.212	85.31
406.436	92.31
406.66	94.31
406.883	84.31
407.107	79.31
407.331	88.31
407.555	85.31
407.778	64.31
408.002	91.31
408.226	88.31
408.449	78.31
408.673	72.31
408.896	85.31
409.12	86.31
409.344	82.31
409.567	76.31
409.791	74.31
410.014	78.31
410.238	83.31
410.461	77.31
410.685	85.31
410.908	86.31
411.132	80.31
411.355	92.31
411.578	85.31
411.802	84.31
412.025	74.31
412.249	90.31
412.472	84.31
412.695	75.31
412.919	82.31
413.142	81.31
413.365	86.31
413.589	75.31
413.812	85.31
414.035	96.31
414.258	85.31
414.482	74.31
414.705	80.31
414.928	71.31
415.151	76.31
415.374	79.31
415.597	78.31
415.821	98.31
416.044	82.31
416.267	84.31
416.49	75.31
416.713	72.31
416.936	81.31
417.159	68.31
417.382	75.31
417.605	72.31
417.828	76.31
418.051	82.31
418.274	87.31
418.497	84.31
418.72	87.31
418.943	71.31
419.166	74.31
419.389	69.31
419.611	81.31
419.834	79.31
420.057	88.31
420.28	83.31
420.503	80.31
420.726	74.31
420.948	76.31
421.171	84.31
421.394	78.31
421.617	80.31
421.839	79.31
422.062	69.31
422.285	70.31
422.507	85.31
422.73	83.31
422.953	86.31
423.175	74.31
423.398	83.31
423.621	77.31
423.843	84.31
424.066	88.31
424.288	98.31
424.511	70.31
424.733	78.31
424.956	80.31
425.178	90.31
425.401	68.31
425.623	85.31
425.846	76.31
426.068	88.31
426.291	76.31
426.513	72.31
426.735	82.31
426.958	80.31
427.18	70.31
427.402	83.31
427.625	86.31
427.847	89.31
428.069	86.31
428.292	102.31
428.514	86.31
428.736	82.31
428.958	80.31
429.181	102.31
429.403	88.31
429.625	78.31
429.847	85.31
430.069	83.31
430.292	74.31
430.514	79.31
430.736	78.31
430.958	74.31
431.18	68.31
431.402	77.31
431.624	95.31
431.846	92.31
432.068	78.31
432.29	74.31
432.512	80.31
432.734	82.31
432.956	93.31
433.178	68.31
433.4	87.31
433.622	76.31
433.844	81.31
434.066	82.31
434.287	87.31
434.509	66.31
434.731	76.31
434.953	73.31
435.175	86.31
435.397	85.31
435.618	79.31
435.84	91.31
436.062	86.31
436.284	84.31
436.505	81.31
436.727	79.31
436.949	86.31
437.17	89.31
437.392	82.31
437.614	72.31
437.835	82.31
438.057	70.31
438.278	71.31
438.5	80.31
438.721	82.31
438.943	82.31
439.165	86.31
439.386	88.31
439.608	84.31
439.829	83.31
440.05	79.31
440.272	96.31
440.493	86.31
440.715	76.31
440.936	69.31
441.158	79.31
441.379	86.31
441.6	78.31
441.822	79.31
442.043	95.31
442.264	92.31
442.486	82.31
442.707	95.31
442.928	75.31
443.149	90.31
443.371	86.31
443.592	82.31
443.813	84.31
444.034	99.31
444.255	82.31
444.476	84.31
444.698	70.31
444.919	75.31
445.14	176.31
445.361	133.31
445.582	82.31
445.803	68.31
446.024	80.31
446.245	86.31
446.466	70.31
446.687	91.31
446.908	78.31
447.129	74.31
447.35	84.31
447.571	97.31
447.792	91.31
448.013	94.31
448.234	74.31
448.455	87.31
448.675	70.31
448.896	86.31
449.117	73.31
449.338	69.31
449.559	91.31
449.779	76.31
450	76.31
450.221	65.31
450.442	77.31
450.662	75.31
450.883	83.31
451.104	67.31
451.324	75.31
451.545	77.31
451.766	84.31
451.986	77.31
452.207	82.31
452.428	87.31
452.648	67.31
452.869	82.31
453.089	81.31
453.31	64.31
453.53	84.31
453.751	70.31
453.971	70.31
454.192	90.31
454.412	80.31
454.633	76.31
454.853	88.31
455.073	88.31
455.294	67.31
455.514	76.31
455.734	67.31
455.955	83.31
456.175	79.31
456.395	72.31
456.616	77.31
456.836	80.31
457.056	78.31
457.276	76.31
457.497	87.31
457.717	70.31
457.937	70.31
458.157	86.31
458.377	85.31
458.598	86.31
458.818	74.31
459.038	71.31
459.258	82.31
459.478	88.31
459.698	80.31
459.918	75.31
460.138	85.31
460.358	74.31
460.578	95.31
460.798	86.31
461.018	91.31
461.238	87.31
461.458	86.31
461.678	85.31
461.898	88.31
462.118	82.31
462.338	90.31
462.558	74.31
462.777	85.31
462.997	87.31
463.217	87.31
463.437	85.31
463.657	80.31
463.876	78.31
464.096	90.31
464.316	83.31
464.536	78.31
464.755	77.31
464.975	88.31
465.195	82.31
465.414	70.31
465.634	78.31
465.854	85.31
466.073	75.31
466.293	91.31
466.512	73.31
466.732	86.31
466.951	83.31
467.171	95.31
467.391	86.31
467.61	101.31
467.829	102.31
468.049	166.31
468.268	185.31
468.488	80.31
468.707	86.31
468.927	72.31
469.146	84.31
469.365	70.31
469.585	80.31
469.804	88.31
470.023	76.31
470.243	88.31
470.462	99.31
470.681	81.31
470.901	84.31
471.12	93.31
471.339	92.31
471.558	87.31
471.777	104.31
471.997	136.31
472.216	239.31
472.435	302.31
472.654	134.31
472.873	94.31
473.092	87.31
473.311	92.31
473.53	70.31
473.749	76.31
473.968	91.31
474.187	77.31
474.406	79.31
474.625	86.31
474.844	90.31
475.063	88.31
475.282	78.31
475.501	83.31
475.72	100.31
475.939	80.31
476.158	76.31
476.377	71.31
476.596	73.31
476.814	79.31
477.033	74.31
477.252	71.31
477.471	74.31
477.69	70.31
477.908	85.31
478.127	90.31
478.346	74.31
478.564	91.31
478.783	92.31
479.002	92.31
479.22	80.31
479.439	92.31
479.658	83.31
479.876	88.31
480.095	86.31
480.313	86.31
480.532	96.31
480.751	118.31
480.969	218.31
481.188	500.31
481.406	273.31
481.624	110.31
481.843	93.31
482.061	86.31
482.28	90.31
482.498	79.31
482.717	80.31
482.935	86.31
483.153	86.31
483.372	90.31
483.59	75.31
483.808	75.31
484.027	86.31
484.245	91.31
484.463	76.31
484.681	83.31
484.9	79.31
485.118	85.31
485.336	77.31
485.554	82.31
485.772	85.31
485.99	69.31
486.209	87.31
486.427	74.31
486.645	77.31
486.863	91.31
487.081	80.31
487.299	91.31
487.517	86.31
487.735	88.31
487.953	90.31
488.171	73.31
488.389	98.31
488.607	76.31
488.825	82.31
489.043	85.31
489.261	91.31
489.479	90.31
489.696	70.31
489.914	88.31
490.132	87.31
490.35	77.31
490.568	73.31
490.786	93.31
491.003	99.31
491.221	104.31
491.439	96.31
491.657	85.31
491.874	102.31
492.092	78.31
492.31	90.31
492.527	84.31
492.745	83.31
492.963	103.31
493.18	83.31
493.398	91.31
493.615	90.31
493.833	95.31
494.05	77.31
494.268	76.31
494.485	94.31
494.703	83.31
494.92	89.31
495.138	77.31
495.355	86.31
495.573	101.31
495.79	84.31
496.008	90.31
496.225	85.31
496.442	94.31
496.66	82.31
496.877	93.31
497.094	98.31
497.312	73.31
497.529	96.31
497.746	81.31
497.963	83.31
498.181	88.31
498.398	80.31
498.615	87.31
498.832	64.31
499.049	89.31
499.267	88.31
499.484	74.31
499.701	68.31
499.918	80.31
500.135	93.31
500.352	85.31
500.569	86.31
500.786	79.31
501.003	89.31
501.22	87.31
501.437	98.31
501.654	77.31
501.871	90.31
502.088	74.31
502.305	88.31
502.522	83.31
502.739	89.31
502.956	83.31
503.172	86.31
503.389	81.31
503.606	99.31
503.823	86.31
504.04	86.31
504.256	77.31
504.473	87.31
504.69	81.31
504.907	90.31
505.123	70.31
505.34	71.31
505.557	92.31
505.773	82.31
505.99	72.31
506.207	79.31
506.423	84.31
506.64	86.31
506.856	84.31
507.073	70.31
507.289	85.31
507.506	83.31
507.722	78.31
507.939	78.31
508.155	87.31
508.372	80.31
508.588	90.31
508.805	73.31
509.021	75.31
509.238	76.31
509.454	76.31
509.67	82.31
509.887	71.31
510.103	76.31
510.319	99.31
510.536	76.31
510.752	70.31
510.968	87.31
511.184	90.31
511.401	78.31
511.617	90.31
511.833	78.31
512.049	88.31
512.265	80.31
512.481	86.31
512.698	75.31
512.914	77.31
513.13	78.31
513.346	83.31
513.562	85.31
513.778	75.31
513.994	92.31
514.21	94.31
514.426	87.31
514.642	85.31
514.858	83.31
515.074	73.31
515.29	87.31
515.506	63.31
515.721	91.31
515.937	87.31
516.153	85.31
516.369	74.31
516.585	81.31
516.801	81.31
517.016	79.31
517.232	76.31
517.448	75.31
517.664	86.31
517.879	92.31
518.095	88.31
518.311	89.31
518.527	100.31
518.742	83.31
518.958	93.31
519.173	82.31
519.389	73.31
519.605	77.31
