Data from StdC_HRD10591_103.txt Node
Date: Fri May 16 15:30:27 EDT 2025
User: Yrep
Spectrometer: HR+D1059
Trigger mode: 1
Integration Time (sec): 1.000000E-1
Scans to average: 1
Electric dark correction enabled: true
Nonlinearity correction enabled: false
Boxcar width: 0
XAxis mode: Wavelengths
Number of Pixels in Spectrum: 2048
>>>>>Begin Spectral Data<<<<<
223.165	-10.81
223.4	-10.81
223.635	-10.81
223.869	-16.81
224.104	-22.81
224.338	-15.81
224.573	-4.81
224.808	-23.81
225.042	-7.81
225.277	-15.81
225.511	1.19
225.746	-8.81
225.98	8.19
226.215	8.19
226.449	12.19
226.683	30.19
226.918	24.19
227.152	43.19
227.387	31.19
227.621	46.19
227.856	49.19
228.09	45.19
228.324	48.19
228.559	45.19
228.793	62.19
229.027	58.19
229.262	61.19
229.496	72.19
229.73	74.19
229.964	76.19
230.199	79.19
230.433	84.19
230.667	72.19
230.901	75.19
231.136	86.19
231.37	93.19
231.604	84.19
231.838	79.19
232.072	92.19
232.306	68.19
232.541	88.19
232.775	71.19
233.009	81.19
233.243	68.19
233.477	93.19
233.711	78.19
233.945	77.19
234.179	80.19
234.413	79.19
234.647	80.19
234.881	74.19
235.115	81.19
235.349	78.19
235.583	91.19
235.817	79.19
236.051	81.19
236.285	78.19
236.519	83.19
236.753	96.19
236.987	87.19
237.221	80.19
237.455	69.19
237.689	74.19
237.922	89.19
238.156	67.19
238.39	67.19
238.624	76.19
238.858	89.19
239.091	86.19
239.325	80.19
239.559	84.19
239.793	80.19
240.027	78.19
240.26	91.19
240.494	82.19
240.728	70.19
240.961	77.19
241.195	79.19
241.429	70.19
241.662	73.19
241.896	80.19
242.13	87.19
242.363	82.19
242.597	79.19
242.83	74.19
243.064	62.19
243.298	70.19
243.531	80.19
243.765	87.19
243.998	85.19
244.232	81.19
244.465	84.19
244.699	86.19
244.932	77.19
245.166	90.19
245.399	76.19
245.633	78.19
245.866	84.19
246.099	80.19
246.333	77.19
246.566	72.19
246.8	86.19
247.033	73.19
247.266	84.19
247.5	70.19
247.733	72.19
247.966	75.19
248.2	95.19
248.433	80.19
248.666	98.19
248.899	90.19
249.133	77.19
249.366	82.19
249.599	84.19
249.832	86.19
250.066	81.19
250.299	78.19
250.532	74.19
250.765	67.19
250.998	84.19
251.231	79.19
251.465	73.19
251.698	86.19
251.931	78.19
252.164	88.19
252.397	78.19
252.63	83.19
252.863	80.19
253.096	88.19
253.329	83.19
253.562	81.19
253.795	100.19
254.028	93.19
254.261	88.19
254.494	91.19
254.727	100.19
254.96	92.19
255.193	88.19
255.426	81.19
255.659	96.19
255.892	84.19
256.124	88.19
256.357	85.19
256.59	95.19
256.823	87.19
257.056	97.19
257.289	95.19
257.521	97.19
257.754	75.19
257.987	73.19
258.22	102.19
258.452	91.19
258.685	86.19
258.918	90.19
259.151	84.19
259.383	92.19
259.616	74.19
259.849	90.19
260.081	85.19
260.314	79.19
260.547	92.19
260.779	93.19
261.012	91.19
261.244	103.19
261.477	90.19
261.71	94.19
261.942	93.19
262.175	75.19
262.407	84.19
262.64	78.19
262.872	91.19
263.105	97.19
263.337	105.19
263.57	89.19
263.802	83.19
264.035	94.19
264.267	82.19
264.499	90.19
264.732	90.19
264.964	102.19
265.197	80.19
265.429	88.19
265.661	88.19
265.894	94.19
266.126	96.19
266.358	89.19
266.591	97.19
266.823	90.19
267.055	105.19
267.287	98.19
267.52	85.19
267.752	94.19
267.984	84.19
268.216	83.19
268.448	95.19
268.681	94.19
268.913	80.19
269.145	94.19
269.377	96.19
269.609	97.19
269.841	95.19
270.073	95.19
270.306	92.19
270.538	96.19
270.77	96.19
271.002	85.19
271.234	97.19
271.466	93.19
271.698	105.19
271.93	102.19
272.162	104.19
272.394	96.19
272.626	80.19
272.858	79.19
273.09	87.19
273.322	107.19
273.553	91.19
273.785	100.19
274.017	100.19
274.249	95.19
274.481	90.19
274.713	111.19
274.945	96.19
275.176	100.19
275.408	93.19
275.64	104.19
275.872	103.19
276.104	94.19
276.335	89.19
276.567	100.19
276.799	90.19
277.031	95.19
277.262	97.19
277.494	96.19
277.726	91.19
277.957	106.19
278.189	90.19
278.421	99.19
278.652	112.19
278.884	103.19
279.115	105.19
279.347	78.19
279.579	88.19
279.81	102.19
280.042	91.19
280.273	88.19
280.505	99.19
280.736	101.19
280.968	101.19
281.199	106.19
281.431	96.19
281.662	105.19
281.894	106.19
282.125	105.19
282.356	100.19
282.588	98.19
282.819	95.19
283.051	97.19
283.282	101.19
283.513	114.19
283.745	119.19
283.976	90.19
284.207	100.19
284.439	105.19
284.67	91.19
284.901	99.19
285.132	106.19
285.364	87.19
285.595	105.19
285.826	117.19
286.057	108.19
286.288	98.19
286.52	95.19
286.751	97.19
286.982	105.19
287.213	110.19
287.444	109.19
287.675	107.19
287.906	101.19
288.138	113.19
288.369	120.19
288.6	103.19
288.831	94.19
289.062	106.19
289.293	109.19
289.524	110.19
289.755	109.19
289.986	111.19
290.217	97.19
290.448	92.19
290.679	107.19
290.91	116.19
291.141	103.19
291.371	103.19
291.602	110.19
291.833	103.19
292.064	101.19
292.295	90.19
292.526	112.19
292.757	106.19
292.987	110.19
293.218	112.19
293.449	104.19
293.68	106.19
293.91	120.19
294.141	95.19
294.372	97.19
294.603	109.19
294.833	98.19
295.064	104.19
295.295	104.19
295.525	93.19
295.756	106.19
295.987	116.19
296.217	110.19
296.448	107.19
296.679	109.19
296.909	107.19
297.14	118.19
297.37	119.19
297.601	107.19
297.831	105.19
298.062	124.19
298.292	102.19
298.523	116.19
298.753	103.19
298.984	107.19
299.214	103.19
299.445	97.19
299.675	104.19
299.905	86.19
300.136	109.19
300.366	110.19
300.597	109.19
300.827	119.19
301.057	115.19
301.288	97.19
301.518	111.19
301.748	111.19
301.979	135.19
302.209	108.19
302.439	97.19
302.669	115.19
302.9	112.19
303.13	115.19
303.36	100.19
303.59	121.19
303.82	108.19
304.051	120.19
304.281	99.19
304.511	108.19
304.741	103.19
304.971	114.19
305.201	108.19
305.431	114.19
305.661	113.19
305.891	105.19
306.121	98.19
306.352	102.19
306.582	97.19
306.812	108.19
307.042	106.19
307.272	112.19
307.502	93.19
307.731	112.19
307.961	108.19
308.191	110.19
308.421	108.19
308.651	113.19
308.881	112.19
309.111	109.19
309.341	111.19
309.571	118.19
309.8	118.19
310.03	121.19
310.26	120.19
310.49	108.19
310.72	118.19
310.949	116.19
311.179	118.19
311.409	123.19
311.639	104.19
311.868	89.19
312.098	120.19
312.328	111.19
312.557	113.19
312.787	112.19
313.017	117.19
313.246	103.19
313.476	121.19
313.706	119.19
313.935	115.19
314.165	115.19
314.394	120.19
314.624	107.19
314.853	113.19
315.083	109.19
315.312	114.19
315.542	118.19
315.771	126.19
316.001	111.19
316.23	116.19
316.46	111.19
316.689	120.19
316.919	113.19
317.148	110.19
317.377	132.19
317.607	115.19
317.836	122.19
318.065	114.19
318.295	119.19
318.524	120.19
318.753	109.19
318.983	116.19
319.212	117.19
319.441	104.19
319.67	113.19
319.9	112.19
320.129	102.19
320.358	117.19
320.587	118.19
320.816	127.19
321.046	118.19
321.275	128.19
321.504	105.19
321.733	111.19
321.962	122.19
322.191	121.19
322.42	119.19
322.649	130.19
322.878	110.19
323.108	123.19
323.337	115.19
323.566	104.19
323.795	119.19
324.024	131.19
324.253	122.19
324.482	111.19
324.71	125.19
324.939	125.19
325.168	129.19
325.397	127.19
325.626	110.19
325.855	118.19
326.084	121.19
326.313	113.19
326.542	106.19
326.77	112.19
326.999	121.19
327.228	127.19
327.457	122.19
327.686	116.19
327.914	112.19
328.143	102.19
328.372	112.19
328.6	108.19
328.829	114.19
329.058	117.19
329.287	118.19
329.515	107.19
329.744	123.19
329.972	122.19
330.201	124.19
330.43	113.19
330.658	116.19
330.887	117.19
331.115	127.19
331.344	132.19
331.572	130.19
331.801	111.19
332.03	126.19
332.258	97.19
332.486	116.19
332.715	121.19
332.943	125.19
333.172	111.19
333.4	132.19
333.629	138.19
333.857	120.19
334.085	122.19
334.314	129.19
334.542	127.19
334.771	136.19
334.999	127.19
335.227	127.19
335.455	126.19
335.684	125.19
335.912	124.19
336.14	137.19
336.369	124.19
336.597	111.19
336.825	120.19
337.053	136.19
337.281	127.19
337.51	108.19
337.738	131.19
337.966	112.19
338.194	138.19
338.422	125.19
338.65	132.19
338.878	126.19
339.106	115.19
339.334	123.19
339.562	116.19
339.79	120.19
340.018	114.19
340.246	120.19
340.474	116.19
340.702	123.19
340.93	125.19
341.158	120.19
341.386	127.19
341.614	124.19
341.842	117.19
342.07	114.19
342.298	120.19
342.526	121.19
342.754	120.19
342.981	137.19
343.209	114.19
343.437	127.19
343.665	128.19
343.893	112.19
344.12	143.19
344.348	133.19
344.576	125.19
344.804	121.19
345.031	129.19
345.259	118.19
345.487	116.19
345.714	133.19
345.942	130.19
346.17	132.19
346.397	129.19
346.625	127.19
346.853	122.19
347.08	145.19
347.308	125.19
347.535	130.19
347.763	103.19
347.99	128.19
348.218	126.19
348.445	116.19
348.673	113.19
348.9	112.19
349.128	118.19
349.355	112.19
349.583	128.19
349.81	131.19
350.037	122.19
350.265	115.19
350.492	123.19
350.72	127.19
350.947	128.19
351.174	136.19
351.402	132.19
351.629	101.19
351.856	132.19
352.083	136.19
352.311	122.19
352.538	124.19
352.765	104.19
352.992	116.19
353.22	128.19
353.447	130.19
353.674	114.19
353.901	123.19
354.128	124.19
354.355	108.19
354.583	133.19
354.81	128.19
355.037	116.19
355.264	128.19
355.491	130.19
355.718	121.19
355.945	117.19
356.172	123.19
356.399	113.19
356.626	129.19
356.853	128.19
357.08	129.19
357.307	98.19
357.534	120.19
357.761	128.19
357.988	125.19
358.215	126.19
358.441	109.19
358.668	117.19
358.895	120.19
359.122	112.19
359.349	125.19
359.576	131.19
359.802	114.19
360.029	97.19
360.256	118.19
360.483	121.19
360.709	125.19
360.936	133.19
361.163	132.19
361.39	111.19
361.616	112.19
361.843	101.19
362.07	135.19
362.296	123.19
362.523	104.19
362.749	117.19
362.976	116.19
363.203	128.19
363.429	127.19
363.656	136.19
363.882	117.19
364.109	131.19
364.335	128.19
364.562	113.19
364.788	110.19
365.015	126.19
365.241	124.19
365.468	132.19
365.694	112.19
365.92	116.19
366.147	123.19
366.373	127.19
366.599	114.19
366.826	117.19
367.052	125.19
367.278	112.19
367.505	124.19
367.731	130.19
367.957	114.19
368.184	117.19
368.41	130.19
368.636	126.19
368.862	123.19
369.089	138.19
369.315	124.19
369.541	120.19
369.767	129.19
369.993	124.19
370.219	117.19
370.445	115.19
370.672	137.19
370.898	123.19
371.124	128.19
371.35	137.19
371.576	145.19
371.802	135.19
372.028	127.19
372.254	119.19
372.48	133.19
372.706	128.19
372.932	131.19
373.158	139.19
373.384	120.19
373.61	119.19
373.835	122.19
374.061	126.19
374.287	135.19
374.513	114.19
374.739	135.19
374.965	129.19
375.191	130.19
375.416	137.19
375.642	129.19
375.868	131.19
376.094	131.19
376.319	122.19
376.545	134.19
376.771	126.19
376.997	144.19
377.222	144.19
377.448	136.19
377.674	121.19
377.899	140.19
378.125	105.19
378.35	125.19
378.576	125.19
378.802	127.19
379.027	120.19
379.253	128.19
379.478	119.19
379.704	127.19
379.929	127.19
380.155	127.19
380.38	125.19
380.606	134.19
380.831	141.19
381.057	144.19
381.282	136.19
381.507	136.19
381.733	119.19
381.958	129.19
382.184	138.19
382.409	138.19
382.634	138.19
382.86	144.19
383.085	135.19
383.31	168.19
383.535	129.19
383.761	149.19
383.986	152.19
384.211	134.19
384.436	131.19
384.662	143.19
384.887	153.19
385.112	148.19
385.337	170.19
385.562	157.19
385.787	157.19
386.013	156.19
386.238	150.19
386.463	144.19
386.688	150.19
386.913	146.19
387.138	158.19
387.363	145.19
387.588	146.19
387.813	155.19
388.038	156.19
388.263	164.19
388.488	156.19
388.713	133.19
388.938	141.19
389.163	134.19
389.387	142.19
389.612	145.19
389.837	143.19
390.062	141.19
390.287	141.19
390.512	141.19
390.736	148.19
390.961	161.19
391.186	141.19
391.411	160.19
391.636	136.19
391.86	148.19
392.085	156.19
392.31	131.19
392.534	128.19
392.759	148.19
392.984	148.19
393.208	146.19
393.433	141.19
393.658	138.19
393.882	164.19
394.107	151.19
394.331	146.19
394.556	135.19
394.78	128.19
395.005	136.19
395.229	140.19
395.454	145.19
395.678	150.19
395.903	135.19
396.127	144.19
396.352	138.19
396.576	144.19
396.801	136.19
397.025	119.19
397.249	156.19
397.474	155.19
397.698	149.19
397.922	145.19
398.147	149.19
398.371	148.19
398.595	152.19
398.82	167.19
399.044	142.19
399.268	169.19
399.492	189.19
399.717	180.19
399.941	183.19
400.165	159.19
400.389	143.19
400.613	153.19
400.837	164.19
401.062	154.19
401.286	165.19
401.51	168.19
401.734	141.19
401.958	164.19
402.182	161.19
402.406	159.19
402.63	142.19
402.854	142.19
403.078	148.19
403.302	159.19
403.526	173.19
403.75	148.19
403.974	158.19
404.198	154.19
404.422	159.19
404.645	149.19
404.869	171.19
405.093	156.19
405.317	146.19
405.541	178.19
405.765	176.19
405.988	168.19
406.212	151.19
406.436	159.19
406.66	178.19
406.883	176.19
407.107	171.19
407.331	158.19
407.555	159.19
407.778	177.19
408.002	168.19
408.226	162.19
408.449	156.19
408.673	155.19
408.896	152.19
409.12	164.19
409.344	162.19
409.567	173.19
409.791	155.19
410.014	154.19
410.238	153.19
410.461	156.19
410.685	172.19
410.908	166.19
411.132	166.19
411.355	150.19
411.578	160.19
411.802	149.19
412.025	160.19
412.249	144.19
412.472	155.19
412.695	171.19
412.919	166.19
413.142	150.19
413.365	149.19
413.589	166.19
413.812	159.19
414.035	156.19
414.258	142.19
414.482	161.19
414.705	157.19
414.928	161.19
415.151	153.19
415.374	161.19
415.597	164.19
415.821	143.19
416.044	152.19
416.267	142.19
416.49	161.19
416.713	141.19
416.936	155.19
417.159	157.19
417.382	151.19
417.605	151.19
417.828	157.19
418.051	161.19
418.274	162.19
418.497	148.19
418.72	152.19
418.943	147.19
419.166	147.19
419.389	159.19
419.611	162.19
419.834	158.19
420.057	156.19
420.28	159.19
420.503	144.19
420.726	144.19
420.948	155.19
421.171	157.19
421.394	166.19
421.617	160.19
421.839	154.19
422.062	157.19
422.285	146.19
422.507	141.19
422.73	158.19
422.953	155.19
423.175	154.19
423.398	143.19
423.621	148.19
423.843	132.19
424.066	145.19
424.288	160.19
424.511	151.19
424.733	139.19
424.956	155.19
425.178	156.19
425.401	140.19
425.623	154.19
425.846	148.19
426.068	142.19
426.291	155.19
426.513	140.19
426.735	156.19
426.958	158.19
427.18	146.19
427.402	149.19
427.625	146.19
427.847	141.19
428.069	147.19
428.292	140.19
428.514	160.19
428.736	146.19
428.958	154.19
429.181	151.19
429.403	145.19
429.625	160.19
429.847	155.19
430.069	154.19
430.292	144.19
430.514	146.19
430.736	149.19
430.958	151.19
431.18	147.19
431.402	146.19
431.624	130.19
431.846	146.19
432.068	144.19
432.29	150.19
432.512	159.19
432.734	143.19
432.956	153.19
433.178	149.19
433.4	138.19
433.622	157.19
433.844	165.19
434.066	149.19
434.287	159.19
434.509	150.19
434.731	152.19
434.953	154.19
435.175	145.19
435.397	140.19
435.618	149.19
435.84	148.19
436.062	137.19
436.284	148.19
436.505	154.19
436.727	143.19
436.949	149.19
437.17	145.19
437.392	142.19
437.614	128.19
437.835	146.19
438.057	145.19
438.278	144.19
438.5	140.19
438.721	143.19
438.943	143.19
439.165	149.19
439.386	151.19
439.608	152.19
439.829	154.19
440.05	165.19
440.272	149.19
440.493	152.19
440.715	161.19
440.936	149.19
441.158	160.19
441.379	139.19
441.6	155.19
441.822	149.19
442.043	168.19
442.264	150.19
442.486	147.19
442.707	155.19
442.928	150.19
443.149	143.19
443.371	150.19
443.592	153.19
443.813	155.19
444.034	161.19
444.255	157.19
444.476	159.19
444.698	150.19
444.919	170.19
445.14	246.19
445.361	203.19
445.582	165.19
445.803	156.19
446.024	145.19
446.245	138.19
446.466	145.19
446.687	153.19
446.908	148.19
447.129	157.19
447.35	145.19
447.571	146.19
447.792	138.19
448.013	134.19
448.234	135.19
448.455	143.19
448.675	143.19
448.896	140.19
449.117	125.19
449.338	147.19
449.559	151.19
449.779	137.19
450	139.19
450.221	160.19
450.442	138.19
450.662	138.19
450.883	132.19
451.104	133.19
451.324	150.19
451.545	140.19
451.766	161.19
451.986	133.19
452.207	132.19
452.428	153.19
452.648	147.19
452.869	139.19
453.089	146.19
453.31	134.19
453.53	151.19
453.751	138.19
453.971	148.19
454.192	129.19
454.412	127.19
454.633	149.19
454.853	144.19
455.073	127.19
455.294	144.19
455.514	139.19
455.734	136.19
455.955	140.19
456.175	134.19
456.395	144.19
456.616	145.19
456.836	135.19
457.056	138.19
457.276	146.19
457.497	134.19
457.717	122.19
457.937	142.19
458.157	114.19
458.377	146.19
458.598	154.19
458.818	146.19
459.038	149.19
459.258	152.19
459.478	144.19
459.698	134.19
459.918	144.19
460.138	150.19
460.358	174.19
460.578	157.19
460.798	159.19
461.018	160.19
461.238	157.19
461.458	144.19
461.678	134.19
461.898	165.19
462.118	148.19
462.338	174.19
462.558	161.19
462.777	152.19
462.997	171.19
463.217	187.19
463.437	160.19
463.657	164.19
463.876	156.19
464.096	164.19
464.316	169.19
464.536	169.19
464.755	157.19
464.975	155.19
465.195	153.19
465.414	159.19
465.634	150.19
465.854	139.19
466.073	147.19
466.293	145.19
466.512	139.19
466.732	144.19
466.951	151.19
467.171	145.19
467.391	152.19
467.61	126.19
467.829	149.19
468.049	157.19
468.268	141.19
468.488	143.19
468.707	149.19
468.927	138.19
469.146	156.19
469.365	152.19
469.585	151.19
469.804	154.19
470.023	150.19
470.243	152.19
470.462	168.19
470.681	154.19
470.901	161.19
471.12	163.19
471.339	149.19
471.558	152.19
471.777	144.19
471.997	153.19
472.216	145.19
472.435	140.19
472.654	138.19
472.873	129.19
473.092	162.19
473.311	136.19
473.53	134.19
473.749	133.19
473.968	140.19
474.187	153.19
474.406	161.19
474.625	152.19
474.844	155.19
475.063	153.19
475.282	159.19
475.501	134.19
475.72	169.19
475.939	140.19
476.158	145.19
476.377	139.19
476.596	149.19
476.814	153.19
477.033	161.19
477.252	152.19
477.471	152.19
477.69	167.19
477.908	170.19
478.127	158.19
478.346	157.19
478.564	164.19
478.783	169.19
479.002	158.19
479.22	148.19
479.439	158.19
479.658	168.19
479.876	167.19
480.095	155.19
480.313	170.19
480.532	154.19
480.751	166.19
480.969	151.19
481.188	150.19
481.406	160.19
481.624	158.19
481.843	160.19
482.061	160.19
482.28	173.19
482.498	163.19
482.717	160.19
482.935	148.19
483.153	164.19
483.372	160.19
483.59	172.19
483.808	182.19
484.027	161.19
484.245	144.19
484.463	161.19
484.681	171.19
484.9	159.19
485.118	169.19
485.336	172.19
485.554	160.19
485.772	169.19
485.99	151.19
486.209	182.19
486.427	158.19
486.645	177.19
486.863	172.19
487.081	170.19
487.299	164.19
487.517	155.19
487.735	180.19
487.953	159.19
488.171	189.19
488.389	157.19
488.607	159.19
488.825	145.19
489.043	173.19
489.261	161.19
489.479	160.19
489.696	177.19
489.914	164.19
490.132	171.19
490.35	179.19
490.568	172.19
490.786	173.19
491.003	180.19
491.221	169.19
491.439	186.19
491.657	193.19
491.874	182.19
492.092	173.19
492.31	192.19
492.527	169.19
492.745	159.19
492.963	190.19
493.18	184.19
493.398	184.19
493.615	181.19
493.833	171.19
494.05	162.19
494.268	173.19
494.485	166.19
494.703	169.19
494.92	172.19
495.138	168.19
495.355	170.19
495.573	189.19
495.79	176.19
496.008	182.19
496.225	194.19
496.442	184.19
496.66	175.19
496.877	182.19
497.094	184.19
497.312	193.19
497.529	189.19
497.746	196.19
497.963	193.19
498.181	199.19
498.398	192.19
498.615	186.19
498.832	205.19
499.049	188.19
499.267	219.19
499.484	228.19
499.701	237.19
499.918	230.19
500.135	274.19
500.352	270.19
500.569	268.19
500.786	276.19
501.003	265.19
501.22	233.19
501.437	240.19
501.654	220.19
501.871	226.19
502.088	217.19
502.305	207.19
502.522	205.19
502.739	197.19
502.956	188.19
503.172	172.19
503.389	163.19
503.606	188.19
503.823	184.19
504.04	182.19
504.256	185.19
504.473	160.19
504.69	183.19
504.907	179.19
505.123	167.19
505.34	176.19
505.557	168.19
505.773	159.19
505.99	155.19
