Data from StdC_HRD10591_063.txt Node
Date: Fri May 16 15:29:12 EDT 2025
User: Yrep
Spectrometer: HR+D1059
Trigger mode: 1
Integration Time (sec): 1.000000E-1
Scans to average: 1
Electric dark correction enabled: true
Nonlinearity correction enabled: false
Boxcar width: 0
XAxis mode: Wavelengths
Number of Pixels in Spectrum: 2048
>>>>>Begin Spectral Data<<<<<
223.165	-2.75
223.4	-2.75
223.635	-2.75
223.869	-12.75
224.104	-30.75
224.338	-29.75
224.573	-13.75
224.808	-0.75
225.042	-7.75
225.277	-1.75
225.511	-6.75
225.746	1.25
225.98	14.25
226.215	-0.75
226.449	9.25
226.683	25.25
226.918	27.25
227.152	30.25
227.387	36.25
227.621	30.25
227.856	38.25
228.09	44.25
228.324	56.25
228.559	46.25
228.793	74.25
229.027	65.25
229.262	67.25
229.496	80.25
229.73	65.25
229.964	66.25
230.199	72.25
230.433	87.25
230.667	95.25
230.901	81.25
231.136	86.25
231.37	90.25
231.604	97.25
231.838	88.25
232.072	82.25
232.306	83.25
232.541	81.25
232.775	70.25
233.009	88.25
233.243	92.25
233.477	93.25
233.711	90.25
233.945	89.25
234.179	86.25
234.413	86.25
234.647	93.25
234.881	96.25
235.115	82.25
235.349	90.25
235.583	86.25
235.817	80.25
236.051	100.25
236.285	96.25
236.519	87.25
236.753	96.25
236.987	84.25
237.221	94.25
237.455	95.25
237.689	100.25
237.922	91.25
238.156	92.25
238.39	92.25
238.624	87.25
238.858	103.25
239.091	100.25
239.325	97.25
239.559	86.25
239.793	88.25
240.027	90.25
240.26	91.25
240.494	101.25
240.728	85.25
240.961	94.25
241.195	102.25
241.429	99.25
241.662	91.25
241.896	97.25
242.13	80.25
242.363	88.25
242.597	85.25
242.83	94.25
243.064	82.25
243.298	112.25
243.531	109.25
243.765	107.25
243.998	106.25
244.232	108.25
244.465	100.25
244.699	97.25
244.932	98.25
245.166	90.25
245.399	102.25
245.633	90.25
245.866	110.25
246.099	104.25
246.333	88.25
246.566	98.25
246.8	95.25
247.033	95.25
247.266	115.25
247.5	95.25
247.733	112.25
247.966	114.25
248.2	98.25
248.433	100.25
248.666	104.25
248.899	101.25
249.133	112.25
249.366	111.25
249.599	124.25
249.832	127.25
250.066	136.25
250.299	176.25
250.532	226.25
250.765	179.25
250.998	152.25
251.231	124.25
251.465	133.25
251.698	126.25
251.931	125.25
252.164	131.25
252.397	122.25
252.63	127.25
252.863	121.25
253.096	123.25
253.329	117.25
253.562	113.25
253.795	118.25
254.028	117.25
254.261	119.25
254.494	129.25
254.727	120.25
254.96	141.25
255.193	146.25
255.426	162.25
255.659	191.25
255.892	259.25
256.124	304.25
256.357	268.25
256.59	195.25
256.823	155.25
257.056	150.25
257.289	135.25
257.521	147.25
257.754	132.25
257.987	130.25
258.22	136.25
258.452	139.25
258.685	142.25
258.918	150.25
259.151	142.25
259.383	129.25
259.616	146.25
259.849	136.25
260.081	124.25
260.314	122.25
260.547	135.25
260.779	141.25
261.012	153.25
261.244	136.25
261.477	127.25
261.71	134.25
261.942	148.25
262.175	109.25
262.407	127.25
262.64	131.25
262.872	127.25
263.105	130.25
263.337	118.25
263.57	116.25
263.802	134.25
264.035	141.25
264.267	129.25
264.499	119.25
264.732	135.25
264.964	117.25
265.197	141.25
265.429	116.25
265.661	121.25
265.894	122.25
266.126	136.25
266.358	132.25
266.591	138.25
266.823	135.25
267.055	138.25
267.287	130.25
267.52	141.25
267.752	128.25
267.984	143.25
268.216	124.25
268.448	135.25
268.681	125.25
268.913	126.25
269.145	136.25
269.377	140.25
269.609	126.25
269.841	121.25
270.073	130.25
270.306	130.25
270.538	127.25
270.77	131.25
271.002	137.25
271.234	133.25
271.466	142.25
271.698	138.25
271.93	154.25
272.162	144.25
272.394	145.25
272.626	151.25
272.858	153.25
273.09	151.25
273.322	148.25
273.553	141.25
273.785	135.25
274.017	144.25
274.249	157.25
274.481	155.25
274.713	133.25
274.945	166.25
275.176	168.25
275.408	169.25
275.64	167.25
275.872	198.25
276.104	170.25
276.335	172.25
276.567	188.25
276.799	210.25
277.031	216.25
277.262	236.25
277.494	226.25
277.726	209.25
277.957	200.25
278.189	185.25
278.421	182.25
278.652	196.25
278.884	164.25
279.115	172.25
279.347	187.25
279.579	199.25
279.81	228.25
280.042	268.25
280.273	280.25
280.505	245.25
280.736	226.25
280.968	196.25
281.199	188.25
281.431	186.25
281.662	169.25
281.894	168.25
282.125	158.25
282.356	174.25
282.588	170.25
282.819	153.25
283.051	152.25
283.282	159.25
283.513	165.25
283.745	165.25
283.976	167.25
284.207	166.25
284.439	145.25
284.67	176.25
284.901	160.25
285.132	146.25
285.364	144.25
285.595	153.25
285.826	157.25
286.057	158.25
286.288	171.25
286.52	169.25
286.751	158.25
286.982	168.25
287.213	157.25
287.444	171.25
287.675	152.25
287.906	151.25
288.138	143.25
288.369	153.25
288.6	174.25
288.831	158.25
289.062	159.25
289.293	159.25
289.524	160.25
289.755	158.25
289.986	162.25
290.217	148.25
290.448	145.25
290.679	174.25
290.91	180.25
291.141	144.25
291.371	159.25
291.602	156.25
291.833	140.25
292.064	164.25
292.295	132.25
292.526	156.25
292.757	156.25
292.987	157.25
293.218	150.25
293.449	144.25
293.68	155.25
293.91	145.25
294.141	167.25
294.372	155.25
294.603	170.25
294.833	140.25
295.064	160.25
295.295	153.25
295.525	166.25
295.756	153.25
295.987	144.25
296.217	135.25
296.448	141.25
296.679	156.25
296.909	168.25
297.14	151.25
297.37	152.25
297.601	151.25
297.831	157.25
298.062	161.25
298.292	150.25
298.523	156.25
298.753	159.25
298.984	168.25
299.214	166.25
299.445	172.25
299.675	155.25
299.905	164.25
300.136	156.25
300.366	142.25
300.597	165.25
300.827	168.25
301.057	188.25
301.288	178.25
301.518	169.25
301.748	173.25
301.979	184.25
302.209	178.25
302.439	168.25
302.669	167.25
302.9	160.25
303.13	155.25
303.36	172.25
303.59	209.25
303.82	201.25
304.051	173.25
304.281	178.25
304.511	166.25
304.741	184.25
304.971	172.25
305.201	173.25
305.431	171.25
305.661	178.25
305.891	167.25
306.121	144.25
306.352	172.25
306.582	177.25
306.812	175.25
307.042	193.25
307.272	229.25
307.502	236.25
307.731	223.25
307.961	196.25
308.191	191.25
308.421	191.25
308.651	179.25
308.881	174.25
309.111	169.25
309.341	157.25
309.571	166.25
309.8	187.25
310.03	182.25
310.26	186.25
310.49	172.25
310.72	169.25
310.949	176.25
311.179	182.25
311.409	168.25
311.639	169.25
311.868	168.25
312.098	178.25
312.328	167.25
312.557	176.25
312.787	174.25
313.017	167.25
313.246	180.25
313.476	178.25
313.706	170.25
313.935	185.25
314.165	159.25
314.394	162.25
314.624	196.25
314.853	175.25
315.083	181.25
315.312	169.25
315.542	168.25
315.771	178.25
316.001	164.25
316.23	188.25
316.46	164.25
316.689	178.25
316.919	174.25
317.148	168.25
317.377	184.25
317.607	188.25
317.836	171.25
318.065	187.25
318.295	201.25
318.524	187.25
318.753	184.25
318.983	184.25
319.212	167.25
319.441	192.25
319.67	170.25
319.9	185.25
320.129	182.25
320.358	184.25
320.587	181.25
320.816	182.25
321.046	193.25
321.275	201.25
321.504	175.25
321.733	207.25
321.962	194.25
322.191	205.25
322.42	198.25
322.649	197.25
322.878	198.25
323.108	199.25
323.337	208.25
323.566	220.25
323.795	231.25
324.024	224.25
324.253	210.25
324.482	215.25
324.71	225.25
324.939	237.25
325.168	225.25
325.397	238.25
325.626	254.25
325.855	245.25
326.084	252.25
326.313	252.25
326.542	262.25
326.77	269.25
326.999	274.25
327.228	287.25
327.457	330.25
327.686	404.25
327.914	557.25
328.143	705.25
328.372	766.25
328.6	541.25
328.829	404.25
329.058	363.25
329.287	421.25
329.515	488.25
329.744	686.25
329.972	1005.25
330.201	1323.25
330.43	1350.25
330.658	834.25
330.887	497.25
331.115	391.25
331.344	352.25
331.572	328.25
331.801	319.25
332.03	321.25
332.258	295.25
332.486	333.25
332.715	338.25
332.943	360.25
333.172	401.25
333.4	458.25
333.629	572.25
333.857	738.25
334.085	1070.25
334.314	1558.25
334.542	1888.25
334.771	1540.25
334.999	791.25
335.227	499.25
335.455	414.25
335.684	374.25
335.912	319.25
336.14	303.25
336.369	295.25
336.597	267.25
336.825	248.25
337.053	249.25
337.281	248.25
337.51	231.25
337.738	249.25
337.966	244.25
338.194	232.25
338.422	242.25
338.65	221.25
338.878	226.25
339.106	209.25
339.334	209.25
339.562	220.25
339.79	224.25
340.018	202.25
340.246	206.25
340.474	198.25
340.702	212.25
340.93	196.25
341.158	208.25
341.386	197.25
341.614	193.25
341.842	196.25
342.07	198.25
342.298	219.25
342.526	183.25
342.754	178.25
342.981	182.25
343.209	197.25
343.437	202.25
343.665	214.25
343.893	201.25
344.12	212.25
344.348	193.25
344.576	196.25
344.804	196.25
345.031	187.25
345.259	187.25
345.487	193.25
345.714	194.25
345.942	194.25
346.17	196.25
346.397	204.25
346.625	180.25
346.853	183.25
347.08	182.25
347.308	182.25
347.535	174.25
347.763	184.25
347.99	175.25
348.218	188.25
348.445	202.25
348.673	203.25
348.9	177.25
349.128	186.25
349.355	191.25
349.583	177.25
349.81	174.25
350.037	182.25
350.265	186.25
350.492	173.25
350.72	178.25
350.947	180.25
351.174	187.25
351.402	193.25
351.629	184.25
351.856	175.25
352.083	186.25
352.311	182.25
352.538	192.25
352.765	184.25
352.992	199.25
353.22	179.25
353.447	191.25
353.674	180.25
353.901	194.25
354.128	182.25
354.355	173.25
354.583	172.25
354.81	182.25
355.037	185.25
355.264	178.25
355.491	190.25
355.718	185.25
355.945	177.25
356.172	186.25
356.399	171.25
356.626	194.25
356.853	194.25
357.08	185.25
357.307	178.25
357.534	184.25
357.761	177.25
357.988	201.25
358.215	175.25
358.441	178.25
358.668	186.25
358.895	159.25
359.122	168.25
359.349	170.25
359.576	179.25
359.802	172.25
360.029	192.25
360.256	178.25
360.483	188.25
360.709	194.25
360.936	199.25
361.163	178.25
361.39	179.25
361.616	183.25
361.843	179.25
362.07	162.25
362.296	190.25
362.523	164.25
362.749	186.25
362.976	176.25
363.203	156.25
363.429	170.25
363.656	170.25
363.882	177.25
364.109	195.25
364.335	185.25
364.562	184.25
364.788	188.25
365.015	200.25
365.241	176.25
365.468	170.25
365.694	163.25
365.92	172.25
366.147	187.25
366.373	173.25
366.599	190.25
366.826	174.25
367.052	160.25
367.278	176.25
367.505	185.25
367.731	182.25
367.957	186.25
368.184	184.25
368.41	178.25
368.636	190.25
368.862	190.25
369.089	177.25
369.315	180.25
369.541	171.25
369.767	190.25
369.993	169.25
370.219	183.25
370.445	180.25
370.672	181.25
370.898	163.25
371.124	174.25
371.35	187.25
371.576	169.25
371.802	178.25
372.028	179.25
372.254	198.25
372.48	189.25
372.706	203.25
372.932	189.25
373.158	185.25
373.384	185.25
373.61	188.25
373.835	194.25
374.061	195.25
374.287	170.25
374.513	185.25
374.739	187.25
374.965	192.25
375.191	187.25
375.416	205.25
375.642	180.25
375.868	180.25
376.094	182.25
376.319	186.25
376.545	198.25
376.771	193.25
376.997	194.25
377.222	167.25
377.448	178.25
377.674	186.25
377.899	185.25
378.125	186.25
378.35	199.25
378.576	180.25
378.802	184.25
379.027	200.25
379.253	182.25
379.478	179.25
379.704	182.25
379.929	186.25
380.155	174.25
380.38	187.25
380.606	180.25
380.831	184.25
381.057	194.25
381.282	196.25
381.507	195.25
381.733	191.25
381.958	193.25
382.184	183.25
382.409	188.25
382.634	184.25
382.86	207.25
383.085	204.25
383.31	189.25
383.535	196.25
383.761	186.25
383.986	207.25
384.211	203.25
384.436	196.25
384.662	201.25
384.887	193.25
385.112	207.25
385.337	221.25
385.562	191.25
385.787	195.25
386.013	209.25
386.238	211.25
386.463	203.25
386.688	205.25
386.913	202.25
387.138	222.25
387.363	194.25
387.588	212.25
387.813	207.25
388.038	220.25
388.263	204.25
388.488	205.25
388.713	215.25
388.938	195.25
389.163	203.25
389.387	198.25
389.612	188.25
389.837	213.25
390.062	198.25
390.287	209.25
390.512	203.25
390.736	201.25
390.961	201.25
391.186	213.25
391.411	202.25
391.636	186.25
391.86	202.25
392.085	206.25
392.31	209.25
392.534	209.25
392.759	212.25
392.984	206.25
393.208	208.25
393.433	218.25
393.658	196.25
393.882	189.25
394.107	196.25
394.331	202.25
394.556	211.25
394.78	215.25
395.005	213.25
395.229	194.25
395.454	218.25
395.678	228.25
395.903	216.25
396.127	215.25
396.352	222.25
396.576	222.25
396.801	207.25
397.025	204.25
397.249	218.25
397.474	193.25
397.698	214.25
397.922	231.25
398.147	212.25
398.371	229.25
398.595	231.25
398.82	232.25
399.044	265.25
399.268	236.25
399.492	265.25
399.717	269.25
399.941	275.25
400.165	276.25
400.389	256.25
400.613	249.25
400.837	267.25
401.062	241.25
401.286	228.25
401.51	250.25
401.734	233.25
401.958	234.25
402.182	241.25
402.406	234.25
402.63	238.25
402.854	244.25
403.078	240.25
403.302	264.25
403.526	258.25
403.75	259.25
403.974	257.25
404.198	254.25
404.422	260.25
404.645	275.25
404.869	282.25
405.093	301.25
405.317	316.25
405.541	326.25
405.765	294.25
405.988	255.25
406.212	274.25
406.436	268.25
406.66	263.25
406.883	257.25
407.107	255.25
407.331	260.25
407.555	269.25
407.778	252.25
408.002	262.25
408.226	266.25
408.449	268.25
408.673	250.25
408.896	257.25
409.12	261.25
409.344	250.25
409.567	251.25
409.791	243.25
410.014	259.25
410.238	241.25
410.461	254.25
410.685	244.25
410.908	262.25
411.132	254.25
411.355	246.25
411.578	264.25
411.802	275.25
412.025	266.25
412.249	282.25
412.472	301.25
412.695	326.25
412.919	314.25
413.142	300.25
413.365	267.25
413.589	270.25
413.812	264.25
414.035	261.25
414.258	263.25
414.482	251.25
414.705	244.25
414.928	244.25
415.151	257.25
415.374	247.25
415.597	244.25
415.821	244.25
416.044	262.25
416.267	257.25
416.49	244.25
416.713	248.25
416.936	237.25
417.159	243.25
417.382	267.25
417.605	267.25
417.828	269.25
418.051	267.25
418.274	256.25
418.497	244.25
418.72	256.25
418.943	249.25
419.166	250.25
419.389	273.25
419.611	279.25
419.834	277.25
420.057	284.25
420.28	308.25
420.503	301.25
420.726	283.25
420.948	264.25
421.171	278.25
421.394	258.25
421.617	257.25
421.839	245.25
422.062	251.25
422.285	267.25
422.507	242.25
422.73	261.25
422.953	248.25
423.175	249.25
423.398	249.25
423.621	249.25
423.843	250.25
424.066	239.25
424.288	240.25
424.511	256.25
424.733	252.25
424.956	237.25
425.178	231.25
425.401	231.25
425.623	236.25
425.846	238.25
426.068	241.25
426.291	233.25
426.513	238.25
426.735	242.25
426.958	235.25
427.18	266.25
427.402	262.25
427.625	277.25
427.847	336.25
428.069	324.25
428.292	268.25
428.514	279.25
428.736	252.25
428.958	248.25
429.181	245.25
429.403	234.25
429.625	226.25
429.847	236.25
430.069	234.25
430.292	226.25
430.514	224.25
430.736	219.25
430.958	235.25
431.18	229.25
431.402	232.25
431.624	230.25
431.846	225.25
432.068	218.25
432.29	221.25
432.512	204.25
432.734	220.25
432.956	214.25
433.178	225.25
433.4	234.25
433.622	219.25
433.844	218.25
434.066	222.25
434.287	238.25
434.509	239.25
434.731	232.25
434.953	228.25
435.175	244.25
435.397	224.25
435.618	246.25
435.84	236.25
436.062	225.25
436.284	220.25
436.505	220.25
436.727	213.25
436.949	214.25
437.17	222.25
437.392	233.25
437.614	211.25
437.835	219.25
438.057	225.25
438.278	216.25
438.5	217.25
438.721	224.25
438.943	220.25
439.165	229.25
439.386	216.25
439.608	232.25
439.829	230.25
440.05	204.25
440.272	223.25
440.493	208.25
440.715	207.25
440.936	205.25
441.158	220.25
441.379	224.25
441.6	248.25
441.822	216.25
442.043	228.25
442.264	215.25
442.486	233.25
442.707	232.25
442.928	221.25
443.149	242.25
443.371	240.25
443.592	228.25
443.813	234.25
444.034	240.25
444.255	247.25
444.476	232.25
444.698	222.25
444.919	257.25
445.14	332.25
445.361	279.25
445.582	228.25
445.803	242.25
446.024	228.25
446.245	224.25
446.466	235.25
446.687	221.25
446.908	217.25
447.129	219.25
447.35	205.25
447.571	217.25
447.792	224.25
448.013	218.25
448.234	217.25
448.455	206.25
448.675	214.25
448.896	191.25
449.117	212.25
449.338	206.25
449.559	200.25
449.779	204.25
450	203.25
450.221	214.25
450.442	207.25
450.662	206.25
450.883	216.25
451.104	203.25
451.324	210.25
451.545	210.25
451.766	199.25
451.986	219.25
452.207	195.25
452.428	208.25
452.648	220.25
452.869	201.25
453.089	180.25
453.31	201.25
453.53	208.25
453.751	217.25
453.971	197.25
454.192	196.25
454.412	196.25
454.633	183.25
454.853	188.25
455.073	188.25
455.294	198.25
455.514	213.25
455.734	220.25
455.955	204.25
456.175	201.25
456.395	214.25
456.616	219.25
456.836	200.25
457.056	208.25
457.276	215.25
457.497	221.25
457.717	205.25
457.937	213.25
458.157	201.25
458.377	204.25
458.598	206.25
458.818	186.25
459.038	206.25
459.258	209.25
459.478	219.25
459.698	219.25
459.918	224.25
460.138	238.25
460.358	244.25
460.578	241.25
460.798	240.25
461.018	229.25
461.238	243.25
461.458	256.25
461.678	222.25
461.898	256.25
462.118	248.25
462.338	238.25
462.558	236.25
462.777	273.25
462.997	266.25
463.217	284.25
463.437	255.25
463.657	275.25
463.876	257.25
464.096	262.25
464.316	252.25
464.536	254.25
464.755	249.25
464.975	240.25
465.195	242.25
465.414	248.25
465.634	250.25
465.854	226.25
466.073	221.25
466.293	248.25
466.512	244.25
466.732	219.25
466.951	232.25
467.171	276.25
467.391	284.25
467.61	299.25
467.829	386.25
468.049	696.25
468.268	832.25
468.488	480.25
468.707	343.25
468.927	310.25
469.146	289.25
469.365	278.25
469.585	273.25
469.804	274.25
470.023	265.25
470.243	248.25
470.462	270.25
470.681	276.25
470.901	268.25
471.12	286.25
471.339	292.25
471.558	310.25
471.777	369.25
471.997	532.25
472.216	1156.25
472.435	1750.25
472.654	988.25
472.873	583.25
473.092	458.25
473.311	398.25
473.53	343.25
473.749	325.25
473.968	317.25
474.187	292.25
474.406	288.25
474.625	288.25
474.844	264.25
475.063	248.25
475.282	263.25
475.501	260.25
475.72	257.25
475.939	260.25
476.158	267.25
476.377	262.25
476.596	257.25
476.814	263.25
477.033	252.25
477.252	277.25
477.471	262.25
477.69	283.25
477.908	258.25
478.127	274.25
478.346	264.25
478.564	287.25
478.783	269.25
479.002	274.25
479.22	284.25
479.439	304.25
479.658	323.25
479.876	318.25
480.095	340.25
480.313	384.25
480.532	468.25
480.751	623.25
480.969	1255.25
481.188	2795.25
481.406	2205.25
481.624	1069.25
481.843	693.25
482.061	552.25
482.28	496.25
482.498	430.25
482.717	399.25
482.935	392.25
483.153	370.25
483.372	343.25
483.59	334.25
483.808	325.25
484.027	318.25
484.245	328.25
484.463	305.25
484.681	326.25
484.9	328.25
485.118	294.25
485.336	282.25
485.554	310.25
485.772	302.25
485.99	286.25
486.209	308.25
486.427	294.25
486.645	281.25
486.863	296.25
487.081	296.25
487.299	307.25
487.517	304.25
487.735	285.25
487.953	298.25
488.171	320.25
488.389	291.25
488.607	302.25
488.825	312.25
489.043	313.25
489.261	332.25
489.479	328.25
489.696	340.25
489.914	324.25
490.132	329.25
490.35	364.25
490.568	338.25
490.786	355.25
491.003	407.25
491.221	437.25
491.439	460.25
491.657	464.25
491.874	472.25
492.092	468.25
492.31	488.25
492.527	530.25
492.745	550.25
492.963	532.25
493.18	477.25
493.398	458.25
493.615	445.25
493.833	420.25
494.05	418.25
494.268	396.25
494.485	382.25
494.703	404.25
494.92	375.25
495.138	382.25
495.355	387.25
495.573	366.25
495.79	364.25
496.008	351.25
496.225	346.25
496.442	344.25
496.66	357.25
496.877	358.25
497.094	346.25
497.312	353.25
497.529	332.25
497.746	312.25
497.963	361.25
498.181	342.25
498.398	332.25
498.615	367.25
498.832	368.25
499.049	376.25
499.267	407.25
499.484	393.25
499.701	395.25
499.918	422.25
500.135	456.25
500.352	494.25
500.569	504.25
500.786	512.25
501.003	474.25
501.22	441.25
501.437	416.25
501.654	389.25
501.871	376.25
502.088	347.25
502.305	351.25
502.522	325.25
502.739	350.25
502.956	334.25
503.172	313.25
503.389	318.25
503.606	304.25
