Data from StdC_HRD10591_087.txt Node
Date: Fri May 16 15:29:24 EDT 2025
User: Yrep
Spectrometer: HR+D1059
Trigger mode: 1
Integration Time (sec): 1.000000E-1
Scans to average: 1
Electric dark correction enabled: true
Nonlinearity correction enabled: false
Boxcar width: 0
XAxis mode: Wavelengths
Number of Pixels in Spectrum: 2048
>>>>>Begin Spectral Data<<<<<
223.165	-8.56
223.4	-8.56
223.635	-8.56
223.869	-20.56
224.104	-26.56
224.338	-20.56
224.573	-15.56
224.808	-14.56
225.042	0.44
225.277	-2.56
225.511	9.44
225.746	4.44
225.98	9.44
226.215	-6.56
226.449	8.44
226.683	19.44
226.918	23.44
227.152	40.44
227.387	24.44
227.621	33.44
227.856	40.44
228.09	43.44
228.324	46.44
228.559	62.44
228.793	68.44
229.027	66.44
229.262	77.44
229.496	85.44
229.73	68.44
229.964	78.44
230.199	70.44
230.433	95.44
230.667	71.44
230.901	90.44
231.136	87.44
231.37	97.44
231.604	81.44
231.838	93.44
232.072	87.44
232.306	101.44
232.541	94.44
232.775	103.44
233.009	94.44
233.243	98.44
233.477	104.44
233.711	87.44
233.945	93.44
234.179	81.44
234.413	83.44
234.647	92.44
234.881	90.44
235.115	90.44
235.349	86.44
235.583	84.44
235.817	93.44
236.051	91.44
236.285	98.44
236.519	104.44
236.753	85.44
236.987	97.44
237.221	103.44
237.455	99.44
237.689	102.44
237.922	107.44
238.156	99.44
238.39	88.44
238.624	107.44
238.858	95.44
239.091	96.44
239.325	103.44
239.559	93.44
239.793	79.44
240.027	103.44
240.26	97.44
240.494	93.44
240.728	99.44
240.961	96.44
241.195	89.44
241.429	88.44
241.662	108.44
241.896	93.44
242.13	85.44
242.363	85.44
242.597	86.44
242.83	95.44
243.064	98.44
243.298	88.44
243.531	103.44
243.765	101.44
243.998	104.44
244.232	96.44
244.465	93.44
244.699	87.44
244.932	103.44
245.166	91.44
245.399	103.44
245.633	111.44
245.866	94.44
246.099	96.44
246.333	89.44
246.566	115.44
246.8	105.44
247.033	105.44
247.266	108.44
247.5	90.44
247.733	120.44
247.966	120.44
248.2	101.44
248.433	112.44
248.666	113.44
248.899	100.44
249.133	115.44
249.366	99.44
249.599	136.44
249.832	120.44
250.066	146.44
250.299	163.44
250.532	217.44
250.765	175.44
250.998	142.44
251.231	146.44
251.465	125.44
251.698	120.44
251.931	112.44
252.164	131.44
252.397	140.44
252.63	125.44
252.863	131.44
253.096	126.44
253.329	107.44
253.562	113.44
253.795	113.44
254.028	125.44
254.261	124.44
254.494	135.44
254.727	141.44
254.96	142.44
255.193	151.44
255.426	148.44
255.659	177.44
255.892	265.44
256.124	299.44
256.357	255.44
256.59	191.44
256.823	170.44
257.056	161.44
257.289	151.44
257.521	150.44
257.754	135.44
257.987	139.44
258.22	137.44
258.452	145.44
258.685	152.44
258.918	139.44
259.151	127.44
259.383	135.44
259.616	135.44
259.849	128.44
260.081	137.44
260.314	132.44
260.547	137.44
260.779	145.44
261.012	139.44
261.244	138.44
261.477	146.44
261.71	122.44
261.942	139.44
262.175	130.44
262.407	135.44
262.64	134.44
262.872	118.44
263.105	134.44
263.337	141.44
263.57	129.44
263.802	115.44
264.035	113.44
264.267	126.44
264.499	129.44
264.732	126.44
264.964	136.44
265.197	143.44
265.429	128.44
265.661	130.44
265.894	115.44
266.126	142.44
266.358	134.44
266.591	124.44
266.823	138.44
267.055	129.44
267.287	124.44
267.52	150.44
267.752	119.44
267.984	134.44
268.216	122.44
268.448	141.44
268.681	137.44
268.913	129.44
269.145	130.44
269.377	142.44
269.609	142.44
269.841	138.44
270.073	145.44
270.306	128.44
270.538	143.44
270.77	140.44
271.002	146.44
271.234	135.44
271.466	145.44
271.698	144.44
271.93	132.44
272.162	138.44
272.394	160.44
272.626	145.44
272.858	136.44
273.09	141.44
273.322	151.44
273.553	148.44
273.785	145.44
274.017	147.44
274.249	148.44
274.481	140.44
274.713	138.44
274.945	166.44
275.176	165.44
275.408	165.44
275.64	184.44
275.872	187.44
276.104	172.44
276.335	179.44
276.567	186.44
276.799	205.44
277.031	218.44
277.262	231.44
277.494	221.44
277.726	215.44
277.957	182.44
278.189	162.44
278.421	195.44
278.652	170.44
278.884	173.44
279.115	169.44
279.347	199.44
279.579	205.44
279.81	226.44
280.042	267.44
280.273	288.44
280.505	246.44
280.736	231.44
280.968	201.44
281.199	195.44
281.431	190.44
281.662	173.44
281.894	182.44
282.125	171.44
282.356	157.44
282.588	185.44
282.819	169.44
283.051	142.44
283.282	163.44
283.513	167.44
283.745	165.44
283.976	160.44
284.207	141.44
284.439	158.44
284.67	163.44
284.901	177.44
285.132	155.44
285.364	153.44
285.595	170.44
285.826	160.44
286.057	189.44
286.288	165.44
286.52	163.44
286.751	171.44
286.982	156.44
287.213	165.44
287.444	148.44
287.675	166.44
287.906	173.44
288.138	149.44
288.369	165.44
288.6	155.44
288.831	166.44
289.062	172.44
289.293	155.44
289.524	146.44
289.755	151.44
289.986	148.44
290.217	160.44
290.448	155.44
290.679	145.44
290.91	145.44
291.141	155.44
291.371	157.44
291.602	158.44
291.833	156.44
292.064	149.44
292.295	142.44
292.526	144.44
292.757	151.44
292.987	154.44
293.218	151.44
293.449	166.44
293.68	154.44
293.91	169.44
294.141	165.44
294.372	143.44
294.603	138.44
294.833	167.44
295.064	165.44
295.295	168.44
295.525	152.44
295.756	149.44
295.987	167.44
296.217	157.44
296.448	171.44
296.679	154.44
296.909	161.44
297.14	151.44
297.37	169.44
297.601	180.44
297.831	162.44
298.062	161.44
298.292	175.44
298.523	182.44
298.753	153.44
298.984	158.44
299.214	166.44
299.445	177.44
299.675	156.44
299.905	151.44
300.136	167.44
300.366	153.44
300.597	168.44
300.827	179.44
301.057	172.44
301.288	147.44
301.518	161.44
301.748	167.44
301.979	184.44
302.209	189.44
302.439	177.44
302.669	173.44
302.9	166.44
303.13	183.44
303.36	196.44
303.59	193.44
303.82	221.44
304.051	184.44
304.281	159.44
304.511	185.44
304.741	172.44
304.971	173.44
305.201	171.44
305.431	151.44
305.661	175.44
305.891	186.44
306.121	167.44
306.352	167.44
306.582	174.44
306.812	178.44
307.042	200.44
307.272	209.44
307.502	223.44
307.731	205.44
307.961	189.44
308.191	181.44
308.421	167.44
308.651	182.44
308.881	173.44
309.111	183.44
309.341	174.44
309.571	180.44
309.8	176.44
310.03	166.44
310.26	181.44
310.49	193.44
310.72	165.44
310.949	172.44
311.179	166.44
311.409	170.44
311.639	186.44
311.868	157.44
312.098	166.44
312.328	179.44
312.557	183.44
312.787	175.44
313.017	165.44
313.246	173.44
313.476	189.44
313.706	195.44
313.935	182.44
314.165	187.44
314.394	194.44
314.624	183.44
314.853	174.44
315.083	177.44
315.312	177.44
315.542	167.44
315.771	161.44
316.001	183.44
316.23	184.44
316.46	179.44
316.689	189.44
316.919	184.44
317.148	173.44
317.377	183.44
317.607	189.44
317.836	193.44
318.065	183.44
318.295	184.44
318.524	184.44
318.753	184.44
318.983	193.44
319.212	161.44
319.441	192.44
319.67	192.44
319.9	186.44
320.129	184.44
320.358	196.44
320.587	187.44
320.816	195.44
321.046	178.44
321.275	191.44
321.504	187.44
321.733	196.44
321.962	194.44
322.191	194.44
322.42	214.44
322.649	188.44
322.878	187.44
323.108	217.44
323.337	192.44
323.566	197.44
323.795	202.44
324.024	223.44
324.253	216.44
324.482	233.44
324.71	224.44
324.939	223.44
325.168	240.44
325.397	222.44
325.626	253.44
325.855	259.44
326.084	248.44
326.313	240.44
326.542	258.44
326.77	259.44
326.999	267.44
327.228	299.44
327.457	322.44
327.686	423.44
327.914	546.44
328.143	736.44
328.372	755.44
328.6	545.44
328.829	393.44
329.058	405.44
329.287	433.44
329.515	513.44
329.744	721.44
329.972	997.44
330.201	1329.44
330.43	1357.44
330.658	802.44
330.887	493.44
331.115	391.44
331.344	351.44
331.572	329.44
331.801	338.44
332.03	322.44
332.258	317.44
332.486	326.44
332.715	354.44
332.943	380.44
333.172	397.44
333.4	471.44
333.629	553.44
333.857	695.44
334.085	1040.44
334.314	1547.44
334.542	1845.44
334.771	1542.44
334.999	789.44
335.227	503.44
335.455	426.44
335.684	380.44
335.912	327.44
336.14	307.44
336.369	305.44
336.597	278.44
336.825	277.44
337.053	245.44
337.281	250.44
337.51	254.44
337.738	233.44
337.966	239.44
338.194	243.44
338.422	219.44
338.65	220.44
338.878	227.44
339.106	221.44
339.334	215.44
339.562	224.44
339.79	209.44
340.018	214.44
340.246	207.44
340.474	201.44
340.702	202.44
340.93	216.44
341.158	197.44
341.386	211.44
341.614	203.44
341.842	194.44
342.07	204.44
342.298	201.44
342.526	207.44
342.754	195.44
342.981	210.44
343.209	203.44
343.437	220.44
343.665	207.44
343.893	208.44
344.12	222.44
344.348	191.44
344.576	205.44
344.804	194.44
345.031	199.44
345.259	203.44
345.487	187.44
345.714	192.44
345.942	185.44
346.17	179.44
346.397	178.44
346.625	201.44
346.853	191.44
347.08	202.44
347.308	193.44
347.535	187.44
347.763	195.44
347.99	176.44
348.218	191.44
348.445	197.44
348.673	174.44
348.9	184.44
349.128	197.44
349.355	188.44
349.583	184.44
349.81	195.44
350.037	182.44
350.265	199.44
350.492	188.44
350.72	195.44
350.947	189.44
351.174	197.44
351.402	203.44
351.629	184.44
351.856	193.44
352.083	184.44
352.311	185.44
352.538	185.44
352.765	180.44
352.992	170.44
353.22	193.44
353.447	192.44
353.674	161.44
353.901	198.44
354.128	183.44
354.355	186.44
354.583	179.44
354.81	203.44
355.037	183.44
355.264	163.44
355.491	189.44
355.718	185.44
355.945	192.44
356.172	198.44
356.399	157.44
356.626	178.44
356.853	186.44
357.08	171.44
357.307	187.44
357.534	186.44
357.761	174.44
357.988	209.44
358.215	195.44
358.441	157.44
358.668	173.44
358.895	186.44
359.122	190.44
359.349	169.44
359.576	174.44
359.802	165.44
360.029	188.44
360.256	187.44
360.483	169.44
360.709	187.44
360.936	199.44
361.163	183.44
361.39	189.44
361.616	183.44
361.843	184.44
362.07	177.44
362.296	179.44
362.523	174.44
362.749	169.44
362.976	179.44
363.203	201.44
363.429	183.44
363.656	191.44
363.882	184.44
364.109	183.44
364.335	186.44
364.562	167.44
364.788	170.44
365.015	175.44
365.241	186.44
365.468	187.44
365.694	171.44
365.92	173.44
366.147	174.44
366.373	197.44
366.599	174.44
366.826	184.44
367.052	190.44
367.278	165.44
367.505	190.44
367.731	208.44
367.957	182.44
368.184	191.44
368.41	191.44
368.636	164.44
368.862	195.44
369.089	189.44
369.315	199.44
369.541	189.44
369.767	193.44
369.993	179.44
370.219	192.44
370.445	188.44
370.672	179.44
370.898	182.44
371.124	181.44
371.35	185.44
371.576	191.44
371.802	192.44
372.028	193.44
372.254	205.44
372.48	197.44
372.706	194.44
372.932	171.44
373.158	208.44
373.384	208.44
373.61	201.44
373.835	181.44
374.061	173.44
374.287	185.44
374.513	199.44
374.739	191.44
374.965	205.44
375.191	198.44
375.416	193.44
375.642	189.44
375.868	192.44
376.094	191.44
376.319	200.44
376.545	195.44
376.771	189.44
376.997	179.44
377.222	201.44
377.448	179.44
377.674	171.44
377.899	187.44
378.125	179.44
378.35	184.44
378.576	178.44
378.802	186.44
379.027	191.44
379.253	192.44
379.478	183.44
379.704	190.44
379.929	191.44
380.155	187.44
380.38	185.44
380.606	189.44
380.831	207.44
381.057	199.44
381.282	188.44
381.507	201.44
381.733	207.44
381.958	183.44
382.184	200.44
382.409	199.44
382.634	191.44
382.86	190.44
383.085	198.44
383.31	193.44
383.535	197.44
383.761	198.44
383.986	190.44
384.211	194.44
384.436	208.44
384.662	201.44
384.887	193.44
385.112	209.44
385.337	201.44
385.562	201.44
385.787	205.44
386.013	212.44
386.238	223.44
386.463	213.44
386.688	218.44
386.913	218.44
387.138	200.44
387.363	211.44
387.588	211.44
387.813	207.44
388.038	201.44
388.263	206.44
388.488	211.44
388.713	201.44
388.938	193.44
389.163	203.44
389.387	218.44
389.612	195.44
389.837	201.44
390.062	199.44
390.287	201.44
390.512	196.44
390.736	209.44
390.961	206.44
391.186	202.44
391.411	200.44
391.636	219.44
391.86	218.44
392.085	233.44
392.31	224.44
392.534	219.44
392.759	211.44
392.984	206.44
393.208	222.44
393.433	202.44
393.658	219.44
393.882	208.44
394.107	212.44
394.331	220.44
394.556	216.44
394.78	220.44
395.005	234.44
395.229	223.44
395.454	217.44
395.678	239.44
395.903	232.44
396.127	223.44
396.352	228.44
396.576	232.44
396.801	213.44
397.025	223.44
397.249	234.44
397.474	221.44
397.698	221.44
397.922	222.44
398.147	214.44
398.371	224.44
398.595	233.44
398.82	249.44
399.044	270.44
399.268	281.44
399.492	261.44
399.717	290.44
399.941	285.44
400.165	264.44
400.389	252.44
400.613	236.44
400.837	248.44
401.062	245.44
401.286	227.44
401.51	255.44
401.734	245.44
401.958	238.44
402.182	242.44
402.406	237.44
402.63	226.44
402.854	261.44
403.078	259.44
403.302	238.44
403.526	246.44
403.75	261.44
403.974	258.44
404.198	257.44
404.422	276.44
404.645	283.44
404.869	277.44
405.093	306.44
405.317	320.44
405.541	345.44
405.765	289.44
405.988	277.44
406.212	276.44
406.436	269.44
406.66	261.44
406.883	273.44
407.107	269.44
407.331	263.44
407.555	270.44
407.778	268.44
408.002	266.44
408.226	249.44
408.449	256.44
408.673	238.44
408.896	249.44
409.12	250.44
409.344	246.44
409.567	260.44
409.791	261.44
410.014	242.44
410.238	254.44
410.461	249.44
410.685	269.44
410.908	263.44
411.132	261.44
411.355	266.44
411.578	267.44
411.802	258.44
412.025	265.44
412.249	288.44
412.472	303.44
412.695	305.44
412.919	323.44
413.142	296.44
413.365	273.44
413.589	274.44
413.812	261.44
414.035	255.44
414.258	261.44
414.482	268.44
414.705	273.44
414.928	245.44
415.151	263.44
415.374	250.44
415.597	237.44
415.821	249.44
416.044	239.44
416.267	246.44
416.49	230.44
416.713	243.44
416.936	241.44
417.159	247.44
417.382	263.44
417.605	273.44
417.828	267.44
418.051	255.44
418.274	254.44
418.497	247.44
418.72	262.44
418.943	253.44
419.166	278.44
419.389	296.44
419.611	265.44
419.834	287.44
420.057	297.44
420.28	295.44
420.503	295.44
420.726	298.44
420.948	274.44
421.171	277.44
421.394	253.44
421.617	240.44
421.839	251.44
422.062	254.44
422.285	265.44
422.507	245.44
422.73	239.44
422.953	226.44
423.175	254.44
423.398	243.44
423.621	247.44
423.843	253.44
424.066	240.44
424.288	237.44
424.511	237.44
424.733	235.44
424.956	260.44
425.178	239.44
425.401	234.44
425.623	242.44
425.846	235.44
426.068	226.44
426.291	250.44
426.513	231.44
426.735	249.44
426.958	256.44
427.18	254.44
427.402	269.44
427.625	291.44
427.847	318.44
428.069	304.44
428.292	300.44
428.514	269.44
428.736	249.44
428.958	263.44
429.181	238.44
429.403	235.44
429.625	207.44
429.847	237.44
430.069	212.44
430.292	241.44
430.514	228.44
430.736	242.44
430.958	236.44
431.18	229.44
431.402	238.44
431.624	210.44
431.846	233.44
432.068	205.44
432.29	226.44
432.512	231.44
432.734	233.44
432.956	222.44
433.178	233.44
433.4	203.44
433.622	217.44
433.844	223.44
434.066	229.44
434.287	229.44
434.509	229.44
434.731	221.44
434.953	227.44
435.175	216.44
435.397	229.44
435.618	217.44
435.84	226.44
436.062	236.44
436.284	226.44
436.505	232.44
436.727	219.44
436.949	216.44
437.17	219.44
437.392	209.44
437.614	213.44
437.835	213.44
438.057	203.44
438.278	209.44
438.5	201.44
438.721	218.44
438.943	229.44
439.165	223.44
439.386	216.44
439.608	226.44
439.829	224.44
440.05	215.44
440.272	245.44
440.493	227.44
440.715	237.44
440.936	220.44
441.158	240.44
441.379	226.44
441.6	233.44
441.822	244.44
442.043	236.44
442.264	219.44
442.486	230.44
442.707	226.44
442.928	229.44
443.149	239.44
443.371	246.44
443.592	209.44
443.813	224.44
444.034	243.44
444.255	249.44
444.476	251.44
444.698	256.44
444.919	254.44
445.14	333.44
445.361	263.44
445.582	247.44
445.803	235.44
446.024	223.44
446.245	239.44
446.466	223.44
446.687	230.44
446.908	231.44
447.129	226.44
447.35	212.44
447.571	201.44
447.792	214.44
448.013	222.44
448.234	212.44
448.455	214.44
448.675	217.44
448.896	223.44
449.117	224.44
449.338	212.44
449.559	216.44
449.779	229.44
450	199.44
450.221	208.44
450.442	217.44
450.662	208.44
450.883	192.44
451.104	220.44
451.324	212.44
451.545	211.44
451.766	195.44
451.986	200.44
452.207	215.44
452.428	207.44
452.648	214.44
452.869	211.44
453.089	216.44
453.31	221.44
453.53	210.44
453.751	200.44
453.971	188.44
454.192	218.44
454.412	207.44
454.633	210.44
454.853	206.44
455.073	213.44
455.294	199.44
455.514	220.44
455.734	217.44
455.955	199.44
456.175	215.44
456.395	199.44
456.616	211.44
456.836	215.44
457.056	210.44
457.276	210.44
457.497	219.44
457.717	209.44
457.937	189.44
458.157	210.44
458.377	217.44
458.598	210.44
458.818	217.44
459.038	219.44
459.258	211.44
459.478	215.44
459.698	234.44
459.918	231.44
460.138	241.44
460.358	233.44
460.578	243.44
460.798	237.44
461.018	241.44
461.238	236.44
461.458	229.44
461.678	242.44
461.898	249.44
462.118	256.44
462.338	235.44
462.558	256.44
462.777	255.44
462.997	263.44
463.217	271.44
463.437	295.44
463.657	269.44
463.876	266.44
464.096	253.44
464.316	249.44
464.536	249.44
464.755	272.44
464.975	246.44
465.195	240.44
465.414	234.44
465.634	232.44
465.854	234.44
466.073	239.44
466.293	243.44
466.512	227.44
466.732	229.44
466.951	263.44
467.171	248.44
467.391	263.44
467.61	292.44
467.829	380.44
468.049	695.44
468.268	856.44
468.488	489.44
468.707	363.44
468.927	322.44
469.146	288.44
469.365	262.44
469.585	268.44
469.804	269.44
470.023	268.44
470.243	263.44
470.462	265.44
470.681	255.44
470.901	285.44
471.12	287.44
471.339	276.44
471.558	313.44
471.777	381.44
471.997	521.44
472.216	1154.44
472.435	1779.44
472.654	1007.44
472.873	574.44
473.092	451.44
473.311	401.44
473.53	351.44
473.749	322.44
473.968	301.44
474.187	301.44
474.406	287.44
474.625	286.44
474.844	282.44
475.063	270.44
475.282	248.44
475.501	249.44
475.72	264.44
475.939	250.44
476.158	256.44
476.377	283.44
476.596	262.44
476.814	252.44
477.033	262.44
477.252	263.44
477.471	277.44
477.69	262.44
477.908	265.44
478.127	288.44
478.346	276.44
478.564	296.44
478.783	287.44
479.002	291.44
479.22	284.44
479.439	317.44
479.658	319.44
479.876	351.44
480.095	346.44
480.313	391.44
480.532	478.44
480.751	623.44
480.969	1259.44
481.188	2754.44
481.406	2237.44
481.624	1075.44
481.843	697.44
482.061	539.44
482.28	497.44
482.498	442.44
482.717	402.44
482.935	393.44
483.153	364.44
483.372	355.44
483.59	329.44
483.808	331.44
484.027	318.44
484.245	323.44
484.463	319.44
484.681	302.44
484.9	299.44
485.118	305.44
485.336	302.44
485.554	309.44
485.772	293.44
485.99	307.44
486.209	294.44
486.427	301.44
486.645	305.44
486.863	315.44
487.081	299.44
487.299	322.44
487.517	302.44
487.735	297.44
487.953	283.44
488.171	299.44
488.389	311.44
488.607	307.44
488.825	293.44
489.043	315.44
489.261	319.44
489.479	332.44
489.696	330.44
489.914	315.44
490.132	337.44
490.35	359.44
490.568	365.44
490.786	375.44
491.003	404.44
491.221	440.44
491.439	450.44
491.657	444.44
491.874	451.44
492.092	446.44
492.31	507.44
492.527	529.44
492.745	545.44
492.963	518.44
493.18	480.44
493.398	473.44
493.615	458.44
493.833	428.44
494.05	439.44
494.268	402.44
494.485	391.44
494.703	385.44
494.92	371.44
495.138	404.44
495.355	374.44
495.573	363.44
495.79	366.44
496.008	358.44
496.225	372.44
496.442	355.44
496.66	351.44
496.877	373.44
497.094	350.44
497.312	350.44
497.529	328.44
497.746	316.44
497.963	328.44
498.181	335.44
498.398	360.44
498.615	365.44
498.832	353.44
499.049	365.44
499.267	370.44
499.484	392.44
499.701	391.44
499.918	422.44
500.135	448.44
500.352	475.44
500.569	490.44
500.786	498.44
501.003	457.44
501.22	449.44
501.437	397.44
501.654	375.44
501.871	383.44
502.088	365.44
502.305	333.44
502.522	338.44
502.739	324.44
502.956	313.44
503.172	323.44
503.389	317.44
