Data from StdC_HRD10591_044.txt Node
Date: Fri May 16 15:29:02 EDT 2025
User: Yrep
Spectrometer: HR+D1059
Trigger mode: 1
Integration Time (sec): 1.000000E-1
Scans to average: 1
Electric dark correction enabled: true
Nonlinearity correction enabled: false
Boxcar width: 0
XAxis mode: Wavelengths
Number of Pixels in Spectrum: 2048
>>>>>Begin Spectral Data<<<<<
223.165	-10.75
223.4	-10.75
223.635	-10.75
223.869	-20.75
224.104	-13.75
224.338	-19.75
224.573	-8.75
224.808	-14.75
225.042	-24.75
225.277	-10.75
225.511	-13.75
225.746	10.25
225.98	7.25
226.215	21.25
226.449	12.25
226.683	15.25
226.918	31.25
227.152	40.25
227.387	42.25
227.621	35.25
227.856	45.25
228.09	54.25
228.324	58.25
228.559	53.25
228.793	69.25
229.027	65.25
229.262	62.25
229.496	68.25
229.73	68.25
229.964	81.25
230.199	77.25
230.433	82.25
230.667	77.25
230.901	80.25
231.136	90.25
231.37	88.25
231.604	90.25
231.838	87.25
232.072	96.25
232.306	95.25
232.541	87.25
232.775	84.25
233.009	85.25
233.243	79.25
233.477	88.25
233.711	85.25
233.945	93.25
234.179	100.25
234.413	96.25
234.647	95.25
234.881	82.25
235.115	91.25
235.349	77.25
235.583	86.25
235.817	80.25
236.051	87.25
236.285	104.25
236.519	90.25
236.753	98.25
236.987	103.25
237.221	106.25
237.455	101.25
237.689	85.25
237.922	96.25
238.156	92.25
238.39	92.25
238.624	103.25
238.858	102.25
239.091	75.25
239.325	90.25
239.559	102.25
239.793	87.25
240.027	96.25
240.26	97.25
240.494	98.25
240.728	88.25
240.961	93.25
241.195	99.25
241.429	95.25
241.662	98.25
241.896	102.25
242.13	96.25
242.363	107.25
242.597	88.25
242.83	99.25
243.064	97.25
243.298	85.25
243.531	96.25
243.765	92.25
243.998	104.25
244.232	111.25
244.465	111.25
244.699	120.25
244.932	96.25
245.166	110.25
245.399	97.25
245.633	126.25
245.866	105.25
246.099	91.25
246.333	110.25
246.566	98.25
246.8	107.25
247.033	102.25
247.266	98.25
247.5	106.25
247.733	103.25
247.966	102.25
248.2	112.25
248.433	111.25
248.666	113.25
248.899	82.25
249.133	110.25
249.366	123.25
249.599	123.25
249.832	117.25
250.066	141.25
250.299	155.25
250.532	187.25
250.765	174.25
250.998	141.25
251.231	149.25
251.465	138.25
251.698	130.25
251.931	122.25
252.164	123.25
252.397	112.25
252.63	113.25
252.863	123.25
253.096	125.25
253.329	126.25
253.562	112.25
253.795	110.25
254.028	114.25
254.261	124.25
254.494	124.25
254.727	125.25
254.96	128.25
255.193	159.25
255.426	151.25
255.659	193.25
255.892	251.25
256.124	295.25
256.357	246.25
256.59	216.25
256.823	167.25
257.056	170.25
257.289	147.25
257.521	131.25
257.754	141.25
257.987	135.25
258.22	137.25
258.452	141.25
258.685	130.25
258.918	147.25
259.151	124.25
259.383	132.25
259.616	115.25
259.849	132.25
260.081	129.25
260.314	142.25
260.547	132.25
260.779	128.25
261.012	143.25
261.244	148.25
261.477	142.25
261.71	128.25
261.942	132.25
262.175	130.25
262.407	133.25
262.64	143.25
262.872	133.25
263.105	123.25
263.337	137.25
263.57	128.25
263.802	129.25
264.035	126.25
264.267	113.25
264.499	118.25
264.732	118.25
264.964	136.25
265.197	134.25
265.429	126.25
265.661	135.25
265.894	123.25
266.126	131.25
266.358	139.25
266.591	132.25
266.823	136.25
267.055	134.25
267.287	136.25
267.52	136.25
267.752	144.25
267.984	140.25
268.216	140.25
268.448	151.25
268.681	133.25
268.913	135.25
269.145	140.25
269.377	143.25
269.609	138.25
269.841	143.25
270.073	131.25
270.306	124.25
270.538	124.25
270.77	140.25
271.002	140.25
271.234	149.25
271.466	144.25
271.698	134.25
271.93	154.25
272.162	148.25
272.394	138.25
272.626	142.25
272.858	150.25
273.09	148.25
273.322	140.25
273.553	140.25
273.785	152.25
274.017	160.25
274.249	140.25
274.481	149.25
274.713	154.25
274.945	160.25
275.176	170.25
275.408	157.25
275.64	182.25
275.872	189.25
276.104	191.25
276.335	180.25
276.567	176.25
276.799	216.25
277.031	204.25
277.262	226.25
277.494	212.25
277.726	195.25
277.957	174.25
278.189	174.25
278.421	168.25
278.652	169.25
278.884	184.25
279.115	178.25
279.347	187.25
279.579	202.25
279.81	238.25
280.042	264.25
280.273	272.25
280.505	248.25
280.736	228.25
280.968	198.25
281.199	195.25
281.431	175.25
281.662	161.25
281.894	164.25
282.125	177.25
282.356	172.25
282.588	184.25
282.819	161.25
283.051	160.25
283.282	156.25
283.513	166.25
283.745	162.25
283.976	145.25
284.207	145.25
284.439	163.25
284.67	172.25
284.901	170.25
285.132	158.25
285.364	164.25
285.595	155.25
285.826	164.25
286.057	163.25
286.288	170.25
286.52	184.25
286.751	152.25
286.982	136.25
287.213	163.25
287.444	180.25
287.675	153.25
287.906	162.25
288.138	168.25
288.369	177.25
288.6	164.25
288.831	159.25
289.062	148.25
289.293	153.25
289.524	146.25
289.755	146.25
289.986	146.25
290.217	172.25
290.448	162.25
290.679	148.25
290.91	151.25
291.141	168.25
291.371	161.25
291.602	145.25
291.833	168.25
292.064	161.25
292.295	161.25
292.526	159.25
292.757	160.25
292.987	148.25
293.218	150.25
293.449	162.25
293.68	153.25
293.91	159.25
294.141	175.25
294.372	169.25
294.603	147.25
294.833	168.25
295.064	155.25
295.295	151.25
295.525	152.25
295.756	152.25
295.987	166.25
296.217	147.25
296.448	148.25
296.679	155.25
296.909	144.25
297.14	142.25
297.37	148.25
297.601	156.25
297.831	172.25
298.062	171.25
298.292	160.25
298.523	171.25
298.753	152.25
298.984	164.25
299.214	163.25
299.445	146.25
299.675	183.25
299.905	176.25
300.136	174.25
300.366	165.25
300.597	183.25
300.827	163.25
301.057	172.25
301.288	156.25
301.518	155.25
301.748	182.25
301.979	191.25
302.209	178.25
302.439	165.25
302.669	178.25
302.9	162.25
303.13	158.25
303.36	172.25
303.59	178.25
303.82	205.25
304.051	197.25
304.281	189.25
304.511	178.25
304.741	154.25
304.971	159.25
305.201	174.25
305.431	171.25
305.661	169.25
305.891	151.25
306.121	164.25
306.352	163.25
306.582	168.25
306.812	174.25
307.042	197.25
307.272	232.25
307.502	226.25
307.731	180.25
307.961	186.25
308.191	180.25
308.421	187.25
308.651	170.25
308.881	182.25
309.111	183.25
309.341	158.25
309.571	163.25
309.8	178.25
310.03	188.25
310.26	185.25
310.49	174.25
310.72	157.25
310.949	171.25
311.179	178.25
311.409	164.25
311.639	182.25
311.868	167.25
312.098	166.25
312.328	166.25
312.557	175.25
312.787	172.25
313.017	173.25
313.246	170.25
313.476	182.25
313.706	164.25
313.935	190.25
314.165	176.25
314.394	178.25
314.624	168.25
314.853	170.25
315.083	182.25
315.312	157.25
315.542	171.25
315.771	178.25
316.001	161.25
316.23	151.25
316.46	184.25
316.689	176.25
316.919	187.25
317.148	183.25
317.377	180.25
317.607	173.25
317.836	186.25
318.065	186.25
318.295	178.25
318.524	182.25
318.753	178.25
318.983	191.25
319.212	168.25
319.441	188.25
319.67	163.25
319.9	178.25
320.129	179.25
320.358	191.25
320.587	189.25
320.816	193.25
321.046	177.25
321.275	183.25
321.504	198.25
321.733	184.25
321.962	171.25
322.191	182.25
322.42	205.25
322.649	194.25
322.878	216.25
323.108	211.25
323.337	222.25
323.566	219.25
323.795	216.25
324.024	220.25
324.253	210.25
324.482	207.25
324.71	218.25
324.939	202.25
325.168	224.25
325.397	222.25
325.626	241.25
325.855	225.25
326.084	245.25
326.313	239.25
326.542	237.25
326.77	263.25
326.999	266.25
327.228	294.25
327.457	330.25
327.686	391.25
327.914	529.25
328.143	696.25
328.372	740.25
328.6	493.25
328.829	393.25
329.058	378.25
329.287	405.25
329.515	490.25
329.744	667.25
329.972	976.25
330.201	1274.25
330.43	1307.25
330.658	748.25
330.887	470.25
331.115	364.25
331.344	332.25
331.572	323.25
331.801	300.25
332.03	320.25
332.258	323.25
332.486	315.25
332.715	339.25
332.943	361.25
333.172	397.25
333.4	430.25
333.629	543.25
333.857	691.25
334.085	995.25
334.314	1477.25
334.542	1803.25
334.771	1467.25
334.999	740.25
335.227	496.25
335.455	399.25
335.684	354.25
335.912	303.25
336.14	288.25
336.369	296.25
336.597	260.25
336.825	273.25
337.053	256.25
337.281	246.25
337.51	234.25
337.738	252.25
337.966	237.25
338.194	232.25
338.422	224.25
338.65	219.25
338.878	236.25
339.106	202.25
339.334	222.25
339.562	209.25
339.79	206.25
340.018	218.25
340.246	207.25
340.474	203.25
340.702	199.25
340.93	196.25
341.158	213.25
341.386	190.25
341.614	195.25
341.842	189.25
342.07	195.25
342.298	179.25
342.526	206.25
342.754	189.25
342.981	190.25
343.209	206.25
343.437	208.25
343.665	199.25
343.893	203.25
344.12	199.25
344.348	202.25
344.576	194.25
344.804	193.25
345.031	190.25
345.259	199.25
345.487	174.25
345.714	184.25
345.942	194.25
346.17	170.25
346.397	200.25
346.625	190.25
346.853	169.25
347.08	211.25
347.308	188.25
347.535	193.25
347.763	179.25
347.99	191.25
348.218	207.25
348.445	191.25
348.673	182.25
348.9	184.25
349.128	180.25
349.355	165.25
349.583	187.25
349.81	191.25
350.037	187.25
350.265	186.25
350.492	178.25
350.72	175.25
350.947	174.25
351.174	179.25
351.402	192.25
351.629	183.25
351.856	182.25
352.083	192.25
352.311	195.25
352.538	185.25
352.765	202.25
352.992	195.25
353.22	188.25
353.447	187.25
353.674	196.25
353.901	201.25
354.128	183.25
354.355	194.25
354.583	183.25
354.81	193.25
355.037	192.25
355.264	185.25
355.491	182.25
355.718	179.25
355.945	166.25
356.172	190.25
356.399	184.25
356.626	186.25
356.853	190.25
357.08	176.25
357.307	170.25
357.534	168.25
357.761	190.25
357.988	191.25
358.215	192.25
358.441	175.25
358.668	186.25
358.895	182.25
359.122	176.25
359.349	182.25
359.576	200.25
359.802	172.25
360.029	186.25
360.256	173.25
360.483	163.25
360.709	184.25
360.936	189.25
361.163	176.25
361.39	173.25
361.616	176.25
361.843	184.25
362.07	189.25
362.296	196.25
362.523	168.25
362.749	161.25
362.976	168.25
363.203	192.25
363.429	183.25
363.656	179.25
363.882	188.25
364.109	175.25
364.335	190.25
364.562	185.25
364.788	172.25
365.015	187.25
365.241	177.25
365.468	174.25
365.694	174.25
365.92	181.25
366.147	182.25
366.373	163.25
366.599	196.25
366.826	177.25
367.052	174.25
367.278	201.25
367.505	180.25
367.731	175.25
367.957	178.25
368.184	171.25
368.41	174.25
368.636	180.25
368.862	169.25
369.089	169.25
369.315	177.25
369.541	187.25
369.767	177.25
369.993	179.25
370.219	174.25
370.445	186.25
370.672	175.25
370.898	176.25
371.124	161.25
371.35	183.25
371.576	190.25
371.802	188.25
372.028	177.25
372.254	184.25
372.48	194.25
372.706	187.25
372.932	193.25
373.158	199.25
373.384	189.25
373.61	182.25
373.835	176.25
374.061	189.25
374.287	182.25
374.513	196.25
374.739	187.25
374.965	193.25
375.191	173.25
375.416	194.25
375.642	176.25
375.868	175.25
376.094	194.25
376.319	186.25
376.545	186.25
376.771	191.25
376.997	171.25
377.222	202.25
377.448	197.25
377.674	183.25
377.899	184.25
378.125	188.25
378.35	190.25
378.576	195.25
378.802	181.25
379.027	187.25
379.253	192.25
379.478	181.25
379.704	182.25
379.929	209.25
380.155	193.25
380.38	196.25
380.606	191.25
380.831	184.25
381.057	200.25
381.282	199.25
381.507	182.25
381.733	180.25
381.958	202.25
382.184	192.25
382.409	198.25
382.634	200.25
382.86	206.25
383.085	197.25
383.31	201.25
383.535	188.25
383.761	201.25
383.986	195.25
384.211	189.25
384.436	217.25
384.662	194.25
384.887	198.25
385.112	200.25
385.337	204.25
385.562	207.25
385.787	208.25
386.013	219.25
386.238	207.25
386.463	204.25
386.688	214.25
386.913	196.25
387.138	214.25
387.363	209.25
387.588	207.25
387.813	222.25
388.038	216.25
388.263	214.25
388.488	209.25
388.713	196.25
388.938	205.25
389.163	202.25
389.387	214.25
389.612	205.25
389.837	206.25
390.062	205.25
390.287	208.25
390.512	216.25
390.736	204.25
390.961	210.25
391.186	220.25
391.411	214.25
391.636	210.25
391.86	217.25
392.085	219.25
392.31	206.25
392.534	205.25
392.759	209.25
392.984	214.25
393.208	221.25
393.433	201.25
393.658	217.25
393.882	196.25
394.107	204.25
394.331	218.25
394.556	207.25
394.78	206.25
395.005	223.25
395.229	235.25
395.454	229.25
395.678	213.25
395.903	224.25
396.127	202.25
396.352	213.25
396.576	206.25
396.801	222.25
397.025	218.25
397.249	214.25
397.474	233.25
397.698	226.25
397.922	223.25
398.147	214.25
398.371	233.25
398.595	234.25
398.82	235.25
399.044	257.25
399.268	278.25
399.492	255.25
399.717	278.25
399.941	257.25
400.165	246.25
400.389	248.25
400.613	253.25
400.837	248.25
401.062	242.25
401.286	246.25
401.51	230.25
401.734	231.25
401.958	248.25
402.182	253.25
402.406	223.25
402.63	246.25
402.854	234.25
403.078	234.25
403.302	246.25
403.526	253.25
403.75	254.25
403.974	256.25
404.198	264.25
404.422	274.25
404.645	260.25
404.869	271.25
405.093	298.25
405.317	320.25
405.541	302.25
405.765	294.25
405.988	248.25
406.212	272.25
406.436	243.25
406.66	278.25
406.883	249.25
407.107	265.25
407.331	259.25
407.555	271.25
407.778	256.25
408.002	259.25
408.226	264.25
408.449	248.25
408.673	241.25
408.896	242.25
409.12	259.25
409.344	234.25
409.567	251.25
409.791	255.25
410.014	243.25
410.238	253.25
410.461	252.25
410.685	251.25
410.908	249.25
411.132	253.25
411.355	233.25
411.578	259.25
411.802	267.25
412.025	274.25
412.249	296.25
412.472	316.25
412.695	324.25
412.919	317.25
413.142	303.25
413.365	298.25
413.589	281.25
413.812	256.25
414.035	278.25
414.258	261.25
414.482	232.25
414.705	235.25
414.928	230.25
415.151	241.25
415.374	248.25
415.597	236.25
415.821	241.25
416.044	249.25
416.267	248.25
416.49	233.25
416.713	258.25
416.936	242.25
417.159	261.25
417.382	257.25
417.605	256.25
417.828	265.25
418.051	243.25
418.274	234.25
418.497	248.25
418.72	220.25
418.943	240.25
419.166	236.25
419.389	260.25
419.611	262.25
419.834	259.25
420.057	284.25
420.28	310.25
420.503	294.25
420.726	283.25
420.948	289.25
421.171	264.25
421.394	262.25
421.617	240.25
421.839	244.25
422.062	252.25
422.285	250.25
422.507	236.25
422.73	247.25
422.953	239.25
423.175	238.25
423.398	243.25
423.621	239.25
423.843	242.25
424.066	243.25
424.288	238.25
424.511	230.25
424.733	231.25
424.956	242.25
425.178	232.25
425.401	250.25
425.623	233.25
425.846	235.25
426.068	244.25
426.291	245.25
426.513	242.25
426.735	216.25
426.958	240.25
427.18	263.25
427.402	274.25
427.625	276.25
427.847	312.25
428.069	316.25
428.292	306.25
428.514	260.25
428.736	256.25
428.958	255.25
429.181	221.25
429.403	223.25
429.625	247.25
429.847	234.25
430.069	231.25
430.292	226.25
430.514	236.25
430.736	248.25
430.958	237.25
431.18	230.25
431.402	234.25
431.624	228.25
431.846	193.25
432.068	237.25
432.29	213.25
432.512	207.25
432.734	221.25
432.956	233.25
433.178	226.25
433.4	244.25
433.622	234.25
433.844	238.25
434.066	222.25
434.287	226.25
434.509	227.25
434.731	222.25
434.953	226.25
435.175	224.25
435.397	224.25
435.618	220.25
435.84	232.25
436.062	234.25
436.284	215.25
436.505	207.25
436.727	220.25
436.949	221.25
437.17	220.25
437.392	227.25
437.614	222.25
437.835	205.25
438.057	212.25
438.278	222.25
438.5	213.25
438.721	212.25
438.943	217.25
439.165	228.25
439.386	209.25
439.608	207.25
439.829	223.25
440.05	229.25
440.272	234.25
440.493	216.25
440.715	246.25
440.936	230.25
441.158	228.25
441.379	237.25
441.6	232.25
441.822	228.25
442.043	224.25
442.264	232.25
442.486	216.25
442.707	222.25
442.928	230.25
443.149	234.25
443.371	241.25
443.592	240.25
443.813	233.25
444.034	232.25
444.255	248.25
444.476	247.25
444.698	231.25
444.919	243.25
445.14	312.25
445.361	281.25
445.582	252.25
445.803	233.25
446.024	227.25
446.245	226.25
446.466	231.25
446.687	219.25
446.908	217.25
447.129	214.25
447.35	224.25
447.571	210.25
447.792	202.25
448.013	203.25
448.234	216.25
448.455	214.25
448.675	208.25
448.896	207.25
449.117	209.25
449.338	213.25
449.559	206.25
449.779	213.25
450	211.25
450.221	215.25
450.442	216.25
450.662	205.25
450.883	196.25
451.104	221.25
451.324	223.25
451.545	218.25
451.766	209.25
451.986	202.25
452.207	216.25
452.428	203.25
452.648	203.25
452.869	193.25
453.089	203.25
453.31	206.25
453.53	205.25
453.751	185.25
453.971	205.25
454.192	209.25
454.412	190.25
454.633	206.25
454.853	186.25
455.073	193.25
455.294	199.25
455.514	223.25
455.734	189.25
455.955	201.25
456.175	210.25
456.395	196.25
456.616	199.25
456.836	197.25
457.056	206.25
457.276	199.25
457.497	214.25
457.717	209.25
457.937	224.25
458.157	209.25
458.377	201.25
458.598	212.25
458.818	200.25
459.038	206.25
459.258	210.25
459.478	212.25
459.698	227.25
459.918	213.25
460.138	212.25
460.358	225.25
460.578	222.25
460.798	237.25
461.018	234.25
461.238	232.25
461.458	225.25
461.678	218.25
461.898	235.25
462.118	239.25
462.338	234.25
462.558	244.25
462.777	255.25
462.997	259.25
463.217	270.25
463.437	259.25
463.657	250.25
463.876	254.25
464.096	262.25
464.316	244.25
464.536	252.25
464.755	246.25
464.975	243.25
465.195	234.25
465.414	233.25
465.634	228.25
465.854	250.25
466.073	223.25
466.293	234.25
466.512	231.25
466.732	230.25
466.951	241.25
467.171	242.25
467.391	267.25
467.61	286.25
467.829	343.25
468.049	666.25
468.268	768.25
468.488	465.25
468.707	349.25
468.927	300.25
469.146	288.25
469.365	268.25
469.585	257.25
469.804	268.25
470.023	258.25
470.243	258.25
470.462	259.25
470.681	280.25
470.901	267.25
471.12	275.25
471.339	291.25
471.558	318.25
471.777	376.25
471.997	521.25
472.216	1098.25
472.435	1670.25
472.654	929.25
472.873	568.25
473.092	418.25
473.311	366.25
473.53	330.25
473.749	309.25
473.968	300.25
474.187	298.25
474.406	280.25
474.625	268.25
474.844	280.25
475.063	266.25
475.282	277.25
475.501	265.25
475.72	257.25
475.939	244.25
476.158	250.25
476.377	235.25
476.596	249.25
476.814	258.25
477.033	246.25
477.252	260.25
477.471	278.25
477.69	268.25
477.908	271.25
478.127	257.25
478.346	266.25
478.564	254.25
478.783	282.25
479.002	291.25
479.22	288.25
479.439	321.25
479.658	308.25
479.876	316.25
480.095	336.25
480.313	374.25
480.532	453.25
480.751	623.25
480.969	1211.25
481.188	2643.25
481.406	2145.25
481.624	1021.25
481.843	688.25
482.061	536.25
482.28	466.25
482.498	416.25
482.717	408.25
482.935	354.25
483.153	372.25
483.372	345.25
483.59	324.25
483.808	340.25
484.027	316.25
484.245	320.25
484.463	299.25
484.681	299.25
484.9	301.25
485.118	300.25
485.336	303.25
485.554	301.25
485.772	274.25
485.99	285.25
486.209	288.25
486.427	283.25
486.645	290.25
486.863	266.25
487.081	295.25
487.299	296.25
487.517	287.25
487.735	289.25
487.953	320.25
488.171	302.25
488.389	318.25
488.607	312.25
488.825	308.25
489.043	312.25
489.261	337.25
489.479	323.25
489.696	321.25
489.914	335.25
490.132	338.25
490.35	356.25
490.568	354.25
490.786	364.25
491.003	373.25
491.221	441.25
491.439	450.25
491.657	457.25
491.874	460.25
492.092	461.25
492.31	496.25
492.527	516.25
492.745	546.25
492.963	526.25
493.18	472.25
493.398	470.25
493.615	445.25
493.833	428.25
494.05	422.25
494.268	404.25
494.485	394.25
494.703	372.25
494.92	382.25
495.138	372.25
495.355	360.25
495.573	360.25
495.79	352.25
496.008	364.25
496.225	352.25
496.442	347.25
496.66	353.25
496.877	344.25
497.094	340.25
497.312	337.25
497.529	331.25
497.746	336.25
497.963	327.25
498.181	341.25
498.398	364.25
498.615	352.25
498.832	352.25
499.049	349.25
499.267	358.25
499.484	377.25
499.701	392.25
499.918	402.25
500.135	431.25
500.352	464.25
500.569	490.25
500.786	510.25
501.003	471.25
501.22	419.25
501.437	407.25
501.654	376.25
501.871	386.25
502.088	351.25
502.305	347.25
502.522	336.25
502.739	336.25
502.956	330.25
503.172	291.25
503.389	302.25
