Data from StdC_HRD10591_084.txt Node
Date: Fri May 16 15:29:22 EDT 2025
User: Yrep
Spectrometer: HR+D1059
Trigger mode: 1
Integration Time (sec): 1.000000E-1
Scans to average: 1
Electric dark correction enabled: true
Nonlinearity correction enabled: false
Boxcar width: 0
XAxis mode: Wavelengths
Number of Pixels in Spectrum: 2048
>>>>>Begin Spectral Data<<<<<
223.165	-26.81
223.4	-26.81
223.635	-26.81
223.869	-18.81
224.104	-25.81
224.338	-22.81
224.573	-11.81
224.808	-19.81
225.042	-13.81
225.277	-5.81
225.511	9.19
225.746	7.19
225.98	14.19
226.215	15.19
226.449	26.19
226.683	21.19
226.918	23.19
227.152	29.19
227.387	35.19
227.621	37.19
227.856	39.19
228.09	42.19
228.324	47.19
228.559	52.19
228.793	57.19
229.027	73.19
229.262	80.19
229.496	83.19
229.73	60.19
229.964	66.19
230.199	80.19
230.433	65.19
230.667	89.19
230.901	77.19
231.136	81.19
231.37	84.19
231.604	92.19
231.838	92.19
232.072	88.19
232.306	92.19
232.541	100.19
232.775	117.19
233.009	92.19
233.243	82.19
233.477	87.19
233.711	97.19
233.945	87.19
234.179	85.19
234.413	94.19
234.647	97.19
234.881	86.19
235.115	86.19
235.349	96.19
235.583	80.19
235.817	92.19
236.051	77.19
236.285	78.19
236.519	93.19
236.753	84.19
236.987	82.19
237.221	93.19
237.455	94.19
237.689	93.19
237.922	93.19
238.156	96.19
238.39	96.19
238.624	86.19
238.858	80.19
239.091	72.19
239.325	94.19
239.559	78.19
239.793	85.19
240.027	92.19
240.26	96.19
240.494	88.19
240.728	100.19
240.961	97.19
241.195	97.19
241.429	106.19
241.662	108.19
241.896	73.19
242.13	111.19
242.363	90.19
242.597	91.19
242.83	110.19
243.064	101.19
243.298	71.19
243.531	102.19
243.765	102.19
243.998	95.19
244.232	104.19
244.465	96.19
244.699	96.19
244.932	113.19
245.166	102.19
245.399	92.19
245.633	115.19
245.866	95.19
246.099	104.19
246.333	94.19
246.566	110.19
246.8	103.19
247.033	94.19
247.266	97.19
247.5	100.19
247.733	103.19
247.966	88.19
248.2	107.19
248.433	120.19
248.666	114.19
248.899	113.19
249.133	124.19
249.366	113.19
249.599	123.19
249.832	128.19
250.066	144.19
250.299	171.19
250.532	201.19
250.765	175.19
250.998	133.19
251.231	134.19
251.465	132.19
251.698	127.19
251.931	127.19
252.164	128.19
252.397	113.19
252.63	134.19
252.863	134.19
253.096	131.19
253.329	134.19
253.562	129.19
253.795	112.19
254.028	99.19
254.261	118.19
254.494	116.19
254.727	127.19
254.96	150.19
255.193	138.19
255.426	165.19
255.659	206.19
255.892	253.19
256.124	314.19
256.357	243.19
256.59	220.19
256.823	185.19
257.056	173.19
257.289	137.19
257.521	135.19
257.754	139.19
257.987	143.19
258.22	131.19
258.452	140.19
258.685	140.19
258.918	156.19
259.151	147.19
259.383	143.19
259.616	122.19
259.849	141.19
260.081	132.19
260.314	141.19
260.547	154.19
260.779	127.19
261.012	139.19
261.244	137.19
261.477	146.19
261.71	120.19
261.942	121.19
262.175	114.19
262.407	119.19
262.64	119.19
262.872	136.19
263.105	134.19
263.337	125.19
263.57	136.19
263.802	141.19
264.035	135.19
264.267	134.19
264.499	125.19
264.732	126.19
264.964	138.19
265.197	143.19
265.429	128.19
265.661	129.19
265.894	138.19
266.126	142.19
266.358	126.19
266.591	118.19
266.823	128.19
267.055	132.19
267.287	132.19
267.52	128.19
267.752	136.19
267.984	137.19
268.216	140.19
268.448	135.19
268.681	138.19
268.913	136.19
269.145	130.19
269.377	142.19
269.609	140.19
269.841	147.19
270.073	128.19
270.306	125.19
270.538	132.19
270.77	129.19
271.002	150.19
271.234	144.19
271.466	144.19
271.698	146.19
271.93	146.19
272.162	143.19
272.394	147.19
272.626	142.19
272.858	143.19
273.09	154.19
273.322	153.19
273.553	133.19
273.785	140.19
274.017	154.19
274.249	155.19
274.481	154.19
274.713	148.19
274.945	183.19
275.176	152.19
275.408	161.19
275.64	174.19
275.872	176.19
276.104	169.19
276.335	186.19
276.567	177.19
276.799	212.19
277.031	228.19
277.262	249.19
277.494	224.19
277.726	206.19
277.957	185.19
278.189	169.19
278.421	170.19
278.652	166.19
278.884	168.19
279.115	199.19
279.347	198.19
279.579	210.19
279.81	228.19
280.042	274.19
280.273	288.19
280.505	268.19
280.736	228.19
280.968	194.19
281.199	170.19
281.431	190.19
281.662	172.19
281.894	169.19
282.125	183.19
282.356	176.19
282.588	156.19
282.819	157.19
283.051	167.19
283.282	149.19
283.513	168.19
283.745	161.19
283.976	152.19
284.207	156.19
284.439	157.19
284.67	157.19
284.901	174.19
285.132	156.19
285.364	148.19
285.595	173.19
285.826	164.19
286.057	166.19
286.288	155.19
286.52	172.19
286.751	160.19
286.982	147.19
287.213	153.19
287.444	155.19
287.675	176.19
287.906	159.19
288.138	153.19
288.369	151.19
288.6	169.19
288.831	159.19
289.062	173.19
289.293	157.19
289.524	165.19
289.755	161.19
289.986	174.19
290.217	156.19
290.448	142.19
290.679	160.19
290.91	154.19
291.141	156.19
291.371	155.19
291.602	151.19
291.833	154.19
292.064	160.19
292.295	149.19
292.526	160.19
292.757	153.19
292.987	146.19
293.218	155.19
293.449	161.19
293.68	144.19
293.91	160.19
294.141	166.19
294.372	142.19
294.603	156.19
294.833	152.19
295.064	150.19
295.295	157.19
295.525	142.19
295.756	164.19
295.987	153.19
296.217	160.19
296.448	158.19
296.679	176.19
296.909	156.19
297.14	164.19
297.37	173.19
297.601	156.19
297.831	142.19
298.062	151.19
298.292	160.19
298.523	164.19
298.753	167.19
298.984	152.19
299.214	159.19
299.445	149.19
299.675	160.19
299.905	162.19
300.136	160.19
300.366	154.19
300.597	166.19
300.827	175.19
301.057	157.19
301.288	171.19
301.518	168.19
301.748	149.19
301.979	184.19
302.209	172.19
302.439	183.19
302.669	167.19
302.9	174.19
303.13	175.19
303.36	185.19
303.59	201.19
303.82	214.19
304.051	191.19
304.281	192.19
304.511	186.19
304.741	159.19
304.971	159.19
305.201	169.19
305.431	166.19
305.661	164.19
305.891	157.19
306.121	180.19
306.352	149.19
306.582	180.19
306.812	181.19
307.042	207.19
307.272	235.19
307.502	225.19
307.731	216.19
307.961	189.19
308.191	179.19
308.421	187.19
308.651	200.19
308.881	171.19
309.111	164.19
309.341	164.19
309.571	159.19
309.8	166.19
310.03	176.19
310.26	166.19
310.49	178.19
310.72	193.19
310.949	179.19
311.179	166.19
311.409	162.19
311.639	182.19
311.868	191.19
312.098	166.19
312.328	166.19
312.557	182.19
312.787	172.19
313.017	151.19
313.246	154.19
313.476	166.19
313.706	156.19
313.935	188.19
314.165	185.19
314.394	159.19
314.624	172.19
314.853	192.19
315.083	183.19
315.312	178.19
315.542	190.19
315.771	175.19
316.001	165.19
316.23	179.19
316.46	180.19
316.689	174.19
316.919	184.19
317.148	172.19
317.377	179.19
317.607	192.19
317.836	178.19
318.065	167.19
318.295	202.19
318.524	205.19
318.753	192.19
318.983	185.19
319.212	182.19
319.441	172.19
319.67	167.19
319.9	169.19
320.129	183.19
320.358	193.19
320.587	186.19
320.816	189.19
321.046	196.19
321.275	191.19
321.504	192.19
321.733	186.19
321.962	200.19
322.191	189.19
322.42	204.19
322.649	214.19
322.878	203.19
323.108	223.19
323.337	230.19
323.566	217.19
323.795	216.19
324.024	226.19
324.253	234.19
324.482	250.19
324.71	236.19
324.939	252.19
325.168	229.19
325.397	238.19
325.626	229.19
325.855	241.19
326.084	248.19
326.313	251.19
326.542	255.19
326.77	283.19
326.999	277.19
327.228	298.19
327.457	344.19
327.686	440.19
327.914	572.19
328.143	712.19
328.372	789.19
328.6	550.19
328.829	423.19
329.058	392.19
329.287	434.19
329.515	520.19
329.744	674.19
329.972	997.19
330.201	1388.19
330.43	1406.19
330.658	834.19
330.887	507.19
331.115	420.19
331.344	363.19
331.572	327.19
331.801	357.19
332.03	313.19
332.258	343.19
332.486	345.19
332.715	349.19
332.943	385.19
333.172	391.19
333.4	463.19
333.629	568.19
333.857	716.19
334.085	1113.19
334.314	1548.19
334.542	1870.19
334.771	1515.19
334.999	849.19
335.227	536.19
335.455	424.19
335.684	363.19
335.912	336.19
336.14	299.19
336.369	295.19
336.597	276.19
336.825	276.19
337.053	260.19
337.281	248.19
337.51	242.19
337.738	250.19
337.966	217.19
338.194	230.19
338.422	214.19
338.65	230.19
338.878	214.19
339.106	210.19
339.334	191.19
339.562	219.19
339.79	201.19
340.018	197.19
340.246	203.19
340.474	190.19
340.702	187.19
340.93	179.19
341.158	195.19
341.386	193.19
341.614	200.19
341.842	194.19
342.07	181.19
342.298	193.19
342.526	200.19
342.754	198.19
342.981	189.19
343.209	196.19
343.437	193.19
343.665	208.19
343.893	206.19
344.12	218.19
344.348	207.19
344.576	205.19
344.804	197.19
345.031	199.19
345.259	194.19
345.487	184.19
345.714	185.19
345.942	174.19
346.17	192.19
346.397	183.19
346.625	192.19
346.853	187.19
347.08	188.19
347.308	190.19
347.535	184.19
347.763	194.19
347.99	190.19
348.218	191.19
348.445	185.19
348.673	194.19
348.9	199.19
349.128	184.19
349.355	182.19
349.583	181.19
349.81	192.19
350.037	198.19
350.265	186.19
350.492	189.19
350.72	185.19
350.947	170.19
351.174	199.19
351.402	169.19
351.629	184.19
351.856	198.19
352.083	185.19
352.311	191.19
352.538	193.19
352.765	199.19
352.992	186.19
353.22	182.19
353.447	187.19
353.674	183.19
353.901	178.19
354.128	189.19
354.355	186.19
354.583	182.19
354.81	194.19
355.037	183.19
355.264	202.19
355.491	182.19
355.718	188.19
355.945	182.19
356.172	177.19
356.399	188.19
356.626	201.19
356.853	190.19
357.08	180.19
357.307	176.19
357.534	189.19
357.761	184.19
357.988	181.19
358.215	192.19
358.441	158.19
358.668	185.19
358.895	185.19
359.122	181.19
359.349	182.19
359.576	191.19
359.802	189.19
360.029	189.19
360.256	168.19
360.483	184.19
360.709	189.19
360.936	194.19
361.163	177.19
361.39	180.19
361.616	181.19
361.843	173.19
362.07	173.19
362.296	176.19
362.523	177.19
362.749	188.19
362.976	182.19
363.203	181.19
363.429	168.19
363.656	185.19
363.882	175.19
364.109	187.19
364.335	181.19
364.562	182.19
364.788	186.19
365.015	164.19
365.241	191.19
365.468	188.19
365.694	176.19
365.92	192.19
366.147	176.19
366.373	184.19
366.599	178.19
366.826	186.19
367.052	182.19
367.278	182.19
367.505	165.19
367.731	199.19
367.957	175.19
368.184	165.19
368.41	188.19
368.636	171.19
368.862	194.19
369.089	179.19
369.315	196.19
369.541	170.19
369.767	188.19
369.993	192.19
370.219	184.19
370.445	182.19
370.672	178.19
370.898	182.19
371.124	201.19
371.35	189.19
371.576	184.19
371.802	203.19
372.028	184.19
372.254	200.19
372.48	202.19
372.706	191.19
372.932	185.19
373.158	188.19
373.384	179.19
373.61	195.19
373.835	201.19
374.061	195.19
374.287	174.19
374.513	208.19
374.739	184.19
374.965	191.19
375.191	197.19
375.416	195.19
375.642	187.19
375.868	192.19
376.094	170.19
376.319	197.19
376.545	188.19
376.771	208.19
376.997	189.19
377.222	178.19
377.448	171.19
377.674	196.19
377.899	183.19
378.125	186.19
378.35	168.19
378.576	189.19
378.802	174.19
379.027	185.19
379.253	192.19
379.478	171.19
379.704	172.19
379.929	180.19
380.155	183.19
380.38	197.19
380.606	205.19
380.831	190.19
381.057	189.19
381.282	200.19
381.507	192.19
381.733	197.19
381.958	176.19
382.184	199.19
382.409	187.19
382.634	189.19
382.86	189.19
383.085	193.19
383.31	214.19
383.535	206.19
383.761	204.19
383.986	202.19
384.211	206.19
384.436	202.19
384.662	204.19
384.887	201.19
385.112	215.19
385.337	209.19
385.562	213.19
385.787	197.19
386.013	226.19
386.238	214.19
386.463	202.19
386.688	215.19
386.913	200.19
387.138	204.19
387.363	201.19
387.588	194.19
387.813	208.19
388.038	209.19
388.263	205.19
388.488	206.19
388.713	212.19
388.938	206.19
389.163	196.19
389.387	216.19
389.612	234.19
389.837	194.19
390.062	204.19
390.287	212.19
390.512	208.19
390.736	225.19
390.961	202.19
391.186	202.19
391.411	224.19
391.636	208.19
391.86	217.19
392.085	212.19
392.31	223.19
392.534	200.19
392.759	196.19
392.984	205.19
393.208	217.19
393.433	219.19
393.658	208.19
393.882	210.19
394.107	209.19
394.331	203.19
394.556	220.19
394.78	216.19
395.005	204.19
395.229	225.19
395.454	228.19
395.678	228.19
395.903	220.19
396.127	232.19
396.352	212.19
396.576	216.19
396.801	207.19
397.025	195.19
397.249	214.19
397.474	233.19
397.698	208.19
397.922	226.19
398.147	231.19
398.371	235.19
398.595	235.19
398.82	239.19
399.044	260.19
399.268	264.19
399.492	284.19
399.717	270.19
399.941	269.19
400.165	271.19
400.389	257.19
400.613	249.19
400.837	237.19
401.062	242.19
401.286	244.19
401.51	240.19
401.734	241.19
401.958	231.19
402.182	254.19
402.406	244.19
402.63	246.19
402.854	245.19
403.078	235.19
403.302	244.19
403.526	242.19
403.75	249.19
403.974	262.19
404.198	269.19
404.422	258.19
404.645	273.19
404.869	274.19
405.093	303.19
405.317	318.19
405.541	314.19
405.765	304.19
405.988	273.19
406.212	283.19
406.436	265.19
406.66	273.19
406.883	262.19
407.107	274.19
407.331	275.19
407.555	257.19
407.778	282.19
408.002	250.19
408.226	258.19
408.449	263.19
408.673	241.19
408.896	258.19
409.12	251.19
409.344	250.19
409.567	261.19
409.791	244.19
410.014	240.19
410.238	261.19
410.461	248.19
410.685	216.19
410.908	263.19
411.132	263.19
411.355	262.19
411.578	259.19
411.802	270.19
412.025	286.19
412.249	306.19
412.472	326.19
412.695	324.19
412.919	322.19
413.142	296.19
413.365	286.19
413.589	281.19
413.812	274.19
414.035	265.19
414.258	274.19
414.482	254.19
414.705	256.19
414.928	259.19
415.151	249.19
415.374	249.19
415.597	256.19
415.821	248.19
416.044	250.19
416.267	256.19
416.49	257.19
416.713	254.19
416.936	248.19
417.159	249.19
417.382	270.19
417.605	277.19
417.828	266.19
418.051	238.19
418.274	239.19
418.497	252.19
418.72	236.19
418.943	253.19
419.166	276.19
419.389	268.19
419.611	281.19
419.834	284.19
420.057	284.19
420.28	321.19
420.503	291.19
420.726	278.19
420.948	271.19
421.171	258.19
421.394	269.19
421.617	265.19
421.839	246.19
422.062	254.19
422.285	231.19
422.507	255.19
422.73	244.19
422.953	242.19
423.175	246.19
423.398	256.19
423.621	240.19
423.843	241.19
424.066	257.19
424.288	241.19
424.511	253.19
424.733	254.19
424.956	229.19
425.178	266.19
425.401	222.19
425.623	258.19
425.846	226.19
426.068	229.19
426.291	230.19
426.513	242.19
426.735	237.19
426.958	249.19
427.18	251.19
427.402	261.19
427.625	294.19
427.847	317.19
428.069	336.19
428.292	291.19
428.514	266.19
428.736	257.19
428.958	230.19
429.181	245.19
429.403	251.19
429.625	244.19
429.847	244.19
430.069	215.19
430.292	219.19
430.514	223.19
430.736	209.19
430.958	231.19
431.18	221.19
431.402	239.19
431.624	247.19
431.846	223.19
432.068	223.19
432.29	219.19
432.512	223.19
432.734	232.19
432.956	225.19
433.178	234.19
433.4	226.19
433.622	237.19
433.844	212.19
434.066	220.19
434.287	232.19
434.509	220.19
434.731	239.19
434.953	221.19
435.175	239.19
435.397	222.19
435.618	220.19
435.84	229.19
436.062	211.19
436.284	229.19
436.505	205.19
436.727	207.19
436.949	235.19
437.17	221.19
437.392	225.19
437.614	213.19
437.835	213.19
438.057	225.19
438.278	216.19
438.5	220.19
438.721	217.19
438.943	218.19
439.165	210.19
439.386	216.19
439.608	229.19
439.829	228.19
440.05	231.19
440.272	217.19
440.493	235.19
440.715	221.19
440.936	212.19
441.158	216.19
441.379	219.19
441.6	230.19
441.822	230.19
442.043	245.19
442.264	242.19
442.486	247.19
442.707	241.19
442.928	226.19
443.149	232.19
443.371	236.19
443.592	238.19
443.813	239.19
444.034	230.19
444.255	234.19
444.476	240.19
444.698	242.19
444.919	238.19
445.14	327.19
445.361	281.19
445.582	250.19
445.803	240.19
446.024	229.19
446.245	233.19
446.466	224.19
446.687	223.19
446.908	218.19
447.129	234.19
447.35	230.19
447.571	224.19
447.792	212.19
448.013	228.19
448.234	217.19
448.455	215.19
448.675	215.19
448.896	213.19
449.117	217.19
449.338	215.19
449.559	198.19
449.779	214.19
450	218.19
450.221	214.19
450.442	231.19
450.662	215.19
450.883	193.19
451.104	202.19
451.324	217.19
451.545	201.19
451.766	203.19
451.986	208.19
452.207	206.19
452.428	207.19
452.648	205.19
452.869	209.19
453.089	230.19
453.31	204.19
453.53	206.19
453.751	209.19
453.971	197.19
454.192	205.19
454.412	204.19
454.633	201.19
454.853	215.19
455.073	197.19
455.294	203.19
455.514	208.19
455.734	204.19
455.955	199.19
456.175	202.19
456.395	213.19
456.616	198.19
456.836	222.19
457.056	196.19
457.276	208.19
457.497	220.19
457.717	221.19
457.937	212.19
458.157	212.19
458.377	201.19
458.598	208.19
458.818	221.19
459.038	207.19
459.258	199.19
459.478	215.19
459.698	209.19
459.918	228.19
460.138	206.19
460.358	240.19
460.578	224.19
460.798	229.19
461.018	236.19
461.238	253.19
461.458	234.19
461.678	236.19
461.898	212.19
462.118	232.19
462.338	246.19
462.558	256.19
462.777	273.19
462.997	273.19
463.217	268.19
463.437	264.19
463.657	270.19
463.876	246.19
464.096	246.19
464.316	244.19
464.536	251.19
464.755	253.19
464.975	245.19
465.195	238.19
465.414	251.19
465.634	260.19
465.854	258.19
466.073	241.19
466.293	237.19
466.512	242.19
466.732	230.19
466.951	248.19
467.171	273.19
467.391	256.19
467.61	298.19
467.829	393.19
468.049	694.19
468.268	866.19
468.488	505.19
468.707	367.19
468.927	308.19
469.146	292.19
469.365	282.19
469.585	255.19
469.804	268.19
470.023	272.19
470.243	261.19
470.462	277.19
470.681	268.19
470.901	286.19
471.12	282.19
471.339	296.19
471.558	294.19
471.777	390.19
471.997	559.19
472.216	1205.19
472.435	1820.19
472.654	1016.19
472.873	574.19
473.092	439.19
473.311	384.19
473.53	352.19
473.749	311.19
473.968	323.19
474.187	308.19
474.406	272.19
474.625	290.19
474.844	274.19
475.063	258.19
475.282	248.19
475.501	270.19
475.72	279.19
475.939	248.19
476.158	270.19
476.377	253.19
476.596	265.19
476.814	262.19
477.033	256.19
477.252	262.19
477.471	253.19
477.69	281.19
477.908	273.19
478.127	270.19
478.346	305.19
478.564	274.19
478.783	295.19
479.002	310.19
479.22	299.19
479.439	302.19
479.658	322.19
479.876	321.19
480.095	363.19
480.313	396.19
480.532	472.19
480.751	642.19
480.969	1293.19
481.188	2885.19
481.406	2268.19
481.624	1094.19
481.843	730.19
482.061	589.19
482.28	513.19
482.498	438.19
482.717	400.19
482.935	385.19
483.153	362.19
483.372	352.19
483.59	348.19
483.808	337.19
484.027	333.19
484.245	312.19
484.463	302.19
484.681	312.19
484.9	316.19
485.118	323.19
485.336	282.19
485.554	277.19
485.772	293.19
485.99	299.19
486.209	295.19
486.427	292.19
486.645	295.19
486.863	289.19
487.081	298.19
487.299	292.19
487.517	303.19
487.735	300.19
487.953	309.19
488.171	305.19
488.389	308.19
488.607	300.19
488.825	310.19
489.043	292.19
489.261	318.19
489.479	331.19
489.696	314.19
489.914	334.19
490.132	337.19
490.35	367.19
490.568	377.19
490.786	379.19
491.003	411.19
491.221	421.19
491.439	445.19
491.657	480.19
491.874	473.19
492.092	472.19
492.31	486.19
492.527	561.19
492.745	562.19
492.963	516.19
493.18	502.19
493.398	471.19
493.615	441.19
493.833	448.19
494.05	417.19
494.268	396.19
494.485	411.19
494.703	396.19
494.92	388.19
495.138	376.19
495.355	363.19
495.573	364.19
495.79	351.19
496.008	376.19
496.225	361.19
496.442	358.19
496.66	358.19
496.877	346.19
497.094	360.19
497.312	341.19
497.529	357.19
497.746	356.19
497.963	333.19
498.181	358.19
498.398	356.19
498.615	370.19
498.832	356.19
499.049	349.19
499.267	394.19
499.484	379.19
499.701	392.19
499.918	426.19
500.135	449.19
500.352	462.19
500.569	505.19
500.786	528.19
501.003	477.19
501.22	443.19
501.437	401.19
501.654	391.19
501.871	384.19
502.088	369.19
502.305	368.19
502.522	343.19
502.739	335.19
502.956	316.19
503.172	324.19
503.389	302.19
