Data from StdC_HRD10591_055.txt Node
Date: Fri May 16 15:29:08 EDT 2025
User: Yrep
Spectrometer: HR+D1059
Trigger mode: 1
Integration Time (sec): 1.000000E-1
Scans to average: 1
Electric dark correction enabled: true
Nonlinearity correction enabled: false
Boxcar width: 0
XAxis mode: Wavelengths
Number of Pixels in Spectrum: 2048
>>>>>Begin Spectral Data<<<<<
223.165	-26.56
223.4	-26.56
223.635	-26.56
223.869	-26.56
224.104	-11.56
224.338	-13.56
224.573	-17.56
224.808	-11.56
225.042	3.44
225.277	-10.56
225.511	1.44
225.746	-2.56
225.98	3.44
226.215	13.44
226.449	10.44
226.683	28.44
226.918	27.44
227.152	32.44
227.387	35.44
227.621	39.44
227.856	25.44
228.09	53.44
228.324	43.44
228.559	65.44
228.793	49.44
229.027	62.44
229.262	69.44
229.496	65.44
229.73	83.44
229.964	59.44
230.199	85.44
230.433	88.44
230.667	80.44
230.901	88.44
231.136	80.44
231.37	85.44
231.604	94.44
231.838	83.44
232.072	85.44
232.306	89.44
232.541	87.44
232.775	88.44
233.009	88.44
233.243	88.44
233.477	81.44
233.711	89.44
233.945	91.44
234.179	77.44
234.413	99.44
234.647	72.44
234.881	90.44
235.115	90.44
235.349	87.44
235.583	85.44
235.817	92.44
236.051	88.44
236.285	83.44
236.519	94.44
236.753	92.44
236.987	87.44
237.221	91.44
237.455	93.44
237.689	94.44
237.922	92.44
238.156	109.44
238.39	98.44
238.624	94.44
238.858	91.44
239.091	103.44
239.325	80.44
239.559	101.44
239.793	88.44
240.027	89.44
240.26	92.44
240.494	94.44
240.728	84.44
240.961	98.44
241.195	97.44
241.429	93.44
241.662	99.44
241.896	84.44
242.13	92.44
242.363	102.44
242.597	105.44
242.83	92.44
243.064	91.44
243.298	100.44
243.531	85.44
243.765	116.44
243.998	110.44
244.232	105.44
244.465	99.44
244.699	96.44
244.932	104.44
245.166	119.44
245.399	107.44
245.633	108.44
245.866	94.44
246.099	88.44
246.333	102.44
246.566	101.44
246.8	100.44
247.033	80.44
247.266	93.44
247.5	96.44
247.733	104.44
247.966	100.44
248.2	107.44
248.433	116.44
248.666	120.44
248.899	125.44
249.133	128.44
249.366	126.44
249.599	102.44
249.832	126.44
250.066	129.44
250.299	147.44
250.532	198.44
250.765	168.44
250.998	148.44
251.231	125.44
251.465	124.44
251.698	105.44
251.931	107.44
252.164	128.44
252.397	126.44
252.63	113.44
252.863	112.44
253.096	116.44
253.329	126.44
253.562	120.44
253.795	144.44
254.028	136.44
254.261	124.44
254.494	115.44
254.727	121.44
254.96	116.44
255.193	127.44
255.426	152.44
255.659	164.44
255.892	247.44
256.124	289.44
256.357	252.44
256.59	193.44
256.823	174.44
257.056	142.44
257.289	142.44
257.521	142.44
257.754	149.44
257.987	124.44
258.22	134.44
258.452	139.44
258.685	142.44
258.918	129.44
259.151	140.44
259.383	128.44
259.616	128.44
259.849	132.44
260.081	127.44
260.314	127.44
260.547	131.44
260.779	136.44
261.012	131.44
261.244	142.44
261.477	128.44
261.71	124.44
261.942	134.44
262.175	118.44
262.407	108.44
262.64	139.44
262.872	139.44
263.105	125.44
263.337	117.44
263.57	130.44
263.802	125.44
264.035	125.44
264.267	108.44
264.499	140.44
264.732	130.44
264.964	144.44
265.197	136.44
265.429	130.44
265.661	120.44
265.894	128.44
266.126	131.44
266.358	126.44
266.591	125.44
266.823	126.44
267.055	122.44
267.287	138.44
267.52	121.44
267.752	137.44
267.984	116.44
268.216	133.44
268.448	130.44
268.681	140.44
268.913	116.44
269.145	128.44
269.377	129.44
269.609	132.44
269.841	122.44
270.073	131.44
270.306	128.44
270.538	135.44
270.77	140.44
271.002	129.44
271.234	135.44
271.466	139.44
271.698	140.44
271.93	127.44
272.162	148.44
272.394	147.44
272.626	140.44
272.858	146.44
273.09	158.44
273.322	135.44
273.553	141.44
273.785	153.44
274.017	134.44
274.249	167.44
274.481	163.44
274.713	158.44
274.945	152.44
275.176	141.44
275.408	165.44
275.64	151.44
275.872	179.44
276.104	173.44
276.335	158.44
276.567	175.44
276.799	177.44
277.031	210.44
277.262	224.44
277.494	199.44
277.726	190.44
277.957	185.44
278.189	186.44
278.421	176.44
278.652	179.44
278.884	160.44
279.115	169.44
279.347	169.44
279.579	192.44
279.81	229.44
280.042	232.44
280.273	263.44
280.505	247.44
280.736	210.44
280.968	208.44
281.199	187.44
281.431	167.44
281.662	175.44
281.894	177.44
282.125	183.44
282.356	163.44
282.588	175.44
282.819	156.44
283.051	156.44
283.282	153.44
283.513	164.44
283.745	167.44
283.976	143.44
284.207	159.44
284.439	151.44
284.67	148.44
284.901	154.44
285.132	148.44
285.364	143.44
285.595	156.44
285.826	159.44
286.057	154.44
286.288	156.44
286.52	155.44
286.751	160.44
286.982	149.44
287.213	155.44
287.444	150.44
287.675	167.44
287.906	156.44
288.138	149.44
288.369	157.44
288.6	144.44
288.831	157.44
289.062	150.44
289.293	161.44
289.524	153.44
289.755	149.44
289.986	166.44
290.217	152.44
290.448	166.44
290.679	164.44
290.91	182.44
291.141	157.44
291.371	157.44
291.602	157.44
291.833	136.44
292.064	158.44
292.295	136.44
292.526	149.44
292.757	154.44
292.987	147.44
293.218	147.44
293.449	150.44
293.68	154.44
293.91	149.44
294.141	148.44
294.372	145.44
294.603	137.44
294.833	145.44
295.064	147.44
295.295	145.44
295.525	149.44
295.756	152.44
295.987	151.44
296.217	144.44
296.448	161.44
296.679	161.44
296.909	152.44
297.14	154.44
297.37	154.44
297.601	153.44
297.831	142.44
298.062	137.44
298.292	153.44
298.523	148.44
298.753	170.44
298.984	149.44
299.214	155.44
299.445	159.44
299.675	150.44
299.905	167.44
300.136	158.44
300.366	163.44
300.597	168.44
300.827	152.44
301.057	160.44
301.288	170.44
301.518	155.44
301.748	157.44
301.979	190.44
302.209	190.44
302.439	159.44
302.669	166.44
302.9	158.44
303.13	162.44
303.36	177.44
303.59	197.44
303.82	200.44
304.051	196.44
304.281	186.44
304.511	170.44
304.741	155.44
304.971	157.44
305.201	167.44
305.431	157.44
305.661	148.44
305.891	151.44
306.121	160.44
306.352	160.44
306.582	180.44
306.812	184.44
307.042	185.44
307.272	212.44
307.502	221.44
307.731	198.44
307.961	187.44
308.191	175.44
308.421	155.44
308.651	162.44
308.881	167.44
309.111	181.44
309.341	183.44
309.571	159.44
309.8	174.44
310.03	167.44
310.26	161.44
310.49	163.44
310.72	174.44
310.949	186.44
311.179	175.44
311.409	159.44
311.639	165.44
311.868	179.44
312.098	173.44
312.328	164.44
312.557	174.44
312.787	164.44
313.017	169.44
313.246	184.44
313.476	164.44
313.706	164.44
313.935	189.44
314.165	189.44
314.394	165.44
314.624	150.44
314.853	181.44
315.083	191.44
315.312	192.44
315.542	171.44
315.771	160.44
316.001	169.44
316.23	168.44
316.46	187.44
316.689	161.44
316.919	179.44
317.148	158.44
317.377	187.44
317.607	187.44
317.836	178.44
318.065	160.44
318.295	176.44
318.524	187.44
318.753	172.44
318.983	173.44
319.212	166.44
319.441	183.44
319.67	188.44
319.9	167.44
320.129	179.44
320.358	191.44
320.587	192.44
320.816	160.44
321.046	192.44
321.275	184.44
321.504	189.44
321.733	197.44
321.962	191.44
322.191	187.44
322.42	194.44
322.649	186.44
322.878	185.44
323.108	205.44
323.337	211.44
323.566	199.44
323.795	209.44
324.024	208.44
324.253	203.44
324.482	204.44
324.71	229.44
324.939	229.44
325.168	218.44
325.397	215.44
325.626	248.44
325.855	232.44
326.084	232.44
326.313	238.44
326.542	240.44
326.77	266.44
326.999	253.44
327.228	295.44
327.457	311.44
327.686	404.44
327.914	528.44
328.143	675.44
328.372	715.44
328.6	501.44
328.829	382.44
329.058	365.44
329.287	406.44
329.515	475.44
329.744	639.44
329.972	917.44
330.201	1243.44
330.43	1231.44
330.658	739.44
330.887	465.44
331.115	371.44
331.344	342.44
331.572	336.44
331.801	327.44
332.03	315.44
332.258	306.44
332.486	316.44
332.715	345.44
332.943	341.44
333.172	369.44
333.4	428.44
333.629	513.44
333.857	676.44
334.085	981.44
334.314	1420.44
334.542	1735.44
334.771	1407.44
334.999	713.44
335.227	483.44
335.455	407.44
335.684	331.44
335.912	317.44
336.14	300.44
336.369	301.44
336.597	259.44
336.825	239.44
337.053	267.44
337.281	244.44
337.51	245.44
337.738	240.44
337.966	233.44
338.194	232.44
338.422	216.44
338.65	215.44
338.878	222.44
339.106	207.44
339.334	206.44
339.562	211.44
339.79	195.44
340.018	202.44
340.246	204.44
340.474	199.44
340.702	199.44
340.93	193.44
341.158	194.44
341.386	197.44
341.614	183.44
341.842	184.44
342.07	207.44
342.298	194.44
342.526	181.44
342.754	207.44
342.981	210.44
343.209	199.44
343.437	189.44
343.665	203.44
343.893	209.44
344.12	195.44
344.348	211.44
344.576	197.44
344.804	184.44
345.031	193.44
345.259	187.44
345.487	182.44
345.714	188.44
345.942	178.44
346.17	179.44
346.397	189.44
346.625	188.44
346.853	169.44
347.08	194.44
347.308	185.44
347.535	169.44
347.763	190.44
347.99	190.44
348.218	187.44
348.445	195.44
348.673	197.44
348.9	178.44
349.128	172.44
349.355	181.44
349.583	195.44
349.81	183.44
350.037	198.44
350.265	189.44
350.492	195.44
350.72	174.44
350.947	173.44
351.174	186.44
351.402	191.44
351.629	183.44
351.856	196.44
352.083	187.44
352.311	183.44
352.538	187.44
352.765	199.44
352.992	182.44
353.22	164.44
353.447	171.44
353.674	176.44
353.901	193.44
354.128	175.44
354.355	167.44
354.583	189.44
354.81	184.44
355.037	194.44
355.264	167.44
355.491	172.44
355.718	169.44
355.945	173.44
356.172	193.44
356.399	178.44
356.626	181.44
356.853	183.44
357.08	180.44
357.307	172.44
357.534	165.44
357.761	188.44
357.988	177.44
358.215	184.44
358.441	166.44
358.668	176.44
358.895	174.44
359.122	166.44
359.349	186.44
359.576	173.44
359.802	173.44
360.029	168.44
360.256	194.44
360.483	175.44
360.709	169.44
360.936	176.44
361.163	192.44
361.39	176.44
361.616	174.44
361.843	167.44
362.07	182.44
362.296	173.44
362.523	180.44
362.749	189.44
362.976	173.44
363.203	176.44
363.429	187.44
363.656	172.44
363.882	161.44
364.109	160.44
364.335	203.44
364.562	175.44
364.788	181.44
365.015	197.44
365.241	192.44
365.468	167.44
365.694	177.44
365.92	188.44
366.147	176.44
366.373	165.44
366.599	172.44
366.826	174.44
367.052	170.44
367.278	179.44
367.505	183.44
367.731	200.44
367.957	168.44
368.184	180.44
368.41	206.44
368.636	179.44
368.862	177.44
369.089	185.44
369.315	172.44
369.541	200.44
369.767	191.44
369.993	183.44
370.219	161.44
370.445	185.44
370.672	191.44
370.898	172.44
371.124	174.44
371.35	185.44
371.576	191.44
371.802	183.44
372.028	168.44
372.254	210.44
372.48	173.44
372.706	187.44
372.932	186.44
373.158	163.44
373.384	195.44
373.61	173.44
373.835	185.44
374.061	181.44
374.287	189.44
374.513	191.44
374.739	185.44
374.965	189.44
375.191	181.44
375.416	180.44
375.642	184.44
375.868	190.44
376.094	192.44
376.319	179.44
376.545	183.44
376.771	185.44
376.997	187.44
377.222	172.44
377.448	186.44
377.674	170.44
377.899	174.44
378.125	169.44
378.35	176.44
378.576	186.44
378.802	195.44
379.027	181.44
379.253	200.44
379.478	187.44
379.704	199.44
379.929	179.44
380.155	191.44
380.38	178.44
380.606	191.44
380.831	180.44
381.057	198.44
381.282	181.44
381.507	181.44
381.733	188.44
381.958	187.44
382.184	174.44
382.409	180.44
382.634	183.44
382.86	193.44
383.085	188.44
383.31	181.44
383.535	199.44
383.761	185.44
383.986	184.44
384.211	192.44
384.436	201.44
384.662	189.44
384.887	195.44
385.112	204.44
385.337	190.44
385.562	203.44
385.787	218.44
386.013	204.44
386.238	198.44
386.463	212.44
386.688	213.44
386.913	219.44
387.138	197.44
387.363	203.44
387.588	205.44
387.813	198.44
388.038	206.44
388.263	214.44
388.488	212.44
388.713	199.44
388.938	190.44
389.163	207.44
389.387	201.44
389.612	194.44
389.837	216.44
390.062	196.44
390.287	219.44
390.512	212.44
390.736	203.44
390.961	201.44
391.186	221.44
391.411	213.44
391.636	215.44
391.86	207.44
392.085	224.44
392.31	197.44
392.534	201.44
392.759	214.44
392.984	202.44
393.208	209.44
393.433	212.44
393.658	213.44
393.882	200.44
394.107	215.44
394.331	210.44
394.556	196.44
394.78	203.44
395.005	206.44
395.229	223.44
395.454	224.44
395.678	218.44
395.903	219.44
396.127	232.44
396.352	209.44
396.576	204.44
396.801	203.44
397.025	204.44
397.249	213.44
397.474	235.44
397.698	214.44
397.922	202.44
398.147	216.44
398.371	234.44
398.595	226.44
398.82	244.44
399.044	222.44
399.268	239.44
399.492	262.44
399.717	260.44
399.941	272.44
400.165	254.44
400.389	254.44
400.613	255.44
400.837	243.44
401.062	237.44
401.286	264.44
401.51	221.44
401.734	237.44
401.958	232.44
402.182	237.44
402.406	241.44
402.63	243.44
402.854	241.44
403.078	256.44
403.302	239.44
403.526	248.44
403.75	250.44
403.974	255.44
404.198	267.44
404.422	269.44
404.645	278.44
404.869	255.44
405.093	283.44
405.317	323.44
405.541	323.44
405.765	271.44
405.988	259.44
406.212	260.44
406.436	244.44
406.66	263.44
406.883	263.44
407.107	259.44
407.331	268.44
407.555	253.44
407.778	258.44
408.002	246.44
408.226	257.44
408.449	253.44
408.673	258.44
408.896	238.44
409.12	231.44
409.344	239.44
409.567	239.44
409.791	254.44
410.014	252.44
410.238	241.44
410.461	243.44
410.685	236.44
410.908	260.44
411.132	251.44
411.355	254.44
411.578	256.44
411.802	257.44
412.025	265.44
412.249	286.44
412.472	304.44
412.695	336.44
412.919	323.44
413.142	281.44
413.365	277.44
413.589	263.44
413.812	252.44
414.035	249.44
414.258	269.44
414.482	253.44
414.705	245.44
414.928	239.44
415.151	239.44
415.374	254.44
415.597	224.44
415.821	236.44
416.044	233.44
416.267	247.44
416.49	250.44
416.713	242.44
416.936	242.44
417.159	250.44
417.382	251.44
417.605	252.44
417.828	255.44
418.051	252.44
418.274	239.44
418.497	230.44
418.72	257.44
418.943	254.44
419.166	264.44
419.389	252.44
419.611	280.44
419.834	273.44
420.057	286.44
420.28	324.44
420.503	281.44
420.726	284.44
420.948	283.44
421.171	241.44
421.394	244.44
421.617	254.44
421.839	234.44
422.062	258.44
422.285	229.44
422.507	224.44
422.73	229.44
422.953	233.44
423.175	236.44
423.398	238.44
423.621	243.44
423.843	246.44
424.066	247.44
424.288	233.44
424.511	252.44
424.733	261.44
424.956	221.44
425.178	231.44
425.401	230.44
425.623	245.44
425.846	233.44
426.068	239.44
426.291	230.44
426.513	235.44
426.735	228.44
426.958	252.44
427.18	230.44
427.402	264.44
427.625	296.44
427.847	296.44
428.069	324.44
428.292	298.44
428.514	262.44
428.736	250.44
428.958	235.44
429.181	234.44
429.403	227.44
429.625	222.44
429.847	235.44
430.069	235.44
430.292	233.44
430.514	209.44
430.736	193.44
430.958	225.44
431.18	220.44
431.402	215.44
431.624	208.44
431.846	227.44
432.068	221.44
432.29	222.44
432.512	229.44
432.734	211.44
432.956	222.44
433.178	229.44
433.4	218.44
433.622	235.44
433.844	233.44
434.066	213.44
434.287	215.44
434.509	221.44
434.731	241.44
434.953	222.44
435.175	231.44
435.397	233.44
435.618	216.44
435.84	211.44
436.062	214.44
436.284	224.44
436.505	224.44
436.727	215.44
436.949	215.44
437.17	223.44
437.392	210.44
437.614	207.44
437.835	215.44
438.057	211.44
438.278	231.44
438.5	214.44
438.721	235.44
438.943	255.44
439.165	225.44
439.386	221.44
439.608	218.44
439.829	228.44
440.05	233.44
440.272	239.44
440.493	224.44
440.715	198.44
440.936	232.44
441.158	230.44
441.379	223.44
441.6	224.44
441.822	221.44
442.043	222.44
442.264	227.44
442.486	245.44
442.707	225.44
442.928	231.44
443.149	229.44
443.371	205.44
443.592	239.44
443.813	218.44
444.034	221.44
444.255	240.44
444.476	245.44
444.698	243.44
444.919	240.44
445.14	309.44
445.361	260.44
445.582	224.44
445.803	224.44
446.024	212.44
446.245	237.44
446.466	209.44
446.687	222.44
446.908	221.44
447.129	224.44
447.35	209.44
447.571	207.44
447.792	221.44
448.013	216.44
448.234	220.44
448.455	231.44
448.675	207.44
448.896	221.44
449.117	217.44
449.338	211.44
449.559	214.44
449.779	216.44
450	228.44
450.221	194.44
450.442	221.44
450.662	215.44
450.883	219.44
451.104	219.44
451.324	216.44
451.545	201.44
451.766	199.44
451.986	192.44
452.207	215.44
452.428	222.44
452.648	209.44
452.869	201.44
453.089	197.44
453.31	214.44
453.53	202.44
453.751	203.44
453.971	200.44
454.192	191.44
454.412	205.44
454.633	204.44
454.853	219.44
455.073	187.44
455.294	202.44
455.514	195.44
455.734	206.44
455.955	199.44
456.175	216.44
456.395	209.44
456.616	211.44
456.836	202.44
457.056	204.44
457.276	200.44
457.497	203.44
457.717	193.44
457.937	201.44
458.157	223.44
458.377	199.44
458.598	199.44
458.818	201.44
459.038	219.44
459.258	211.44
459.478	226.44
459.698	217.44
459.918	216.44
460.138	237.44
460.358	234.44
460.578	236.44
460.798	235.44
461.018	235.44
461.238	231.44
461.458	227.44
461.678	212.44
461.898	232.44
462.118	225.44
462.338	246.44
462.558	243.44
462.777	230.44
462.997	267.44
463.217	261.44
463.437	263.44
463.657	263.44
463.876	251.44
464.096	240.44
464.316	265.44
464.536	260.44
464.755	262.44
464.975	236.44
465.195	247.44
465.414	249.44
465.634	223.44
465.854	232.44
466.073	237.44
466.293	233.44
466.512	229.44
466.732	232.44
466.951	239.44
467.171	233.44
467.391	270.44
467.61	291.44
467.829	379.44
468.049	640.44
468.268	768.44
468.488	470.44
468.707	334.44
468.927	281.44
469.146	268.44
469.365	263.44
469.585	275.44
469.804	262.44
470.023	246.44
470.243	251.44
470.462	265.44
470.681	272.44
470.901	263.44
471.12	266.44
471.339	285.44
471.558	313.44
471.777	363.44
471.997	513.44
472.216	1044.44
472.435	1620.44
472.654	923.44
472.873	544.44
473.092	423.44
473.311	361.44
473.53	348.44
473.749	302.44
473.968	304.44
474.187	289.44
474.406	280.44
474.625	264.44
474.844	260.44
475.063	276.44
475.282	260.44
475.501	248.44
475.72	277.44
475.939	233.44
476.158	260.44
476.377	234.44
476.596	257.44
476.814	238.44
477.033	241.44
477.252	250.44
477.471	255.44
477.69	268.44
477.908	281.44
478.127	273.44
478.346	269.44
478.564	274.44
478.783	256.44
479.002	271.44
479.22	294.44
479.439	307.44
479.658	302.44
479.876	307.44
480.095	329.44
480.313	381.44
480.532	433.44
480.751	554.44
480.969	1157.44
481.188	2543.44
481.406	2051.44
481.624	1007.44
481.843	689.44
482.061	551.44
482.28	467.44
482.498	425.44
482.717	380.44
482.935	358.44
483.153	359.44
483.372	344.44
483.59	326.44
483.808	326.44
484.027	345.44
484.245	318.44
484.463	303.44
484.681	309.44
484.9	305.44
485.118	311.44
485.336	289.44
485.554	298.44
485.772	286.44
485.99	296.44
486.209	281.44
486.427	286.44
486.645	296.44
486.863	293.44
487.081	290.44
487.299	295.44
487.517	297.44
487.735	308.44
487.953	307.44
488.171	302.44
488.389	305.44
488.607	282.44
488.825	298.44
489.043	300.44
489.261	305.44
489.479	325.44
489.696	327.44
489.914	340.44
490.132	329.44
490.35	342.44
490.568	364.44
490.786	364.44
491.003	393.44
491.221	435.44
491.439	455.44
491.657	477.44
491.874	444.44
492.092	457.44
492.31	475.44
492.527	510.44
492.745	535.44
492.963	475.44
493.18	485.44
493.398	439.44
493.615	433.44
493.833	419.44
494.05	397.44
494.268	403.44
494.485	384.44
494.703	362.44
494.92	363.44
495.138	363.44
495.355	363.44
495.573	360.44
495.79	367.44
496.008	341.44
496.225	378.44
496.442	332.44
496.66	363.44
496.877	335.44
497.094	329.44
497.312	347.44
497.529	321.44
497.746	335.44
497.963	333.44
498.181	344.44
498.398	316.44
498.615	342.44
498.832	359.44
499.049	374.44
499.267	380.44
499.484	396.44
499.701	397.44
499.918	405.44
500.135	443.44
500.352	469.44
500.569	493.44
500.786	514.44
501.003	450.44
501.22	438.44
501.437	407.44
501.654	374.44
501.871	366.44
502.088	355.44
502.305	363.44
502.522	329.44
502.739	323.44
502.956	329.44
503.172	309.44
503.389	313.44
