Data from StdC_HRD10591_069.txt Node
Date: Fri May 16 15:29:15 EDT 2025
User: Yrep
Spectrometer: HR+D1059
Trigger mode: 1
Integration Time (sec): 1.000000E-1
Scans to average: 1
Electric dark correction enabled: true
Nonlinearity correction enabled: false
Boxcar width: 0
XAxis mode: Wavelengths
Number of Pixels in Spectrum: 2048
>>>>>Begin Spectral Data<<<<<
223.165	-15.25
223.4	-15.25
223.635	-15.25
223.869	-15.25
224.104	-34.25
224.338	-19.25
224.573	-7.25
224.808	-10.25
225.042	-16.25
225.277	-6.25
225.511	-1.25
225.746	0.75
225.98	9.75
226.215	6.75
226.449	15.75
226.683	21.75
226.918	31.75
227.152	38.75
227.387	32.75
227.621	50.75
227.856	44.75
228.09	50.75
228.324	57.75
228.559	56.75
228.793	57.75
229.027	59.75
229.262	73.75
229.496	68.75
229.73	71.75
229.964	86.75
230.199	78.75
230.433	76.75
230.667	89.75
230.901	67.75
231.136	94.75
231.37	105.75
231.604	96.75
231.838	100.75
232.072	94.75
232.306	80.75
232.541	91.75
232.775	88.75
233.009	86.75
233.243	86.75
233.477	94.75
233.711	101.75
233.945	104.75
234.179	92.75
234.413	92.75
234.647	104.75
234.881	97.75
235.115	100.75
235.349	98.75
235.583	92.75
235.817	100.75
236.051	104.75
236.285	99.75
236.519	89.75
236.753	92.75
236.987	74.75
237.221	93.75
237.455	96.75
237.689	88.75
237.922	80.75
238.156	96.75
238.39	95.75
238.624	87.75
238.858	92.75
239.091	100.75
239.325	108.75
239.559	97.75
239.793	92.75
240.027	110.75
240.26	79.75
240.494	106.75
240.728	102.75
240.961	89.75
241.195	100.75
241.429	105.75
241.662	89.75
241.896	112.75
242.13	93.75
242.363	87.75
242.597	101.75
242.83	101.75
243.064	101.75
243.298	92.75
243.531	95.75
243.765	93.75
243.998	101.75
244.232	104.75
244.465	108.75
244.699	98.75
244.932	88.75
245.166	94.75
245.399	111.75
245.633	109.75
245.866	95.75
246.099	114.75
246.333	104.75
246.566	110.75
246.8	118.75
247.033	117.75
247.266	104.75
247.5	111.75
247.733	96.75
247.966	120.75
248.2	113.75
248.433	107.75
248.666	115.75
248.899	110.75
249.133	109.75
249.366	129.75
249.599	103.75
249.832	128.75
250.066	142.75
250.299	182.75
250.532	197.75
250.765	185.75
250.998	149.75
251.231	157.75
251.465	125.75
251.698	120.75
251.931	130.75
252.164	120.75
252.397	121.75
252.63	109.75
252.863	115.75
253.096	125.75
253.329	117.75
253.562	117.75
253.795	142.75
254.028	127.75
254.261	124.75
254.494	120.75
254.727	138.75
254.96	138.75
255.193	148.75
255.426	170.75
255.659	190.75
255.892	247.75
256.124	312.75
256.357	249.75
256.59	209.75
256.823	187.75
257.056	172.75
257.289	145.75
257.521	159.75
257.754	150.75
257.987	128.75
258.22	152.75
258.452	143.75
258.685	138.75
258.918	148.75
259.151	135.75
259.383	151.75
259.616	139.75
259.849	128.75
260.081	148.75
260.314	131.75
260.547	134.75
260.779	141.75
261.012	136.75
261.244	130.75
261.477	135.75
261.71	129.75
261.942	134.75
262.175	130.75
262.407	139.75
262.64	120.75
262.872	129.75
263.105	137.75
263.337	138.75
263.57	128.75
263.802	122.75
264.035	131.75
264.267	137.75
264.499	132.75
264.732	134.75
264.964	129.75
265.197	134.75
265.429	128.75
265.661	152.75
265.894	111.75
266.126	130.75
266.358	150.75
266.591	145.75
266.823	128.75
267.055	134.75
267.287	130.75
267.52	130.75
267.752	152.75
267.984	134.75
268.216	128.75
268.448	144.75
268.681	140.75
268.913	142.75
269.145	128.75
269.377	145.75
269.609	132.75
269.841	134.75
270.073	148.75
270.306	133.75
270.538	136.75
270.77	151.75
271.002	128.75
271.234	139.75
271.466	152.75
271.698	141.75
271.93	148.75
272.162	135.75
272.394	136.75
272.626	121.75
272.858	140.75
273.09	151.75
273.322	136.75
273.553	150.75
273.785	142.75
274.017	149.75
274.249	149.75
274.481	141.75
274.713	167.75
274.945	151.75
275.176	164.75
275.408	183.75
275.64	184.75
275.872	162.75
276.104	170.75
276.335	176.75
276.567	191.75
276.799	194.75
277.031	220.75
277.262	236.75
277.494	234.75
277.726	217.75
277.957	196.75
278.189	187.75
278.421	182.75
278.652	185.75
278.884	166.75
279.115	172.75
279.347	178.75
279.579	223.75
279.81	230.75
280.042	257.75
280.273	278.75
280.505	272.75
280.736	225.75
280.968	204.75
281.199	184.75
281.431	169.75
281.662	155.75
281.894	164.75
282.125	149.75
282.356	153.75
282.588	159.75
282.819	148.75
283.051	178.75
283.282	150.75
283.513	167.75
283.745	160.75
283.976	150.75
284.207	165.75
284.439	161.75
284.67	154.75
284.901	146.75
285.132	153.75
285.364	164.75
285.595	161.75
285.826	175.75
286.057	162.75
286.288	153.75
286.52	162.75
286.751	166.75
286.982	155.75
287.213	152.75
287.444	148.75
287.675	157.75
287.906	156.75
288.138	161.75
288.369	149.75
288.6	152.75
288.831	170.75
289.062	160.75
289.293	155.75
289.524	163.75
289.755	144.75
289.986	160.75
290.217	158.75
290.448	155.75
290.679	166.75
290.91	162.75
291.141	154.75
291.371	155.75
291.602	160.75
291.833	166.75
292.064	151.75
292.295	160.75
292.526	147.75
292.757	152.75
292.987	145.75
293.218	160.75
293.449	147.75
293.68	157.75
293.91	144.75
294.141	158.75
294.372	144.75
294.603	155.75
294.833	168.75
295.064	161.75
295.295	159.75
295.525	143.75
295.756	148.75
295.987	150.75
296.217	153.75
296.448	168.75
296.679	169.75
296.909	168.75
297.14	135.75
297.37	168.75
297.601	145.75
297.831	155.75
298.062	161.75
298.292	146.75
298.523	160.75
298.753	160.75
298.984	158.75
299.214	155.75
299.445	143.75
299.675	171.75
299.905	180.75
300.136	164.75
300.366	170.75
300.597	168.75
300.827	171.75
301.057	171.75
301.288	165.75
301.518	172.75
301.748	165.75
301.979	193.75
302.209	175.75
302.439	179.75
302.669	168.75
302.9	155.75
303.13	187.75
303.36	186.75
303.59	211.75
303.82	199.75
304.051	182.75
304.281	175.75
304.511	181.75
304.741	194.75
304.971	167.75
305.201	165.75
305.431	162.75
305.661	167.75
305.891	164.75
306.121	185.75
306.352	176.75
306.582	171.75
306.812	203.75
307.042	219.75
307.272	217.75
307.502	240.75
307.731	216.75
307.961	209.75
308.191	183.75
308.421	173.75
308.651	190.75
308.881	203.75
309.111	161.75
309.341	180.75
309.571	182.75
309.8	183.75
310.03	170.75
310.26	168.75
310.49	172.75
310.72	170.75
310.949	168.75
311.179	180.75
311.409	177.75
311.639	186.75
311.868	171.75
312.098	166.75
312.328	152.75
312.557	172.75
312.787	193.75
313.017	180.75
313.246	178.75
313.476	192.75
313.706	184.75
313.935	170.75
314.165	166.75
314.394	185.75
314.624	185.75
314.853	179.75
315.083	178.75
315.312	164.75
315.542	173.75
315.771	184.75
316.001	178.75
316.23	188.75
316.46	184.75
316.689	173.75
316.919	169.75
317.148	182.75
317.377	175.75
317.607	178.75
317.836	170.75
318.065	180.75
318.295	170.75
318.524	180.75
318.753	188.75
318.983	176.75
319.212	177.75
319.441	171.75
319.67	180.75
319.9	197.75
320.129	195.75
320.358	181.75
320.587	182.75
320.816	180.75
321.046	170.75
321.275	200.75
321.504	194.75
321.733	194.75
321.962	180.75
322.191	200.75
322.42	197.75
322.649	222.75
322.878	213.75
323.108	200.75
323.337	222.75
323.566	225.75
323.795	201.75
324.024	226.75
324.253	213.75
324.482	224.75
324.71	218.75
324.939	222.75
325.168	222.75
325.397	215.75
325.626	220.75
325.855	225.75
326.084	248.75
326.313	252.75
326.542	249.75
326.77	236.75
326.999	275.75
327.228	297.75
327.457	346.75
327.686	416.75
327.914	534.75
328.143	737.75
328.372	754.75
328.6	537.75
328.829	410.75
329.058	389.75
329.287	412.75
329.515	511.75
329.744	696.75
329.972	1018.75
330.201	1352.75
330.43	1366.75
330.658	794.75
330.887	491.75
331.115	370.75
331.344	346.75
331.572	328.75
331.801	318.75
332.03	302.75
332.258	330.75
332.486	344.75
332.715	359.75
332.943	345.75
333.172	397.75
333.4	446.75
333.629	517.75
333.857	698.75
334.085	1068.75
334.314	1552.75
334.542	1920.75
334.771	1534.75
334.999	793.75
335.227	518.75
335.455	399.75
335.684	359.75
335.912	333.75
336.14	288.75
336.369	283.75
336.597	286.75
336.825	264.75
337.053	266.75
337.281	248.75
337.51	238.75
337.738	242.75
337.966	240.75
338.194	223.75
338.422	232.75
338.65	230.75
338.878	202.75
339.106	202.75
339.334	205.75
339.562	212.75
339.79	212.75
340.018	226.75
340.246	215.75
340.474	209.75
340.702	197.75
340.93	202.75
341.158	180.75
341.386	201.75
341.614	188.75
341.842	197.75
342.07	216.75
342.298	195.75
342.526	184.75
342.754	184.75
342.981	200.75
343.209	190.75
343.437	211.75
343.665	205.75
343.893	214.75
344.12	230.75
344.348	204.75
344.576	186.75
344.804	198.75
345.031	180.75
345.259	186.75
345.487	193.75
345.714	192.75
345.942	185.75
346.17	194.75
346.397	192.75
346.625	194.75
346.853	201.75
347.08	182.75
347.308	188.75
347.535	202.75
347.763	187.75
347.99	177.75
348.218	187.75
348.445	185.75
348.673	194.75
348.9	186.75
349.128	199.75
349.355	189.75
349.583	190.75
349.81	182.75
350.037	195.75
350.265	185.75
350.492	185.75
350.72	189.75
350.947	185.75
351.174	188.75
351.402	180.75
351.629	191.75
351.856	185.75
352.083	193.75
352.311	180.75
352.538	183.75
352.765	174.75
352.992	191.75
353.22	182.75
353.447	175.75
353.674	204.75
353.901	187.75
354.128	180.75
354.355	191.75
354.583	194.75
354.81	191.75
355.037	189.75
355.264	181.75
355.491	188.75
355.718	185.75
355.945	181.75
356.172	187.75
356.399	177.75
356.626	167.75
356.853	172.75
357.08	170.75
357.307	185.75
357.534	185.75
357.761	173.75
357.988	188.75
358.215	198.75
358.441	187.75
358.668	181.75
358.895	167.75
359.122	186.75
359.349	182.75
359.576	178.75
359.802	176.75
360.029	189.75
360.256	193.75
360.483	190.75
360.709	179.75
360.936	178.75
361.163	170.75
361.39	180.75
361.616	183.75
361.843	178.75
362.07	196.75
362.296	185.75
362.523	193.75
362.749	178.75
362.976	185.75
363.203	179.75
363.429	192.75
363.656	177.75
363.882	176.75
364.109	178.75
364.335	175.75
364.562	176.75
364.788	183.75
365.015	178.75
365.241	174.75
365.468	195.75
365.694	168.75
365.92	183.75
366.147	171.75
366.373	169.75
366.599	190.75
366.826	182.75
367.052	190.75
367.278	171.75
367.505	169.75
367.731	178.75
367.957	165.75
368.184	194.75
368.41	177.75
368.636	185.75
368.862	186.75
369.089	160.75
369.315	190.75
369.541	184.75
369.767	179.75
369.993	190.75
370.219	193.75
370.445	185.75
370.672	179.75
370.898	180.75
371.124	189.75
371.35	169.75
371.576	182.75
371.802	196.75
372.028	170.75
372.254	185.75
372.48	176.75
372.706	185.75
372.932	213.75
373.158	200.75
373.384	191.75
373.61	196.75
373.835	184.75
374.061	172.75
374.287	204.75
374.513	197.75
374.739	201.75
374.965	201.75
375.191	188.75
375.416	197.75
375.642	210.75
375.868	202.75
376.094	202.75
376.319	168.75
376.545	174.75
376.771	193.75
376.997	192.75
377.222	176.75
377.448	184.75
377.674	192.75
377.899	178.75
378.125	194.75
378.35	194.75
378.576	185.75
378.802	172.75
379.027	187.75
379.253	184.75
379.478	176.75
379.704	187.75
379.929	181.75
380.155	200.75
380.38	185.75
380.606	202.75
380.831	200.75
381.057	216.75
381.282	191.75
381.507	194.75
381.733	198.75
381.958	196.75
382.184	184.75
382.409	220.75
382.634	193.75
382.86	196.75
383.085	212.75
383.31	193.75
383.535	206.75
383.761	208.75
383.986	211.75
384.211	204.75
384.436	206.75
384.662	200.75
384.887	193.75
385.112	195.75
385.337	212.75
385.562	195.75
385.787	194.75
386.013	205.75
386.238	206.75
386.463	202.75
386.688	216.75
386.913	194.75
387.138	199.75
387.363	193.75
387.588	202.75
387.813	213.75
388.038	201.75
388.263	220.75
388.488	213.75
388.713	213.75
388.938	197.75
389.163	193.75
389.387	194.75
389.612	209.75
389.837	220.75
390.062	200.75
390.287	222.75
390.512	211.75
390.736	222.75
390.961	218.75
391.186	195.75
391.411	217.75
391.636	210.75
391.86	215.75
392.085	220.75
392.31	225.75
392.534	224.75
392.759	220.75
392.984	209.75
393.208	213.75
393.433	218.75
393.658	216.75
393.882	223.75
394.107	204.75
394.331	223.75
394.556	221.75
394.78	232.75
395.005	226.75
395.229	214.75
395.454	222.75
395.678	234.75
395.903	230.75
396.127	207.75
396.352	223.75
396.576	209.75
396.801	236.75
397.025	230.75
397.249	217.75
397.474	220.75
397.698	230.75
397.922	225.75
398.147	236.75
398.371	232.75
398.595	228.75
398.82	240.75
399.044	247.75
399.268	258.75
399.492	294.75
399.717	257.75
399.941	268.75
400.165	275.75
400.389	258.75
400.613	248.75
400.837	249.75
401.062	254.75
401.286	256.75
401.51	259.75
401.734	235.75
401.958	226.75
402.182	245.75
402.406	240.75
402.63	254.75
402.854	232.75
403.078	231.75
403.302	233.75
403.526	260.75
403.75	255.75
403.974	260.75
404.198	271.75
404.422	258.75
404.645	280.75
404.869	262.75
405.093	299.75
405.317	320.75
405.541	314.75
405.765	299.75
405.988	265.75
406.212	280.75
406.436	261.75
406.66	262.75
406.883	257.75
407.107	268.75
407.331	241.75
407.555	276.75
407.778	256.75
408.002	251.75
408.226	268.75
408.449	259.75
408.673	246.75
408.896	257.75
409.12	264.75
409.344	242.75
409.567	260.75
409.791	258.75
410.014	256.75
410.238	253.75
410.461	259.75
410.685	256.75
410.908	258.75
411.132	246.75
411.355	249.75
411.578	253.75
411.802	266.75
412.025	276.75
412.249	305.75
412.472	310.75
412.695	333.75
412.919	348.75
413.142	302.75
413.365	281.75
413.589	281.75
413.812	267.75
414.035	264.75
414.258	285.75
414.482	257.75
414.705	263.75
414.928	255.75
415.151	262.75
415.374	253.75
415.597	260.75
415.821	254.75
416.044	248.75
416.267	248.75
416.49	244.75
416.713	242.75
416.936	257.75
417.159	248.75
417.382	277.75
417.605	278.75
417.828	269.75
418.051	264.75
418.274	240.75
418.497	251.75
418.72	256.75
418.943	261.75
419.166	261.75
419.389	271.75
419.611	272.75
419.834	295.75
420.057	285.75
420.28	300.75
420.503	299.75
420.726	292.75
420.948	271.75
421.171	276.75
421.394	236.75
421.617	239.75
421.839	234.75
422.062	250.75
422.285	239.75
422.507	232.75
422.73	241.75
422.953	243.75
423.175	260.75
423.398	252.75
423.621	253.75
423.843	245.75
424.066	250.75
424.288	234.75
424.511	256.75
424.733	235.75
424.956	244.75
425.178	237.75
425.401	237.75
425.623	216.75
425.846	234.75
426.068	240.75
426.291	261.75
426.513	239.75
426.735	244.75
426.958	249.75
427.18	242.75
427.402	264.75
427.625	308.75
427.847	310.75
428.069	329.75
428.292	300.75
428.514	262.75
428.736	251.75
428.958	257.75
429.181	233.75
429.403	233.75
429.625	241.75
429.847	236.75
430.069	231.75
430.292	219.75
430.514	236.75
430.736	236.75
430.958	232.75
431.18	213.75
431.402	240.75
431.624	240.75
431.846	234.75
432.068	222.75
432.29	232.75
432.512	234.75
432.734	224.75
432.956	221.75
433.178	228.75
433.4	239.75
433.622	252.75
433.844	232.75
434.066	207.75
434.287	221.75
434.509	224.75
434.731	217.75
434.953	225.75
435.175	234.75
435.397	232.75
435.618	239.75
435.84	233.75
436.062	226.75
436.284	248.75
436.505	243.75
436.727	224.75
436.949	228.75
437.17	215.75
437.392	212.75
437.614	214.75
437.835	195.75
438.057	200.75
438.278	236.75
438.5	206.75
438.721	236.75
438.943	215.75
439.165	225.75
439.386	217.75
439.608	234.75
439.829	218.75
440.05	221.75
440.272	229.75
440.493	238.75
440.715	216.75
440.936	220.75
441.158	221.75
441.379	230.75
441.6	248.75
441.822	239.75
442.043	214.75
442.264	234.75
442.486	245.75
442.707	257.75
442.928	243.75
443.149	240.75
443.371	228.75
443.592	234.75
443.813	232.75
444.034	247.75
444.255	246.75
444.476	244.75
444.698	250.75
444.919	236.75
445.14	325.75
445.361	268.75
445.582	245.75
445.803	221.75
446.024	251.75
446.245	221.75
446.466	233.75
446.687	220.75
446.908	224.75
447.129	224.75
447.35	217.75
447.571	222.75
447.792	221.75
448.013	218.75
448.234	213.75
448.455	214.75
448.675	233.75
448.896	209.75
449.117	219.75
449.338	229.75
449.559	225.75
449.779	207.75
450	216.75
450.221	227.75
450.442	221.75
450.662	206.75
450.883	226.75
451.104	194.75
451.324	210.75
451.545	199.75
451.766	206.75
451.986	198.75
452.207	216.75
452.428	215.75
452.648	216.75
452.869	199.75
453.089	197.75
453.31	201.75
453.53	198.75
453.751	202.75
453.971	204.75
454.192	209.75
454.412	216.75
454.633	204.75
454.853	194.75
455.073	196.75
455.294	200.75
455.514	197.75
455.734	188.75
455.955	188.75
456.175	196.75
456.395	204.75
456.616	216.75
456.836	199.75
457.056	217.75
457.276	191.75
457.497	210.75
457.717	214.75
457.937	226.75
458.157	207.75
458.377	209.75
458.598	220.75
458.818	221.75
459.038	220.75
459.258	234.75
459.478	230.75
459.698	236.75
459.918	224.75
460.138	226.75
460.358	241.75
460.578	242.75
460.798	256.75
461.018	248.75
461.238	240.75
461.458	248.75
461.678	234.75
461.898	239.75
462.118	248.75
462.338	247.75
462.558	263.75
462.777	245.75
462.997	264.75
463.217	273.75
463.437	285.75
463.657	263.75
463.876	248.75
464.096	266.75
464.316	281.75
464.536	246.75
464.755	266.75
464.975	248.75
465.195	249.75
465.414	245.75
465.634	244.75
465.854	230.75
466.073	234.75
466.293	246.75
466.512	235.75
466.732	236.75
466.951	250.75
467.171	258.75
467.391	289.75
467.61	295.75
467.829	373.75
468.049	677.75
468.268	857.75
468.488	491.75
468.707	370.75
468.927	316.75
469.146	272.75
469.365	275.75
469.585	255.75
469.804	262.75
470.023	263.75
470.243	255.75
470.462	261.75
470.681	272.75
470.901	264.75
471.12	298.75
471.339	290.75
471.558	316.75
471.777	389.75
471.997	529.75
472.216	1151.75
472.435	1766.75
472.654	988.75
472.873	595.75
473.092	442.75
473.311	377.75
473.53	353.75
473.749	319.75
473.968	293.75
474.187	302.75
474.406	285.75
474.625	281.75
474.844	286.75
475.063	284.75
475.282	269.75
475.501	270.75
475.72	256.75
475.939	270.75
476.158	265.75
476.377	276.75
476.596	261.75
476.814	246.75
477.033	269.75
477.252	252.75
477.471	256.75
477.69	263.75
477.908	286.75
478.127	291.75
478.346	274.75
478.564	281.75
478.783	284.75
479.002	272.75
479.22	304.75
479.439	300.75
479.658	301.75
479.876	320.75
480.095	344.75
480.313	391.75
480.532	465.75
480.751	625.75
480.969	1247.75
481.188	2801.75
481.406	2270.75
481.624	1088.75
481.843	696.75
482.061	562.75
482.28	489.75
482.498	440.75
482.717	407.75
482.935	396.75
483.153	370.75
483.372	352.75
483.59	353.75
483.808	351.75
484.027	334.75
484.245	310.75
484.463	309.75
484.681	303.75
484.9	306.75
485.118	305.75
485.336	298.75
485.554	298.75
485.772	298.75
485.99	299.75
486.209	292.75
486.427	297.75
486.645	306.75
486.863	307.75
487.081	300.75
487.299	290.75
487.517	302.75
487.735	302.75
487.953	318.75
488.171	314.75
488.389	309.75
488.607	304.75
488.825	304.75
489.043	310.75
489.261	322.75
489.479	322.75
489.696	316.75
489.914	338.75
490.132	348.75
490.35	349.75
490.568	358.75
490.786	400.75
491.003	407.75
491.221	432.75
491.439	465.75
491.657	462.75
491.874	474.75
492.092	460.75
492.31	499.75
492.527	537.75
492.745	567.75
492.963	520.75
493.18	482.75
493.398	468.75
493.615	467.75
493.833	439.75
494.05	392.75
494.268	405.75
494.485	401.75
494.703	385.75
494.92	361.75
495.138	371.75
495.355	381.75
495.573	373.75
495.79	352.75
496.008	380.75
496.225	345.75
496.442	337.75
496.66	350.75
496.877	349.75
497.094	357.75
497.312	336.75
497.529	340.75
497.746	349.75
497.963	350.75
498.181	353.75
498.398	359.75
498.615	358.75
498.832	370.75
499.049	382.75
499.267	373.75
499.484	388.75
499.701	415.75
499.918	408.75
500.135	439.75
500.352	478.75
500.569	508.75
500.786	504.75
501.003	476.75
501.22	418.75
501.437	408.75
501.654	383.75
501.871	374.75
502.088	366.75
502.305	339.75
502.522	351.75
502.739	307.75
502.956	306.75
503.172	328.75
