Data from StdC_HRD10591_037.txt Node
Date: Fri May 16 15:28:59 EDT 2025
User: Yrep
Spectrometer: HR+D1059
Trigger mode: 1
Integration Time (sec): 1.000000E-1
Scans to average: 1
Electric dark correction enabled: true
Nonlinearity correction enabled: false
Boxcar width: 0
XAxis mode: Wavelengths
Number of Pixels in Spectrum: 2048
>>>>>Begin Spectral Data<<<<<
223.165	-16.94
223.4	-16.94
223.635	-16.94
223.869	-22.94
224.104	-14.94
224.338	-13.94
224.573	-10.94
224.808	-4.94
225.042	-0.94
225.277	-4.94
225.511	-9.94
225.746	-2.94
225.98	3.06
226.215	14.06
226.449	14.06
226.683	20.06
226.918	25.06
227.152	27.06
227.387	42.06
227.621	38.06
227.856	52.06
228.09	40.06
228.324	46.06
228.559	57.06
228.793	70.06
229.027	68.06
229.262	72.06
229.496	79.06
229.73	61.06
229.964	69.06
230.199	76.06
230.433	81.06
230.667	92.06
230.901	85.06
231.136	86.06
231.37	90.06
231.604	98.06
231.838	82.06
232.072	105.06
232.306	95.06
232.541	80.06
232.775	103.06
233.009	91.06
233.243	87.06
233.477	92.06
233.711	99.06
233.945	96.06
234.179	86.06
234.413	99.06
234.647	100.06
234.881	80.06
235.115	78.06
235.349	81.06
235.583	99.06
235.817	97.06
236.051	60.06
236.285	90.06
236.519	88.06
236.753	96.06
236.987	84.06
237.221	92.06
237.455	104.06
237.689	91.06
237.922	91.06
238.156	88.06
238.39	79.06
238.624	103.06
238.858	100.06
239.091	72.06
239.325	87.06
239.559	85.06
239.793	97.06
240.027	92.06
240.26	96.06
240.494	94.06
240.728	91.06
240.961	90.06
241.195	103.06
241.429	87.06
241.662	89.06
241.896	99.06
242.13	96.06
242.363	92.06
242.597	92.06
242.83	97.06
243.064	96.06
243.298	83.06
243.531	105.06
243.765	105.06
243.998	95.06
244.232	101.06
244.465	84.06
244.699	84.06
244.932	109.06
245.166	110.06
245.399	110.06
245.633	112.06
245.866	111.06
246.099	115.06
246.333	103.06
246.566	111.06
246.8	98.06
247.033	99.06
247.266	106.06
247.5	99.06
247.733	109.06
247.966	111.06
248.2	109.06
248.433	105.06
248.666	122.06
248.899	123.06
249.133	117.06
249.366	120.06
249.599	124.06
249.832	112.06
250.066	140.06
250.299	170.06
250.532	208.06
250.765	170.06
250.998	150.06
251.231	123.06
251.465	138.06
251.698	139.06
251.931	128.06
252.164	139.06
252.397	116.06
252.63	117.06
252.863	112.06
253.096	115.06
253.329	123.06
253.562	125.06
253.795	109.06
254.028	109.06
254.261	133.06
254.494	136.06
254.727	130.06
254.96	141.06
255.193	125.06
255.426	155.06
255.659	187.06
255.892	271.06
256.124	306.06
256.357	255.06
256.59	199.06
256.823	177.06
257.056	156.06
257.289	149.06
257.521	157.06
257.754	145.06
257.987	152.06
258.22	147.06
258.452	139.06
258.685	133.06
258.918	134.06
259.151	134.06
259.383	140.06
259.616	147.06
259.849	128.06
260.081	143.06
260.314	124.06
260.547	143.06
260.779	121.06
261.012	109.06
261.244	140.06
261.477	138.06
261.71	125.06
261.942	134.06
262.175	152.06
262.407	122.06
262.64	128.06
262.872	126.06
263.105	124.06
263.337	127.06
263.57	113.06
263.802	131.06
264.035	127.06
264.267	130.06
264.499	118.06
264.732	136.06
264.964	114.06
265.197	129.06
265.429	112.06
265.661	137.06
265.894	145.06
266.126	133.06
266.358	129.06
266.591	126.06
266.823	130.06
267.055	130.06
267.287	139.06
267.52	144.06
267.752	141.06
267.984	152.06
268.216	126.06
268.448	139.06
268.681	141.06
268.913	147.06
269.145	136.06
269.377	112.06
269.609	145.06
269.841	126.06
270.073	132.06
270.306	137.06
270.538	135.06
270.77	137.06
271.002	143.06
271.234	139.06
271.466	145.06
271.698	133.06
271.93	134.06
272.162	155.06
272.394	138.06
272.626	145.06
272.858	133.06
273.09	142.06
273.322	145.06
273.553	147.06
273.785	147.06
274.017	143.06
274.249	144.06
274.481	145.06
274.713	149.06
274.945	167.06
275.176	144.06
275.408	167.06
275.64	175.06
275.872	164.06
276.104	172.06
276.335	181.06
276.567	185.06
276.799	188.06
277.031	210.06
277.262	230.06
277.494	219.06
277.726	201.06
277.957	203.06
278.189	189.06
278.421	184.06
278.652	163.06
278.884	189.06
279.115	173.06
279.347	188.06
279.579	189.06
279.81	217.06
280.042	252.06
280.273	274.06
280.505	257.06
280.736	215.06
280.968	193.06
281.199	195.06
281.431	175.06
281.662	184.06
281.894	171.06
282.125	186.06
282.356	168.06
282.588	153.06
282.819	159.06
283.051	153.06
283.282	161.06
283.513	164.06
283.745	155.06
283.976	147.06
284.207	164.06
284.439	171.06
284.67	158.06
284.901	163.06
285.132	144.06
285.364	158.06
285.595	160.06
285.826	161.06
286.057	161.06
286.288	151.06
286.52	161.06
286.751	168.06
286.982	156.06
287.213	158.06
287.444	157.06
287.675	152.06
287.906	162.06
288.138	172.06
288.369	167.06
288.6	162.06
288.831	158.06
289.062	155.06
289.293	175.06
289.524	161.06
289.755	145.06
289.986	156.06
290.217	159.06
290.448	149.06
290.679	170.06
290.91	175.06
291.141	161.06
291.371	149.06
291.602	161.06
291.833	155.06
292.064	156.06
292.295	152.06
292.526	156.06
292.757	165.06
292.987	175.06
293.218	160.06
293.449	164.06
293.68	166.06
293.91	162.06
294.141	163.06
294.372	161.06
294.603	159.06
294.833	159.06
295.064	138.06
295.295	162.06
295.525	155.06
295.756	149.06
295.987	149.06
296.217	155.06
296.448	156.06
296.679	151.06
296.909	167.06
297.14	139.06
297.37	167.06
297.601	171.06
297.831	149.06
298.062	144.06
298.292	151.06
298.523	144.06
298.753	161.06
298.984	159.06
299.214	158.06
299.445	153.06
299.675	171.06
299.905	147.06
300.136	156.06
300.366	161.06
300.597	163.06
300.827	164.06
301.057	176.06
301.288	152.06
301.518	163.06
301.748	175.06
301.979	182.06
302.209	173.06
302.439	170.06
302.669	183.06
302.9	170.06
303.13	168.06
303.36	179.06
303.59	191.06
303.82	209.06
304.051	176.06
304.281	183.06
304.511	162.06
304.741	173.06
304.971	159.06
305.201	162.06
305.431	158.06
305.661	170.06
305.891	158.06
306.121	172.06
306.352	185.06
306.582	157.06
306.812	189.06
307.042	198.06
307.272	227.06
307.502	227.06
307.731	211.06
307.961	203.06
308.191	171.06
308.421	156.06
308.651	169.06
308.881	162.06
309.111	171.06
309.341	160.06
309.571	177.06
309.8	171.06
310.03	162.06
310.26	183.06
310.49	164.06
310.72	181.06
310.949	185.06
311.179	190.06
311.409	181.06
311.639	174.06
311.868	167.06
312.098	175.06
312.328	164.06
312.557	169.06
312.787	175.06
313.017	180.06
313.246	168.06
313.476	177.06
313.706	170.06
313.935	181.06
314.165	187.06
314.394	171.06
314.624	174.06
314.853	178.06
315.083	178.06
315.312	183.06
315.542	188.06
315.771	184.06
316.001	182.06
316.23	198.06
316.46	160.06
316.689	167.06
316.919	173.06
317.148	188.06
317.377	193.06
317.607	192.06
317.836	186.06
318.065	205.06
318.295	189.06
318.524	188.06
318.753	189.06
318.983	185.06
319.212	190.06
319.441	178.06
319.67	184.06
319.9	174.06
320.129	185.06
320.358	185.06
320.587	183.06
320.816	191.06
321.046	177.06
321.275	193.06
321.504	173.06
321.733	211.06
321.962	185.06
322.191	202.06
322.42	201.06
322.649	201.06
322.878	203.06
323.108	205.06
323.337	197.06
323.566	208.06
323.795	205.06
324.024	211.06
324.253	220.06
324.482	218.06
324.71	212.06
324.939	239.06
325.168	225.06
325.397	240.06
325.626	227.06
325.855	245.06
326.084	231.06
326.313	241.06
326.542	264.06
326.77	253.06
326.999	276.06
327.228	287.06
327.457	347.06
327.686	421.06
327.914	541.06
328.143	719.06
328.372	749.06
328.6	551.06
328.829	405.06
329.058	359.06
329.287	411.06
329.515	498.06
329.744	675.06
329.972	983.06
330.201	1324.06
330.43	1314.06
330.658	798.06
330.887	482.06
331.115	392.06
331.344	342.06
331.572	333.06
331.801	320.06
332.03	303.06
332.258	333.06
332.486	334.06
332.715	341.06
332.943	353.06
333.172	402.06
333.4	447.06
333.629	511.06
333.857	728.06
334.085	1069.06
334.314	1555.06
334.542	1877.06
334.771	1471.06
334.999	756.06
335.227	498.06
335.455	396.06
335.684	353.06
335.912	338.06
336.14	318.06
336.369	282.06
336.597	271.06
336.825	268.06
337.053	275.06
337.281	234.06
337.51	234.06
337.738	239.06
337.966	231.06
338.194	226.06
338.422	229.06
338.65	220.06
338.878	218.06
339.106	211.06
339.334	199.06
339.562	211.06
339.79	198.06
340.018	205.06
340.246	221.06
340.474	200.06
340.702	206.06
340.93	203.06
341.158	204.06
341.386	207.06
341.614	204.06
341.842	210.06
342.07	183.06
342.298	212.06
342.526	183.06
342.754	196.06
342.981	207.06
343.209	209.06
343.437	222.06
343.665	197.06
343.893	208.06
344.12	209.06
344.348	212.06
344.576	190.06
344.804	185.06
345.031	185.06
345.259	195.06
345.487	205.06
345.714	191.06
345.942	197.06
346.17	186.06
346.397	197.06
346.625	197.06
346.853	194.06
347.08	202.06
347.308	189.06
347.535	201.06
347.763	189.06
347.99	193.06
348.218	199.06
348.445	196.06
348.673	179.06
348.9	187.06
349.128	190.06
349.355	173.06
349.583	190.06
349.81	192.06
350.037	179.06
350.265	203.06
350.492	182.06
350.72	204.06
350.947	193.06
351.174	207.06
351.402	176.06
351.629	183.06
351.856	185.06
352.083	194.06
352.311	181.06
352.538	188.06
352.765	190.06
352.992	191.06
353.22	193.06
353.447	172.06
353.674	177.06
353.901	193.06
354.128	176.06
354.355	191.06
354.583	203.06
354.81	189.06
355.037	179.06
355.264	172.06
355.491	176.06
355.718	179.06
355.945	197.06
356.172	181.06
356.399	183.06
356.626	194.06
356.853	183.06
357.08	186.06
357.307	193.06
357.534	188.06
357.761	176.06
357.988	182.06
358.215	195.06
358.441	191.06
358.668	182.06
358.895	175.06
359.122	182.06
359.349	183.06
359.576	175.06
359.802	186.06
360.029	183.06
360.256	181.06
360.483	189.06
360.709	194.06
360.936	190.06
361.163	183.06
361.39	200.06
361.616	186.06
361.843	167.06
362.07	184.06
362.296	205.06
362.523	181.06
362.749	171.06
362.976	183.06
363.203	186.06
363.429	171.06
363.656	189.06
363.882	166.06
364.109	171.06
364.335	186.06
364.562	195.06
364.788	168.06
365.015	181.06
365.241	187.06
365.468	178.06
365.694	195.06
365.92	191.06
366.147	174.06
366.373	199.06
366.599	178.06
366.826	171.06
367.052	197.06
367.278	187.06
367.505	192.06
367.731	200.06
367.957	181.06
368.184	179.06
368.41	190.06
368.636	178.06
368.862	185.06
369.089	177.06
369.315	188.06
369.541	179.06
369.767	181.06
369.993	190.06
370.219	187.06
370.445	184.06
370.672	186.06
370.898	192.06
371.124	181.06
371.35	188.06
371.576	167.06
371.802	183.06
372.028	183.06
372.254	186.06
372.48	188.06
372.706	167.06
372.932	190.06
373.158	187.06
373.384	185.06
373.61	193.06
373.835	178.06
374.061	189.06
374.287	197.06
374.513	193.06
374.739	191.06
374.965	204.06
375.191	190.06
375.416	190.06
375.642	180.06
375.868	202.06
376.094	204.06
376.319	195.06
376.545	181.06
376.771	197.06
376.997	179.06
377.222	185.06
377.448	197.06
377.674	194.06
377.899	189.06
378.125	200.06
378.35	187.06
378.576	187.06
378.802	202.06
379.027	187.06
379.253	204.06
379.478	205.06
379.704	189.06
379.929	187.06
380.155	178.06
380.38	180.06
380.606	191.06
380.831	199.06
381.057	195.06
381.282	191.06
381.507	192.06
381.733	191.06
381.958	188.06
382.184	205.06
382.409	212.06
382.634	201.06
382.86	219.06
383.085	201.06
383.31	187.06
383.535	216.06
383.761	201.06
383.986	195.06
384.211	203.06
384.436	193.06
384.662	197.06
384.887	190.06
385.112	202.06
385.337	209.06
385.562	204.06
385.787	228.06
386.013	204.06
386.238	208.06
386.463	203.06
386.688	209.06
386.913	203.06
387.138	211.06
387.363	211.06
387.588	209.06
387.813	195.06
388.038	190.06
388.263	209.06
388.488	197.06
388.713	187.06
388.938	208.06
389.163	201.06
389.387	204.06
389.612	212.06
389.837	202.06
390.062	210.06
390.287	217.06
390.512	216.06
390.736	197.06
390.961	212.06
391.186	209.06
391.411	223.06
391.636	215.06
391.86	224.06
392.085	215.06
392.31	225.06
392.534	207.06
392.759	235.06
392.984	217.06
393.208	224.06
393.433	195.06
393.658	213.06
393.882	213.06
394.107	211.06
394.331	217.06
394.556	220.06
394.78	217.06
395.005	233.06
395.229	217.06
395.454	231.06
395.678	234.06
395.903	216.06
396.127	224.06
396.352	226.06
396.576	221.06
396.801	214.06
397.025	235.06
397.249	218.06
397.474	223.06
397.698	225.06
397.922	223.06
398.147	231.06
398.371	216.06
398.595	243.06
398.82	244.06
399.044	253.06
399.268	273.06
399.492	252.06
399.717	280.06
399.941	277.06
400.165	249.06
400.389	257.06
400.613	249.06
400.837	245.06
401.062	230.06
401.286	234.06
401.51	238.06
401.734	235.06
401.958	234.06
402.182	241.06
402.406	239.06
402.63	242.06
402.854	233.06
403.078	242.06
403.302	238.06
403.526	244.06
403.75	245.06
403.974	241.06
404.198	251.06
404.422	265.06
404.645	258.06
404.869	288.06
405.093	293.06
405.317	308.06
405.541	313.06
405.765	292.06
405.988	265.06
406.212	262.06
406.436	261.06
406.66	261.06
406.883	272.06
407.107	281.06
407.331	260.06
407.555	275.06
407.778	262.06
408.002	246.06
408.226	261.06
408.449	256.06
408.673	251.06
408.896	274.06
409.12	257.06
409.344	273.06
409.567	243.06
409.791	254.06
410.014	243.06
410.238	253.06
410.461	241.06
410.685	252.06
410.908	262.06
411.132	245.06
411.355	230.06
411.578	250.06
411.802	274.06
412.025	269.06
412.249	293.06
412.472	322.06
412.695	347.06
412.919	315.06
413.142	283.06
413.365	274.06
413.589	264.06
413.812	272.06
414.035	271.06
414.258	254.06
414.482	247.06
414.705	258.06
414.928	250.06
415.151	255.06
415.374	245.06
415.597	246.06
415.821	249.06
416.044	234.06
416.267	259.06
416.49	242.06
416.713	252.06
416.936	242.06
417.159	244.06
417.382	259.06
417.605	272.06
417.828	277.06
418.051	264.06
418.274	247.06
418.497	242.06
418.72	242.06
418.943	265.06
419.166	234.06
419.389	267.06
419.611	259.06
419.834	280.06
420.057	290.06
420.28	297.06
420.503	298.06
420.726	280.06
420.948	275.06
421.171	276.06
421.394	253.06
421.617	250.06
421.839	265.06
422.062	257.06
422.285	242.06
422.507	247.06
422.73	249.06
422.953	234.06
423.175	247.06
423.398	251.06
423.621	242.06
423.843	235.06
424.066	250.06
424.288	257.06
424.511	234.06
424.733	256.06
424.956	235.06
425.178	240.06
425.401	246.06
425.623	242.06
425.846	254.06
426.068	225.06
426.291	261.06
426.513	251.06
426.735	247.06
426.958	245.06
427.18	257.06
427.402	259.06
427.625	276.06
427.847	319.06
428.069	333.06
428.292	295.06
428.514	259.06
428.736	255.06
428.958	228.06
429.181	230.06
429.403	237.06
429.625	239.06
429.847	221.06
430.069	219.06
430.292	229.06
430.514	224.06
430.736	217.06
430.958	222.06
431.18	225.06
431.402	209.06
431.624	218.06
431.846	231.06
432.068	222.06
432.29	229.06
432.512	233.06
432.734	239.06
432.956	227.06
433.178	234.06
433.4	239.06
433.622	225.06
433.844	238.06
434.066	221.06
434.287	226.06
434.509	238.06
434.731	226.06
434.953	228.06
435.175	221.06
435.397	240.06
435.618	227.06
435.84	225.06
436.062	236.06
436.284	226.06
436.505	219.06
436.727	223.06
436.949	216.06
437.17	232.06
437.392	203.06
437.614	214.06
437.835	222.06
438.057	221.06
438.278	212.06
438.5	233.06
438.721	225.06
438.943	213.06
439.165	216.06
439.386	213.06
439.608	213.06
439.829	218.06
440.05	236.06
440.272	215.06
440.493	239.06
440.715	223.06
440.936	220.06
441.158	218.06
441.379	231.06
441.6	228.06
441.822	228.06
442.043	220.06
442.264	236.06
442.486	214.06
442.707	224.06
442.928	251.06
443.149	231.06
443.371	244.06
443.592	241.06
443.813	226.06
444.034	224.06
444.255	244.06
444.476	244.06
444.698	249.06
444.919	233.06
445.14	315.06
445.361	288.06
445.582	228.06
445.803	237.06
446.024	237.06
446.245	236.06
446.466	221.06
446.687	214.06
446.908	208.06
447.129	236.06
447.35	217.06
447.571	210.06
447.792	212.06
448.013	199.06
448.234	213.06
448.455	237.06
448.675	232.06
448.896	219.06
449.117	219.06
449.338	217.06
449.559	204.06
449.779	222.06
450	207.06
450.221	219.06
450.442	201.06
450.662	208.06
450.883	227.06
451.104	196.06
451.324	193.06
451.545	223.06
451.766	214.06
451.986	198.06
452.207	206.06
452.428	197.06
452.648	201.06
452.869	213.06
453.089	200.06
453.31	212.06
453.53	208.06
453.751	211.06
453.971	208.06
454.192	192.06
454.412	198.06
454.633	204.06
454.853	201.06
455.073	207.06
455.294	191.06
455.514	226.06
455.734	203.06
455.955	194.06
456.175	218.06
456.395	192.06
456.616	194.06
456.836	211.06
457.056	206.06
457.276	201.06
457.497	212.06
457.717	211.06
457.937	212.06
458.157	231.06
458.377	196.06
458.598	217.06
458.818	211.06
459.038	226.06
459.258	203.06
459.478	209.06
459.698	222.06
459.918	232.06
460.138	238.06
460.358	249.06
460.578	236.06
460.798	235.06
461.018	224.06
461.238	247.06
461.458	259.06
461.678	227.06
461.898	255.06
462.118	226.06
462.338	260.06
462.558	260.06
462.777	256.06
462.997	262.06
463.217	288.06
463.437	261.06
463.657	262.06
463.876	251.06
464.096	254.06
464.316	263.06
464.536	267.06
464.755	259.06
464.975	253.06
465.195	245.06
465.414	247.06
465.634	232.06
465.854	242.06
466.073	233.06
466.293	211.06
466.512	236.06
466.732	248.06
466.951	228.06
467.171	241.06
467.391	273.06
467.61	290.06
467.829	371.06
468.049	691.06
468.268	820.06
468.488	497.06
468.707	357.06
468.927	302.06
469.146	286.06
469.365	267.06
469.585	271.06
469.804	257.06
470.023	255.06
470.243	258.06
470.462	240.06
470.681	289.06
470.901	253.06
471.12	276.06
471.339	294.06
471.558	302.06
471.777	375.06
471.997	533.06
472.216	1108.06
472.435	1691.06
472.654	995.06
472.873	568.06
473.092	432.06
473.311	382.06
473.53	323.06
473.749	320.06
473.968	298.06
474.187	288.06
474.406	266.06
474.625	281.06
474.844	268.06
475.063	268.06
475.282	257.06
475.501	269.06
475.72	259.06
475.939	249.06
476.158	252.06
476.377	239.06
476.596	260.06
476.814	253.06
477.033	255.06
477.252	253.06
477.471	257.06
477.69	270.06
477.908	274.06
478.127	273.06
478.346	276.06
478.564	260.06
478.783	293.06
479.002	302.06
479.22	286.06
479.439	325.06
479.658	321.06
479.876	346.06
480.095	362.06
480.313	368.06
480.532	451.06
480.751	623.06
480.969	1231.06
481.188	2739.06
481.406	2181.06
481.624	1038.06
481.843	711.06
482.061	537.06
482.28	469.06
482.498	431.06
482.717	390.06
482.935	380.06
483.153	361.06
483.372	341.06
483.59	337.06
483.808	320.06
484.027	316.06
484.245	302.06
484.463	326.06
484.681	303.06
484.9	306.06
485.118	306.06
485.336	298.06
485.554	287.06
485.772	301.06
485.99	293.06
486.209	284.06
486.427	303.06
486.645	276.06
486.863	299.06
487.081	297.06
487.299	292.06
487.517	284.06
487.735	314.06
487.953	315.06
488.171	316.06
488.389	301.06
488.607	292.06
488.825	297.06
489.043	309.06
489.261	321.06
489.479	321.06
489.696	313.06
489.914	332.06
490.132	325.06
490.35	362.06
490.568	354.06
490.786	371.06
491.003	420.06
491.221	448.06
491.439	454.06
491.657	487.06
491.874	459.06
492.092	452.06
492.31	491.06
492.527	527.06
492.745	540.06
492.963	515.06
493.18	512.06
493.398	461.06
493.615	440.06
493.833	440.06
494.05	426.06
494.268	389.06
494.485	382.06
494.703	402.06
494.92	384.06
495.138	364.06
495.355	374.06
495.573	369.06
495.79	367.06
496.008	370.06
496.225	349.06
496.442	343.06
496.66	344.06
496.877	347.06
497.094	359.06
497.312	346.06
497.529	341.06
497.746	333.06
497.963	340.06
498.181	347.06
498.398	348.06
498.615	341.06
498.832	368.06
499.049	357.06
499.267	375.06
499.484	388.06
499.701	398.06
499.918	427.06
500.135	446.06
500.352	451.06
500.569	525.06
500.786	487.06
501.003	465.06
501.22	431.06
501.437	407.06
501.654	388.06
501.871	394.06
502.088	357.06
502.305	332.06
502.522	338.06
502.739	340.06
502.956	329.06
503.172	306.06
503.389	295.06
