Data from StdC_HRD10591_083.txt Node
Date: Fri May 16 15:29:22 EDT 2025
User: Yrep
Spectrometer: HR+D1059
Trigger mode: 1
Integration Time (sec): 1.000000E-1
Scans to average: 1
Electric dark correction enabled: true
Nonlinearity correction enabled: false
Boxcar width: 0
XAxis mode: Wavelengths
Number of Pixels in Spectrum: 2048
>>>>>Begin Spectral Data<<<<<
223.165	-20.12
223.4	-20.12
223.635	-20.12
223.869	-16.12
224.104	-14.12
224.338	-8.12
224.573	-23.12
224.808	-19.12
225.042	-0.12
225.277	-1.12
225.511	-2.12
225.746	-1.12
225.98	6.88
226.215	16.88
226.449	11.88
226.683	15.88
226.918	22.88
227.152	30.88
227.387	42.88
227.621	34.88
227.856	40.88
228.09	27.88
228.324	49.88
228.559	57.88
228.793	59.88
229.027	41.88
229.262	67.88
229.496	76.88
229.73	74.88
229.964	60.88
230.199	97.88
230.433	75.88
230.667	81.88
230.901	70.88
231.136	80.88
231.37	96.88
231.604	81.88
231.838	101.88
232.072	83.88
232.306	82.88
232.541	88.88
232.775	94.88
233.009	92.88
233.243	82.88
233.477	101.88
233.711	95.88
233.945	95.88
234.179	93.88
234.413	83.88
234.647	79.88
234.881	73.88
235.115	84.88
235.349	70.88
235.583	85.88
235.817	94.88
236.051	87.88
236.285	77.88
236.519	82.88
236.753	93.88
236.987	95.88
237.221	93.88
237.455	87.88
237.689	92.88
237.922	93.88
238.156	83.88
238.39	71.88
238.624	75.88
238.858	93.88
239.091	97.88
239.325	87.88
239.559	94.88
239.793	82.88
240.027	85.88
240.26	89.88
240.494	67.88
240.728	90.88
240.961	86.88
241.195	80.88
241.429	81.88
241.662	89.88
241.896	92.88
242.13	82.88
242.363	97.88
242.597	92.88
242.83	115.88
243.064	94.88
243.298	101.88
243.531	80.88
243.765	89.88
243.998	91.88
244.232	90.88
244.465	83.88
244.699	92.88
244.932	90.88
245.166	94.88
245.399	103.88
245.633	97.88
245.866	101.88
246.099	90.88
246.333	101.88
246.566	102.88
246.8	110.88
247.033	102.88
247.266	97.88
247.5	103.88
247.733	82.88
247.966	108.88
248.2	102.88
248.433	111.88
248.666	99.88
248.899	101.88
249.133	111.88
249.366	106.88
249.599	119.88
249.832	119.88
250.066	141.88
250.299	159.88
250.532	186.88
250.765	183.88
250.998	147.88
251.231	119.88
251.465	122.88
251.698	127.88
251.931	121.88
252.164	120.88
252.397	115.88
252.63	114.88
252.863	122.88
253.096	118.88
253.329	116.88
253.562	130.88
253.795	120.88
254.028	112.88
254.261	121.88
254.494	121.88
254.727	128.88
254.96	115.88
255.193	145.88
255.426	142.88
255.659	181.88
255.892	235.88
256.124	291.88
256.357	243.88
256.59	189.88
256.823	153.88
257.056	155.88
257.289	146.88
257.521	125.88
257.754	127.88
257.987	121.88
258.22	126.88
258.452	130.88
258.685	139.88
258.918	131.88
259.151	120.88
259.383	127.88
259.616	114.88
259.849	142.88
260.081	115.88
260.314	114.88
260.547	122.88
260.779	118.88
261.012	137.88
261.244	130.88
261.477	144.88
261.71	130.88
261.942	118.88
262.175	141.88
262.407	126.88
262.64	127.88
262.872	130.88
263.105	125.88
263.337	121.88
263.57	130.88
263.802	121.88
264.035	129.88
264.267	121.88
264.499	121.88
264.732	124.88
264.964	138.88
265.197	122.88
265.429	115.88
265.661	120.88
265.894	122.88
266.126	128.88
266.358	139.88
266.591	114.88
266.823	123.88
267.055	134.88
267.287	115.88
267.52	129.88
267.752	133.88
267.984	128.88
268.216	142.88
268.448	126.88
268.681	116.88
268.913	125.88
269.145	125.88
269.377	130.88
269.609	119.88
269.841	122.88
270.073	119.88
270.306	116.88
270.538	117.88
270.77	128.88
271.002	134.88
271.234	139.88
271.466	140.88
271.698	120.88
271.93	147.88
272.162	144.88
272.394	134.88
272.626	131.88
272.858	132.88
273.09	142.88
273.322	135.88
273.553	141.88
273.785	137.88
274.017	143.88
274.249	133.88
274.481	142.88
274.713	148.88
274.945	154.88
275.176	161.88
275.408	172.88
275.64	154.88
275.872	182.88
276.104	177.88
276.335	157.88
276.567	179.88
276.799	190.88
277.031	189.88
277.262	220.88
277.494	218.88
277.726	182.88
277.957	173.88
278.189	172.88
278.421	159.88
278.652	154.88
278.884	162.88
279.115	157.88
279.347	182.88
279.579	186.88
279.81	207.88
280.042	232.88
280.273	253.88
280.505	223.88
280.736	198.88
280.968	172.88
281.199	180.88
281.431	178.88
281.662	161.88
281.894	157.88
282.125	154.88
282.356	156.88
282.588	146.88
282.819	149.88
283.051	130.88
283.282	158.88
283.513	151.88
283.745	134.88
283.976	156.88
284.207	158.88
284.439	134.88
284.67	143.88
284.901	162.88
285.132	157.88
285.364	155.88
285.595	142.88
285.826	147.88
286.057	148.88
286.288	163.88
286.52	167.88
286.751	150.88
286.982	135.88
287.213	152.88
287.444	132.88
287.675	151.88
287.906	158.88
288.138	154.88
288.369	152.88
288.6	149.88
288.831	147.88
289.062	158.88
289.293	143.88
289.524	135.88
289.755	156.88
289.986	164.88
290.217	150.88
290.448	159.88
290.679	146.88
290.91	145.88
291.141	146.88
291.371	149.88
291.602	146.88
291.833	163.88
292.064	147.88
292.295	149.88
292.526	150.88
292.757	150.88
292.987	143.88
293.218	136.88
293.449	153.88
293.68	146.88
293.91	142.88
294.141	141.88
294.372	160.88
294.603	147.88
294.833	146.88
295.064	153.88
295.295	133.88
295.525	138.88
295.756	142.88
295.987	141.88
296.217	159.88
296.448	146.88
296.679	137.88
296.909	148.88
297.14	156.88
297.37	148.88
297.601	140.88
297.831	144.88
298.062	154.88
298.292	149.88
298.523	153.88
298.753	146.88
298.984	157.88
299.214	151.88
299.445	150.88
299.675	167.88
299.905	134.88
300.136	151.88
300.366	155.88
300.597	140.88
300.827	139.88
301.057	152.88
301.288	158.88
301.518	173.88
301.748	161.88
301.979	180.88
302.209	163.88
302.439	153.88
302.669	167.88
302.9	155.88
303.13	171.88
303.36	177.88
303.59	171.88
303.82	190.88
304.051	166.88
304.281	163.88
304.511	177.88
304.741	165.88
304.971	147.88
305.201	140.88
305.431	167.88
305.661	140.88
305.891	170.88
306.121	143.88
306.352	167.88
306.582	167.88
306.812	181.88
307.042	206.88
307.272	202.88
307.502	217.88
307.731	219.88
307.961	171.88
308.191	172.88
308.421	155.88
308.651	165.88
308.881	167.88
309.111	163.88
309.341	158.88
309.571	152.88
309.8	147.88
310.03	174.88
310.26	161.88
310.49	161.88
310.72	175.88
310.949	168.88
311.179	169.88
311.409	163.88
311.639	153.88
311.868	157.88
312.098	165.88
312.328	172.88
312.557	177.88
312.787	177.88
313.017	156.88
313.246	168.88
313.476	169.88
313.706	161.88
313.935	167.88
314.165	167.88
314.394	164.88
314.624	172.88
314.853	166.88
315.083	169.88
315.312	181.88
315.542	158.88
315.771	158.88
316.001	159.88
316.23	153.88
316.46	150.88
316.689	178.88
316.919	177.88
317.148	172.88
317.377	180.88
317.607	169.88
317.836	173.88
318.065	163.88
318.295	181.88
318.524	189.88
318.753	169.88
318.983	183.88
319.212	170.88
319.441	178.88
319.67	162.88
319.9	186.88
320.129	155.88
320.358	163.88
320.587	158.88
320.816	156.88
321.046	175.88
321.275	167.88
321.504	175.88
321.733	190.88
321.962	172.88
322.191	175.88
322.42	185.88
322.649	171.88
322.878	172.88
323.108	189.88
323.337	214.88
323.566	188.88
323.795	202.88
324.024	202.88
324.253	201.88
324.482	204.88
324.71	209.88
324.939	187.88
325.168	216.88
325.397	227.88
325.626	227.88
325.855	222.88
326.084	221.88
326.313	227.88
326.542	229.88
326.77	250.88
326.999	254.88
327.228	270.88
327.457	326.88
327.686	373.88
327.914	476.88
328.143	647.88
328.372	675.88
328.6	487.88
328.829	377.88
329.058	364.88
329.287	387.88
329.515	475.88
329.744	641.88
329.972	901.88
330.201	1218.88
330.43	1240.88
330.658	725.88
330.887	455.88
331.115	370.88
331.344	332.88
331.572	313.88
331.801	295.88
332.03	299.88
332.258	323.88
332.486	297.88
332.715	324.88
332.943	342.88
333.172	355.88
333.4	419.88
333.629	521.88
333.857	653.88
334.085	966.88
334.314	1438.88
334.542	1717.88
334.771	1418.88
334.999	721.88
335.227	465.88
335.455	378.88
335.684	340.88
335.912	304.88
336.14	278.88
336.369	279.88
336.597	267.88
336.825	248.88
337.053	242.88
337.281	241.88
337.51	234.88
337.738	215.88
337.966	206.88
338.194	213.88
338.422	221.88
338.65	209.88
338.878	209.88
339.106	207.88
339.334	213.88
339.562	202.88
339.79	211.88
340.018	208.88
340.246	196.88
340.474	201.88
340.702	208.88
340.93	173.88
341.158	210.88
341.386	191.88
341.614	191.88
341.842	191.88
342.07	187.88
342.298	185.88
342.526	191.88
342.754	199.88
342.981	177.88
343.209	196.88
343.437	189.88
343.665	184.88
343.893	197.88
344.12	201.88
344.348	181.88
344.576	192.88
344.804	191.88
345.031	188.88
345.259	166.88
345.487	191.88
345.714	188.88
345.942	179.88
346.17	173.88
346.397	171.88
346.625	178.88
346.853	182.88
347.08	178.88
347.308	171.88
347.535	183.88
347.763	179.88
347.99	194.88
348.218	169.88
348.445	182.88
348.673	191.88
348.9	172.88
349.128	183.88
349.355	167.88
349.583	176.88
349.81	185.88
350.037	192.88
350.265	172.88
350.492	168.88
350.72	162.88
350.947	190.88
351.174	171.88
351.402	186.88
351.629	186.88
351.856	164.88
352.083	183.88
352.311	187.88
352.538	196.88
352.765	181.88
352.992	194.88
353.22	169.88
353.447	158.88
353.674	168.88
353.901	163.88
354.128	152.88
354.355	163.88
354.583	169.88
354.81	170.88
355.037	170.88
355.264	177.88
355.491	162.88
355.718	167.88
355.945	179.88
356.172	167.88
356.399	165.88
356.626	161.88
356.853	173.88
357.08	157.88
357.307	161.88
357.534	183.88
357.761	166.88
357.988	179.88
358.215	164.88
358.441	158.88
358.668	156.88
358.895	164.88
359.122	171.88
359.349	174.88
359.576	180.88
359.802	166.88
360.029	177.88
360.256	171.88
360.483	179.88
360.709	150.88
360.936	179.88
361.163	192.88
361.39	169.88
361.616	163.88
361.843	170.88
362.07	190.88
362.296	175.88
362.523	182.88
362.749	169.88
362.976	164.88
363.203	178.88
363.429	179.88
363.656	170.88
363.882	173.88
364.109	157.88
364.335	169.88
364.562	164.88
364.788	171.88
365.015	162.88
365.241	153.88
365.468	181.88
365.694	177.88
365.92	173.88
366.147	179.88
366.373	170.88
366.599	168.88
366.826	167.88
367.052	189.88
367.278	179.88
367.505	187.88
367.731	169.88
367.957	175.88
368.184	181.88
368.41	163.88
368.636	181.88
368.862	180.88
369.089	171.88
369.315	185.88
369.541	187.88
369.767	173.88
369.993	175.88
370.219	179.88
370.445	188.88
370.672	178.88
370.898	173.88
371.124	173.88
371.35	159.88
371.576	165.88
371.802	163.88
372.028	165.88
372.254	184.88
372.48	192.88
372.706	191.88
372.932	187.88
373.158	175.88
373.384	197.88
373.61	173.88
373.835	171.88
374.061	183.88
374.287	182.88
374.513	197.88
374.739	181.88
374.965	154.88
375.191	192.88
375.416	195.88
375.642	189.88
375.868	187.88
376.094	179.88
376.319	166.88
376.545	180.88
376.771	165.88
376.997	177.88
377.222	174.88
377.448	175.88
377.674	172.88
377.899	181.88
378.125	168.88
378.35	174.88
378.576	175.88
378.802	170.88
379.027	177.88
379.253	176.88
379.478	166.88
379.704	174.88
379.929	180.88
380.155	185.88
380.38	173.88
380.606	184.88
380.831	179.88
381.057	178.88
381.282	199.88
381.507	185.88
381.733	190.88
381.958	186.88
382.184	177.88
382.409	181.88
382.634	187.88
382.86	192.88
383.085	198.88
383.31	178.88
383.535	189.88
383.761	177.88
383.986	196.88
384.211	184.88
384.436	187.88
384.662	191.88
384.887	196.88
385.112	181.88
385.337	186.88
385.562	199.88
385.787	197.88
386.013	204.88
386.238	194.88
386.463	181.88
386.688	203.88
386.913	186.88
387.138	205.88
387.363	183.88
387.588	186.88
387.813	203.88
388.038	198.88
388.263	202.88
388.488	199.88
388.713	185.88
388.938	201.88
389.163	184.88
389.387	193.88
389.612	210.88
389.837	201.88
390.062	197.88
390.287	199.88
390.512	195.88
390.736	194.88
390.961	192.88
391.186	196.88
391.411	192.88
391.636	196.88
391.86	200.88
392.085	220.88
392.31	201.88
392.534	197.88
392.759	195.88
392.984	210.88
393.208	206.88
393.433	193.88
393.658	190.88
393.882	213.88
394.107	193.88
394.331	207.88
394.556	205.88
394.78	197.88
395.005	213.88
395.229	204.88
395.454	200.88
395.678	208.88
395.903	219.88
396.127	206.88
396.352	217.88
396.576	225.88
396.801	199.88
397.025	197.88
397.249	219.88
397.474	199.88
397.698	221.88
397.922	214.88
398.147	211.88
398.371	234.88
398.595	217.88
398.82	229.88
399.044	249.88
399.268	233.88
399.492	259.88
399.717	254.88
399.941	267.88
400.165	251.88
400.389	243.88
400.613	243.88
400.837	231.88
401.062	228.88
401.286	213.88
401.51	242.88
401.734	224.88
401.958	234.88
402.182	221.88
402.406	243.88
402.63	243.88
402.854	234.88
403.078	244.88
403.302	221.88
403.526	243.88
403.75	242.88
403.974	252.88
404.198	254.88
404.422	250.88
404.645	249.88
404.869	261.88
405.093	298.88
405.317	313.88
405.541	309.88
405.765	281.88
405.988	266.88
406.212	241.88
406.436	255.88
406.66	251.88
406.883	244.88
407.107	249.88
407.331	254.88
407.555	254.88
407.778	250.88
408.002	269.88
408.226	257.88
408.449	237.88
408.673	232.88
408.896	241.88
409.12	251.88
409.344	237.88
409.567	227.88
409.791	230.88
410.014	250.88
410.238	222.88
410.461	233.88
410.685	238.88
410.908	223.88
411.132	252.88
411.355	251.88
411.578	246.88
411.802	240.88
412.025	277.88
412.249	285.88
412.472	327.88
412.695	318.88
412.919	291.88
413.142	283.88
413.365	273.88
413.589	263.88
413.812	270.88
414.035	258.88
414.258	242.88
414.482	249.88
414.705	251.88
414.928	244.88
415.151	237.88
415.374	241.88
415.597	247.88
415.821	227.88
416.044	239.88
416.267	237.88
416.49	247.88
416.713	233.88
416.936	241.88
417.159	236.88
417.382	259.88
417.605	266.88
417.828	252.88
418.051	232.88
418.274	241.88
418.497	234.88
418.72	235.88
418.943	231.88
419.166	236.88
419.389	271.88
419.611	274.88
419.834	284.88
420.057	288.88
420.28	287.88
420.503	287.88
420.726	267.88
420.948	251.88
421.171	235.88
421.394	236.88
421.617	236.88
421.839	242.88
422.062	221.88
422.285	219.88
422.507	229.88
422.73	240.88
422.953	227.88
423.175	233.88
423.398	234.88
423.621	230.88
423.843	221.88
424.066	231.88
424.288	233.88
424.511	237.88
424.733	233.88
424.956	233.88
425.178	232.88
425.401	242.88
425.623	233.88
425.846	221.88
426.068	225.88
426.291	214.88
426.513	235.88
426.735	243.88
426.958	235.88
427.18	246.88
427.402	269.88
427.625	272.88
427.847	297.88
428.069	325.88
428.292	262.88
428.514	238.88
428.736	245.88
428.958	233.88
429.181	226.88
429.403	214.88
429.625	235.88
429.847	219.88
430.069	208.88
430.292	222.88
430.514	206.88
430.736	208.88
430.958	214.88
431.18	207.88
431.402	207.88
431.624	219.88
431.846	210.88
432.068	199.88
432.29	220.88
432.512	219.88
432.734	217.88
432.956	228.88
433.178	201.88
433.4	223.88
433.622	201.88
433.844	225.88
434.066	225.88
434.287	212.88
434.509	206.88
434.731	190.88
434.953	221.88
435.175	226.88
435.397	212.88
435.618	233.88
435.84	203.88
436.062	228.88
436.284	214.88
436.505	215.88
436.727	203.88
436.949	197.88
437.17	199.88
437.392	205.88
437.614	212.88
437.835	202.88
438.057	209.88
438.278	193.88
438.5	217.88
438.721	202.88
438.943	222.88
439.165	196.88
439.386	215.88
439.608	220.88
439.829	202.88
440.05	209.88
440.272	212.88
440.493	195.88
440.715	226.88
440.936	220.88
441.158	216.88
441.379	210.88
441.6	220.88
441.822	225.88
442.043	225.88
442.264	209.88
442.486	209.88
442.707	228.88
442.928	217.88
443.149	238.88
443.371	253.88
443.592	237.88
443.813	228.88
444.034	220.88
444.255	230.88
444.476	235.88
444.698	237.88
444.919	237.88
445.14	301.88
445.361	247.88
445.582	219.88
445.803	230.88
446.024	231.88
446.245	207.88
446.466	219.88
446.687	206.88
446.908	211.88
447.129	198.88
447.35	209.88
447.571	204.88
447.792	212.88
448.013	188.88
448.234	211.88
448.455	203.88
448.675	188.88
448.896	209.88
449.117	191.88
449.338	199.88
449.559	219.88
449.779	208.88
450	199.88
450.221	207.88
450.442	215.88
450.662	215.88
450.883	200.88
451.104	197.88
451.324	213.88
451.545	206.88
451.766	190.88
451.986	200.88
452.207	199.88
452.428	205.88
452.648	206.88
452.869	189.88
453.089	177.88
453.31	188.88
453.53	189.88
453.751	199.88
453.971	186.88
454.192	203.88
454.412	199.88
454.633	192.88
454.853	205.88
455.073	208.88
455.294	198.88
455.514	202.88
455.734	187.88
455.955	184.88
456.175	198.88
456.395	213.88
456.616	197.88
456.836	196.88
457.056	189.88
457.276	191.88
457.497	211.88
457.717	197.88
457.937	197.88
458.157	218.88
458.377	193.88
458.598	189.88
458.818	212.88
459.038	199.88
459.258	209.88
459.478	207.88
459.698	212.88
459.918	213.88
460.138	225.88
460.358	218.88
460.578	227.88
460.798	227.88
461.018	227.88
461.238	220.88
461.458	227.88
461.678	221.88
461.898	239.88
462.118	225.88
462.338	246.88
462.558	234.88
462.777	254.88
462.997	255.88
463.217	267.88
463.437	247.88
463.657	247.88
463.876	243.88
464.096	244.88
464.316	225.88
464.536	264.88
464.755	234.88
464.975	229.88
465.195	221.88
465.414	213.88
465.634	225.88
465.854	218.88
466.073	240.88
466.293	226.88
466.512	230.88
466.732	242.88
466.951	236.88
467.171	225.88
467.391	260.88
467.61	252.88
467.829	349.88
468.049	625.88
468.268	730.88
468.488	447.88
468.707	332.88
468.927	281.88
469.146	275.88
469.365	246.88
469.585	257.88
469.804	253.88
470.023	246.88
470.243	238.88
470.462	236.88
470.681	246.88
470.901	257.88
471.12	257.88
471.339	252.88
471.558	273.88
471.777	342.88
471.997	487.88
472.216	1059.88
472.435	1593.88
472.654	878.88
472.873	525.88
473.092	403.88
473.311	355.88
473.53	339.88
473.749	304.88
473.968	295.88
474.187	284.88
474.406	261.88
474.625	277.88
474.844	257.88
475.063	245.88
475.282	240.88
475.501	242.88
475.72	247.88
475.939	252.88
476.158	242.88
476.377	248.88
476.596	246.88
476.814	232.88
477.033	252.88
477.252	242.88
477.471	250.88
477.69	243.88
477.908	253.88
478.127	273.88
478.346	272.88
478.564	272.88
478.783	282.88
479.002	274.88
479.22	298.88
479.439	293.88
479.658	293.88
479.876	311.88
480.095	315.88
480.313	358.88
480.532	440.88
480.751	595.88
480.969	1133.88
481.188	2480.88
481.406	2007.88
481.624	977.88
481.843	632.88
482.061	510.88
482.28	443.88
482.498	399.88
482.717	367.88
482.935	381.88
483.153	334.88
483.372	324.88
483.59	295.88
483.808	326.88
484.027	295.88
484.245	293.88
484.463	299.88
484.681	297.88
484.9	294.88
485.118	286.88
485.336	280.88
485.554	264.88
485.772	275.88
485.99	289.88
486.209	293.88
486.427	278.88
486.645	291.88
486.863	281.88
487.081	275.88
487.299	275.88
487.517	280.88
487.735	284.88
487.953	278.88
488.171	286.88
488.389	284.88
488.607	300.88
488.825	280.88
489.043	283.88
489.261	293.88
489.479	297.88
489.696	301.88
489.914	317.88
490.132	331.88
490.35	327.88
490.568	339.88
490.786	342.88
491.003	374.88
491.221	410.88
491.439	439.88
491.657	453.88
491.874	464.88
492.092	421.88
492.31	462.88
492.527	477.88
492.745	513.88
492.963	491.88
493.18	470.88
493.398	457.88
493.615	416.88
493.833	412.88
494.05	393.88
494.268	386.88
494.485	363.88
494.703	373.88
494.92	368.88
495.138	358.88
495.355	324.88
495.573	344.88
495.79	346.88
496.008	339.88
496.225	335.88
496.442	349.88
496.66	341.88
496.877	321.88
497.094	322.88
497.312	326.88
497.529	314.88
497.746	317.88
497.963	317.88
498.181	308.88
498.398	332.88
498.615	349.88
498.832	352.88
499.049	361.88
499.267	346.88
499.484	364.88
499.701	369.88
499.918	387.88
500.135	417.88
500.352	422.88
500.569	485.88
500.786	480.88
501.003	450.88
501.22	411.88
501.437	400.88
501.654	372.88
501.871	364.88
502.088	333.88
502.305	337.88
502.522	326.88
502.739	310.88
502.956	286.88
503.172	285.88
503.389	277.88
503.606	280.88
