Data from StdC_HRD10591_011.txt Node
Date: Fri May 16 15:28:46 EDT 2025
User: Yrep
Spectrometer: HR+D1059
Trigger mode: 1
Integration Time (sec): 1.000000E-1
Scans to average: 1
Electric dark correction enabled: true
Nonlinearity correction enabled: false
Boxcar width: 0
XAxis mode: Wavelengths
Number of Pixels in Spectrum: 2048
>>>>>Begin Spectral Data<<<<<
223.165	-20.19
223.4	-20.19
223.635	-20.19
223.869	-12.19
224.104	-23.19
224.338	-14.19
224.573	-27.19
224.808	-5.19
225.042	-6.19
225.277	-3.19
225.511	9.81
225.746	4.81
225.98	20.81
226.215	9.81
226.449	11.81
226.683	18.81
226.918	13.81
227.152	21.81
227.387	44.81
227.621	33.81
227.856	63.81
228.09	59.81
228.324	57.81
228.559	60.81
228.793	67.81
229.027	55.81
229.262	73.81
229.496	81.81
229.73	58.81
229.964	73.81
230.199	71.81
230.433	76.81
230.667	89.81
230.901	90.81
231.136	78.81
231.37	91.81
231.604	85.81
231.838	85.81
232.072	104.81
232.306	91.81
232.541	67.81
232.775	74.81
233.009	91.81
233.243	73.81
233.477	81.81
233.711	80.81
233.945	86.81
234.179	67.81
234.413	76.81
234.647	88.81
234.881	84.81
235.115	78.81
235.349	72.81
235.583	92.81
235.817	85.81
236.051	77.81
236.285	76.81
236.519	74.81
236.753	68.81
236.987	89.81
237.221	83.81
237.455	71.81
237.689	82.81
237.922	69.81
238.156	80.81
238.39	71.81
238.624	60.81
238.858	95.81
239.091	91.81
239.325	82.81
239.559	78.81
239.793	82.81
240.027	75.81
240.26	73.81
240.494	78.81
240.728	78.81
240.961	87.81
241.195	79.81
241.429	89.81
241.662	86.81
241.896	87.81
242.13	75.81
242.363	83.81
242.597	78.81
242.83	80.81
243.064	88.81
243.298	75.81
243.531	87.81
243.765	83.81
243.998	99.81
244.232	90.81
244.465	83.81
244.699	83.81
244.932	83.81
245.166	90.81
245.399	90.81
245.633	77.81
245.866	83.81
246.099	63.81
246.333	88.81
246.566	87.81
246.8	75.81
247.033	83.81
247.266	85.81
247.5	75.81
247.733	85.81
247.966	76.81
248.2	77.81
248.433	78.81
248.666	83.81
248.899	65.81
249.133	75.81
249.366	75.81
249.599	76.81
249.832	71.81
250.066	83.81
250.299	89.81
250.532	102.81
250.765	80.81
250.998	77.81
251.231	68.81
251.465	81.81
251.698	94.81
251.931	72.81
252.164	78.81
252.397	87.81
252.63	83.81
252.863	83.81
253.096	65.81
253.329	79.81
253.562	65.81
253.795	92.81
254.028	107.81
254.261	75.81
254.494	81.81
254.727	90.81
254.96	90.81
255.193	99.81
255.426	85.81
255.659	91.81
255.892	84.81
256.124	84.81
256.357	73.81
256.59	73.81
256.823	90.81
257.056	81.81
257.289	83.81
257.521	83.81
257.754	76.81
257.987	85.81
258.22	80.81
258.452	80.81
258.685	83.81
258.918	69.81
259.151	80.81
259.383	89.81
259.616	80.81
259.849	75.81
260.081	77.81
260.314	87.81
260.547	84.81
260.779	79.81
261.012	79.81
261.244	85.81
261.477	84.81
261.71	107.81
261.942	70.81
262.175	87.81
262.407	90.81
262.64	88.81
262.872	87.81
263.105	76.81
263.337	67.81
263.57	84.81
263.802	99.81
264.035	85.81
264.267	77.81
264.499	80.81
264.732	79.81
264.964	86.81
265.197	60.81
265.429	87.81
265.661	91.81
265.894	87.81
266.126	80.81
266.358	93.81
266.591	80.81
266.823	91.81
267.055	81.81
267.287	85.81
267.52	94.81
267.752	71.81
267.984	93.81
268.216	92.81
268.448	85.81
268.681	94.81
268.913	99.81
269.145	81.81
269.377	75.81
269.609	86.81
269.841	86.81
270.073	87.81
270.306	84.81
270.538	84.81
270.77	95.81
271.002	82.81
271.234	75.81
271.466	89.81
271.698	93.81
271.93	71.81
272.162	77.81
272.394	91.81
272.626	86.81
272.858	78.81
273.09	80.81
273.322	75.81
273.553	81.81
273.785	87.81
274.017	84.81
274.249	77.81
274.481	79.81
274.713	90.81
274.945	98.81
275.176	89.81
275.408	91.81
275.64	89.81
275.872	100.81
276.104	81.81
276.335	85.81
276.567	87.81
276.799	80.81
277.031	93.81
277.262	107.81
277.494	105.81
277.726	95.81
277.957	83.81
278.189	84.81
278.421	95.81
278.652	95.81
278.884	92.81
279.115	85.81
279.347	84.81
279.579	89.81
279.81	99.81
280.042	94.81
280.273	111.81
280.505	105.81
280.736	95.81
280.968	94.81
281.199	88.81
281.431	84.81
281.662	83.81
281.894	79.81
282.125	72.81
282.356	95.81
282.588	85.81
282.819	87.81
283.051	87.81
283.282	93.81
283.513	89.81
283.745	82.81
283.976	65.81
284.207	70.81
284.439	84.81
284.67	81.81
284.901	92.81
285.132	79.81
285.364	81.81
285.595	76.81
285.826	91.81
286.057	84.81
286.288	80.81
286.52	87.81
286.751	83.81
286.982	81.81
287.213	88.81
287.444	67.81
287.675	87.81
287.906	87.81
288.138	103.81
288.369	85.81
288.6	83.81
288.831	88.81
289.062	95.81
289.293	92.81
289.524	90.81
289.755	91.81
289.986	91.81
290.217	84.81
290.448	77.81
290.679	73.81
290.91	89.81
291.141	98.81
291.371	89.81
291.602	83.81
291.833	79.81
292.064	67.81
292.295	87.81
292.526	92.81
292.757	90.81
292.987	90.81
293.218	83.81
293.449	86.81
293.68	87.81
293.91	87.81
294.141	89.81
294.372	83.81
294.603	98.81
294.833	88.81
295.064	82.81
295.295	97.81
295.525	88.81
295.756	83.81
295.987	84.81
296.217	88.81
296.448	82.81
296.679	91.81
296.909	87.81
297.14	99.81
297.37	91.81
297.601	76.81
297.831	80.81
298.062	89.81
298.292	82.81
298.523	79.81
298.753	75.81
298.984	84.81
299.214	84.81
299.445	77.81
299.675	92.81
299.905	93.81
300.136	84.81
300.366	99.81
300.597	91.81
300.827	88.81
301.057	83.81
301.288	89.81
301.518	83.81
301.748	72.81
301.979	91.81
302.209	79.81
302.439	69.81
302.669	92.81
302.9	90.81
303.13	97.81
303.36	89.81
303.59	89.81
303.82	86.81
304.051	93.81
304.281	79.81
304.511	93.81
304.741	80.81
304.971	84.81
305.201	90.81
305.431	99.81
305.661	99.81
305.891	92.81
306.121	101.81
306.352	85.81
306.582	77.81
306.812	90.81
307.042	94.81
307.272	100.81
307.502	96.81
307.731	99.81
307.961	89.81
308.191	81.81
308.421	86.81
308.651	96.81
308.881	92.81
309.111	84.81
309.341	88.81
309.571	66.81
309.8	86.81
310.03	82.81
310.26	91.81
310.49	95.81
310.72	84.81
310.949	81.81
311.179	92.81
311.409	69.81
311.639	83.81
311.868	80.81
312.098	75.81
312.328	107.81
312.557	76.81
312.787	91.81
313.017	92.81
313.246	76.81
313.476	87.81
313.706	89.81
313.935	97.81
314.165	75.81
314.394	100.81
314.624	85.81
314.853	92.81
315.083	94.81
315.312	97.81
315.542	92.81
315.771	100.81
316.001	81.81
316.23	84.81
316.46	93.81
316.689	80.81
316.919	81.81
317.148	80.81
317.377	91.81
317.607	91.81
317.836	81.81
318.065	80.81
318.295	88.81
318.524	94.81
318.753	107.81
318.983	95.81
319.212	89.81
319.441	87.81
319.67	88.81
319.9	82.81
320.129	89.81
320.358	84.81
320.587	75.81
320.816	70.81
321.046	88.81
321.275	92.81
321.504	84.81
321.733	82.81
321.962	85.81
322.191	89.81
322.42	80.81
322.649	96.81
322.878	97.81
323.108	85.81
323.337	95.81
323.566	95.81
323.795	84.81
324.024	88.81
324.253	89.81
324.482	92.81
324.71	82.81
324.939	79.81
325.168	84.81
325.397	72.81
325.626	90.81
325.855	115.81
326.084	97.81
326.313	109.81
326.542	110.81
326.77	81.81
326.999	89.81
327.228	92.81
327.457	84.81
327.686	104.81
327.914	104.81
328.143	121.81
328.372	136.81
328.6	112.81
328.829	99.81
329.058	88.81
329.287	99.81
329.515	89.81
329.744	104.81
329.972	129.81
330.201	156.81
330.43	199.81
330.658	123.81
330.887	84.81
331.115	89.81
331.344	93.81
331.572	103.81
331.801	88.81
332.03	90.81
332.258	104.81
332.486	77.81
332.715	90.81
332.943	84.81
333.172	92.81
333.4	97.81
333.629	90.81
333.857	91.81
334.085	122.81
334.314	168.81
334.542	233.81
334.771	197.81
334.999	111.81
335.227	98.81
335.455	96.81
335.684	75.81
335.912	84.81
336.14	98.81
336.369	88.81
336.597	87.81
336.825	94.81
337.053	81.81
337.281	93.81
337.51	92.81
337.738	85.81
337.966	91.81
338.194	83.81
338.422	74.81
338.65	94.81
338.878	82.81
339.106	85.81
339.334	87.81
339.562	89.81
339.79	91.81
340.018	84.81
340.246	92.81
340.474	73.81
340.702	100.81
340.93	95.81
341.158	78.81
341.386	77.81
341.614	77.81
341.842	83.81
342.07	89.81
342.298	80.81
342.526	95.81
342.754	87.81
342.981	89.81
343.209	66.81
343.437	95.81
343.665	88.81
343.893	80.81
344.12	96.81
344.348	99.81
344.576	87.81
344.804	83.81
345.031	85.81
345.259	73.81
345.487	97.81
345.714	80.81
345.942	90.81
346.17	87.81
346.397	94.81
346.625	77.81
346.853	88.81
347.08	93.81
347.308	93.81
347.535	86.81
347.763	87.81
347.99	84.81
348.218	90.81
348.445	95.81
348.673	80.81
348.9	90.81
349.128	80.81
349.355	73.81
349.583	87.81
349.81	82.81
350.037	91.81
350.265	79.81
350.492	81.81
350.72	82.81
350.947	92.81
351.174	78.81
351.402	84.81
351.629	87.81
351.856	94.81
352.083	87.81
352.311	85.81
352.538	83.81
352.765	86.81
352.992	78.81
353.22	83.81
353.447	77.81
353.674	93.81
353.901	88.81
354.128	80.81
354.355	95.81
354.583	80.81
354.81	83.81
355.037	91.81
355.264	100.81
355.491	78.81
355.718	85.81
355.945	72.81
356.172	80.81
356.399	95.81
356.626	85.81
356.853	86.81
357.08	81.81
357.307	79.81
357.534	82.81
357.761	72.81
357.988	86.81
358.215	88.81
358.441	84.81
358.668	98.81
358.895	81.81
359.122	89.81
359.349	90.81
359.576	70.81
359.802	79.81
360.029	77.81
360.256	78.81
360.483	83.81
360.709	96.81
360.936	95.81
361.163	88.81
361.39	84.81
361.616	88.81
361.843	83.81
362.07	71.81
362.296	79.81
362.523	85.81
362.749	76.81
362.976	85.81
363.203	77.81
363.429	83.81
363.656	95.81
363.882	92.81
364.109	89.81
364.335	105.81
364.562	85.81
364.788	82.81
365.015	94.81
365.241	71.81
365.468	77.81
365.694	73.81
365.92	75.81
366.147	80.81
366.373	95.81
366.599	100.81
366.826	89.81
367.052	91.81
367.278	84.81
367.505	82.81
367.731	105.81
367.957	75.81
368.184	90.81
368.41	89.81
368.636	87.81
368.862	84.81
369.089	86.81
369.315	75.81
369.541	91.81
369.767	91.81
369.993	100.81
370.219	79.81
370.445	85.81
370.672	82.81
370.898	85.81
371.124	87.81
371.35	76.81
371.576	91.81
371.802	87.81
372.028	82.81
372.254	83.81
372.48	88.81
372.706	98.81
372.932	104.81
373.158	96.81
373.384	88.81
373.61	95.81
373.835	81.81
374.061	89.81
374.287	87.81
374.513	80.81
374.739	94.81
374.965	89.81
375.191	92.81
375.416	90.81
375.642	91.81
375.868	83.81
376.094	86.81
376.319	97.81
376.545	84.81
376.771	82.81
376.997	79.81
377.222	89.81
377.448	89.81
377.674	90.81
377.899	80.81
378.125	80.81
378.35	98.81
378.576	91.81
378.802	91.81
379.027	83.81
379.253	82.81
379.478	84.81
379.704	95.81
379.929	90.81
380.155	96.81
380.38	91.81
380.606	85.81
380.831	102.81
381.057	103.81
381.282	95.81
381.507	96.81
381.733	83.81
381.958	91.81
382.184	90.81
382.409	70.81
382.634	93.81
382.86	93.81
383.085	85.81
383.31	89.81
383.535	93.81
383.761	87.81
383.986	81.81
384.211	80.81
384.436	90.81
384.662	88.81
384.887	80.81
385.112	85.81
385.337	94.81
385.562	84.81
385.787	92.81
386.013	85.81
386.238	85.81
386.463	94.81
386.688	101.81
386.913	81.81
387.138	84.81
387.363	93.81
387.588	82.81
387.813	68.81
388.038	84.81
388.263	85.81
388.488	91.81
388.713	98.81
388.938	83.81
389.163	85.81
389.387	89.81
389.612	75.81
389.837	88.81
390.062	99.81
390.287	75.81
390.512	81.81
390.736	101.81
390.961	77.81
391.186	88.81
391.411	98.81
391.636	87.81
391.86	68.81
392.085	89.81
392.31	72.81
392.534	82.81
392.759	103.81
392.984	77.81
393.208	96.81
393.433	85.81
393.658	73.81
393.882	85.81
394.107	82.81
394.331	91.81
394.556	79.81
394.78	85.81
395.005	91.81
395.229	87.81
395.454	92.81
395.678	57.81
395.903	97.81
396.127	91.81
396.352	87.81
396.576	79.81
396.801	91.81
397.025	81.81
397.249	82.81
397.474	78.81
397.698	83.81
397.922	94.81
398.147	89.81
398.371	91.81
398.595	85.81
398.82	89.81
399.044	83.81
399.268	89.81
399.492	71.81
399.717	98.81
399.941	77.81
400.165	89.81
400.389	85.81
400.613	90.81
400.837	67.81
401.062	100.81
401.286	87.81
401.51	82.81
401.734	86.81
401.958	96.81
402.182	89.81
402.406	98.81
402.63	84.81
402.854	82.81
403.078	98.81
403.302	92.81
403.526	93.81
403.75	87.81
403.974	87.81
404.198	87.81
404.422	89.81
404.645	96.81
404.869	84.81
405.093	90.81
405.317	83.81
405.541	88.81
405.765	87.81
405.988	79.81
406.212	88.81
406.436	84.81
406.66	85.81
406.883	96.81
407.107	83.81
407.331	87.81
407.555	85.81
407.778	74.81
408.002	89.81
408.226	94.81
408.449	92.81
408.673	91.81
408.896	95.81
409.12	95.81
409.344	83.81
409.567	97.81
409.791	81.81
410.014	81.81
410.238	89.81
410.461	89.81
410.685	94.81
410.908	79.81
411.132	84.81
411.355	91.81
411.578	104.81
411.802	86.81
412.025	82.81
412.249	88.81
412.472	107.81
412.695	98.81
412.919	82.81
413.142	83.81
413.365	85.81
413.589	85.81
413.812	87.81
414.035	91.81
414.258	82.81
414.482	81.81
414.705	101.81
414.928	99.81
415.151	105.81
415.374	105.81
415.597	85.81
415.821	93.81
416.044	97.81
416.267	86.81
416.49	95.81
416.713	81.81
416.936	84.81
417.159	93.81
417.382	85.81
417.605	93.81
417.828	85.81
418.051	82.81
418.274	90.81
418.497	69.81
418.72	80.81
418.943	98.81
419.166	91.81
419.389	81.81
419.611	104.81
419.834	95.81
420.057	79.81
420.28	81.81
420.503	83.81
420.726	95.81
420.948	88.81
421.171	93.81
421.394	82.81
421.617	85.81
421.839	91.81
422.062	93.81
422.285	92.81
422.507	89.81
422.73	86.81
422.953	89.81
423.175	74.81
423.398	100.81
423.621	81.81
423.843	84.81
424.066	71.81
424.288	77.81
424.511	95.81
424.733	107.81
424.956	85.81
425.178	83.81
425.401	97.81
425.623	92.81
425.846	86.81
426.068	89.81
426.291	91.81
426.513	89.81
426.735	75.81
426.958	90.81
427.18	76.81
427.402	93.81
427.625	98.81
427.847	91.81
428.069	81.81
428.292	85.81
428.514	96.81
428.736	75.81
428.958	87.81
429.181	74.81
429.403	82.81
429.625	94.81
429.847	78.81
430.069	87.81
430.292	93.81
430.514	84.81
430.736	84.81
430.958	82.81
431.18	87.81
431.402	91.81
431.624	82.81
431.846	90.81
432.068	91.81
432.29	82.81
432.512	98.81
432.734	93.81
432.956	74.81
433.178	98.81
433.4	80.81
433.622	80.81
433.844	92.81
434.066	88.81
434.287	94.81
434.509	80.81
434.731	93.81
434.953	87.81
435.175	88.81
435.397	97.81
435.618	91.81
435.84	96.81
436.062	89.81
436.284	89.81
436.505	86.81
436.727	86.81
436.949	105.81
437.17	84.81
437.392	100.81
437.614	99.81
437.835	91.81
438.057	76.81
438.278	94.81
438.5	83.81
438.721	85.81
438.943	82.81
439.165	95.81
439.386	89.81
439.608	98.81
439.829	103.81
440.05	92.81
440.272	83.81
440.493	92.81
440.715	92.81
440.936	92.81
441.158	95.81
441.379	80.81
441.6	77.81
441.822	85.81
442.043	98.81
442.264	92.81
442.486	88.81
442.707	80.81
442.928	97.81
443.149	80.81
443.371	95.81
443.592	79.81
443.813	91.81
444.034	85.81
444.255	99.81
444.476	101.81
444.698	96.81
444.919	99.81
445.14	173.81
445.361	104.81
445.582	80.81
445.803	71.81
446.024	77.81
446.245	98.81
446.466	86.81
446.687	83.81
446.908	81.81
447.129	95.81
447.35	82.81
447.571	98.81
447.792	90.81
448.013	93.81
448.234	92.81
448.455	81.81
448.675	85.81
448.896	86.81
449.117	87.81
449.338	77.81
449.559	101.81
449.779	84.81
450	83.81
450.221	88.81
450.442	107.81
450.662	79.81
450.883	89.81
451.104	94.81
451.324	85.81
451.545	80.81
451.766	80.81
451.986	98.81
452.207	89.81
452.428	81.81
452.648	85.81
452.869	87.81
453.089	96.81
453.31	78.81
453.53	82.81
453.751	85.81
453.971	82.81
454.192	79.81
454.412	98.81
454.633	99.81
454.853	90.81
455.073	84.81
455.294	93.81
455.514	89.81
455.734	81.81
455.955	93.81
456.175	74.81
456.395	83.81
456.616	95.81
456.836	92.81
457.056	89.81
457.276	88.81
457.497	96.81
457.717	89.81
457.937	77.81
458.157	85.81
458.377	89.81
458.598	79.81
458.818	88.81
459.038	85.81
459.258	75.81
459.478	91.81
459.698	98.81
459.918	87.81
460.138	98.81
460.358	87.81
460.578	83.81
460.798	76.81
461.018	85.81
461.238	82.81
461.458	92.81
461.678	82.81
461.898	97.81
462.118	97.81
462.338	78.81
462.558	98.81
462.777	82.81
462.997	93.81
463.217	91.81
463.437	88.81
463.657	74.81
463.876	96.81
464.096	100.81
464.316	75.81
464.536	84.81
464.755	90.81
464.975	76.81
465.195	80.81
465.414	97.81
465.634	92.81
465.854	74.81
466.073	87.81
466.293	94.81
466.512	94.81
466.732	74.81
466.951	92.81
467.171	94.81
467.391	95.81
467.61	98.81
467.829	101.81
468.049	167.81
468.268	175.81
468.488	97.81
468.707	93.81
468.927	91.81
469.146	83.81
469.365	76.81
469.585	85.81
469.804	94.81
470.023	70.81
470.243	85.81
470.462	98.81
470.681	97.81
470.901	89.81
471.12	84.81
471.339	96.81
471.558	101.81
471.777	95.81
471.997	130.81
472.216	220.81
472.435	311.81
472.654	130.81
472.873	99.81
473.092	91.81
473.311	95.81
473.53	81.81
473.749	91.81
473.968	87.81
474.187	78.81
474.406	96.81
474.625	89.81
474.844	84.81
475.063	85.81
475.282	78.81
475.501	87.81
475.72	87.81
475.939	92.81
476.158	90.81
476.377	90.81
476.596	84.81
476.814	88.81
477.033	83.81
477.252	87.81
477.471	81.81
477.69	73.81
477.908	85.81
478.127	86.81
478.346	94.81
478.564	88.81
478.783	87.81
479.002	86.81
479.22	92.81
479.439	98.81
479.658	80.81
479.876	86.81
480.095	95.81
480.313	101.81
480.532	98.81
480.751	95.81
480.969	221.81
481.188	468.81
481.406	277.81
481.624	107.81
481.843	98.81
482.061	94.81
482.28	93.81
482.498	65.81
482.717	77.81
482.935	87.81
483.153	89.81
483.372	87.81
483.59	89.81
483.808	86.81
484.027	93.81
484.245	71.81
484.463	84.81
484.681	90.81
484.9	81.81
485.118	86.81
485.336	71.81
485.554	81.81
485.772	82.81
485.99	87.81
486.209	76.81
486.427	67.81
486.645	79.81
486.863	82.81
487.081	90.81
487.299	94.81
487.517	80.81
487.735	80.81
487.953	89.81
488.171	89.81
488.389	90.81
488.607	85.81
488.825	90.81
489.043	98.81
489.261	84.81
489.479	73.81
489.696	95.81
489.914	74.81
490.132	109.81
490.35	82.81
490.568	89.81
490.786	87.81
491.003	91.81
491.221	91.81
491.439	95.81
491.657	98.81
491.874	96.81
492.092	90.81
492.31	83.81
492.527	92.81
492.745	96.81
492.963	104.81
493.18	97.81
493.398	92.81
493.615	91.81
493.833	93.81
494.05	99.81
494.268	81.81
494.485	80.81
494.703	91.81
494.92	88.81
495.138	101.81
495.355	81.81
495.573	78.81
495.79	90.81
496.008	99.81
496.225	82.81
496.442	100.81
496.66	96.81
496.877	104.81
497.094	93.81
497.312	92.81
497.529	90.81
497.746	83.81
497.963	99.81
498.181	87.81
498.398	86.81
498.615	70.81
498.832	93.81
499.049	87.81
499.267	81.81
499.484	81.81
499.701	93.81
499.918	85.81
500.135	88.81
500.352	78.81
500.569	87.81
500.786	90.81
501.003	89.81
501.22	77.81
501.437	97.81
501.654	85.81
501.871	80.81
502.088	81.81
502.305	83.81
502.522	85.81
502.739	90.81
502.956	100.81
503.172	97.81
503.389	86.81
503.606	85.81
503.823	95.81
504.04	69.81
504.256	88.81
504.473	99.81
504.69	98.81
504.907	92.81
505.123	88.81
505.34	87.81
505.557	83.81
505.773	84.81
505.99	83.81
506.207	103.81
506.423	99.81
506.64	84.81
506.856	87.81
507.073	93.81
507.289	89.81
507.506	84.81
507.722	78.81
507.939	82.81
508.155	91.81
508.372	73.81
508.588	78.81
508.805	76.81
509.021	97.81
509.238	95.81
509.454	80.81
509.67	95.81
509.887	71.81
510.103	93.81
510.319	87.81
510.536	91.81
510.752	81.81
510.968	81.81
511.184	90.81
511.401	89.81
511.617	85.81
511.833	77.81
512.049	79.81
512.265	80.81
512.481	83.81
512.698	98.81
512.914	99.81
513.13	79.81
513.346	84.81
513.562	90.81
513.778	97.81
513.994	79.81
514.21	93.81
514.426	83.81
514.642	93.81
514.858	79.81
515.074	97.81
515.29	82.81
515.506	80.81
515.721	75.81
515.937	90.81
516.153	74.81
516.369	82.81
516.585	80.81
516.801	79.81
517.016	93.81
517.232	79.81
517.448	80.81
517.664	89.81
517.879	90.81
518.095	79.81
518.311	81.81
518.527	80.81
518.742	76.81
518.958	91.81
519.173	93.81
