Data from StdC_HRD10591_008.txt Node
Date: Fri May 16 15:28:44 EDT 2025
User: Yrep
Spectrometer: HR+D1059
Trigger mode: 1
Integration Time (sec): 1.000000E-1
Scans to average: 1
Electric dark correction enabled: true
Nonlinearity correction enabled: false
Boxcar width: 0
XAxis mode: Wavelengths
Number of Pixels in Spectrum: 2048
>>>>>Begin Spectral Data<<<<<
223.165	-13.62
223.4	-13.62
223.635	-13.62
223.869	-27.62
224.104	-40.62
224.338	-23.62
224.573	-21.62
224.808	-12.62
225.042	-13.62
225.277	12.38
225.511	3.38
225.746	17.38
225.98	14.38
226.215	9.38
226.449	20.38
226.683	16.38
226.918	16.38
227.152	43.38
227.387	29.38
227.621	21.38
227.856	54.38
228.09	39.38
228.324	47.38
228.559	50.38
228.793	46.38
229.027	60.38
229.262	64.38
229.496	69.38
229.73	60.38
229.964	65.38
230.199	68.38
230.433	76.38
230.667	81.38
230.901	63.38
231.136	71.38
231.37	70.38
231.604	67.38
231.838	80.38
232.072	84.38
232.306	78.38
232.541	76.38
232.775	76.38
233.009	75.38
233.243	81.38
233.477	60.38
233.711	81.38
233.945	90.38
234.179	78.38
234.413	84.38
234.647	71.38
234.881	83.38
235.115	77.38
235.349	76.38
235.583	85.38
235.817	69.38
236.051	73.38
236.285	78.38
236.519	60.38
236.753	79.38
236.987	76.38
237.221	73.38
237.455	69.38
237.689	71.38
237.922	85.38
238.156	77.38
238.39	79.38
238.624	78.38
238.858	60.38
239.091	71.38
239.325	74.38
239.559	78.38
239.793	66.38
240.027	68.38
240.26	83.38
240.494	83.38
240.728	59.38
240.961	70.38
241.195	64.38
241.429	76.38
241.662	68.38
241.896	83.38
242.13	66.38
242.363	90.38
242.597	72.38
242.83	82.38
243.064	62.38
243.298	75.38
243.531	80.38
243.765	74.38
243.998	81.38
244.232	76.38
244.465	72.38
244.699	73.38
244.932	91.38
245.166	73.38
245.399	75.38
245.633	76.38
245.866	73.38
246.099	68.38
246.333	66.38
246.566	58.38
246.8	55.38
247.033	78.38
247.266	77.38
247.5	63.38
247.733	73.38
247.966	90.38
248.2	75.38
248.433	74.38
248.666	78.38
248.899	88.38
249.133	72.38
249.366	84.38
249.599	70.38
249.832	84.38
250.066	81.38
250.299	78.38
250.532	76.38
250.765	73.38
250.998	73.38
251.231	81.38
251.465	74.38
251.698	76.38
251.931	82.38
252.164	70.38
252.397	90.38
252.63	88.38
252.863	91.38
253.096	86.38
253.329	70.38
253.562	68.38
253.795	78.38
254.028	77.38
254.261	72.38
254.494	72.38
254.727	81.38
254.96	71.38
255.193	82.38
255.426	63.38
255.659	62.38
255.892	76.38
256.124	80.38
256.357	74.38
256.59	68.38
256.823	73.38
257.056	80.38
257.289	80.38
257.521	72.38
257.754	88.38
257.987	89.38
258.22	93.38
258.452	66.38
258.685	85.38
258.918	77.38
259.151	91.38
259.383	74.38
259.616	78.38
259.849	76.38
260.081	78.38
260.314	83.38
260.547	93.38
260.779	71.38
261.012	75.38
261.244	75.38
261.477	87.38
261.71	70.38
261.942	74.38
262.175	78.38
262.407	67.38
262.64	74.38
262.872	68.38
263.105	76.38
263.337	78.38
263.57	91.38
263.802	57.38
264.035	68.38
264.267	73.38
264.499	74.38
264.732	63.38
264.964	90.38
265.197	80.38
265.429	71.38
265.661	75.38
265.894	67.38
266.126	82.38
266.358	83.38
266.591	73.38
266.823	72.38
267.055	81.38
267.287	68.38
267.52	73.38
267.752	68.38
267.984	69.38
268.216	75.38
268.448	80.38
268.681	77.38
268.913	94.38
269.145	89.38
269.377	80.38
269.609	70.38
269.841	85.38
270.073	86.38
270.306	69.38
270.538	56.38
270.77	80.38
271.002	77.38
271.234	78.38
271.466	69.38
271.698	84.38
271.93	84.38
272.162	81.38
272.394	86.38
272.626	68.38
272.858	90.38
273.09	84.38
273.322	89.38
273.553	74.38
273.785	86.38
274.017	97.38
274.249	85.38
274.481	84.38
274.713	73.38
274.945	77.38
275.176	80.38
275.408	72.38
275.64	88.38
275.872	78.38
276.104	87.38
276.335	86.38
276.567	87.38
276.799	77.38
277.031	83.38
277.262	104.38
277.494	81.38
277.726	75.38
277.957	71.38
278.189	63.38
278.421	74.38
278.652	80.38
278.884	87.38
279.115	97.38
279.347	73.38
279.579	76.38
279.81	78.38
280.042	91.38
280.273	96.38
280.505	77.38
280.736	77.38
280.968	78.38
281.199	78.38
281.431	88.38
281.662	94.38
281.894	60.38
282.125	71.38
282.356	91.38
282.588	83.38
282.819	69.38
283.051	77.38
283.282	92.38
283.513	72.38
283.745	77.38
283.976	85.38
284.207	79.38
284.439	81.38
284.67	81.38
284.901	82.38
285.132	88.38
285.364	74.38
285.595	85.38
285.826	86.38
286.057	88.38
286.288	73.38
286.52	73.38
286.751	67.38
286.982	84.38
287.213	86.38
287.444	84.38
287.675	81.38
287.906	78.38
288.138	74.38
288.369	82.38
288.6	79.38
288.831	72.38
289.062	84.38
289.293	63.38
289.524	78.38
289.755	87.38
289.986	83.38
290.217	77.38
290.448	91.38
290.679	66.38
290.91	77.38
291.141	80.38
291.371	80.38
291.602	80.38
291.833	83.38
292.064	86.38
292.295	77.38
292.526	90.38
292.757	75.38
292.987	83.38
293.218	84.38
293.449	78.38
293.68	85.38
293.91	74.38
294.141	70.38
294.372	85.38
294.603	71.38
294.833	67.38
295.064	76.38
295.295	83.38
295.525	82.38
295.756	80.38
295.987	84.38
296.217	73.38
296.448	79.38
296.679	82.38
296.909	87.38
297.14	88.38
297.37	72.38
297.601	87.38
297.831	73.38
298.062	74.38
298.292	81.38
298.523	80.38
298.753	72.38
298.984	81.38
299.214	81.38
299.445	77.38
299.675	82.38
299.905	83.38
300.136	67.38
300.366	78.38
300.597	68.38
300.827	70.38
301.057	93.38
301.288	76.38
301.518	82.38
301.748	85.38
301.979	100.38
302.209	87.38
302.439	57.38
302.669	75.38
302.9	82.38
303.13	75.38
303.36	90.38
303.59	83.38
303.82	84.38
304.051	87.38
304.281	81.38
304.511	89.38
304.741	81.38
304.971	78.38
305.201	81.38
305.431	100.38
305.661	79.38
305.891	77.38
306.121	75.38
306.352	81.38
306.582	93.38
306.812	87.38
307.042	64.38
307.272	77.38
307.502	79.38
307.731	79.38
307.961	86.38
308.191	86.38
308.421	72.38
308.651	86.38
308.881	84.38
309.111	85.38
309.341	99.38
309.571	82.38
309.8	80.38
310.03	78.38
310.26	87.38
310.49	83.38
310.72	82.38
310.949	81.38
311.179	73.38
311.409	69.38
311.639	83.38
311.868	80.38
312.098	78.38
312.328	72.38
312.557	77.38
312.787	66.38
313.017	97.38
313.246	80.38
313.476	82.38
313.706	87.38
313.935	79.38
314.165	94.38
314.394	91.38
314.624	76.38
314.853	85.38
315.083	71.38
315.312	76.38
315.542	80.38
315.771	80.38
316.001	74.38
316.23	74.38
316.46	92.38
316.689	85.38
316.919	80.38
317.148	93.38
317.377	69.38
317.607	78.38
317.836	70.38
318.065	82.38
318.295	87.38
318.524	77.38
318.753	80.38
318.983	72.38
319.212	78.38
319.441	85.38
319.67	86.38
319.9	83.38
320.129	71.38
320.358	87.38
320.587	88.38
320.816	82.38
321.046	72.38
321.275	82.38
321.504	72.38
321.733	78.38
321.962	88.38
322.191	80.38
322.42	71.38
322.649	86.38
322.878	91.38
323.108	84.38
323.337	89.38
323.566	73.38
323.795	74.38
324.024	60.38
324.253	69.38
324.482	87.38
324.71	88.38
324.939	81.38
325.168	81.38
325.397	83.38
325.626	77.38
325.855	78.38
326.084	83.38
326.313	79.38
326.542	74.38
326.77	88.38
326.999	90.38
327.228	71.38
327.457	93.38
327.686	92.38
327.914	91.38
328.143	119.38
328.372	119.38
328.6	103.38
328.829	85.38
329.058	78.38
329.287	96.38
329.515	94.38
329.744	99.38
329.972	141.38
330.201	180.38
330.43	186.38
330.658	97.38
330.887	73.38
331.115	87.38
331.344	77.38
331.572	77.38
331.801	89.38
332.03	87.38
332.258	67.38
332.486	75.38
332.715	68.38
332.943	88.38
333.172	68.38
333.4	73.38
333.629	90.38
333.857	101.38
334.085	126.38
334.314	162.38
334.542	212.38
334.771	197.38
334.999	100.38
335.227	85.38
335.455	92.38
335.684	82.38
335.912	82.38
336.14	74.38
336.369	99.38
336.597	70.38
336.825	89.38
337.053	62.38
337.281	66.38
337.51	78.38
337.738	80.38
337.966	74.38
338.194	84.38
338.422	82.38
338.65	78.38
338.878	76.38
339.106	73.38
339.334	78.38
339.562	83.38
339.79	72.38
340.018	64.38
340.246	80.38
340.474	64.38
340.702	67.38
340.93	89.38
341.158	89.38
341.386	84.38
341.614	81.38
341.842	80.38
342.07	78.38
342.298	83.38
342.526	80.38
342.754	75.38
342.981	81.38
343.209	85.38
343.437	82.38
343.665	86.38
343.893	76.38
344.12	77.38
344.348	80.38
344.576	76.38
344.804	75.38
345.031	78.38
345.259	80.38
345.487	75.38
345.714	72.38
345.942	69.38
346.17	73.38
346.397	66.38
346.625	76.38
346.853	78.38
347.08	72.38
347.308	74.38
347.535	101.38
347.763	81.38
347.99	74.38
348.218	72.38
348.445	88.38
348.673	89.38
348.9	68.38
349.128	91.38
349.355	73.38
349.583	72.38
349.81	63.38
350.037	69.38
350.265	76.38
350.492	92.38
350.72	74.38
350.947	70.38
351.174	76.38
351.402	76.38
351.629	80.38
351.856	70.38
352.083	81.38
352.311	78.38
352.538	74.38
352.765	88.38
352.992	80.38
353.22	87.38
353.447	76.38
353.674	69.38
353.901	63.38
354.128	87.38
354.355	88.38
354.583	83.38
354.81	66.38
355.037	80.38
355.264	85.38
355.491	100.38
355.718	70.38
355.945	87.38
356.172	82.38
356.399	74.38
356.626	69.38
356.853	73.38
357.08	70.38
357.307	78.38
357.534	84.38
357.761	74.38
357.988	91.38
358.215	83.38
358.441	66.38
358.668	78.38
358.895	86.38
359.122	76.38
359.349	77.38
359.576	90.38
359.802	78.38
360.029	82.38
360.256	84.38
360.483	74.38
360.709	73.38
360.936	72.38
361.163	61.38
361.39	69.38
361.616	74.38
361.843	94.38
362.07	84.38
362.296	90.38
362.523	72.38
362.749	83.38
362.976	69.38
363.203	91.38
363.429	72.38
363.656	77.38
363.882	76.38
364.109	83.38
364.335	88.38
364.562	68.38
364.788	80.38
365.015	70.38
365.241	81.38
365.468	76.38
365.694	82.38
365.92	67.38
366.147	68.38
366.373	80.38
366.599	75.38
366.826	86.38
367.052	74.38
367.278	74.38
367.505	85.38
367.731	89.38
367.957	89.38
368.184	80.38
368.41	84.38
368.636	84.38
368.862	67.38
369.089	71.38
369.315	78.38
369.541	78.38
369.767	83.38
369.993	84.38
370.219	79.38
370.445	78.38
370.672	74.38
370.898	95.38
371.124	62.38
371.35	81.38
371.576	78.38
371.802	79.38
372.028	87.38
372.254	78.38
372.48	80.38
372.706	71.38
372.932	77.38
373.158	64.38
373.384	82.38
373.61	78.38
373.835	79.38
374.061	77.38
374.287	88.38
374.513	84.38
374.739	77.38
374.965	83.38
375.191	79.38
375.416	74.38
375.642	72.38
375.868	84.38
376.094	67.38
376.319	70.38
376.545	67.38
376.771	88.38
376.997	88.38
377.222	68.38
377.448	80.38
377.674	64.38
377.899	88.38
378.125	69.38
378.35	70.38
378.576	57.38
378.802	69.38
379.027	60.38
379.253	79.38
379.478	73.38
379.704	90.38
379.929	70.38
380.155	77.38
380.38	65.38
380.606	80.38
380.831	76.38
381.057	89.38
381.282	86.38
381.507	77.38
381.733	84.38
381.958	82.38
382.184	86.38
382.409	68.38
382.634	71.38
382.86	80.38
383.085	81.38
383.31	83.38
383.535	68.38
383.761	80.38
383.986	72.38
384.211	69.38
384.436	76.38
384.662	73.38
384.887	60.38
385.112	88.38
385.337	72.38
385.562	74.38
385.787	81.38
386.013	82.38
386.238	85.38
386.463	82.38
386.688	74.38
386.913	80.38
387.138	87.38
387.363	89.38
387.588	85.38
387.813	82.38
388.038	80.38
388.263	82.38
388.488	84.38
388.713	67.38
388.938	84.38
389.163	83.38
389.387	74.38
389.612	71.38
389.837	65.38
390.062	84.38
390.287	83.38
390.512	83.38
390.736	91.38
390.961	65.38
391.186	77.38
391.411	76.38
391.636	73.38
391.86	70.38
392.085	72.38
392.31	93.38
392.534	67.38
392.759	78.38
392.984	87.38
393.208	93.38
393.433	88.38
393.658	84.38
393.882	66.38
394.107	77.38
394.331	87.38
394.556	83.38
394.78	83.38
395.005	80.38
395.229	76.38
395.454	86.38
395.678	71.38
395.903	89.38
396.127	82.38
396.352	77.38
396.576	77.38
396.801	71.38
397.025	92.38
397.249	68.38
397.474	86.38
397.698	89.38
397.922	81.38
398.147	75.38
398.371	87.38
398.595	63.38
398.82	78.38
399.044	80.38
399.268	68.38
399.492	73.38
399.717	78.38
399.941	75.38
400.165	70.38
400.389	92.38
400.613	81.38
400.837	70.38
401.062	68.38
401.286	77.38
401.51	63.38
401.734	76.38
401.958	89.38
402.182	105.38
402.406	61.38
402.63	76.38
402.854	84.38
403.078	66.38
403.302	77.38
403.526	71.38
403.75	64.38
403.974	76.38
404.198	84.38
404.422	73.38
404.645	80.38
404.869	75.38
405.093	82.38
405.317	86.38
405.541	90.38
405.765	89.38
405.988	77.38
406.212	89.38
406.436	90.38
406.66	76.38
406.883	89.38
407.107	78.38
407.331	76.38
407.555	79.38
407.778	80.38
408.002	69.38
408.226	57.38
408.449	88.38
408.673	87.38
408.896	76.38
409.12	83.38
409.344	72.38
409.567	72.38
409.791	80.38
410.014	66.38
410.238	66.38
410.461	65.38
410.685	87.38
410.908	76.38
411.132	85.38
411.355	63.38
411.578	94.38
411.802	86.38
412.025	76.38
412.249	63.38
412.472	72.38
412.695	83.38
412.919	77.38
413.142	66.38
413.365	83.38
413.589	88.38
413.812	87.38
414.035	93.38
414.258	75.38
414.482	81.38
414.705	75.38
414.928	71.38
415.151	62.38
415.374	75.38
415.597	76.38
415.821	92.38
416.044	69.38
416.267	80.38
416.49	68.38
416.713	80.38
416.936	89.38
417.159	83.38
417.382	78.38
417.605	73.38
417.828	101.38
418.051	78.38
418.274	91.38
418.497	86.38
418.72	70.38
418.943	76.38
419.166	82.38
419.389	76.38
419.611	77.38
419.834	77.38
420.057	89.38
420.28	75.38
420.503	78.38
420.726	80.38
420.948	78.38
421.171	81.38
421.394	76.38
421.617	75.38
421.839	80.38
422.062	76.38
422.285	75.38
422.507	81.38
422.73	68.38
422.953	62.38
423.175	75.38
423.398	80.38
423.621	72.38
423.843	63.38
424.066	86.38
424.288	83.38
424.511	80.38
424.733	93.38
424.956	89.38
425.178	92.38
425.401	64.38
425.623	75.38
425.846	78.38
426.068	71.38
426.291	62.38
426.513	72.38
426.735	72.38
426.958	81.38
427.18	89.38
427.402	91.38
427.625	91.38
427.847	82.38
428.069	78.38
428.292	89.38
428.514	88.38
428.736	81.38
428.958	76.38
429.181	84.38
429.403	87.38
429.625	91.38
429.847	78.38
430.069	59.38
430.292	97.38
430.514	70.38
430.736	80.38
430.958	84.38
431.18	81.38
431.402	87.38
431.624	74.38
431.846	78.38
432.068	78.38
432.29	83.38
432.512	97.38
432.734	70.38
432.956	76.38
433.178	89.38
433.4	76.38
433.622	84.38
433.844	80.38
434.066	66.38
434.287	73.38
434.509	75.38
434.731	90.38
434.953	83.38
435.175	72.38
435.397	84.38
435.618	83.38
435.84	73.38
436.062	83.38
436.284	93.38
436.505	84.38
436.727	72.38
436.949	85.38
437.17	84.38
437.392	92.38
437.614	89.38
437.835	72.38
438.057	70.38
438.278	87.38
438.5	76.38
438.721	82.38
438.943	86.38
439.165	77.38
439.386	76.38
439.608	78.38
439.829	82.38
440.05	78.38
440.272	86.38
440.493	71.38
440.715	84.38
440.936	92.38
441.158	90.38
441.379	78.38
441.6	71.38
441.822	84.38
442.043	82.38
442.264	74.38
442.486	82.38
442.707	75.38
442.928	73.38
443.149	84.38
443.371	87.38
443.592	66.38
443.813	86.38
444.034	78.38
444.255	84.38
444.476	90.38
444.698	72.38
444.919	92.38
445.14	170.38
445.361	121.38
445.582	89.38
445.803	69.38
446.024	76.38
446.245	73.38
446.466	77.38
446.687	65.38
446.908	86.38
447.129	80.38
447.35	77.38
447.571	80.38
447.792	75.38
448.013	68.38
448.234	80.38
448.455	78.38
448.675	80.38
448.896	68.38
449.117	83.38
449.338	72.38
449.559	84.38
449.779	63.38
450	86.38
450.221	66.38
450.442	76.38
450.662	87.38
450.883	86.38
451.104	75.38
451.324	89.38
451.545	82.38
451.766	69.38
451.986	81.38
452.207	82.38
452.428	78.38
452.648	93.38
452.869	73.38
453.089	79.38
453.31	78.38
453.53	90.38
453.751	76.38
453.971	67.38
454.192	75.38
454.412	72.38
454.633	81.38
454.853	95.38
455.073	72.38
455.294	77.38
455.514	86.38
455.734	85.38
455.955	74.38
456.175	80.38
456.395	68.38
456.616	87.38
456.836	68.38
457.056	85.38
457.276	72.38
457.497	73.38
457.717	72.38
457.937	65.38
458.157	67.38
458.377	81.38
458.598	78.38
458.818	70.38
459.038	84.38
459.258	83.38
459.478	85.38
459.698	75.38
459.918	74.38
460.138	75.38
460.358	65.38
460.578	77.38
460.798	94.38
461.018	69.38
461.238	79.38
461.458	81.38
461.678	69.38
461.898	84.38
462.118	92.38
462.338	76.38
462.558	59.38
462.777	84.38
462.997	73.38
463.217	84.38
463.437	88.38
463.657	73.38
463.876	70.38
464.096	74.38
464.316	77.38
464.536	80.38
464.755	66.38
464.975	90.38
465.195	75.38
465.414	74.38
465.634	76.38
465.854	87.38
466.073	88.38
466.293	73.38
466.512	77.38
466.732	92.38
466.951	82.38
467.171	74.38
467.391	90.38
467.61	88.38
467.829	93.38
468.049	188.38
468.268	158.38
468.488	88.38
468.707	88.38
468.927	74.38
469.146	76.38
469.365	75.38
469.585	76.38
469.804	75.38
470.023	73.38
470.243	76.38
470.462	81.38
470.681	82.38
470.901	83.38
471.12	75.38
471.339	77.38
471.558	100.38
471.777	98.38
471.997	114.38
472.216	219.38
472.435	296.38
472.654	127.38
472.873	82.38
473.092	82.38
473.311	82.38
473.53	74.38
473.749	89.38
473.968	82.38
474.187	73.38
474.406	78.38
474.625	96.38
474.844	76.38
475.063	85.38
475.282	86.38
475.501	74.38
475.72	91.38
475.939	75.38
476.158	68.38
476.377	62.38
476.596	89.38
476.814	76.38
477.033	75.38
477.252	73.38
477.471	70.38
477.69	88.38
477.908	75.38
478.127	76.38
478.346	80.38
478.564	67.38
478.783	76.38
479.002	92.38
479.22	90.38
479.439	77.38
479.658	80.38
479.876	74.38
480.095	84.38
480.313	90.38
480.532	87.38
480.751	112.38
480.969	201.38
481.188	476.38
481.406	263.38
481.624	115.38
481.843	74.38
482.061	100.38
482.28	99.38
482.498	88.38
482.717	87.38
482.935	70.38
483.153	87.38
483.372	81.38
483.59	81.38
483.808	86.38
484.027	92.38
484.245	72.38
484.463	79.38
484.681	80.38
484.9	78.38
485.118	73.38
485.336	72.38
485.554	83.38
485.772	77.38
485.99	91.38
486.209	75.38
486.427	80.38
486.645	76.38
486.863	70.38
487.081	82.38
487.299	80.38
487.517	77.38
487.735	88.38
487.953	84.38
488.171	103.38
488.389	84.38
488.607	72.38
488.825	86.38
489.043	87.38
489.261	92.38
489.479	73.38
489.696	84.38
489.914	75.38
490.132	66.38
490.35	90.38
490.568	83.38
490.786	80.38
491.003	72.38
491.221	72.38
491.439	89.38
491.657	84.38
491.874	76.38
492.092	63.38
492.31	100.38
492.527	94.38
492.745	78.38
492.963	88.38
493.18	75.38
493.398	90.38
493.615	84.38
493.833	89.38
494.05	89.38
494.268	85.38
494.485	87.38
494.703	86.38
494.92	80.38
495.138	78.38
495.355	78.38
495.573	89.38
495.79	77.38
496.008	73.38
496.225	82.38
496.442	73.38
496.66	77.38
496.877	78.38
497.094	76.38
497.312	84.38
497.529	80.38
497.746	95.38
497.963	82.38
498.181	68.38
498.398	76.38
498.615	69.38
498.832	78.38
499.049	86.38
499.267	84.38
499.484	81.38
499.701	69.38
499.918	63.38
500.135	93.38
500.352	81.38
500.569	70.38
500.786	86.38
501.003	85.38
501.22	75.38
501.437	84.38
501.654	71.38
501.871	82.38
502.088	70.38
502.305	82.38
502.522	61.38
502.739	86.38
502.956	76.38
503.172	88.38
503.389	97.38
503.606	81.38
503.823	68.38
504.04	83.38
504.256	95.38
504.473	76.38
504.69	92.38
504.907	100.38
505.123	84.38
505.34	92.38
505.557	66.38
505.773	94.38
505.99	85.38
506.207	82.38
506.423	78.38
506.64	88.38
506.856	83.38
507.073	91.38
507.289	69.38
507.506	79.38
507.722	89.38
507.939	85.38
508.155	81.38
508.372	74.38
508.588	71.38
508.805	87.38
509.021	93.38
509.238	74.38
509.454	99.38
509.67	83.38
509.887	71.38
510.103	79.38
510.319	74.38
510.536	73.38
510.752	76.38
510.968	86.38
511.184	80.38
511.401	75.38
511.617	88.38
511.833	66.38
512.049	83.38
512.265	75.38
512.481	79.38
512.698	81.38
512.914	90.38
513.13	82.38
513.346	56.38
513.562	80.38
513.778	77.38
513.994	77.38
514.21	81.38
514.426	72.38
514.642	62.38
514.858	72.38
515.074	71.38
515.29	82.38
515.506	86.38
515.721	86.38
515.937	90.38
516.153	82.38
516.369	86.38
516.585	65.38
516.801	74.38
517.016	76.38
517.232	83.38
517.448	72.38
517.664	78.38
517.879	87.38
518.095	83.38
518.311	75.38
518.527	85.38
518.742	88.38
518.958	89.38
519.173	82.38
519.389	80.38
519.605	75.38
519.82	72.38
