Data from StdC_HRD10591_023.txt Node
Date: Fri May 16 15:28:52 EDT 2025
User: Yrep
Spectrometer: HR+D1059
Trigger mode: 1
Integration Time (sec): 1.000000E-1
Scans to average: 1
Electric dark correction enabled: true
Nonlinearity correction enabled: false
Boxcar width: 0
XAxis mode: Wavelengths
Number of Pixels in Spectrum: 2048
>>>>>Begin Spectral Data<<<<<
223.165	-3.38
223.4	-3.38
223.635	-3.38
223.869	-16.38
224.104	-17.38
224.338	-32.38
224.573	-10.38
224.808	0.62
225.042	-3.38
225.277	-5.38
225.511	-7.38
225.746	0.62
225.98	0.62
226.215	4.62
226.449	21.62
226.683	12.62
226.918	21.62
227.152	33.62
227.387	38.62
227.621	39.62
227.856	37.62
228.09	48.62
228.324	62.62
228.559	62.62
228.793	58.62
229.027	66.62
229.262	75.62
229.496	62.62
229.73	80.62
229.964	85.62
230.199	78.62
230.433	79.62
230.667	93.62
230.901	65.62
231.136	82.62
231.37	95.62
231.604	78.62
231.838	89.62
232.072	92.62
232.306	84.62
232.541	89.62
232.775	83.62
233.009	81.62
233.243	90.62
233.477	91.62
233.711	91.62
233.945	85.62
234.179	83.62
234.413	87.62
234.647	73.62
234.881	87.62
235.115	94.62
235.349	89.62
235.583	92.62
235.817	95.62
236.051	94.62
236.285	80.62
236.519	95.62
236.753	85.62
236.987	87.62
237.221	85.62
237.455	87.62
237.689	104.62
237.922	87.62
238.156	89.62
238.39	99.62
238.624	95.62
238.858	99.62
239.091	105.62
239.325	87.62
239.559	94.62
239.793	114.62
240.027	95.62
240.26	94.62
240.494	96.62
240.728	87.62
240.961	85.62
241.195	85.62
241.429	94.62
241.662	81.62
241.896	81.62
242.13	104.62
242.363	91.62
242.597	96.62
242.83	101.62
243.064	85.62
243.298	91.62
243.531	86.62
243.765	100.62
243.998	106.62
244.232	102.62
244.465	104.62
244.699	91.62
244.932	107.62
245.166	105.62
245.399	112.62
245.633	94.62
245.866	99.62
246.099	104.62
246.333	109.62
246.566	103.62
246.8	108.62
247.033	105.62
247.266	97.62
247.5	99.62
247.733	105.62
247.966	115.62
248.2	116.62
248.433	113.62
248.666	117.62
248.899	106.62
249.133	109.62
249.366	108.62
249.599	115.62
249.832	122.62
250.066	147.62
250.299	153.62
250.532	189.62
250.765	189.62
250.998	148.62
251.231	131.62
251.465	112.62
251.698	109.62
251.931	139.62
252.164	125.62
252.397	116.62
252.63	114.62
252.863	122.62
253.096	136.62
253.329	117.62
253.562	108.62
253.795	117.62
254.028	130.62
254.261	129.62
254.494	125.62
254.727	132.62
254.96	139.62
255.193	137.62
255.426	160.62
255.659	196.62
255.892	255.62
256.124	325.62
256.357	260.62
256.59	190.62
256.823	186.62
257.056	154.62
257.289	153.62
257.521	157.62
257.754	153.62
257.987	141.62
258.22	154.62
258.452	128.62
258.685	139.62
258.918	131.62
259.151	127.62
259.383	136.62
259.616	131.62
259.849	141.62
260.081	135.62
260.314	130.62
260.547	127.62
260.779	137.62
261.012	151.62
261.244	144.62
261.477	141.62
261.71	134.62
261.942	135.62
262.175	128.62
262.407	128.62
262.64	123.62
262.872	121.62
263.105	136.62
263.337	118.62
263.57	128.62
263.802	130.62
264.035	115.62
264.267	130.62
264.499	122.62
264.732	143.62
264.964	141.62
265.197	124.62
265.429	134.62
265.661	118.62
265.894	135.62
266.126	135.62
266.358	145.62
266.591	143.62
266.823	133.62
267.055	127.62
267.287	116.62
267.52	126.62
267.752	125.62
267.984	127.62
268.216	123.62
268.448	124.62
268.681	147.62
268.913	140.62
269.145	136.62
269.377	139.62
269.609	153.62
269.841	133.62
270.073	119.62
270.306	120.62
270.538	128.62
270.77	141.62
271.002	137.62
271.234	139.62
271.466	144.62
271.698	149.62
271.93	127.62
272.162	115.62
272.394	134.62
272.626	143.62
272.858	153.62
273.09	140.62
273.322	135.62
273.553	134.62
273.785	143.62
274.017	155.62
274.249	144.62
274.481	146.62
274.713	154.62
274.945	144.62
275.176	160.62
275.408	154.62
275.64	168.62
275.872	185.62
276.104	174.62
276.335	183.62
276.567	156.62
276.799	197.62
277.031	232.62
277.262	237.62
277.494	224.62
277.726	203.62
277.957	187.62
278.189	169.62
278.421	173.62
278.652	182.62
278.884	154.62
279.115	172.62
279.347	177.62
279.579	199.62
279.81	221.62
280.042	263.62
280.273	264.62
280.505	259.62
280.736	215.62
280.968	193.62
281.199	188.62
281.431	166.62
281.662	179.62
281.894	163.62
282.125	171.62
282.356	177.62
282.588	169.62
282.819	179.62
283.051	156.62
283.282	167.62
283.513	173.62
283.745	155.62
283.976	159.62
284.207	165.62
284.439	167.62
284.67	156.62
284.901	155.62
285.132	152.62
285.364	152.62
285.595	149.62
285.826	155.62
286.057	150.62
286.288	166.62
286.52	149.62
286.751	155.62
286.982	156.62
287.213	145.62
287.444	168.62
287.675	157.62
287.906	151.62
288.138	156.62
288.369	166.62
288.6	136.62
288.831	158.62
289.062	165.62
289.293	158.62
289.524	140.62
289.755	160.62
289.986	163.62
290.217	157.62
290.448	165.62
290.679	155.62
290.91	164.62
291.141	156.62
291.371	160.62
291.602	157.62
291.833	152.62
292.064	155.62
292.295	154.62
292.526	141.62
292.757	160.62
292.987	175.62
293.218	153.62
293.449	160.62
293.68	172.62
293.91	165.62
294.141	165.62
294.372	153.62
294.603	152.62
294.833	160.62
295.064	143.62
295.295	125.62
295.525	163.62
295.756	158.62
295.987	160.62
296.217	149.62
296.448	153.62
296.679	155.62
296.909	169.62
297.14	160.62
297.37	143.62
297.601	169.62
297.831	159.62
298.062	156.62
298.292	173.62
298.523	154.62
298.753	147.62
298.984	171.62
299.214	159.62
299.445	147.62
299.675	171.62
299.905	173.62
300.136	153.62
300.366	170.62
300.597	159.62
300.827	163.62
301.057	151.62
301.288	159.62
301.518	165.62
301.748	179.62
301.979	197.62
302.209	176.62
302.439	181.62
302.669	161.62
302.9	171.62
303.13	185.62
303.36	192.62
303.59	204.62
303.82	198.62
304.051	201.62
304.281	179.62
304.511	182.62
304.741	173.62
304.971	166.62
305.201	177.62
305.431	168.62
305.661	179.62
305.891	163.62
306.121	155.62
306.352	179.62
306.582	160.62
306.812	195.62
307.042	192.62
307.272	218.62
307.502	233.62
307.731	231.62
307.961	189.62
308.191	187.62
308.421	199.62
308.651	175.62
308.881	184.62
309.111	175.62
309.341	183.62
309.571	179.62
309.8	169.62
310.03	158.62
310.26	178.62
310.49	165.62
310.72	143.62
310.949	179.62
311.179	179.62
311.409	164.62
311.639	185.62
311.868	195.62
312.098	181.62
312.328	196.62
312.557	170.62
312.787	167.62
313.017	181.62
313.246	168.62
313.476	185.62
313.706	184.62
313.935	172.62
314.165	160.62
314.394	152.62
314.624	175.62
314.853	165.62
315.083	169.62
315.312	183.62
315.542	173.62
315.771	173.62
316.001	184.62
316.23	175.62
316.46	193.62
316.689	190.62
316.919	179.62
317.148	167.62
317.377	170.62
317.607	187.62
317.836	174.62
318.065	162.62
318.295	182.62
318.524	199.62
318.753	192.62
318.983	181.62
319.212	174.62
319.441	184.62
319.67	187.62
319.9	194.62
320.129	198.62
320.358	168.62
320.587	182.62
320.816	181.62
321.046	169.62
321.275	187.62
321.504	191.62
321.733	201.62
321.962	189.62
322.191	190.62
322.42	190.62
322.649	211.62
322.878	201.62
323.108	214.62
323.337	194.62
323.566	204.62
323.795	204.62
324.024	224.62
324.253	231.62
324.482	204.62
324.71	214.62
324.939	243.62
325.168	232.62
325.397	223.62
325.626	232.62
325.855	247.62
326.084	243.62
326.313	237.62
326.542	263.62
326.77	278.62
326.999	267.62
327.228	281.62
327.457	340.62
327.686	405.62
327.914	541.62
328.143	689.62
328.372	735.62
328.6	528.62
328.829	413.62
329.058	402.62
329.287	417.62
329.515	504.62
329.744	669.62
329.972	969.62
330.201	1341.62
330.43	1326.62
330.658	775.62
330.887	480.62
331.115	378.62
331.344	351.62
331.572	335.62
331.801	316.62
332.03	311.62
332.258	326.62
332.486	326.62
332.715	360.62
332.943	361.62
333.172	401.62
333.4	468.62
333.629	532.62
333.857	703.62
334.085	1057.62
334.314	1502.62
334.542	1811.62
334.771	1481.62
334.999	749.62
335.227	522.62
335.455	387.62
335.684	346.62
335.912	331.62
336.14	297.62
336.369	273.62
336.597	264.62
336.825	278.62
337.053	249.62
337.281	241.62
337.51	228.62
337.738	237.62
337.966	224.62
338.194	231.62
338.422	223.62
338.65	221.62
338.878	221.62
339.106	229.62
339.334	234.62
339.562	205.62
339.79	211.62
340.018	202.62
340.246	197.62
340.474	200.62
340.702	213.62
340.93	201.62
341.158	215.62
341.386	213.62
341.614	199.62
341.842	197.62
342.07	198.62
342.298	207.62
342.526	183.62
342.754	199.62
342.981	202.62
343.209	192.62
343.437	210.62
343.665	195.62
343.893	204.62
344.12	200.62
344.348	201.62
344.576	198.62
344.804	212.62
345.031	207.62
345.259	193.62
345.487	214.62
345.714	184.62
345.942	180.62
346.17	200.62
346.397	189.62
346.625	187.62
346.853	193.62
347.08	190.62
347.308	179.62
347.535	189.62
347.763	191.62
347.99	188.62
348.218	179.62
348.445	175.62
348.673	181.62
348.9	184.62
349.128	201.62
349.355	184.62
349.583	190.62
349.81	183.62
350.037	194.62
350.265	179.62
350.492	170.62
350.72	184.62
350.947	193.62
351.174	184.62
351.402	205.62
351.629	198.62
351.856	181.62
352.083	191.62
352.311	201.62
352.538	193.62
352.765	174.62
352.992	193.62
353.22	184.62
353.447	188.62
353.674	183.62
353.901	187.62
354.128	180.62
354.355	181.62
354.583	168.62
354.81	189.62
355.037	184.62
355.264	196.62
355.491	181.62
355.718	178.62
355.945	187.62
356.172	174.62
356.399	193.62
356.626	180.62
356.853	197.62
357.08	190.62
357.307	178.62
357.534	177.62
357.761	200.62
357.988	181.62
358.215	197.62
358.441	182.62
358.668	182.62
358.895	198.62
359.122	199.62
359.349	184.62
359.576	179.62
359.802	174.62
360.029	181.62
360.256	181.62
360.483	187.62
360.709	173.62
360.936	193.62
361.163	183.62
361.39	167.62
361.616	169.62
361.843	181.62
362.07	183.62
362.296	181.62
362.523	172.62
362.749	174.62
362.976	177.62
363.203	186.62
363.429	185.62
363.656	191.62
363.882	158.62
364.109	187.62
364.335	186.62
364.562	176.62
364.788	184.62
365.015	181.62
365.241	181.62
365.468	179.62
365.694	170.62
365.92	179.62
366.147	174.62
366.373	175.62
366.599	189.62
366.826	180.62
367.052	193.62
367.278	191.62
367.505	185.62
367.731	187.62
367.957	173.62
368.184	171.62
368.41	197.62
368.636	166.62
368.862	175.62
369.089	179.62
369.315	184.62
369.541	199.62
369.767	168.62
369.993	185.62
370.219	170.62
370.445	184.62
370.672	187.62
370.898	182.62
371.124	194.62
371.35	188.62
371.576	193.62
371.802	182.62
372.028	187.62
372.254	181.62
372.48	204.62
372.706	221.62
372.932	199.62
373.158	188.62
373.384	194.62
373.61	193.62
373.835	193.62
374.061	200.62
374.287	188.62
374.513	200.62
374.739	201.62
374.965	187.62
375.191	191.62
375.416	196.62
375.642	204.62
375.868	195.62
376.094	172.62
376.319	194.62
376.545	183.62
376.771	183.62
376.997	199.62
377.222	197.62
377.448	191.62
377.674	183.62
377.899	201.62
378.125	183.62
378.35	179.62
378.576	193.62
378.802	168.62
379.027	202.62
379.253	181.62
379.478	185.62
379.704	184.62
379.929	189.62
380.155	189.62
380.38	183.62
380.606	185.62
380.831	188.62
381.057	202.62
381.282	200.62
381.507	188.62
381.733	176.62
381.958	187.62
382.184	200.62
382.409	205.62
382.634	200.62
382.86	203.62
383.085	197.62
383.31	199.62
383.535	215.62
383.761	220.62
383.986	207.62
384.211	190.62
384.436	218.62
384.662	203.62
384.887	208.62
385.112	191.62
385.337	204.62
385.562	195.62
385.787	199.62
386.013	206.62
386.238	194.62
386.463	204.62
386.688	213.62
386.913	209.62
387.138	201.62
387.363	232.62
387.588	211.62
387.813	198.62
388.038	196.62
388.263	206.62
388.488	207.62
388.713	192.62
388.938	211.62
389.163	200.62
389.387	218.62
389.612	197.62
389.837	214.62
390.062	227.62
390.287	219.62
390.512	195.62
390.736	204.62
390.961	223.62
391.186	200.62
391.411	214.62
391.636	214.62
391.86	223.62
392.085	212.62
392.31	210.62
392.534	210.62
392.759	222.62
392.984	207.62
393.208	208.62
393.433	212.62
393.658	199.62
393.882	193.62
394.107	207.62
394.331	213.62
394.556	208.62
394.78	212.62
395.005	204.62
395.229	205.62
395.454	211.62
395.678	238.62
395.903	227.62
396.127	219.62
396.352	227.62
396.576	214.62
396.801	216.62
397.025	221.62
397.249	219.62
397.474	231.62
397.698	239.62
397.922	240.62
398.147	219.62
398.371	224.62
398.595	216.62
398.82	241.62
399.044	257.62
399.268	249.62
399.492	268.62
399.717	292.62
399.941	283.62
400.165	262.62
400.389	259.62
400.613	248.62
400.837	254.62
401.062	235.62
401.286	246.62
401.51	229.62
401.734	232.62
401.958	257.62
402.182	233.62
402.406	221.62
402.63	242.62
402.854	246.62
403.078	250.62
403.302	248.62
403.526	271.62
403.75	247.62
403.974	274.62
404.198	264.62
404.422	277.62
404.645	268.62
404.869	291.62
405.093	309.62
405.317	320.62
405.541	315.62
405.765	296.62
405.988	295.62
406.212	269.62
406.436	244.62
406.66	257.62
406.883	267.62
407.107	257.62
407.331	272.62
407.555	269.62
407.778	250.62
408.002	265.62
408.226	259.62
408.449	270.62
408.673	267.62
408.896	246.62
409.12	244.62
409.344	269.62
409.567	251.62
409.791	252.62
410.014	257.62
410.238	262.62
410.461	242.62
410.685	269.62
410.908	264.62
411.132	262.62
411.355	255.62
411.578	237.62
411.802	264.62
412.025	259.62
412.249	289.62
412.472	307.62
412.695	328.62
412.919	323.62
413.142	295.62
413.365	287.62
413.589	265.62
413.812	261.62
414.035	259.62
414.258	265.62
414.482	269.62
414.705	244.62
414.928	257.62
415.151	252.62
415.374	257.62
415.597	246.62
415.821	237.62
416.044	247.62
416.267	239.62
416.49	231.62
416.713	243.62
416.936	264.62
417.159	241.62
417.382	260.62
417.605	291.62
417.828	263.62
418.051	252.62
418.274	253.62
418.497	258.62
418.72	245.62
418.943	246.62
419.166	244.62
419.389	277.62
419.611	266.62
419.834	283.62
420.057	304.62
420.28	313.62
420.503	301.62
420.726	293.62
420.948	280.62
421.171	274.62
421.394	252.62
421.617	248.62
421.839	249.62
422.062	255.62
422.285	254.62
422.507	250.62
422.73	243.62
422.953	239.62
423.175	238.62
423.398	234.62
423.621	251.62
423.843	243.62
424.066	262.62
424.288	234.62
424.511	229.62
424.733	243.62
424.956	240.62
425.178	247.62
425.401	243.62
425.623	252.62
425.846	253.62
426.068	238.62
426.291	237.62
426.513	229.62
426.735	268.62
426.958	256.62
427.18	238.62
427.402	260.62
427.625	294.62
427.847	311.62
428.069	325.62
428.292	295.62
428.514	263.62
428.736	257.62
428.958	245.62
429.181	238.62
429.403	241.62
429.625	217.62
429.847	245.62
430.069	221.62
430.292	248.62
430.514	222.62
430.736	228.62
430.958	235.62
431.18	234.62
431.402	223.62
431.624	239.62
431.846	219.62
432.068	223.62
432.29	232.62
432.512	220.62
432.734	216.62
432.956	239.62
433.178	227.62
433.4	219.62
433.622	213.62
433.844	234.62
434.066	222.62
434.287	207.62
434.509	213.62
434.731	222.62
434.953	235.62
435.175	240.62
435.397	233.62
435.618	231.62
435.84	227.62
436.062	212.62
436.284	224.62
436.505	224.62
436.727	223.62
436.949	224.62
437.17	224.62
437.392	224.62
437.614	205.62
437.835	212.62
438.057	206.62
438.278	216.62
438.5	216.62
438.721	225.62
438.943	219.62
439.165	210.62
439.386	223.62
439.608	240.62
439.829	227.62
440.05	205.62
440.272	223.62
440.493	207.62
440.715	203.62
440.936	213.62
441.158	215.62
441.379	225.62
441.6	236.62
441.822	231.62
442.043	234.62
442.264	245.62
442.486	219.62
442.707	217.62
442.928	245.62
443.149	233.62
443.371	219.62
443.592	243.62
443.813	229.62
444.034	228.62
444.255	227.62
444.476	241.62
444.698	251.62
444.919	236.62
445.14	352.62
445.361	283.62
445.582	247.62
445.803	233.62
446.024	247.62
446.245	235.62
446.466	217.62
446.687	231.62
446.908	223.62
447.129	228.62
447.35	212.62
447.571	210.62
447.792	203.62
448.013	214.62
448.234	209.62
448.455	228.62
448.675	232.62
448.896	215.62
449.117	201.62
449.338	224.62
449.559	215.62
449.779	208.62
450	203.62
450.221	220.62
450.442	226.62
450.662	211.62
450.883	215.62
451.104	229.62
451.324	205.62
451.545	200.62
451.766	199.62
451.986	206.62
452.207	203.62
452.428	183.62
452.648	193.62
452.869	189.62
453.089	201.62
453.31	194.62
453.53	189.62
453.751	202.62
453.971	187.62
454.192	215.62
454.412	214.62
454.633	195.62
454.853	219.62
455.073	206.62
455.294	202.62
455.514	189.62
455.734	198.62
455.955	188.62
456.175	191.62
456.395	210.62
456.616	209.62
456.836	216.62
457.056	206.62
457.276	202.62
457.497	223.62
457.717	211.62
457.937	198.62
458.157	210.62
458.377	217.62
458.598	218.62
458.818	205.62
459.038	214.62
459.258	223.62
459.478	215.62
459.698	234.62
459.918	212.62
460.138	236.62
460.358	235.62
460.578	241.62
460.798	238.62
461.018	239.62
461.238	228.62
461.458	243.62
461.678	246.62
461.898	252.62
462.118	245.62
462.338	243.62
462.558	253.62
462.777	267.62
462.997	268.62
463.217	271.62
463.437	267.62
463.657	252.62
463.876	255.62
464.096	263.62
464.316	252.62
464.536	261.62
464.755	261.62
464.975	243.62
465.195	246.62
465.414	221.62
465.634	225.62
465.854	236.62
466.073	231.62
466.293	224.62
466.512	249.62
466.732	246.62
466.951	256.62
467.171	265.62
467.391	248.62
467.61	291.62
467.829	375.62
468.049	675.62
468.268	816.62
468.488	469.62
468.707	341.62
468.927	294.62
469.146	272.62
469.365	275.62
469.585	271.62
469.804	253.62
470.023	253.62
470.243	258.62
470.462	239.62
470.681	257.62
470.901	266.62
471.12	288.62
471.339	263.62
471.558	297.62
471.777	378.62
471.997	531.62
472.216	1145.62
472.435	1719.62
472.654	969.62
472.873	559.62
473.092	435.62
473.311	371.62
473.53	364.62
473.749	311.62
473.968	303.62
474.187	272.62
474.406	281.62
474.625	290.62
474.844	270.62
475.063	267.62
475.282	263.62
475.501	266.62
475.72	263.62
475.939	246.62
476.158	261.62
476.377	263.62
476.596	259.62
476.814	251.62
477.033	251.62
477.252	256.62
477.471	256.62
477.69	262.62
477.908	251.62
478.127	267.62
478.346	291.62
478.564	270.62
478.783	285.62
479.002	301.62
479.22	276.62
479.439	307.62
479.658	331.62
479.876	311.62
480.095	333.62
480.313	375.62
480.532	460.62
480.751	629.62
480.969	1232.62
481.188	2687.62
481.406	2174.62
481.624	1039.62
481.843	685.62
482.061	555.62
482.28	473.62
482.498	426.62
482.717	392.62
482.935	367.62
483.153	339.62
483.372	367.62
483.59	337.62
483.808	336.62
484.027	327.62
484.245	308.62
484.463	305.62
484.681	291.62
484.9	296.62
485.118	320.62
485.336	300.62
485.554	279.62
485.772	293.62
485.99	303.62
486.209	309.62
486.427	282.62
486.645	299.62
486.863	293.62
487.081	293.62
487.299	280.62
487.517	284.62
487.735	300.62
487.953	319.62
488.171	323.62
488.389	318.62
488.607	320.62
488.825	302.62
489.043	306.62
489.261	310.62
489.479	313.62
489.696	320.62
489.914	328.62
490.132	338.62
490.35	342.62
490.568	360.62
490.786	401.62
491.003	396.62
491.221	455.62
491.439	458.62
491.657	462.62
491.874	475.62
492.092	485.62
492.31	487.62
492.527	511.62
492.745	557.62
492.963	535.62
493.18	509.62
493.398	487.62
493.615	449.62
493.833	428.62
494.05	436.62
494.268	412.62
494.485	419.62
494.703	388.62
494.92	375.62
495.138	371.62
495.355	356.62
495.573	377.62
495.79	351.62
496.008	375.62
496.225	374.62
496.442	339.62
496.66	349.62
496.877	358.62
497.094	344.62
497.312	330.62
497.529	343.62
497.746	341.62
497.963	346.62
498.181	345.62
498.398	334.62
498.615	364.62
498.832	368.62
499.049	378.62
499.267	367.62
499.484	379.62
499.701	415.62
499.918	440.62
500.135	457.62
500.352	488.62
500.569	508.62
500.786	510.62
501.003	455.62
501.22	430.62
501.437	412.62
501.654	385.62
501.871	384.62
502.088	359.62
502.305	360.62
502.522	341.62
502.739	347.62
502.956	320.62
503.172	324.62
503.389	327.62
503.606	299.62
