Data from StdC_HRD10591_054.txt Node
Date: Fri May 16 15:29:07 EDT 2025
User: Yrep
Spectrometer: HR+D1059
Trigger mode: 1
Integration Time (sec): 1.000000E-1
Scans to average: 1
Electric dark correction enabled: true
Nonlinearity correction enabled: false
Boxcar width: 0
XAxis mode: Wavelengths
Number of Pixels in Spectrum: 2048
>>>>>Begin Spectral Data<<<<<
223.165	-21.94
223.4	-21.94
223.635	-21.94
223.869	-27.94
224.104	-18.94
224.338	-3.94
224.573	-34.94
224.808	4.06
225.042	8.06
225.277	-2.94
225.511	-1.94
225.746	13.06
225.98	-1.94
226.215	20.06
226.449	15.06
226.683	9.06
226.918	20.06
227.152	25.06
227.387	30.06
227.621	25.06
227.856	49.06
228.09	52.06
228.324	46.06
228.559	51.06
228.793	72.06
229.027	78.06
229.262	73.06
229.496	77.06
229.73	76.06
229.964	66.06
230.199	90.06
230.433	77.06
230.667	95.06
230.901	93.06
231.136	79.06
231.37	82.06
231.604	85.06
231.838	81.06
232.072	101.06
232.306	107.06
232.541	83.06
232.775	94.06
233.009	82.06
233.243	101.06
233.477	96.06
233.711	103.06
233.945	98.06
234.179	83.06
234.413	90.06
234.647	103.06
234.881	87.06
235.115	94.06
235.349	86.06
235.583	83.06
235.817	93.06
236.051	73.06
236.285	78.06
236.519	85.06
236.753	91.06
236.987	88.06
237.221	91.06
237.455	87.06
237.689	94.06
237.922	101.06
238.156	94.06
238.39	91.06
238.624	92.06
238.858	97.06
239.091	92.06
239.325	94.06
239.559	94.06
239.793	81.06
240.027	94.06
240.26	93.06
240.494	93.06
240.728	82.06
240.961	93.06
241.195	93.06
241.429	95.06
241.662	89.06
241.896	93.06
242.13	88.06
242.363	91.06
242.597	84.06
242.83	104.06
243.064	99.06
243.298	97.06
243.531	96.06
243.765	98.06
243.998	90.06
244.232	91.06
244.465	100.06
244.699	84.06
244.932	96.06
245.166	114.06
245.399	112.06
245.633	123.06
245.866	96.06
246.099	87.06
246.333	86.06
246.566	104.06
246.8	105.06
247.033	107.06
247.266	96.06
247.5	95.06
247.733	114.06
247.966	101.06
248.2	109.06
248.433	124.06
248.666	92.06
248.899	116.06
249.133	123.06
249.366	104.06
249.599	109.06
249.832	125.06
250.066	138.06
250.299	170.06
250.532	195.06
250.765	171.06
250.998	145.06
251.231	142.06
251.465	119.06
251.698	120.06
251.931	128.06
252.164	121.06
252.397	122.06
252.63	110.06
252.863	105.06
253.096	118.06
253.329	115.06
253.562	117.06
253.795	111.06
254.028	117.06
254.261	133.06
254.494	126.06
254.727	123.06
254.96	126.06
255.193	139.06
255.426	158.06
255.659	188.06
255.892	255.06
256.124	300.06
256.357	254.06
256.59	197.06
256.823	173.06
257.056	161.06
257.289	143.06
257.521	139.06
257.754	127.06
257.987	142.06
258.22	137.06
258.452	132.06
258.685	125.06
258.918	130.06
259.151	134.06
259.383	138.06
259.616	124.06
259.849	131.06
260.081	121.06
260.314	138.06
260.547	130.06
260.779	146.06
261.012	135.06
261.244	136.06
261.477	138.06
261.71	134.06
261.942	145.06
262.175	124.06
262.407	122.06
262.64	141.06
262.872	123.06
263.105	138.06
263.337	130.06
263.57	120.06
263.802	129.06
264.035	134.06
264.267	121.06
264.499	132.06
264.732	115.06
264.964	105.06
265.197	119.06
265.429	129.06
265.661	135.06
265.894	135.06
266.126	137.06
266.358	126.06
266.591	119.06
266.823	137.06
267.055	139.06
267.287	130.06
267.52	119.06
267.752	131.06
267.984	127.06
268.216	126.06
268.448	133.06
268.681	130.06
268.913	134.06
269.145	137.06
269.377	137.06
269.609	130.06
269.841	142.06
270.073	129.06
270.306	144.06
270.538	135.06
270.77	142.06
271.002	131.06
271.234	125.06
271.466	149.06
271.698	136.06
271.93	135.06
272.162	145.06
272.394	131.06
272.626	128.06
272.858	140.06
273.09	145.06
273.322	145.06
273.553	156.06
273.785	164.06
274.017	143.06
274.249	152.06
274.481	153.06
274.713	159.06
274.945	151.06
275.176	156.06
275.408	153.06
275.64	177.06
275.872	185.06
276.104	175.06
276.335	181.06
276.567	173.06
276.799	195.06
277.031	215.06
277.262	222.06
277.494	203.06
277.726	192.06
277.957	189.06
278.189	179.06
278.421	171.06
278.652	177.06
278.884	175.06
279.115	185.06
279.347	181.06
279.579	189.06
279.81	227.06
280.042	251.06
280.273	269.06
280.505	240.06
280.736	212.06
280.968	187.06
281.199	163.06
281.431	179.06
281.662	149.06
281.894	157.06
282.125	154.06
282.356	158.06
282.588	153.06
282.819	150.06
283.051	158.06
283.282	154.06
283.513	155.06
283.745	138.06
283.976	168.06
284.207	158.06
284.439	169.06
284.67	151.06
284.901	150.06
285.132	153.06
285.364	174.06
285.595	156.06
285.826	165.06
286.057	149.06
286.288	159.06
286.52	151.06
286.751	155.06
286.982	163.06
287.213	158.06
287.444	143.06
287.675	161.06
287.906	160.06
288.138	159.06
288.369	156.06
288.6	158.06
288.831	161.06
289.062	149.06
289.293	153.06
289.524	161.06
289.755	152.06
289.986	153.06
290.217	152.06
290.448	160.06
290.679	146.06
290.91	155.06
291.141	161.06
291.371	151.06
291.602	152.06
291.833	149.06
292.064	159.06
292.295	139.06
292.526	158.06
292.757	159.06
292.987	153.06
293.218	151.06
293.449	163.06
293.68	143.06
293.91	144.06
294.141	150.06
294.372	147.06
294.603	156.06
294.833	152.06
295.064	142.06
295.295	152.06
295.525	161.06
295.756	147.06
295.987	157.06
296.217	148.06
296.448	135.06
296.679	150.06
296.909	148.06
297.14	155.06
297.37	150.06
297.601	162.06
297.831	166.06
298.062	159.06
298.292	146.06
298.523	156.06
298.753	151.06
298.984	162.06
299.214	157.06
299.445	166.06
299.675	153.06
299.905	152.06
300.136	159.06
300.366	171.06
300.597	147.06
300.827	158.06
301.057	156.06
301.288	162.06
301.518	165.06
301.748	170.06
301.979	186.06
302.209	173.06
302.439	163.06
302.669	165.06
302.9	179.06
303.13	167.06
303.36	167.06
303.59	186.06
303.82	192.06
304.051	176.06
304.281	177.06
304.511	170.06
304.741	167.06
304.971	166.06
305.201	161.06
305.431	181.06
305.661	177.06
305.891	153.06
306.121	168.06
306.352	165.06
306.582	159.06
306.812	185.06
307.042	182.06
307.272	233.06
307.502	213.06
307.731	208.06
307.961	185.06
308.191	181.06
308.421	171.06
308.651	160.06
308.881	157.06
309.111	168.06
309.341	162.06
309.571	159.06
309.8	158.06
310.03	169.06
310.26	155.06
310.49	167.06
310.72	176.06
310.949	167.06
311.179	165.06
311.409	183.06
311.639	165.06
311.868	173.06
312.098	166.06
312.328	177.06
312.557	173.06
312.787	171.06
313.017	171.06
313.246	171.06
313.476	178.06
313.706	171.06
313.935	154.06
314.165	178.06
314.394	170.06
314.624	166.06
314.853	171.06
315.083	170.06
315.312	173.06
315.542	187.06
315.771	167.06
316.001	180.06
316.23	189.06
316.46	182.06
316.689	174.06
316.919	164.06
317.148	169.06
317.377	165.06
317.607	185.06
317.836	182.06
318.065	177.06
318.295	192.06
318.524	171.06
318.753	181.06
318.983	189.06
319.212	174.06
319.441	198.06
319.67	197.06
319.9	173.06
320.129	179.06
320.358	170.06
320.587	184.06
320.816	175.06
321.046	194.06
321.275	182.06
321.504	199.06
321.733	199.06
321.962	189.06
322.191	189.06
322.42	193.06
322.649	190.06
322.878	201.06
323.108	203.06
323.337	190.06
323.566	219.06
323.795	215.06
324.024	220.06
324.253	219.06
324.482	213.06
324.71	226.06
324.939	222.06
325.168	218.06
325.397	216.06
325.626	231.06
325.855	215.06
326.084	231.06
326.313	240.06
326.542	254.06
326.77	245.06
326.999	261.06
327.228	286.06
327.457	305.06
327.686	389.06
327.914	493.06
328.143	664.06
328.372	672.06
328.6	518.06
328.829	368.06
329.058	378.06
329.287	408.06
329.515	481.06
329.744	623.06
329.972	930.06
330.201	1186.06
330.43	1246.06
330.658	739.06
330.887	423.06
331.115	351.06
331.344	336.06
331.572	330.06
331.801	319.06
332.03	305.06
332.258	306.06
332.486	299.06
332.715	347.06
332.943	339.06
333.172	385.06
333.4	440.06
333.629	499.06
333.857	670.06
334.085	1001.06
334.314	1425.06
334.542	1713.06
334.771	1398.06
334.999	705.06
335.227	485.06
335.455	388.06
335.684	337.06
335.912	299.06
336.14	297.06
336.369	281.06
336.597	253.06
336.825	255.06
337.053	247.06
337.281	242.06
337.51	241.06
337.738	237.06
337.966	235.06
338.194	237.06
338.422	223.06
338.65	210.06
338.878	214.06
339.106	208.06
339.334	229.06
339.562	212.06
339.79	211.06
340.018	215.06
340.246	203.06
340.474	184.06
340.702	203.06
340.93	209.06
341.158	185.06
341.386	199.06
341.614	193.06
341.842	193.06
342.07	205.06
342.298	196.06
342.526	191.06
342.754	189.06
342.981	205.06
343.209	185.06
343.437	222.06
343.665	200.06
343.893	207.06
344.12	207.06
344.348	212.06
344.576	199.06
344.804	191.06
345.031	199.06
345.259	190.06
345.487	175.06
345.714	201.06
345.942	189.06
346.17	198.06
346.397	172.06
346.625	186.06
346.853	179.06
347.08	190.06
347.308	195.06
347.535	183.06
347.763	190.06
347.99	184.06
348.218	180.06
348.445	187.06
348.673	171.06
348.9	189.06
349.128	175.06
349.355	177.06
349.583	183.06
349.81	185.06
350.037	169.06
350.265	176.06
350.492	162.06
350.72	163.06
350.947	193.06
351.174	189.06
351.402	162.06
351.629	189.06
351.856	194.06
352.083	183.06
352.311	187.06
352.538	191.06
352.765	179.06
352.992	187.06
353.22	192.06
353.447	174.06
353.674	201.06
353.901	190.06
354.128	190.06
354.355	167.06
354.583	177.06
354.81	171.06
355.037	183.06
355.264	188.06
355.491	195.06
355.718	163.06
355.945	173.06
356.172	183.06
356.399	189.06
356.626	176.06
356.853	166.06
357.08	174.06
357.307	190.06
357.534	186.06
357.761	186.06
357.988	188.06
358.215	169.06
358.441	175.06
358.668	175.06
358.895	175.06
359.122	193.06
359.349	181.06
359.576	176.06
359.802	160.06
360.029	170.06
360.256	191.06
360.483	185.06
360.709	176.06
360.936	183.06
361.163	184.06
361.39	174.06
361.616	175.06
361.843	196.06
362.07	187.06
362.296	189.06
362.523	161.06
362.749	179.06
362.976	187.06
363.203	189.06
363.429	174.06
363.656	169.06
363.882	185.06
364.109	197.06
364.335	200.06
364.562	175.06
364.788	183.06
365.015	180.06
365.241	185.06
365.468	174.06
365.694	173.06
365.92	186.06
366.147	175.06
366.373	185.06
366.599	172.06
366.826	180.06
367.052	187.06
367.278	194.06
367.505	177.06
367.731	178.06
367.957	175.06
368.184	174.06
368.41	192.06
368.636	173.06
368.862	181.06
369.089	194.06
369.315	178.06
369.541	173.06
369.767	179.06
369.993	182.06
370.219	173.06
370.445	189.06
370.672	186.06
370.898	170.06
371.124	185.06
371.35	172.06
371.576	200.06
371.802	197.06
372.028	189.06
372.254	187.06
372.48	190.06
372.706	194.06
372.932	190.06
373.158	195.06
373.384	171.06
373.61	189.06
373.835	181.06
374.061	199.06
374.287	193.06
374.513	192.06
374.739	204.06
374.965	189.06
375.191	194.06
375.416	190.06
375.642	194.06
375.868	181.06
376.094	173.06
376.319	186.06
376.545	174.06
376.771	189.06
376.997	192.06
377.222	189.06
377.448	176.06
377.674	188.06
377.899	181.06
378.125	181.06
378.35	188.06
378.576	188.06
378.802	179.06
379.027	185.06
379.253	185.06
379.478	180.06
379.704	179.06
379.929	157.06
380.155	190.06
380.38	197.06
380.606	191.06
380.831	207.06
381.057	191.06
381.282	183.06
381.507	172.06
381.733	183.06
381.958	189.06
382.184	183.06
382.409	199.06
382.634	213.06
382.86	202.06
383.085	191.06
383.31	187.06
383.535	188.06
383.761	199.06
383.986	201.06
384.211	190.06
384.436	208.06
384.662	209.06
384.887	198.06
385.112	210.06
385.337	207.06
385.562	192.06
385.787	205.06
386.013	197.06
386.238	212.06
386.463	199.06
386.688	213.06
386.913	210.06
387.138	205.06
387.363	208.06
387.588	187.06
387.813	195.06
388.038	190.06
388.263	214.06
388.488	200.06
388.713	225.06
388.938	203.06
389.163	203.06
389.387	207.06
389.612	180.06
389.837	207.06
390.062	191.06
390.287	202.06
390.512	193.06
390.736	213.06
390.961	195.06
391.186	219.06
391.411	208.06
391.636	218.06
391.86	208.06
392.085	199.06
392.31	210.06
392.534	205.06
392.759	219.06
392.984	226.06
393.208	217.06
393.433	215.06
393.658	212.06
393.882	213.06
394.107	200.06
394.331	207.06
394.556	213.06
394.78	210.06
395.005	218.06
395.229	219.06
395.454	231.06
395.678	205.06
395.903	201.06
396.127	229.06
396.352	223.06
396.576	224.06
396.801	227.06
397.025	216.06
397.249	215.06
397.474	229.06
397.698	212.06
397.922	231.06
398.147	227.06
398.371	226.06
398.595	234.06
398.82	243.06
399.044	247.06
399.268	270.06
399.492	254.06
399.717	290.06
399.941	281.06
400.165	271.06
400.389	263.06
400.613	246.06
400.837	243.06
401.062	229.06
401.286	243.06
401.51	239.06
401.734	229.06
401.958	240.06
402.182	219.06
402.406	221.06
402.63	237.06
402.854	247.06
403.078	235.06
403.302	244.06
403.526	226.06
403.75	241.06
403.974	247.06
404.198	266.06
404.422	261.06
404.645	283.06
404.869	289.06
405.093	310.06
405.317	341.06
405.541	321.06
405.765	289.06
405.988	273.06
406.212	270.06
406.436	267.06
406.66	247.06
406.883	264.06
407.107	269.06
407.331	264.06
407.555	272.06
407.778	249.06
408.002	263.06
408.226	273.06
408.449	264.06
408.673	244.06
408.896	225.06
409.12	259.06
409.344	245.06
409.567	241.06
409.791	262.06
410.014	242.06
410.238	242.06
410.461	246.06
410.685	250.06
410.908	263.06
411.132	239.06
411.355	239.06
411.578	254.06
411.802	283.06
412.025	264.06
412.249	286.06
412.472	316.06
412.695	317.06
412.919	324.06
413.142	301.06
413.365	286.06
413.589	277.06
413.812	271.06
414.035	257.06
414.258	270.06
414.482	256.06
414.705	256.06
414.928	265.06
415.151	256.06
415.374	265.06
415.597	243.06
415.821	239.06
416.044	248.06
416.267	253.06
416.49	233.06
416.713	244.06
416.936	257.06
417.159	241.06
417.382	259.06
417.605	261.06
417.828	266.06
418.051	241.06
418.274	259.06
418.497	249.06
418.72	246.06
418.943	255.06
419.166	263.06
419.389	258.06
419.611	271.06
419.834	255.06
420.057	288.06
420.28	309.06
420.503	305.06
420.726	274.06
420.948	272.06
421.171	278.06
421.394	250.06
421.617	239.06
421.839	253.06
422.062	249.06
422.285	235.06
422.507	247.06
422.73	241.06
422.953	219.06
423.175	242.06
423.398	242.06
423.621	239.06
423.843	245.06
424.066	246.06
424.288	259.06
424.511	245.06
424.733	236.06
424.956	229.06
425.178	239.06
425.401	233.06
425.623	237.06
425.846	248.06
426.068	240.06
426.291	223.06
426.513	235.06
426.735	254.06
426.958	231.06
427.18	233.06
427.402	264.06
427.625	272.06
427.847	303.06
428.069	329.06
428.292	289.06
428.514	276.06
428.736	234.06
428.958	249.06
429.181	235.06
429.403	244.06
429.625	238.06
429.847	217.06
430.069	222.06
430.292	223.06
430.514	221.06
430.736	230.06
430.958	221.06
431.18	222.06
431.402	218.06
431.624	215.06
431.846	222.06
432.068	205.06
432.29	219.06
432.512	217.06
432.734	209.06
432.956	215.06
433.178	226.06
433.4	222.06
433.622	233.06
433.844	225.06
434.066	205.06
434.287	220.06
434.509	210.06
434.731	240.06
434.953	228.06
435.175	235.06
435.397	227.06
435.618	239.06
435.84	223.06
436.062	214.06
436.284	222.06
436.505	219.06
436.727	226.06
436.949	211.06
437.17	224.06
437.392	221.06
437.614	227.06
437.835	225.06
438.057	210.06
438.278	216.06
438.5	213.06
438.721	216.06
438.943	206.06
439.165	205.06
439.386	219.06
439.608	220.06
439.829	216.06
440.05	218.06
440.272	220.06
440.493	205.06
440.715	224.06
440.936	223.06
441.158	232.06
441.379	224.06
441.6	229.06
441.822	240.06
442.043	235.06
442.264	218.06
442.486	225.06
442.707	217.06
442.928	217.06
443.149	242.06
443.371	215.06
443.592	233.06
443.813	243.06
444.034	233.06
444.255	255.06
444.476	254.06
444.698	249.06
444.919	249.06
445.14	341.06
445.361	290.06
445.582	214.06
445.803	221.06
446.024	235.06
446.245	225.06
446.466	223.06
446.687	218.06
446.908	217.06
447.129	227.06
447.35	206.06
447.571	223.06
447.792	203.06
448.013	211.06
448.234	211.06
448.455	210.06
448.675	195.06
448.896	206.06
449.117	210.06
449.338	209.06
449.559	214.06
449.779	211.06
450	213.06
450.221	195.06
450.442	233.06
450.662	215.06
450.883	216.06
451.104	217.06
451.324	216.06
451.545	216.06
451.766	210.06
451.986	215.06
452.207	219.06
452.428	205.06
452.648	218.06
452.869	207.06
453.089	186.06
453.31	183.06
453.53	201.06
453.751	196.06
453.971	198.06
454.192	192.06
454.412	204.06
454.633	213.06
454.853	196.06
455.073	218.06
455.294	203.06
455.514	203.06
455.734	211.06
455.955	189.06
456.175	213.06
456.395	202.06
456.616	202.06
456.836	196.06
457.056	213.06
457.276	195.06
457.497	221.06
457.717	201.06
457.937	216.06
458.157	193.06
458.377	218.06
458.598	219.06
458.818	211.06
459.038	219.06
459.258	207.06
459.478	215.06
459.698	222.06
459.918	232.06
460.138	230.06
460.358	226.06
460.578	237.06
460.798	228.06
461.018	234.06
461.238	231.06
461.458	227.06
461.678	231.06
461.898	237.06
462.118	234.06
462.338	247.06
462.558	253.06
462.777	263.06
462.997	267.06
463.217	256.06
463.437	269.06
463.657	256.06
463.876	254.06
464.096	256.06
464.316	246.06
464.536	250.06
464.755	247.06
464.975	250.06
465.195	247.06
465.414	254.06
465.634	230.06
465.854	229.06
466.073	231.06
466.293	239.06
466.512	231.06
466.732	237.06
466.951	229.06
467.171	257.06
467.391	252.06
467.61	280.06
467.829	366.06
468.049	616.06
468.268	782.06
468.488	457.06
468.707	343.06
468.927	298.06
469.146	276.06
469.365	261.06
469.585	260.06
469.804	242.06
470.023	270.06
470.243	255.06
470.462	258.06
470.681	255.06
470.901	263.06
471.12	286.06
471.339	278.06
471.558	302.06
471.777	347.06
471.997	517.06
472.216	1058.06
472.435	1607.06
472.654	906.06
472.873	537.06
473.092	415.06
473.311	359.06
473.53	319.06
473.749	317.06
473.968	305.06
474.187	279.06
474.406	273.06
474.625	269.06
474.844	247.06
475.063	264.06
475.282	249.06
475.501	253.06
475.72	265.06
475.939	250.06
476.158	244.06
476.377	274.06
476.596	253.06
476.814	262.06
477.033	256.06
477.252	239.06
477.471	256.06
477.69	260.06
477.908	249.06
478.127	277.06
478.346	271.06
478.564	281.06
478.783	294.06
479.002	272.06
479.22	297.06
479.439	299.06
479.658	303.06
479.876	325.06
480.095	324.06
480.313	387.06
480.532	448.06
480.751	578.06
480.969	1127.06
481.188	2523.06
481.406	2099.06
481.624	989.06
481.843	666.06
482.061	526.06
482.28	449.06
482.498	393.06
482.717	384.06
482.935	367.06
483.153	350.06
483.372	349.06
483.59	328.06
483.808	324.06
484.027	312.06
484.245	309.06
484.463	295.06
484.681	314.06
484.9	280.06
485.118	285.06
485.336	285.06
485.554	302.06
485.772	285.06
485.99	293.06
486.209	286.06
486.427	276.06
486.645	302.06
486.863	274.06
487.081	300.06
487.299	288.06
487.517	293.06
487.735	286.06
487.953	311.06
488.171	311.06
488.389	294.06
488.607	305.06
488.825	301.06
489.043	293.06
489.261	298.06
489.479	321.06
489.696	318.06
489.914	328.06
490.132	319.06
490.35	340.06
490.568	364.06
490.786	375.06
491.003	377.06
491.221	406.06
491.439	469.06
491.657	464.06
491.874	470.06
492.092	445.06
492.31	498.06
492.527	542.06
492.745	521.06
492.963	495.06
493.18	465.06
493.398	473.06
493.615	424.06
493.833	410.06
494.05	411.06
494.268	398.06
494.485	389.06
494.703	378.06
494.92	379.06
495.138	378.06
495.355	346.06
495.573	358.06
495.79	352.06
496.008	336.06
496.225	349.06
496.442	339.06
496.66	346.06
496.877	359.06
497.094	341.06
497.312	340.06
497.529	357.06
497.746	332.06
497.963	337.06
498.181	311.06
498.398	340.06
498.615	331.06
498.832	350.06
499.049	359.06
499.267	365.06
499.484	389.06
499.701	400.06
499.918	414.06
500.135	431.06
500.352	459.06
500.569	501.06
500.786	469.06
501.003	463.06
501.22	416.06
501.437	393.06
501.654	380.06
501.871	376.06
502.088	365.06
502.305	333.06
502.522	320.06
502.739	327.06
502.956	301.06
503.172	305.06
503.389	319.06
503.606	280.06
