Data from StdC_HRD10591_039.txt Node
Date: Fri May 16 15:29:00 EDT 2025
User: Yrep
Spectrometer: HR+D1059
Trigger mode: 1
Integration Time (sec): 1.000000E-1
Scans to average: 1
Electric dark correction enabled: true
Nonlinearity correction enabled: false
Boxcar width: 0
XAxis mode: Wavelengths
Number of Pixels in Spectrum: 2048
>>>>>Begin Spectral Data<<<<<
223.165	-21.25
223.4	-21.25
223.635	-21.25
223.869	-20.25
224.104	-26.25
224.338	-24.25
224.573	-13.25
224.808	-15.25
225.042	-7.25
225.277	-12.25
225.511	2.75
225.746	19.75
225.98	10.75
226.215	22.75
226.449	14.75
226.683	18.75
226.918	18.75
227.152	31.75
227.387	30.75
227.621	39.75
227.856	42.75
228.09	42.75
228.324	46.75
228.559	47.75
228.793	70.75
229.027	68.75
229.262	84.75
229.496	65.75
229.73	88.75
229.964	88.75
230.199	75.75
230.433	90.75
230.667	90.75
230.901	93.75
231.136	73.75
231.37	77.75
231.604	93.75
231.838	75.75
232.072	109.75
232.306	89.75
232.541	89.75
232.775	86.75
233.009	82.75
233.243	85.75
233.477	94.75
233.711	78.75
233.945	82.75
234.179	105.75
234.413	78.75
234.647	91.75
234.881	82.75
235.115	90.75
235.349	93.75
235.583	93.75
235.817	77.75
236.051	101.75
236.285	97.75
236.519	74.75
236.753	87.75
236.987	102.75
237.221	84.75
237.455	74.75
237.689	92.75
237.922	86.75
238.156	87.75
238.39	88.75
238.624	103.75
238.858	81.75
239.091	84.75
239.325	88.75
239.559	81.75
239.793	73.75
240.027	78.75
240.26	92.75
240.494	96.75
240.728	81.75
240.961	85.75
241.195	93.75
241.429	82.75
241.662	82.75
241.896	92.75
242.13	101.75
242.363	95.75
242.597	98.75
242.83	102.75
243.064	106.75
243.298	103.75
243.531	93.75
243.765	86.75
243.998	95.75
244.232	98.75
244.465	98.75
244.699	99.75
244.932	91.75
245.166	100.75
245.399	110.75
245.633	115.75
245.866	92.75
246.099	95.75
246.333	105.75
246.566	93.75
246.8	100.75
247.033	100.75
247.266	92.75
247.5	104.75
247.733	102.75
247.966	108.75
248.2	115.75
248.433	114.75
248.666	107.75
248.899	109.75
249.133	106.75
249.366	115.75
249.599	114.75
249.832	125.75
250.066	135.75
250.299	171.75
250.532	185.75
250.765	168.75
250.998	135.75
251.231	146.75
251.465	114.75
251.698	134.75
251.931	134.75
252.164	117.75
252.397	132.75
252.63	131.75
252.863	124.75
253.096	121.75
253.329	130.75
253.562	118.75
253.795	126.75
254.028	122.75
254.261	124.75
254.494	117.75
254.727	133.75
254.96	140.75
255.193	134.75
255.426	147.75
255.659	190.75
255.892	242.75
256.124	280.75
256.357	248.75
256.59	182.75
256.823	183.75
257.056	145.75
257.289	141.75
257.521	151.75
257.754	145.75
257.987	140.75
258.22	133.75
258.452	137.75
258.685	139.75
258.918	127.75
259.151	135.75
259.383	143.75
259.616	124.75
259.849	137.75
260.081	126.75
260.314	126.75
260.547	139.75
260.779	132.75
261.012	129.75
261.244	131.75
261.477	133.75
261.71	130.75
261.942	133.75
262.175	118.75
262.407	125.75
262.64	124.75
262.872	120.75
263.105	108.75
263.337	134.75
263.57	126.75
263.802	127.75
264.035	119.75
264.267	120.75
264.499	122.75
264.732	116.75
264.964	131.75
265.197	130.75
265.429	136.75
265.661	123.75
265.894	129.75
266.126	123.75
266.358	127.75
266.591	136.75
266.823	116.75
267.055	136.75
267.287	139.75
267.52	126.75
267.752	132.75
267.984	142.75
268.216	134.75
268.448	122.75
268.681	132.75
268.913	136.75
269.145	143.75
269.377	132.75
269.609	133.75
269.841	150.75
270.073	132.75
270.306	125.75
270.538	136.75
270.77	131.75
271.002	132.75
271.234	145.75
271.466	146.75
271.698	134.75
271.93	149.75
272.162	143.75
272.394	139.75
272.626	130.75
272.858	139.75
273.09	138.75
273.322	146.75
273.553	148.75
273.785	146.75
274.017	141.75
274.249	140.75
274.481	157.75
274.713	144.75
274.945	158.75
275.176	151.75
275.408	153.75
275.64	179.75
275.872	170.75
276.104	160.75
276.335	166.75
276.567	184.75
276.799	194.75
277.031	223.75
277.262	233.75
277.494	205.75
277.726	192.75
277.957	192.75
278.189	186.75
278.421	183.75
278.652	173.75
278.884	154.75
279.115	184.75
279.347	182.75
279.579	192.75
279.81	220.75
280.042	256.75
280.273	260.75
280.505	253.75
280.736	215.75
280.968	182.75
281.199	184.75
281.431	179.75
281.662	155.75
281.894	186.75
282.125	171.75
282.356	157.75
282.588	149.75
282.819	165.75
283.051	147.75
283.282	145.75
283.513	163.75
283.745	156.75
283.976	154.75
284.207	140.75
284.439	143.75
284.67	140.75
284.901	167.75
285.132	156.75
285.364	161.75
285.595	154.75
285.826	155.75
286.057	167.75
286.288	138.75
286.52	151.75
286.751	160.75
286.982	148.75
287.213	143.75
287.444	166.75
287.675	156.75
287.906	154.75
288.138	166.75
288.369	157.75
288.6	163.75
288.831	162.75
289.062	161.75
289.293	157.75
289.524	156.75
289.755	151.75
289.986	162.75
290.217	152.75
290.448	155.75
290.679	163.75
290.91	161.75
291.141	166.75
291.371	133.75
291.602	159.75
291.833	157.75
292.064	154.75
292.295	146.75
292.526	142.75
292.757	158.75
292.987	142.75
293.218	156.75
293.449	140.75
293.68	162.75
293.91	164.75
294.141	152.75
294.372	151.75
294.603	157.75
294.833	164.75
295.064	143.75
295.295	146.75
295.525	157.75
295.756	149.75
295.987	152.75
296.217	150.75
296.448	153.75
296.679	155.75
296.909	141.75
297.14	159.75
297.37	156.75
297.601	158.75
297.831	177.75
298.062	146.75
298.292	145.75
298.523	151.75
298.753	159.75
298.984	159.75
299.214	156.75
299.445	161.75
299.675	149.75
299.905	155.75
300.136	147.75
300.366	145.75
300.597	150.75
300.827	158.75
301.057	147.75
301.288	157.75
301.518	156.75
301.748	161.75
301.979	188.75
302.209	164.75
302.439	163.75
302.669	157.75
302.9	161.75
303.13	156.75
303.36	183.75
303.59	200.75
303.82	194.75
304.051	184.75
304.281	183.75
304.511	165.75
304.741	192.75
304.971	168.75
305.201	175.75
305.431	169.75
305.661	154.75
305.891	155.75
306.121	168.75
306.352	150.75
306.582	160.75
306.812	183.75
307.042	205.75
307.272	206.75
307.502	213.75
307.731	204.75
307.961	192.75
308.191	177.75
308.421	166.75
308.651	162.75
308.881	165.75
309.111	158.75
309.341	154.75
309.571	171.75
309.8	165.75
310.03	157.75
310.26	187.75
310.49	168.75
310.72	169.75
310.949	184.75
311.179	171.75
311.409	165.75
311.639	167.75
311.868	176.75
312.098	179.75
312.328	168.75
312.557	172.75
312.787	174.75
313.017	165.75
313.246	168.75
313.476	163.75
313.706	169.75
313.935	175.75
314.165	166.75
314.394	174.75
314.624	165.75
314.853	179.75
315.083	172.75
315.312	168.75
315.542	172.75
315.771	163.75
316.001	182.75
316.23	183.75
316.46	169.75
316.689	187.75
316.919	182.75
317.148	182.75
317.377	190.75
317.607	180.75
317.836	168.75
318.065	179.75
318.295	174.75
318.524	179.75
318.753	184.75
318.983	182.75
319.212	184.75
319.441	192.75
319.67	188.75
319.9	183.75
320.129	180.75
320.358	213.75
320.587	188.75
320.816	182.75
321.046	192.75
321.275	187.75
321.504	163.75
321.733	191.75
321.962	182.75
322.191	183.75
322.42	184.75
322.649	180.75
322.878	192.75
323.108	196.75
323.337	210.75
323.566	199.75
323.795	193.75
324.024	180.75
324.253	214.75
324.482	206.75
324.71	213.75
324.939	218.75
325.168	211.75
325.397	218.75
325.626	239.75
325.855	244.75
326.084	237.75
326.313	233.75
326.542	260.75
326.77	251.75
326.999	285.75
327.228	278.75
327.457	334.75
327.686	398.75
327.914	519.75
328.143	668.75
328.372	715.75
328.6	516.75
328.829	389.75
329.058	384.75
329.287	408.75
329.515	470.75
329.744	645.75
329.972	931.75
330.201	1222.75
330.43	1301.75
330.658	754.75
330.887	466.75
331.115	377.75
331.344	342.75
331.572	330.75
331.801	324.75
332.03	307.75
332.258	327.75
332.486	312.75
332.715	338.75
332.943	356.75
333.172	392.75
333.4	427.75
333.629	532.75
333.857	677.75
334.085	1018.75
334.314	1406.75
334.542	1752.75
334.771	1398.75
334.999	728.75
335.227	484.75
335.455	394.75
335.684	340.75
335.912	332.75
336.14	305.75
336.369	277.75
336.597	255.75
336.825	274.75
337.053	256.75
337.281	248.75
337.51	231.75
337.738	230.75
337.966	233.75
338.194	215.75
338.422	214.75
338.65	226.75
338.878	228.75
339.106	221.75
339.334	221.75
339.562	195.75
339.79	211.75
340.018	198.75
340.246	210.75
340.474	197.75
340.702	196.75
340.93	213.75
341.158	203.75
341.386	192.75
341.614	200.75
341.842	191.75
342.07	181.75
342.298	208.75
342.526	200.75
342.754	195.75
342.981	192.75
343.209	200.75
343.437	206.75
343.665	194.75
343.893	187.75
344.12	212.75
344.348	195.75
344.576	184.75
344.804	196.75
345.031	190.75
345.259	195.75
345.487	176.75
345.714	179.75
345.942	181.75
346.17	189.75
346.397	190.75
346.625	194.75
346.853	172.75
347.08	182.75
347.308	194.75
347.535	196.75
347.763	188.75
347.99	167.75
348.218	200.75
348.445	184.75
348.673	189.75
348.9	178.75
349.128	173.75
349.355	190.75
349.583	200.75
349.81	192.75
350.037	184.75
350.265	181.75
350.492	188.75
350.72	187.75
350.947	184.75
351.174	188.75
351.402	203.75
351.629	193.75
351.856	184.75
352.083	184.75
352.311	182.75
352.538	198.75
352.765	182.75
352.992	182.75
353.22	186.75
353.447	163.75
353.674	186.75
353.901	188.75
354.128	183.75
354.355	189.75
354.583	185.75
354.81	186.75
355.037	204.75
355.264	166.75
355.491	186.75
355.718	180.75
355.945	188.75
356.172	182.75
356.399	170.75
356.626	182.75
356.853	182.75
357.08	182.75
357.307	184.75
357.534	164.75
357.761	191.75
357.988	188.75
358.215	173.75
358.441	186.75
358.668	182.75
358.895	180.75
359.122	178.75
359.349	171.75
359.576	175.75
359.802	173.75
360.029	185.75
360.256	169.75
360.483	166.75
360.709	178.75
360.936	194.75
361.163	173.75
361.39	164.75
361.616	164.75
361.843	176.75
362.07	171.75
362.296	175.75
362.523	172.75
362.749	186.75
362.976	174.75
363.203	188.75
363.429	172.75
363.656	180.75
363.882	188.75
364.109	170.75
364.335	182.75
364.562	175.75
364.788	176.75
365.015	179.75
365.241	181.75
365.468	182.75
365.694	185.75
365.92	172.75
366.147	170.75
366.373	185.75
366.599	175.75
366.826	183.75
367.052	170.75
367.278	168.75
367.505	179.75
367.731	183.75
367.957	185.75
368.184	168.75
368.41	179.75
368.636	187.75
368.862	180.75
369.089	195.75
369.315	184.75
369.541	157.75
369.767	182.75
369.993	178.75
370.219	175.75
370.445	178.75
370.672	194.75
370.898	187.75
371.124	186.75
371.35	179.75
371.576	188.75
371.802	191.75
372.028	187.75
372.254	191.75
372.48	184.75
372.706	184.75
372.932	199.75
373.158	189.75
373.384	200.75
373.61	162.75
373.835	186.75
374.061	177.75
374.287	184.75
374.513	182.75
374.739	180.75
374.965	200.75
375.191	202.75
375.416	192.75
375.642	183.75
375.868	190.75
376.094	189.75
376.319	189.75
376.545	195.75
376.771	194.75
376.997	173.75
377.222	178.75
377.448	163.75
377.674	183.75
377.899	188.75
378.125	181.75
378.35	191.75
378.576	188.75
378.802	172.75
379.027	189.75
379.253	189.75
379.478	184.75
379.704	185.75
379.929	184.75
380.155	184.75
380.38	197.75
380.606	190.75
380.831	175.75
381.057	201.75
381.282	174.75
381.507	186.75
381.733	180.75
381.958	185.75
382.184	198.75
382.409	193.75
382.634	190.75
382.86	200.75
383.085	210.75
383.31	196.75
383.535	207.75
383.761	205.75
383.986	210.75
384.211	202.75
384.436	204.75
384.662	200.75
384.887	207.75
385.112	214.75
385.337	202.75
385.562	200.75
385.787	203.75
386.013	211.75
386.238	204.75
386.463	209.75
386.688	209.75
386.913	192.75
387.138	190.75
387.363	208.75
387.588	209.75
387.813	202.75
388.038	219.75
388.263	221.75
388.488	207.75
388.713	206.75
388.938	203.75
389.163	179.75
389.387	185.75
389.612	210.75
389.837	200.75
390.062	209.75
390.287	210.75
390.512	219.75
390.736	206.75
390.961	205.75
391.186	220.75
391.411	228.75
391.636	204.75
391.86	213.75
392.085	227.75
392.31	205.75
392.534	220.75
392.759	198.75
392.984	192.75
393.208	196.75
393.433	200.75
393.658	200.75
393.882	234.75
394.107	222.75
394.331	211.75
394.556	190.75
394.78	208.75
395.005	214.75
395.229	207.75
395.454	227.75
395.678	232.75
395.903	232.75
396.127	216.75
396.352	211.75
396.576	205.75
396.801	198.75
397.025	207.75
397.249	208.75
397.474	215.75
397.698	223.75
397.922	235.75
398.147	228.75
398.371	207.75
398.595	211.75
398.82	254.75
399.044	251.75
399.268	244.75
399.492	274.75
399.717	277.75
399.941	283.75
400.165	257.75
400.389	250.75
400.613	235.75
400.837	231.75
401.062	217.75
401.286	238.75
401.51	234.75
401.734	249.75
401.958	231.75
402.182	229.75
402.406	241.75
402.63	235.75
402.854	242.75
403.078	244.75
403.302	242.75
403.526	248.75
403.75	244.75
403.974	261.75
404.198	238.75
404.422	257.75
404.645	267.75
404.869	277.75
405.093	296.75
405.317	301.75
405.541	315.75
405.765	290.75
405.988	269.75
406.212	261.75
406.436	260.75
406.66	246.75
406.883	285.75
407.107	267.75
407.331	269.75
407.555	285.75
407.778	264.75
408.002	256.75
408.226	240.75
408.449	261.75
408.673	234.75
408.896	256.75
409.12	257.75
409.344	240.75
409.567	254.75
409.791	250.75
410.014	249.75
410.238	252.75
410.461	235.75
410.685	268.75
410.908	247.75
411.132	256.75
411.355	251.75
411.578	239.75
411.802	253.75
412.025	276.75
412.249	294.75
412.472	318.75
412.695	323.75
412.919	306.75
413.142	298.75
413.365	282.75
413.589	274.75
413.812	266.75
414.035	277.75
414.258	265.75
414.482	251.75
414.705	247.75
414.928	234.75
415.151	250.75
415.374	252.75
415.597	252.75
415.821	249.75
416.044	263.75
416.267	250.75
416.49	243.75
416.713	248.75
416.936	247.75
417.159	250.75
417.382	257.75
417.605	274.75
417.828	270.75
418.051	264.75
418.274	245.75
418.497	235.75
418.72	227.75
418.943	241.75
419.166	252.75
419.389	269.75
419.611	270.75
419.834	280.75
420.057	262.75
420.28	302.75
420.503	293.75
420.726	260.75
420.948	257.75
421.171	262.75
421.394	255.75
421.617	237.75
421.839	252.75
422.062	262.75
422.285	249.75
422.507	234.75
422.73	231.75
422.953	229.75
423.175	260.75
423.398	253.75
423.621	263.75
423.843	238.75
424.066	250.75
424.288	245.75
424.511	249.75
424.733	233.75
424.956	237.75
425.178	232.75
425.401	231.75
425.623	242.75
425.846	238.75
426.068	245.75
426.291	252.75
426.513	223.75
426.735	231.75
426.958	235.75
427.18	243.75
427.402	243.75
427.625	298.75
427.847	317.75
428.069	310.75
428.292	292.75
428.514	270.75
428.736	236.75
428.958	242.75
429.181	242.75
429.403	233.75
429.625	246.75
429.847	246.75
430.069	227.75
430.292	226.75
430.514	238.75
430.736	222.75
430.958	213.75
431.18	230.75
431.402	225.75
431.624	219.75
431.846	224.75
432.068	220.75
432.29	231.75
432.512	200.75
432.734	219.75
432.956	223.75
433.178	236.75
433.4	220.75
433.622	223.75
433.844	227.75
434.066	229.75
434.287	231.75
434.509	215.75
434.731	216.75
434.953	222.75
435.175	214.75
435.397	206.75
435.618	221.75
435.84	228.75
436.062	210.75
436.284	222.75
436.505	218.75
436.727	218.75
436.949	228.75
437.17	221.75
437.392	202.75
437.614	212.75
437.835	216.75
438.057	212.75
438.278	212.75
438.5	219.75
438.721	200.75
438.943	220.75
439.165	215.75
439.386	220.75
439.608	229.75
439.829	217.75
440.05	224.75
440.272	223.75
440.493	213.75
440.715	218.75
440.936	205.75
441.158	221.75
441.379	202.75
441.6	221.75
441.822	221.75
442.043	224.75
442.264	228.75
442.486	228.75
442.707	224.75
442.928	227.75
443.149	235.75
443.371	231.75
443.592	237.75
443.813	231.75
444.034	231.75
444.255	214.75
444.476	238.75
444.698	252.75
444.919	252.75
445.14	319.75
445.361	283.75
445.582	252.75
445.803	237.75
446.024	244.75
446.245	226.75
446.466	229.75
446.687	208.75
446.908	206.75
447.129	216.75
447.35	203.75
447.571	217.75
447.792	228.75
448.013	196.75
448.234	202.75
448.455	204.75
448.675	215.75
448.896	219.75
449.117	216.75
449.338	207.75
449.559	211.75
449.779	214.75
450	216.75
450.221	202.75
450.442	215.75
450.662	196.75
450.883	213.75
451.104	196.75
451.324	199.75
451.545	202.75
451.766	208.75
451.986	207.75
452.207	202.75
452.428	215.75
452.648	191.75
452.869	198.75
453.089	185.75
453.31	193.75
453.53	197.75
453.751	193.75
453.971	212.75
454.192	212.75
454.412	208.75
454.633	198.75
454.853	208.75
455.073	197.75
455.294	210.75
455.514	187.75
455.734	179.75
455.955	181.75
456.175	216.75
456.395	180.75
456.616	204.75
456.836	203.75
457.056	201.75
457.276	198.75
457.497	217.75
457.717	193.75
457.937	183.75
458.157	202.75
458.377	208.75
458.598	213.75
458.818	200.75
459.038	220.75
459.258	206.75
459.478	216.75
459.698	206.75
459.918	219.75
460.138	218.75
460.358	227.75
460.578	230.75
460.798	234.75
461.018	242.75
461.238	229.75
461.458	237.75
461.678	243.75
461.898	243.75
462.118	245.75
462.338	238.75
462.558	250.75
462.777	253.75
462.997	268.75
463.217	263.75
463.437	272.75
463.657	254.75
463.876	256.75
464.096	246.75
464.316	260.75
464.536	247.75
464.755	250.75
464.975	253.75
465.195	246.75
465.414	238.75
465.634	239.75
465.854	240.75
466.073	227.75
466.293	255.75
466.512	247.75
466.732	247.75
466.951	229.75
467.171	255.75
467.391	261.75
467.61	285.75
467.829	370.75
468.049	634.75
468.268	776.75
468.488	447.75
468.707	346.75
468.927	318.75
469.146	284.75
469.365	272.75
469.585	263.75
469.804	253.75
470.023	248.75
470.243	246.75
470.462	260.75
470.681	258.75
470.901	252.75
471.12	272.75
471.339	291.75
471.558	298.75
471.777	349.75
471.997	510.75
472.216	1082.75
472.435	1626.75
472.654	903.75
472.873	562.75
473.092	418.75
473.311	349.75
473.53	334.75
473.749	300.75
473.968	277.75
474.187	265.75
474.406	278.75
474.625	267.75
474.844	255.75
475.063	267.75
475.282	262.75
475.501	258.75
475.72	238.75
475.939	252.75
476.158	263.75
476.377	260.75
476.596	239.75
476.814	250.75
477.033	258.75
477.252	244.75
477.471	260.75
477.69	273.75
477.908	262.75
478.127	278.75
478.346	259.75
478.564	260.75
478.783	295.75
479.002	298.75
479.22	308.75
479.439	302.75
479.658	314.75
479.876	312.75
480.095	354.75
480.313	374.75
480.532	455.75
480.751	617.75
480.969	1186.75
481.188	2594.75
481.406	2072.75
481.624	1016.75
481.843	672.75
482.061	531.75
482.28	463.75
482.498	428.75
482.717	407.75
482.935	367.75
483.153	360.75
483.372	331.75
483.59	342.75
483.808	330.75
484.027	322.75
484.245	290.75
484.463	296.75
484.681	314.75
484.9	294.75
485.118	302.75
485.336	284.75
485.554	292.75
485.772	290.75
485.99	295.75
486.209	298.75
486.427	280.75
486.645	284.75
486.863	299.75
487.081	301.75
487.299	304.75
487.517	299.75
487.735	314.75
487.953	314.75
488.171	294.75
488.389	292.75
488.607	300.75
488.825	300.75
489.043	311.75
489.261	310.75
489.479	304.75
489.696	301.75
489.914	326.75
490.132	334.75
490.35	330.75
490.568	355.75
490.786	373.75
491.003	372.75
491.221	394.75
491.439	428.75
491.657	445.75
491.874	459.75
492.092	470.75
492.31	483.75
492.527	505.75
492.745	531.75
492.963	520.75
493.18	487.75
493.398	464.75
493.615	441.75
493.833	431.75
494.05	415.75
494.268	415.75
494.485	389.75
494.703	380.75
494.92	375.75
495.138	358.75
495.355	371.75
495.573	371.75
495.79	348.75
496.008	352.75
496.225	358.75
496.442	355.75
496.66	336.75
496.877	330.75
497.094	336.75
497.312	327.75
497.529	332.75
497.746	349.75
497.963	330.75
498.181	338.75
498.398	340.75
498.615	346.75
498.832	371.75
499.049	359.75
499.267	372.75
499.484	379.75
499.701	397.75
499.918	434.75
500.135	448.75
500.352	467.75
500.569	488.75
500.786	522.75
501.003	478.75
501.22	429.75
501.437	388.75
501.654	376.75
501.871	358.75
502.088	362.75
502.305	366.75
502.522	342.75
502.739	336.75
502.956	308.75
503.172	324.75
503.389	307.75
