Data from StdC_HRD10591_058.txt Node
Date: Fri May 16 15:29:09 EDT 2025
User: Yrep
Spectrometer: HR+D1059
Trigger mode: 1
Integration Time (sec): 1.000000E-1
Scans to average: 1
Electric dark correction enabled: true
Nonlinearity correction enabled: false
Boxcar width: 0
XAxis mode: Wavelengths
Number of Pixels in Spectrum: 2048
>>>>>Begin Spectral Data<<<<<
223.165	-18.12
223.4	-18.12
223.635	-18.12
223.869	-25.12
224.104	-20.12
224.338	-20.12
224.573	-18.12
224.808	-14.12
225.042	-0.12
225.277	2.88
225.511	-7.12
225.746	-1.12
225.98	2.88
226.215	14.88
226.449	10.88
226.683	28.88
226.918	20.88
227.152	42.88
227.387	33.88
227.621	42.88
227.856	35.88
228.09	48.88
228.324	55.88
228.559	46.88
228.793	57.88
229.027	57.88
229.262	82.88
229.496	71.88
229.73	79.88
229.964	74.88
230.199	75.88
230.433	79.88
230.667	89.88
230.901	75.88
231.136	87.88
231.37	86.88
231.604	87.88
231.838	81.88
232.072	86.88
232.306	87.88
232.541	82.88
232.775	87.88
233.009	78.88
233.243	86.88
233.477	87.88
233.711	94.88
233.945	85.88
234.179	79.88
234.413	82.88
234.647	82.88
234.881	97.88
235.115	83.88
235.349	65.88
235.583	93.88
235.817	97.88
236.051	91.88
236.285	87.88
236.519	91.88
236.753	81.88
236.987	68.88
237.221	81.88
237.455	87.88
237.689	90.88
237.922	92.88
238.156	82.88
238.39	86.88
238.624	82.88
238.858	110.88
239.091	77.88
239.325	85.88
239.559	92.88
239.793	74.88
240.027	95.88
240.26	85.88
240.494	92.88
240.728	86.88
240.961	89.88
241.195	94.88
241.429	81.88
241.662	96.88
241.896	97.88
242.13	87.88
242.363	87.88
242.597	96.88
242.83	99.88
243.064	93.88
243.298	89.88
243.531	94.88
243.765	87.88
243.998	103.88
244.232	109.88
244.465	103.88
244.699	96.88
244.932	75.88
245.166	86.88
245.399	103.88
245.633	97.88
245.866	104.88
246.099	104.88
246.333	90.88
246.566	79.88
246.8	98.88
247.033	99.88
247.266	80.88
247.5	107.88
247.733	103.88
247.966	103.88
248.2	109.88
248.433	107.88
248.666	121.88
248.899	111.88
249.133	114.88
249.366	96.88
249.599	125.88
249.832	118.88
250.066	132.88
250.299	174.88
250.532	180.88
250.765	178.88
250.998	145.88
251.231	148.88
251.465	134.88
251.698	119.88
251.931	119.88
252.164	122.88
252.397	114.88
252.63	112.88
252.863	116.88
253.096	122.88
253.329	121.88
253.562	101.88
253.795	121.88
254.028	102.88
254.261	141.88
254.494	111.88
254.727	115.88
254.96	127.88
255.193	126.88
255.426	155.88
255.659	181.88
255.892	249.88
256.124	307.88
256.357	231.88
256.59	199.88
256.823	157.88
257.056	164.88
257.289	147.88
257.521	142.88
257.754	149.88
257.987	140.88
258.22	116.88
258.452	131.88
258.685	141.88
258.918	131.88
259.151	118.88
259.383	139.88
259.616	129.88
259.849	138.88
260.081	125.88
260.314	137.88
260.547	117.88
260.779	131.88
261.012	137.88
261.244	123.88
261.477	141.88
261.71	138.88
261.942	122.88
262.175	114.88
262.407	146.88
262.64	117.88
262.872	128.88
263.105	137.88
263.337	121.88
263.57	134.88
263.802	133.88
264.035	137.88
264.267	125.88
264.499	133.88
264.732	140.88
264.964	126.88
265.197	118.88
265.429	125.88
265.661	130.88
265.894	118.88
266.126	133.88
266.358	138.88
266.591	124.88
266.823	138.88
267.055	129.88
267.287	112.88
267.52	124.88
267.752	128.88
267.984	142.88
268.216	133.88
268.448	145.88
268.681	126.88
268.913	134.88
269.145	140.88
269.377	128.88
269.609	126.88
269.841	137.88
270.073	134.88
270.306	127.88
270.538	146.88
270.77	124.88
271.002	134.88
271.234	140.88
271.466	141.88
271.698	138.88
271.93	137.88
272.162	146.88
272.394	153.88
272.626	134.88
272.858	130.88
273.09	139.88
273.322	147.88
273.553	155.88
273.785	141.88
274.017	153.88
274.249	154.88
274.481	150.88
274.713	154.88
274.945	148.88
275.176	164.88
275.408	163.88
275.64	158.88
275.872	177.88
276.104	171.88
276.335	161.88
276.567	178.88
276.799	203.88
277.031	218.88
277.262	215.88
277.494	220.88
277.726	197.88
277.957	187.88
278.189	188.88
278.421	188.88
278.652	166.88
278.884	166.88
279.115	164.88
279.347	185.88
279.579	195.88
279.81	212.88
280.042	247.88
280.273	290.88
280.505	249.88
280.736	214.88
280.968	161.88
281.199	181.88
281.431	174.88
281.662	156.88
281.894	163.88
282.125	181.88
282.356	178.88
282.588	150.88
282.819	174.88
283.051	165.88
283.282	166.88
283.513	179.88
283.745	169.88
283.976	165.88
284.207	153.88
284.439	161.88
284.67	163.88
284.901	157.88
285.132	155.88
285.364	145.88
285.595	156.88
285.826	152.88
286.057	140.88
286.288	167.88
286.52	158.88
286.751	157.88
286.982	157.88
287.213	140.88
287.444	153.88
287.675	152.88
287.906	159.88
288.138	167.88
288.369	156.88
288.6	169.88
288.831	162.88
289.062	143.88
289.293	151.88
289.524	131.88
289.755	150.88
289.986	154.88
290.217	149.88
290.448	149.88
290.679	154.88
290.91	157.88
291.141	142.88
291.371	147.88
291.602	145.88
291.833	142.88
292.064	151.88
292.295	159.88
292.526	154.88
292.757	142.88
292.987	147.88
293.218	139.88
293.449	145.88
293.68	149.88
293.91	148.88
294.141	141.88
294.372	158.88
294.603	152.88
294.833	138.88
295.064	154.88
295.295	142.88
295.525	154.88
295.756	156.88
295.987	149.88
296.217	142.88
296.448	145.88
296.679	137.88
296.909	149.88
297.14	153.88
297.37	151.88
297.601	139.88
297.831	150.88
298.062	162.88
298.292	155.88
298.523	163.88
298.753	152.88
298.984	167.88
299.214	169.88
299.445	157.88
299.675	177.88
299.905	158.88
300.136	158.88
300.366	172.88
300.597	174.88
300.827	144.88
301.057	138.88
301.288	167.88
301.518	165.88
301.748	184.88
301.979	177.88
302.209	170.88
302.439	172.88
302.669	173.88
302.9	164.88
303.13	161.88
303.36	172.88
303.59	197.88
303.82	194.88
304.051	180.88
304.281	170.88
304.511	168.88
304.741	159.88
304.971	177.88
305.201	169.88
305.431	174.88
305.661	169.88
305.891	162.88
306.121	138.88
306.352	184.88
306.582	167.88
306.812	201.88
307.042	199.88
307.272	204.88
307.502	211.88
307.731	203.88
307.961	198.88
308.191	181.88
308.421	187.88
308.651	174.88
308.881	163.88
309.111	161.88
309.341	163.88
309.571	173.88
309.8	164.88
310.03	157.88
310.26	161.88
310.49	165.88
310.72	171.88
310.949	169.88
311.179	170.88
311.409	166.88
311.639	162.88
311.868	166.88
312.098	152.88
312.328	176.88
312.557	169.88
312.787	162.88
313.017	162.88
313.246	162.88
313.476	174.88
313.706	188.88
313.935	181.88
314.165	177.88
314.394	163.88
314.624	165.88
314.853	165.88
315.083	186.88
315.312	167.88
315.542	165.88
315.771	173.88
316.001	177.88
316.23	170.88
316.46	161.88
316.689	165.88
316.919	166.88
317.148	186.88
317.377	180.88
317.607	187.88
317.836	166.88
318.065	177.88
318.295	181.88
318.524	190.88
318.753	179.88
318.983	177.88
319.212	191.88
319.441	181.88
319.67	166.88
319.9	173.88
320.129	168.88
320.358	171.88
320.587	179.88
320.816	176.88
321.046	187.88
321.275	180.88
321.504	161.88
321.733	179.88
321.962	180.88
322.191	187.88
322.42	195.88
322.649	179.88
322.878	198.88
323.108	203.88
323.337	206.88
323.566	205.88
323.795	193.88
324.024	216.88
324.253	232.88
324.482	205.88
324.71	226.88
324.939	231.88
325.168	215.88
325.397	234.88
325.626	235.88
325.855	235.88
326.084	234.88
326.313	214.88
326.542	249.88
326.77	254.88
326.999	273.88
327.228	292.88
327.457	341.88
327.686	424.88
327.914	526.88
328.143	707.88
328.372	758.88
328.6	517.88
328.829	411.88
329.058	373.88
329.287	412.88
329.515	483.88
329.744	669.88
329.972	962.88
330.201	1285.88
330.43	1325.88
330.658	780.88
330.887	477.88
331.115	377.88
331.344	319.88
331.572	322.88
331.801	316.88
332.03	308.88
332.258	320.88
332.486	332.88
332.715	336.88
332.943	358.88
333.172	403.88
333.4	447.88
333.629	545.88
333.857	703.88
334.085	1002.88
334.314	1483.88
334.542	1824.88
334.771	1461.88
334.999	753.88
335.227	505.88
335.455	376.88
335.684	355.88
335.912	319.88
336.14	298.88
336.369	270.88
336.597	273.88
336.825	261.88
337.053	251.88
337.281	239.88
337.51	245.88
337.738	219.88
337.966	229.88
338.194	216.88
338.422	225.88
338.65	223.88
338.878	224.88
339.106	224.88
339.334	223.88
339.562	217.88
339.79	217.88
340.018	213.88
340.246	195.88
340.474	201.88
340.702	199.88
340.93	188.88
341.158	208.88
341.386	192.88
341.614	203.88
341.842	194.88
342.07	188.88
342.298	177.88
342.526	211.88
342.754	188.88
342.981	183.88
343.209	199.88
343.437	201.88
343.665	204.88
343.893	210.88
344.12	205.88
344.348	215.88
344.576	215.88
344.804	196.88
345.031	188.88
345.259	187.88
345.487	185.88
345.714	176.88
345.942	203.88
346.17	208.88
346.397	177.88
346.625	176.88
346.853	199.88
347.08	185.88
347.308	184.88
347.535	184.88
347.763	179.88
347.99	191.88
348.218	176.88
348.445	185.88
348.673	174.88
348.9	187.88
349.128	182.88
349.355	181.88
349.583	176.88
349.81	188.88
350.037	197.88
350.265	190.88
350.492	186.88
350.72	186.88
350.947	172.88
351.174	166.88
351.402	182.88
351.629	185.88
351.856	188.88
352.083	187.88
352.311	186.88
352.538	168.88
352.765	191.88
352.992	191.88
353.22	185.88
353.447	192.88
353.674	189.88
353.901	166.88
354.128	181.88
354.355	179.88
354.583	201.88
354.81	170.88
355.037	166.88
355.264	172.88
355.491	181.88
355.718	184.88
355.945	177.88
356.172	179.88
356.399	194.88
356.626	179.88
356.853	201.88
357.08	185.88
357.307	174.88
357.534	186.88
357.761	199.88
357.988	187.88
358.215	183.88
358.441	188.88
358.668	166.88
358.895	176.88
359.122	170.88
359.349	179.88
359.576	182.88
359.802	187.88
360.029	175.88
360.256	169.88
360.483	177.88
360.709	172.88
360.936	169.88
361.163	181.88
361.39	155.88
361.616	176.88
361.843	184.88
362.07	179.88
362.296	197.88
362.523	191.88
362.749	193.88
362.976	155.88
363.203	183.88
363.429	169.88
363.656	188.88
363.882	174.88
364.109	180.88
364.335	183.88
364.562	185.88
364.788	184.88
365.015	171.88
365.241	181.88
365.468	177.88
365.694	182.88
365.92	161.88
366.147	167.88
366.373	170.88
366.599	179.88
366.826	180.88
367.052	181.88
367.278	190.88
367.505	188.88
367.731	174.88
367.957	183.88
368.184	172.88
368.41	170.88
368.636	185.88
368.862	172.88
369.089	182.88
369.315	183.88
369.541	183.88
369.767	174.88
369.993	171.88
370.219	186.88
370.445	181.88
370.672	184.88
370.898	191.88
371.124	179.88
371.35	186.88
371.576	171.88
371.802	198.88
372.028	185.88
372.254	183.88
372.48	189.88
372.706	182.88
372.932	173.88
373.158	183.88
373.384	185.88
373.61	190.88
373.835	166.88
374.061	175.88
374.287	185.88
374.513	181.88
374.739	183.88
374.965	199.88
375.191	187.88
375.416	203.88
375.642	198.88
375.868	185.88
376.094	178.88
376.319	178.88
376.545	185.88
376.771	189.88
376.997	173.88
377.222	166.88
377.448	164.88
377.674	178.88
377.899	185.88
378.125	188.88
378.35	189.88
378.576	166.88
378.802	182.88
379.027	178.88
379.253	202.88
379.478	187.88
379.704	191.88
379.929	197.88
380.155	190.88
380.38	183.88
380.606	197.88
380.831	190.88
381.057	204.88
381.282	202.88
381.507	186.88
381.733	194.88
381.958	191.88
382.184	183.88
382.409	170.88
382.634	190.88
382.86	195.88
383.085	191.88
383.31	202.88
383.535	205.88
383.761	208.88
383.986	181.88
384.211	195.88
384.436	202.88
384.662	184.88
384.887	202.88
385.112	211.88
385.337	197.88
385.562	202.88
385.787	209.88
386.013	208.88
386.238	200.88
386.463	206.88
386.688	208.88
386.913	197.88
387.138	205.88
387.363	188.88
387.588	195.88
387.813	215.88
388.038	204.88
388.263	189.88
388.488	199.88
388.713	193.88
388.938	205.88
389.163	219.88
389.387	183.88
389.612	184.88
389.837	215.88
390.062	197.88
390.287	209.88
390.512	198.88
390.736	215.88
390.961	198.88
391.186	212.88
391.411	205.88
391.636	194.88
391.86	208.88
392.085	204.88
392.31	190.88
392.534	199.88
392.759	214.88
392.984	209.88
393.208	210.88
393.433	219.88
393.658	200.88
393.882	193.88
394.107	191.88
394.331	209.88
394.556	186.88
394.78	194.88
395.005	212.88
395.229	199.88
395.454	225.88
395.678	212.88
395.903	209.88
396.127	225.88
396.352	231.88
396.576	225.88
396.801	210.88
397.025	205.88
397.249	222.88
397.474	242.88
397.698	223.88
397.922	232.88
398.147	211.88
398.371	221.88
398.595	218.88
398.82	238.88
399.044	261.88
399.268	252.88
399.492	269.88
399.717	283.88
399.941	267.88
400.165	255.88
400.389	260.88
400.613	265.88
400.837	248.88
401.062	230.88
401.286	232.88
401.51	239.88
401.734	243.88
401.958	250.88
402.182	235.88
402.406	227.88
402.63	239.88
402.854	233.88
403.078	239.88
403.302	261.88
403.526	249.88
403.75	248.88
403.974	268.88
404.198	251.88
404.422	268.88
404.645	268.88
404.869	274.88
405.093	296.88
405.317	311.88
405.541	308.88
405.765	285.88
405.988	275.88
406.212	254.88
406.436	259.88
406.66	263.88
406.883	250.88
407.107	259.88
407.331	266.88
407.555	282.88
407.778	265.88
408.002	268.88
408.226	270.88
408.449	262.88
408.673	251.88
408.896	250.88
409.12	250.88
409.344	234.88
409.567	243.88
409.791	243.88
410.014	249.88
410.238	239.88
410.461	243.88
410.685	252.88
410.908	234.88
411.132	259.88
411.355	250.88
411.578	251.88
411.802	236.88
412.025	267.88
412.249	285.88
412.472	308.88
412.695	325.88
412.919	286.88
413.142	295.88
413.365	275.88
413.589	272.88
413.812	281.88
414.035	270.88
414.258	263.88
414.482	259.88
414.705	253.88
414.928	247.88
415.151	242.88
415.374	233.88
415.597	242.88
415.821	247.88
416.044	243.88
416.267	242.88
416.49	240.88
416.713	254.88
416.936	257.88
417.159	251.88
417.382	256.88
417.605	263.88
417.828	267.88
418.051	241.88
418.274	245.88
418.497	245.88
418.72	243.88
418.943	234.88
419.166	245.88
419.389	262.88
419.611	262.88
419.834	280.88
420.057	289.88
420.28	302.88
420.503	282.88
420.726	274.88
420.948	257.88
421.171	254.88
421.394	246.88
421.617	252.88
421.839	246.88
422.062	239.88
422.285	243.88
422.507	241.88
422.73	250.88
422.953	234.88
423.175	213.88
423.398	241.88
423.621	232.88
423.843	235.88
424.066	246.88
424.288	241.88
424.511	229.88
424.733	246.88
424.956	229.88
425.178	256.88
425.401	237.88
425.623	241.88
425.846	231.88
426.068	245.88
426.291	261.88
426.513	249.88
426.735	233.88
426.958	227.88
427.18	239.88
427.402	268.88
427.625	282.88
427.847	324.88
428.069	339.88
428.292	308.88
428.514	248.88
428.736	241.88
428.958	243.88
429.181	241.88
429.403	235.88
429.625	244.88
429.847	227.88
430.069	222.88
430.292	220.88
430.514	226.88
430.736	223.88
430.958	232.88
431.18	233.88
431.402	212.88
431.624	239.88
431.846	217.88
432.068	229.88
432.29	235.88
432.512	215.88
432.734	225.88
432.956	241.88
433.178	222.88
433.4	221.88
433.622	200.88
433.844	217.88
434.066	223.88
434.287	241.88
434.509	198.88
434.731	216.88
434.953	220.88
435.175	228.88
435.397	231.88
435.618	220.88
435.84	211.88
436.062	228.88
436.284	229.88
436.505	237.88
436.727	236.88
436.949	229.88
437.17	238.88
437.392	214.88
437.614	229.88
437.835	207.88
438.057	208.88
438.278	206.88
438.5	209.88
438.721	225.88
438.943	208.88
439.165	203.88
439.386	204.88
439.608	226.88
439.829	208.88
440.05	224.88
440.272	220.88
440.493	214.88
440.715	224.88
440.936	220.88
441.158	211.88
441.379	229.88
441.6	241.88
441.822	218.88
442.043	222.88
442.264	222.88
442.486	204.88
442.707	233.88
442.928	240.88
443.149	220.88
443.371	249.88
443.592	231.88
443.813	231.88
444.034	243.88
444.255	227.88
444.476	221.88
444.698	244.88
444.919	250.88
445.14	333.88
445.361	277.88
445.582	236.88
445.803	229.88
446.024	222.88
446.245	213.88
446.466	218.88
446.687	214.88
446.908	209.88
447.129	230.88
447.35	219.88
447.571	217.88
447.792	206.88
448.013	227.88
448.234	199.88
448.455	205.88
448.675	219.88
448.896	216.88
449.117	220.88
449.338	214.88
449.559	221.88
449.779	212.88
450	198.88
450.221	217.88
450.442	204.88
450.662	200.88
450.883	210.88
451.104	212.88
451.324	194.88
451.545	202.88
451.766	206.88
451.986	214.88
452.207	201.88
452.428	209.88
452.648	210.88
452.869	205.88
453.089	195.88
453.31	199.88
453.53	202.88
453.751	188.88
453.971	211.88
454.192	190.88
454.412	195.88
454.633	198.88
454.853	194.88
455.073	207.88
455.294	209.88
455.514	205.88
455.734	207.88
455.955	199.88
456.175	199.88
456.395	198.88
456.616	212.88
456.836	215.88
457.056	212.88
457.276	199.88
457.497	211.88
457.717	218.88
457.937	203.88
458.157	213.88
458.377	206.88
458.598	214.88
458.818	212.88
459.038	205.88
459.258	211.88
459.478	215.88
459.698	221.88
459.918	236.88
460.138	205.88
460.358	244.88
460.578	225.88
460.798	239.88
461.018	235.88
461.238	231.88
461.458	220.88
461.678	240.88
461.898	232.88
462.118	235.88
462.338	238.88
462.558	247.88
462.777	253.88
462.997	278.88
463.217	268.88
463.437	263.88
463.657	253.88
463.876	245.88
464.096	247.88
464.316	254.88
464.536	243.88
464.755	244.88
464.975	245.88
465.195	245.88
465.414	248.88
465.634	240.88
465.854	259.88
466.073	249.88
466.293	227.88
466.512	214.88
466.732	221.88
466.951	250.88
467.171	237.88
467.391	269.88
467.61	273.88
467.829	367.88
468.049	680.88
468.268	806.88
468.488	491.88
468.707	321.88
468.927	303.88
469.146	272.88
469.365	272.88
469.585	266.88
469.804	263.88
470.023	252.88
470.243	262.88
470.462	249.88
470.681	257.88
470.901	267.88
471.12	264.88
471.339	280.88
471.558	309.88
471.777	369.88
471.997	525.88
472.216	1091.88
472.435	1707.88
472.654	949.88
472.873	550.88
473.092	423.88
473.311	370.88
473.53	342.88
473.749	312.88
473.968	289.88
474.187	275.88
474.406	293.88
474.625	275.88
474.844	270.88
475.063	261.88
475.282	255.88
475.501	278.88
475.72	266.88
475.939	254.88
476.158	240.88
476.377	250.88
476.596	246.88
476.814	251.88
477.033	249.88
477.252	251.88
477.471	249.88
477.69	261.88
477.908	256.88
478.127	271.88
478.346	273.88
478.564	299.88
478.783	278.88
479.002	287.88
479.22	293.88
479.439	283.88
479.658	299.88
479.876	338.88
480.095	334.88
480.313	361.88
480.532	448.88
480.751	635.88
480.969	1233.88
481.188	2688.88
481.406	2167.88
481.624	1020.88
481.843	677.88
482.061	543.88
482.28	487.88
482.498	422.88
482.717	389.88
482.935	366.88
483.153	347.88
483.372	351.88
483.59	340.88
483.808	333.88
484.027	320.88
484.245	303.88
484.463	310.88
484.681	297.88
484.9	301.88
485.118	296.88
485.336	299.88
485.554	291.88
485.772	308.88
485.99	294.88
486.209	293.88
486.427	300.88
486.645	283.88
486.863	292.88
487.081	299.88
487.299	273.88
487.517	286.88
487.735	287.88
487.953	305.88
488.171	291.88
488.389	283.88
488.607	297.88
488.825	291.88
489.043	309.88
489.261	297.88
489.479	301.88
489.696	313.88
489.914	337.88
490.132	318.88
490.35	361.88
490.568	343.88
490.786	366.88
491.003	372.88
491.221	435.88
491.439	464.88
491.657	448.88
491.874	467.88
492.092	471.88
492.31	454.88
492.527	492.88
492.745	513.88
492.963	501.88
493.18	474.88
493.398	457.88
493.615	450.88
493.833	417.88
494.05	405.88
494.268	396.88
494.485	384.88
494.703	371.88
494.92	377.88
495.138	382.88
495.355	341.88
495.573	374.88
495.79	346.88
496.008	352.88
496.225	355.88
496.442	346.88
496.66	347.88
496.877	334.88
497.094	333.88
497.312	317.88
497.529	333.88
497.746	351.88
497.963	341.88
498.181	339.88
498.398	343.88
498.615	349.88
498.832	358.88
499.049	372.88
499.267	371.88
499.484	363.88
499.701	390.88
499.918	401.88
500.135	445.88
500.352	463.88
500.569	483.88
500.786	505.88
501.003	468.88
501.22	427.88
501.437	409.88
501.654	377.88
501.871	365.88
502.088	348.88
502.305	348.88
502.522	334.88
502.739	315.88
502.956	316.88
503.172	298.88
503.389	289.88
503.606	274.88
