Data from StdC_HRD10591_031.txt Node
Date: Fri May 16 15:28:56 EDT 2025
User: Yrep
Spectrometer: HR+D1059
Trigger mode: 1
Integration Time (sec): 1.000000E-1
Scans to average: 1
Electric dark correction enabled: true
Nonlinearity correction enabled: false
Boxcar width: 0
XAxis mode: Wavelengths
Number of Pixels in Spectrum: 2048
>>>>>Begin Spectral Data<<<<<
223.165	-29.5
223.4	-29.5
223.635	-29.5
223.869	-28.5
224.104	-23.5
224.338	-21.5
224.573	-15.5
224.808	-22.5
225.042	-0.5
225.277	1.5
225.511	-3.5
225.746	10.5
225.98	6.5
226.215	23.5
226.449	30.5
226.683	14.5
226.918	30.5
227.152	27.5
227.387	28.5
227.621	45.5
227.856	50.5
228.09	55.5
228.324	51.5
228.559	63.5
228.793	59.5
229.027	76.5
229.262	77.5
229.496	79.5
229.73	73.5
229.964	69.5
230.199	83.5
230.433	82.5
230.667	91.5
230.901	90.5
231.136	81.5
231.37	97.5
231.604	95.5
231.838	88.5
232.072	84.5
232.306	98.5
232.541	78.5
232.775	83.5
233.009	91.5
233.243	107.5
233.477	106.5
233.711	103.5
233.945	92.5
234.179	78.5
234.413	91.5
234.647	101.5
234.881	94.5
235.115	99.5
235.349	95.5
235.583	104.5
235.817	111.5
236.051	90.5
236.285	101.5
236.519	73.5
236.753	89.5
236.987	94.5
237.221	90.5
237.455	89.5
237.689	93.5
237.922	102.5
238.156	92.5
238.39	92.5
238.624	84.5
238.858	85.5
239.091	83.5
239.325	98.5
239.559	75.5
239.793	98.5
240.027	103.5
240.26	73.5
240.494	95.5
240.728	89.5
240.961	112.5
241.195	102.5
241.429	96.5
241.662	98.5
241.896	104.5
242.13	104.5
242.363	105.5
242.597	98.5
242.83	101.5
243.064	100.5
243.298	108.5
243.531	111.5
243.765	98.5
243.998	112.5
244.232	103.5
244.465	91.5
244.699	105.5
244.932	104.5
245.166	103.5
245.399	95.5
245.633	104.5
245.866	100.5
246.099	103.5
246.333	94.5
246.566	115.5
246.8	107.5
247.033	99.5
247.266	108.5
247.5	95.5
247.733	97.5
247.966	112.5
248.2	107.5
248.433	101.5
248.666	95.5
248.899	120.5
249.133	121.5
249.366	114.5
249.599	115.5
249.832	125.5
250.066	142.5
250.299	160.5
250.532	204.5
250.765	185.5
250.998	148.5
251.231	141.5
251.465	123.5
251.698	130.5
251.931	121.5
252.164	137.5
252.397	125.5
252.63	125.5
252.863	119.5
253.096	130.5
253.329	127.5
253.562	117.5
253.795	128.5
254.028	128.5
254.261	157.5
254.494	124.5
254.727	142.5
254.96	127.5
255.193	145.5
255.426	162.5
255.659	187.5
255.892	255.5
256.124	300.5
256.357	249.5
256.59	207.5
256.823	194.5
257.056	173.5
257.289	154.5
257.521	143.5
257.754	147.5
257.987	148.5
258.22	168.5
258.452	149.5
258.685	135.5
258.918	132.5
259.151	127.5
259.383	132.5
259.616	146.5
259.849	136.5
260.081	135.5
260.314	159.5
260.547	148.5
260.779	137.5
261.012	141.5
261.244	139.5
261.477	154.5
261.71	133.5
261.942	127.5
262.175	144.5
262.407	136.5
262.64	143.5
262.872	129.5
263.105	120.5
263.337	129.5
263.57	125.5
263.802	142.5
264.035	112.5
264.267	135.5
264.499	145.5
264.732	134.5
264.964	133.5
265.197	135.5
265.429	122.5
265.661	128.5
265.894	126.5
266.126	139.5
266.358	145.5
266.591	135.5
266.823	125.5
267.055	124.5
267.287	116.5
267.52	129.5
267.752	119.5
267.984	150.5
268.216	133.5
268.448	147.5
268.681	136.5
268.913	128.5
269.145	148.5
269.377	144.5
269.609	128.5
269.841	130.5
270.073	133.5
270.306	135.5
270.538	126.5
270.77	143.5
271.002	130.5
271.234	145.5
271.466	123.5
271.698	149.5
271.93	148.5
272.162	145.5
272.394	151.5
272.626	157.5
272.858	129.5
273.09	149.5
273.322	140.5
273.553	146.5
273.785	130.5
274.017	146.5
274.249	153.5
274.481	153.5
274.713	158.5
274.945	160.5
275.176	175.5
275.408	177.5
275.64	184.5
275.872	176.5
276.104	187.5
276.335	187.5
276.567	178.5
276.799	191.5
277.031	204.5
277.262	224.5
277.494	218.5
277.726	209.5
277.957	197.5
278.189	199.5
278.421	178.5
278.652	169.5
278.884	182.5
279.115	197.5
279.347	185.5
279.579	207.5
279.81	205.5
280.042	251.5
280.273	290.5
280.505	259.5
280.736	211.5
280.968	185.5
281.199	184.5
281.431	191.5
281.662	156.5
281.894	170.5
282.125	179.5
282.356	177.5
282.588	161.5
282.819	162.5
283.051	148.5
283.282	180.5
283.513	174.5
283.745	153.5
283.976	158.5
284.207	175.5
284.439	181.5
284.67	167.5
284.901	159.5
285.132	153.5
285.364	159.5
285.595	152.5
285.826	172.5
286.057	148.5
286.288	162.5
286.52	164.5
286.751	152.5
286.982	165.5
287.213	153.5
287.444	168.5
287.675	161.5
287.906	163.5
288.138	164.5
288.369	176.5
288.6	156.5
288.831	158.5
289.062	155.5
289.293	178.5
289.524	174.5
289.755	149.5
289.986	168.5
290.217	170.5
290.448	175.5
290.679	174.5
290.91	154.5
291.141	144.5
291.371	187.5
291.602	163.5
291.833	157.5
292.064	160.5
292.295	163.5
292.526	162.5
292.757	150.5
292.987	151.5
293.218	162.5
293.449	172.5
293.68	155.5
293.91	159.5
294.141	156.5
294.372	159.5
294.603	160.5
294.833	151.5
295.064	167.5
295.295	161.5
295.525	160.5
295.756	163.5
295.987	160.5
296.217	171.5
296.448	156.5
296.679	153.5
296.909	174.5
297.14	161.5
297.37	153.5
297.601	165.5
297.831	154.5
298.062	164.5
298.292	158.5
298.523	162.5
298.753	161.5
298.984	179.5
299.214	171.5
299.445	157.5
299.675	183.5
299.905	164.5
300.136	151.5
300.366	152.5
300.597	163.5
300.827	155.5
301.057	156.5
301.288	163.5
301.518	179.5
301.748	162.5
301.979	209.5
302.209	185.5
302.439	168.5
302.669	183.5
302.9	189.5
303.13	176.5
303.36	181.5
303.59	207.5
303.82	185.5
304.051	189.5
304.281	195.5
304.511	184.5
304.741	166.5
304.971	171.5
305.201	165.5
305.431	181.5
305.661	173.5
305.891	171.5
306.121	171.5
306.352	175.5
306.582	174.5
306.812	169.5
307.042	203.5
307.272	219.5
307.502	235.5
307.731	227.5
307.961	193.5
308.191	198.5
308.421	187.5
308.651	167.5
308.881	171.5
309.111	168.5
309.341	189.5
309.571	177.5
309.8	175.5
310.03	185.5
310.26	191.5
310.49	170.5
310.72	187.5
310.949	163.5
311.179	179.5
311.409	169.5
311.639	174.5
311.868	172.5
312.098	175.5
312.328	174.5
312.557	180.5
312.787	173.5
313.017	174.5
313.246	168.5
313.476	183.5
313.706	168.5
313.935	181.5
314.165	189.5
314.394	185.5
314.624	165.5
314.853	175.5
315.083	173.5
315.312	172.5
315.542	193.5
315.771	187.5
316.001	180.5
316.23	188.5
316.46	183.5
316.689	188.5
316.919	193.5
317.148	183.5
317.377	184.5
317.607	192.5
317.836	190.5
318.065	192.5
318.295	188.5
318.524	197.5
318.753	185.5
318.983	179.5
319.212	196.5
319.441	192.5
319.67	193.5
319.9	190.5
320.129	186.5
320.358	194.5
320.587	204.5
320.816	183.5
321.046	181.5
321.275	209.5
321.504	197.5
321.733	181.5
321.962	189.5
322.191	197.5
322.42	191.5
322.649	195.5
322.878	205.5
323.108	211.5
323.337	222.5
323.566	211.5
323.795	193.5
324.024	195.5
324.253	219.5
324.482	218.5
324.71	213.5
324.939	221.5
325.168	229.5
325.397	231.5
325.626	233.5
325.855	245.5
326.084	264.5
326.313	257.5
326.542	251.5
326.77	265.5
326.999	271.5
327.228	291.5
327.457	340.5
327.686	430.5
327.914	567.5
328.143	706.5
328.372	736.5
328.6	535.5
328.829	400.5
329.058	382.5
329.287	439.5
329.515	510.5
329.744	712.5
329.972	980.5
330.201	1312.5
330.43	1379.5
330.658	807.5
330.887	509.5
331.115	400.5
331.344	350.5
331.572	337.5
331.801	300.5
332.03	325.5
332.258	332.5
332.486	344.5
332.715	341.5
332.943	384.5
333.172	403.5
333.4	469.5
333.629	558.5
333.857	740.5
334.085	1069.5
334.314	1513.5
334.542	1913.5
334.771	1526.5
334.999	773.5
335.227	509.5
335.455	407.5
335.684	371.5
335.912	336.5
336.14	317.5
336.369	296.5
336.597	279.5
336.825	262.5
337.053	266.5
337.281	247.5
337.51	238.5
337.738	240.5
337.966	237.5
338.194	237.5
338.422	216.5
338.65	220.5
338.878	211.5
339.106	223.5
339.334	211.5
339.562	201.5
339.79	221.5
340.018	206.5
340.246	215.5
340.474	236.5
340.702	211.5
340.93	198.5
341.158	202.5
341.386	187.5
341.614	208.5
341.842	201.5
342.07	190.5
342.298	207.5
342.526	205.5
342.754	198.5
342.981	213.5
343.209	226.5
343.437	215.5
343.665	204.5
343.893	214.5
344.12	215.5
344.348	213.5
344.576	201.5
344.804	217.5
345.031	191.5
345.259	215.5
345.487	203.5
345.714	189.5
345.942	201.5
346.17	194.5
346.397	197.5
346.625	196.5
346.853	179.5
347.08	188.5
347.308	209.5
347.535	191.5
347.763	190.5
347.99	187.5
348.218	187.5
348.445	206.5
348.673	191.5
348.9	186.5
349.128	186.5
349.355	189.5
349.583	210.5
349.81	205.5
350.037	186.5
350.265	185.5
350.492	187.5
350.72	173.5
350.947	200.5
351.174	198.5
351.402	213.5
351.629	185.5
351.856	192.5
352.083	194.5
352.311	197.5
352.538	190.5
352.765	196.5
352.992	192.5
353.22	194.5
353.447	208.5
353.674	185.5
353.901	200.5
354.128	173.5
354.355	189.5
354.583	186.5
354.81	211.5
355.037	180.5
355.264	186.5
355.491	194.5
355.718	201.5
355.945	194.5
356.172	191.5
356.399	199.5
356.626	184.5
356.853	171.5
357.08	191.5
357.307	190.5
357.534	188.5
357.761	174.5
357.988	193.5
358.215	181.5
358.441	189.5
358.668	171.5
358.895	176.5
359.122	177.5
359.349	191.5
359.576	193.5
359.802	186.5
360.029	194.5
360.256	196.5
360.483	180.5
360.709	188.5
360.936	187.5
361.163	180.5
361.39	184.5
361.616	181.5
361.843	196.5
362.07	196.5
362.296	179.5
362.523	179.5
362.749	175.5
362.976	174.5
363.203	185.5
363.429	186.5
363.656	187.5
363.882	187.5
364.109	186.5
364.335	193.5
364.562	169.5
364.788	159.5
365.015	181.5
365.241	175.5
365.468	177.5
365.694	172.5
365.92	176.5
366.147	185.5
366.373	169.5
366.599	191.5
366.826	203.5
367.052	187.5
367.278	179.5
367.505	190.5
367.731	192.5
367.957	192.5
368.184	193.5
368.41	180.5
368.636	191.5
368.862	179.5
369.089	180.5
369.315	172.5
369.541	174.5
369.767	203.5
369.993	186.5
370.219	183.5
370.445	201.5
370.672	187.5
370.898	193.5
371.124	197.5
371.35	201.5
371.576	189.5
371.802	195.5
372.028	194.5
372.254	185.5
372.48	190.5
372.706	199.5
372.932	198.5
373.158	191.5
373.384	185.5
373.61	171.5
373.835	181.5
374.061	189.5
374.287	192.5
374.513	194.5
374.739	190.5
374.965	205.5
375.191	169.5
375.416	200.5
375.642	192.5
375.868	219.5
376.094	193.5
376.319	184.5
376.545	175.5
376.771	186.5
376.997	193.5
377.222	191.5
377.448	198.5
377.674	178.5
377.899	181.5
378.125	181.5
378.35	178.5
378.576	183.5
378.802	197.5
379.027	196.5
379.253	197.5
379.478	177.5
379.704	183.5
379.929	191.5
380.155	176.5
380.38	187.5
380.606	200.5
380.831	189.5
381.057	203.5
381.282	202.5
381.507	197.5
381.733	203.5
381.958	193.5
382.184	191.5
382.409	200.5
382.634	192.5
382.86	202.5
383.085	206.5
383.31	194.5
383.535	212.5
383.761	206.5
383.986	209.5
384.211	227.5
384.436	196.5
384.662	196.5
384.887	214.5
385.112	199.5
385.337	211.5
385.562	196.5
385.787	213.5
386.013	204.5
386.238	199.5
386.463	209.5
386.688	225.5
386.913	222.5
387.138	213.5
387.363	222.5
387.588	218.5
387.813	210.5
388.038	219.5
388.263	203.5
388.488	220.5
388.713	219.5
388.938	209.5
389.163	210.5
389.387	206.5
389.612	200.5
389.837	208.5
390.062	214.5
390.287	210.5
390.512	224.5
390.736	204.5
390.961	195.5
391.186	207.5
391.411	212.5
391.636	213.5
391.86	207.5
392.085	211.5
392.31	222.5
392.534	215.5
392.759	221.5
392.984	218.5
393.208	205.5
393.433	229.5
393.658	218.5
393.882	220.5
394.107	210.5
394.331	229.5
394.556	211.5
394.78	228.5
395.005	219.5
395.229	217.5
395.454	222.5
395.678	210.5
395.903	231.5
396.127	212.5
396.352	220.5
396.576	222.5
396.801	227.5
397.025	226.5
397.249	227.5
397.474	240.5
397.698	225.5
397.922	237.5
398.147	231.5
398.371	232.5
398.595	239.5
398.82	249.5
399.044	249.5
399.268	258.5
399.492	274.5
399.717	273.5
399.941	257.5
400.165	249.5
400.389	240.5
400.613	216.5
400.837	248.5
401.062	232.5
401.286	251.5
401.51	236.5
401.734	248.5
401.958	236.5
402.182	236.5
402.406	225.5
402.63	249.5
402.854	243.5
403.078	245.5
403.302	245.5
403.526	246.5
403.75	267.5
403.974	271.5
404.198	260.5
404.422	269.5
404.645	284.5
404.869	279.5
405.093	287.5
405.317	329.5
405.541	327.5
405.765	297.5
405.988	277.5
406.212	280.5
406.436	269.5
406.66	269.5
406.883	262.5
407.107	270.5
407.331	277.5
407.555	271.5
407.778	248.5
408.002	273.5
408.226	282.5
408.449	264.5
408.673	267.5
408.896	250.5
409.12	267.5
409.344	263.5
409.567	264.5
409.791	253.5
410.014	250.5
410.238	246.5
410.461	249.5
410.685	239.5
410.908	259.5
411.132	270.5
411.355	236.5
411.578	267.5
411.802	267.5
412.025	300.5
412.249	297.5
412.472	322.5
412.695	346.5
412.919	314.5
413.142	289.5
413.365	287.5
413.589	286.5
413.812	253.5
414.035	260.5
414.258	268.5
414.482	256.5
414.705	258.5
414.928	273.5
415.151	261.5
415.374	265.5
415.597	236.5
415.821	256.5
416.044	239.5
416.267	253.5
416.49	268.5
416.713	247.5
416.936	268.5
417.159	257.5
417.382	275.5
417.605	279.5
417.828	289.5
418.051	257.5
418.274	244.5
418.497	254.5
418.72	249.5
418.943	253.5
419.166	269.5
419.389	259.5
419.611	275.5
419.834	288.5
420.057	299.5
420.28	301.5
420.503	304.5
420.726	305.5
420.948	280.5
421.171	288.5
421.394	255.5
421.617	251.5
421.839	274.5
422.062	254.5
422.285	266.5
422.507	260.5
422.73	252.5
422.953	260.5
423.175	233.5
423.398	249.5
423.621	244.5
423.843	255.5
424.066	253.5
424.288	248.5
424.511	251.5
424.733	252.5
424.956	239.5
425.178	244.5
425.401	255.5
425.623	246.5
425.846	240.5
426.068	248.5
426.291	260.5
426.513	228.5
426.735	241.5
426.958	242.5
427.18	258.5
427.402	282.5
427.625	292.5
427.847	320.5
428.069	325.5
428.292	305.5
428.514	267.5
428.736	258.5
428.958	255.5
429.181	246.5
429.403	243.5
429.625	219.5
429.847	232.5
430.069	235.5
430.292	234.5
430.514	207.5
430.736	239.5
430.958	245.5
431.18	223.5
431.402	227.5
431.624	220.5
431.846	239.5
432.068	235.5
432.29	220.5
432.512	229.5
432.734	234.5
432.956	219.5
433.178	234.5
433.4	223.5
433.622	234.5
433.844	238.5
434.066	228.5
434.287	223.5
434.509	237.5
434.731	236.5
434.953	227.5
435.175	242.5
435.397	235.5
435.618	236.5
435.84	242.5
436.062	223.5
436.284	213.5
436.505	235.5
436.727	229.5
436.949	228.5
437.17	220.5
437.392	236.5
437.614	219.5
437.835	213.5
438.057	216.5
438.278	197.5
438.5	217.5
438.721	219.5
438.943	229.5
439.165	207.5
439.386	215.5
439.608	236.5
439.829	222.5
440.05	205.5
440.272	223.5
440.493	223.5
440.715	235.5
440.936	219.5
441.158	237.5
441.379	223.5
441.6	218.5
441.822	248.5
442.043	233.5
442.264	244.5
442.486	225.5
442.707	234.5
442.928	232.5
443.149	235.5
443.371	239.5
443.592	217.5
443.813	239.5
444.034	231.5
444.255	245.5
444.476	240.5
444.698	261.5
444.919	250.5
445.14	325.5
445.361	279.5
445.582	241.5
445.803	239.5
446.024	227.5
446.245	223.5
446.466	217.5
446.687	216.5
446.908	219.5
447.129	215.5
447.35	219.5
447.571	203.5
447.792	227.5
448.013	236.5
448.234	220.5
448.455	214.5
448.675	210.5
448.896	206.5
449.117	204.5
449.338	207.5
449.559	201.5
449.779	211.5
450	216.5
450.221	201.5
450.442	215.5
450.662	201.5
450.883	213.5
451.104	214.5
451.324	196.5
451.545	211.5
451.766	208.5
451.986	212.5
452.207	225.5
452.428	215.5
452.648	222.5
452.869	207.5
453.089	182.5
453.31	213.5
453.53	207.5
453.751	203.5
453.971	209.5
454.192	211.5
454.412	198.5
454.633	213.5
454.853	205.5
455.073	196.5
455.294	203.5
455.514	237.5
455.734	211.5
455.955	204.5
456.175	188.5
456.395	212.5
456.616	216.5
456.836	204.5
457.056	192.5
457.276	205.5
457.497	220.5
457.717	200.5
457.937	208.5
458.157	213.5
458.377	213.5
458.598	208.5
458.818	226.5
459.038	202.5
459.258	223.5
459.478	212.5
459.698	223.5
459.918	220.5
460.138	237.5
460.358	239.5
460.578	224.5
460.798	246.5
461.018	240.5
461.238	245.5
461.458	248.5
461.678	256.5
461.898	253.5
462.118	234.5
462.338	248.5
462.558	268.5
462.777	257.5
462.997	284.5
463.217	276.5
463.437	280.5
463.657	271.5
463.876	262.5
464.096	276.5
464.316	270.5
464.536	257.5
464.755	241.5
464.975	244.5
465.195	244.5
465.414	248.5
465.634	231.5
465.854	249.5
466.073	250.5
466.293	234.5
466.512	228.5
466.732	234.5
466.951	241.5
467.171	250.5
467.391	273.5
467.61	284.5
467.829	392.5
468.049	689.5
468.268	815.5
468.488	465.5
468.707	354.5
468.927	311.5
469.146	287.5
469.365	293.5
469.585	265.5
469.804	245.5
470.023	268.5
470.243	260.5
470.462	258.5
470.681	259.5
470.901	275.5
471.12	289.5
471.339	300.5
471.558	316.5
471.777	356.5
471.997	547.5
472.216	1141.5
472.435	1711.5
472.654	995.5
472.873	551.5
473.092	440.5
473.311	369.5
473.53	331.5
473.749	329.5
473.968	307.5
474.187	283.5
474.406	301.5
474.625	301.5
474.844	275.5
475.063	252.5
475.282	263.5
475.501	278.5
475.72	254.5
475.939	273.5
476.158	251.5
476.377	268.5
476.596	252.5
476.814	266.5
477.033	256.5
477.252	244.5
477.471	262.5
477.69	266.5
477.908	272.5
478.127	299.5
478.346	274.5
478.564	280.5
478.783	289.5
479.002	304.5
479.22	313.5
479.439	307.5
479.658	312.5
479.876	347.5
480.095	336.5
480.313	381.5
480.532	456.5
480.751	644.5
480.969	1252.5
481.188	2778.5
481.406	2217.5
481.624	1047.5
481.843	697.5
482.061	564.5
482.28	481.5
482.498	442.5
482.717	413.5
482.935	380.5
483.153	353.5
483.372	363.5
483.59	335.5
483.808	351.5
484.027	322.5
484.245	299.5
484.463	306.5
484.681	314.5
484.9	314.5
485.118	318.5
485.336	300.5
485.554	292.5
485.772	289.5
485.99	309.5
486.209	279.5
486.427	290.5
486.645	297.5
486.863	311.5
487.081	314.5
487.299	306.5
487.517	310.5
487.735	306.5
487.953	320.5
488.171	323.5
488.389	307.5
488.607	301.5
488.825	324.5
489.043	310.5
489.261	314.5
489.479	322.5
489.696	329.5
489.914	335.5
490.132	354.5
490.35	348.5
490.568	342.5
490.786	375.5
491.003	395.5
491.221	447.5
491.439	475.5
491.657	477.5
491.874	472.5
492.092	478.5
492.31	489.5
492.527	535.5
492.745	540.5
492.963	545.5
493.18	495.5
493.398	481.5
493.615	447.5
493.833	437.5
494.05	427.5
494.268	412.5
494.485	389.5
494.703	400.5
494.92	406.5
495.138	362.5
495.355	379.5
495.573	355.5
495.79	361.5
496.008	379.5
496.225	355.5
496.442	370.5
496.66	348.5
496.877	356.5
497.094	356.5
497.312	346.5
497.529	332.5
497.746	345.5
497.963	338.5
498.181	357.5
498.398	356.5
498.615	354.5
498.832	371.5
499.049	385.5
499.267	364.5
499.484	384.5
499.701	423.5
499.918	415.5
500.135	439.5
500.352	477.5
500.569	512.5
500.786	541.5
501.003	476.5
501.22	441.5
501.437	417.5
501.654	386.5
501.871	373.5
502.088	350.5
502.305	347.5
502.522	341.5
502.739	338.5
502.956	328.5
503.172	315.5
503.389	321.5
503.606	312.5
503.823	304.5
504.04	304.5
504.256	308.5
504.473	295.5
504.69	305.5
504.907	299.5
505.123	292.5
505.34	295.5
505.557	286.5
505.773	279.5
505.99	281.5
506.207	260.5
506.423	269.5
506.64	279.5
506.856	269.5
507.073	285.5
507.289	265.5
507.506	250.5
507.722	244.5
507.939	236.5
508.155	255.5
508.372	249.5
508.588	247.5
508.805	252.5
509.021	253.5
509.238	244.5
509.454	245.5
509.67	243.5
509.887	243.5
510.103	241.5
510.319	258.5
510.536	243.5
510.752	257.5
510.968	253.5
511.184	258.5
511.401	258.5
511.617	298.5
511.833	333.5
512.049	336.5
512.265	307.5
512.481	277.5
512.698	288.5
512.914	277.5
513.13	261.5
513.346	260.5
513.562	257.5
513.778	239.5
513.994	252.5
514.21	232.5
514.426	240.5
514.642	243.5
514.858	247.5
515.074	240.5
515.29	272.5
515.506	247.5
515.721	252.5
515.937	268.5
516.153	237.5
516.369	242.5
516.585	251.5
516.801	254.5
517.016	255.5
517.232	259.5
517.448	260.5
517.664	267.5
517.879	274.5
518.095	270.5
518.311	269.5
518.527	271.5
518.742	245.5
518.958	265.5
519.173	254.5
519.389	258.5
519.605	249.5
519.82	240.5
520.036	255.5
520.251	238.5
520.467	229.5
520.682	254.5
520.898	229.5
521.113	250.5
521.329	231.5
