Data from StdC_HRD10591_036.txt Node
Date: Fri May 16 15:28:58 EDT 2025
User: Yrep
Spectrometer: HR+D1059
Trigger mode: 1
Integration Time (sec): 1.000000E-1
Scans to average: 1
Electric dark correction enabled: true
Nonlinearity correction enabled: false
Boxcar width: 0
XAxis mode: Wavelengths
Number of Pixels in Spectrum: 2048
>>>>>Begin Spectral Data<<<<<
223.165	-21.25
223.4	-21.25
223.635	-21.25
223.869	-21.25
224.104	-21.25
224.338	-10.25
224.573	-8.25
224.808	-21.25
225.042	-12.25
225.277	-8.25
225.511	-12.25
225.746	5.75
225.98	5.75
226.215	8.75
226.449	38.75
226.683	17.75
226.918	29.75
227.152	29.75
227.387	34.75
227.621	36.75
227.856	56.75
228.09	50.75
228.324	57.75
228.559	43.75
228.793	60.75
229.027	56.75
229.262	73.75
229.496	82.75
229.73	68.75
229.964	74.75
230.199	72.75
230.433	67.75
230.667	91.75
230.901	85.75
231.136	91.75
231.37	72.75
231.604	86.75
231.838	92.75
232.072	89.75
232.306	89.75
232.541	98.75
232.775	98.75
233.009	80.75
233.243	79.75
233.477	69.75
233.711	87.75
233.945	96.75
234.179	86.75
234.413	88.75
234.647	96.75
234.881	81.75
235.115	91.75
235.349	77.75
235.583	89.75
235.817	71.75
236.051	85.75
236.285	85.75
236.519	90.75
236.753	100.75
236.987	88.75
237.221	81.75
237.455	103.75
237.689	80.75
237.922	85.75
238.156	81.75
238.39	84.75
238.624	91.75
238.858	87.75
239.091	79.75
239.325	82.75
239.559	86.75
239.793	81.75
240.027	75.75
240.26	98.75
240.494	91.75
240.728	90.75
240.961	105.75
241.195	105.75
241.429	89.75
241.662	83.75
241.896	84.75
242.13	103.75
242.363	92.75
242.597	98.75
242.83	91.75
243.064	88.75
243.298	105.75
243.531	98.75
243.765	119.75
243.998	94.75
244.232	105.75
244.465	116.75
244.699	93.75
244.932	104.75
245.166	99.75
245.399	100.75
245.633	89.75
245.866	104.75
246.099	84.75
246.333	100.75
246.566	109.75
246.8	108.75
247.033	103.75
247.266	104.75
247.5	107.75
247.733	96.75
247.966	113.75
248.2	98.75
248.433	85.75
248.666	108.75
248.899	99.75
249.133	107.75
249.366	114.75
249.599	112.75
249.832	131.75
250.066	129.75
250.299	180.75
250.532	196.75
250.765	170.75
250.998	138.75
251.231	123.75
251.465	134.75
251.698	120.75
251.931	117.75
252.164	119.75
252.397	105.75
252.63	108.75
252.863	104.75
253.096	121.75
253.329	108.75
253.562	123.75
253.795	132.75
254.028	137.75
254.261	112.75
254.494	125.75
254.727	141.75
254.96	129.75
255.193	139.75
255.426	151.75
255.659	193.75
255.892	255.75
256.124	305.75
256.357	249.75
256.59	208.75
256.823	169.75
257.056	140.75
257.289	156.75
257.521	137.75
257.754	144.75
257.987	132.75
258.22	142.75
258.452	138.75
258.685	137.75
258.918	142.75
259.151	132.75
259.383	123.75
259.616	138.75
259.849	124.75
260.081	136.75
260.314	142.75
260.547	123.75
260.779	131.75
261.012	118.75
261.244	144.75
261.477	129.75
261.71	128.75
261.942	121.75
262.175	134.75
262.407	114.75
262.64	126.75
262.872	120.75
263.105	124.75
263.337	126.75
263.57	133.75
263.802	119.75
264.035	142.75
264.267	136.75
264.499	116.75
264.732	115.75
264.964	114.75
265.197	122.75
265.429	135.75
265.661	131.75
265.894	124.75
266.126	129.75
266.358	124.75
266.591	125.75
266.823	131.75
267.055	130.75
267.287	140.75
267.52	128.75
267.752	138.75
267.984	129.75
268.216	135.75
268.448	140.75
268.681	133.75
268.913	130.75
269.145	138.75
269.377	135.75
269.609	129.75
269.841	133.75
270.073	139.75
270.306	144.75
270.538	135.75
270.77	128.75
271.002	122.75
271.234	147.75
271.466	134.75
271.698	143.75
271.93	143.75
272.162	129.75
272.394	142.75
272.626	154.75
272.858	154.75
273.09	143.75
273.322	140.75
273.553	154.75
273.785	150.75
274.017	137.75
274.249	147.75
274.481	154.75
274.713	152.75
274.945	154.75
275.176	158.75
275.408	169.75
275.64	186.75
275.872	177.75
276.104	187.75
276.335	183.75
276.567	184.75
276.799	183.75
277.031	200.75
277.262	228.75
277.494	214.75
277.726	206.75
277.957	167.75
278.189	178.75
278.421	174.75
278.652	164.75
278.884	179.75
279.115	181.75
279.347	183.75
279.579	189.75
279.81	215.75
280.042	259.75
280.273	289.75
280.505	244.75
280.736	216.75
280.968	188.75
281.199	182.75
281.431	174.75
281.662	181.75
281.894	172.75
282.125	187.75
282.356	153.75
282.588	170.75
282.819	151.75
283.051	168.75
283.282	160.75
283.513	162.75
283.745	145.75
283.976	153.75
284.207	168.75
284.439	149.75
284.67	149.75
284.901	167.75
285.132	153.75
285.364	151.75
285.595	158.75
285.826	144.75
286.057	148.75
286.288	141.75
286.52	175.75
286.751	160.75
286.982	149.75
287.213	156.75
287.444	148.75
287.675	155.75
287.906	171.75
288.138	161.75
288.369	162.75
288.6	162.75
288.831	161.75
289.062	146.75
289.293	180.75
289.524	160.75
289.755	172.75
289.986	158.75
290.217	167.75
290.448	160.75
290.679	155.75
290.91	160.75
291.141	153.75
291.371	160.75
291.602	147.75
291.833	151.75
292.064	150.75
292.295	160.75
292.526	155.75
292.757	168.75
292.987	143.75
293.218	140.75
293.449	151.75
293.68	162.75
293.91	154.75
294.141	141.75
294.372	141.75
294.603	151.75
294.833	150.75
295.064	147.75
295.295	149.75
295.525	140.75
295.756	156.75
295.987	149.75
296.217	151.75
296.448	157.75
296.679	151.75
296.909	157.75
297.14	146.75
297.37	180.75
297.601	153.75
297.831	144.75
298.062	157.75
298.292	151.75
298.523	145.75
298.753	165.75
298.984	160.75
299.214	145.75
299.445	160.75
299.675	172.75
299.905	150.75
300.136	167.75
300.366	135.75
300.597	158.75
300.827	177.75
301.057	170.75
301.288	137.75
301.518	164.75
301.748	168.75
301.979	177.75
302.209	182.75
302.439	162.75
302.669	156.75
302.9	157.75
303.13	187.75
303.36	184.75
303.59	169.75
303.82	200.75
304.051	193.75
304.281	163.75
304.511	169.75
304.741	156.75
304.971	176.75
305.201	171.75
305.431	174.75
305.661	163.75
305.891	172.75
306.121	161.75
306.352	167.75
306.582	177.75
306.812	169.75
307.042	197.75
307.272	213.75
307.502	231.75
307.731	236.75
307.961	190.75
308.191	168.75
308.421	192.75
308.651	180.75
308.881	170.75
309.111	156.75
309.341	174.75
309.571	168.75
309.8	154.75
310.03	183.75
310.26	154.75
310.49	166.75
310.72	165.75
310.949	175.75
311.179	168.75
311.409	151.75
311.639	183.75
311.868	188.75
312.098	172.75
312.328	164.75
312.557	172.75
312.787	181.75
313.017	170.75
313.246	167.75
313.476	188.75
313.706	179.75
313.935	167.75
314.165	165.75
314.394	163.75
314.624	181.75
314.853	183.75
315.083	190.75
315.312	176.75
315.542	180.75
315.771	169.75
316.001	170.75
316.23	182.75
316.46	176.75
316.689	176.75
316.919	179.75
317.148	186.75
317.377	182.75
317.607	171.75
317.836	184.75
318.065	176.75
318.295	168.75
318.524	178.75
318.753	182.75
318.983	177.75
319.212	185.75
319.441	182.75
319.67	187.75
319.9	193.75
320.129	180.75
320.358	191.75
320.587	195.75
320.816	188.75
321.046	187.75
321.275	174.75
321.504	195.75
321.733	186.75
321.962	192.75
322.191	187.75
322.42	201.75
322.649	219.75
322.878	188.75
323.108	236.75
323.337	214.75
323.566	204.75
323.795	226.75
324.024	222.75
324.253	217.75
324.482	221.75
324.71	228.75
324.939	221.75
325.168	231.75
325.397	234.75
325.626	244.75
325.855	238.75
326.084	253.75
326.313	247.75
326.542	238.75
326.77	244.75
326.999	294.75
327.228	297.75
327.457	325.75
327.686	402.75
327.914	568.75
328.143	738.75
328.372	771.75
328.6	528.75
328.829	402.75
329.058	393.75
329.287	410.75
329.515	513.75
329.744	696.75
329.972	985.75
330.201	1334.75
330.43	1326.75
330.658	768.75
330.887	480.75
331.115	371.75
331.344	358.75
331.572	330.75
331.801	310.75
332.03	314.75
332.258	310.75
332.486	329.75
332.715	349.75
332.943	378.75
333.172	403.75
333.4	446.75
333.629	540.75
333.857	711.75
334.085	1041.75
334.314	1537.75
334.542	1861.75
334.771	1514.75
334.999	772.75
335.227	525.75
335.455	412.75
335.684	346.75
335.912	315.75
336.14	303.75
336.369	282.75
336.597	292.75
336.825	248.75
337.053	244.75
337.281	247.75
337.51	244.75
337.738	228.75
337.966	216.75
338.194	218.75
338.422	206.75
338.65	236.75
338.878	221.75
339.106	222.75
339.334	219.75
339.562	206.75
339.79	226.75
340.018	203.75
340.246	212.75
340.474	206.75
340.702	209.75
340.93	203.75
341.158	201.75
341.386	188.75
341.614	187.75
341.842	189.75
342.07	203.75
342.298	211.75
342.526	202.75
342.754	197.75
342.981	184.75
343.209	196.75
343.437	194.75
343.665	192.75
343.893	195.75
344.12	202.75
344.348	196.75
344.576	193.75
344.804	203.75
345.031	192.75
345.259	189.75
345.487	188.75
345.714	190.75
345.942	180.75
346.17	173.75
346.397	184.75
346.625	202.75
346.853	178.75
347.08	174.75
347.308	191.75
347.535	194.75
347.763	183.75
347.99	204.75
348.218	173.75
348.445	184.75
348.673	191.75
348.9	184.75
349.128	180.75
349.355	189.75
349.583	181.75
349.81	175.75
350.037	168.75
350.265	182.75
350.492	199.75
350.72	185.75
350.947	193.75
351.174	180.75
351.402	175.75
351.629	183.75
351.856	185.75
352.083	183.75
352.311	166.75
352.538	169.75
352.765	196.75
352.992	198.75
353.22	184.75
353.447	180.75
353.674	181.75
353.901	183.75
354.128	180.75
354.355	194.75
354.583	191.75
354.81	179.75
355.037	201.75
355.264	186.75
355.491	185.75
355.718	179.75
355.945	176.75
356.172	175.75
356.399	165.75
356.626	189.75
356.853	177.75
357.08	168.75
357.307	183.75
357.534	177.75
357.761	187.75
357.988	176.75
358.215	183.75
358.441	180.75
358.668	185.75
358.895	178.75
359.122	182.75
359.349	171.75
359.576	171.75
359.802	187.75
360.029	176.75
360.256	170.75
360.483	161.75
360.709	179.75
360.936	180.75
361.163	177.75
361.39	179.75
361.616	165.75
361.843	181.75
362.07	174.75
362.296	175.75
362.523	164.75
362.749	171.75
362.976	157.75
363.203	168.75
363.429	164.75
363.656	169.75
363.882	184.75
364.109	194.75
364.335	186.75
364.562	180.75
364.788	160.75
365.015	168.75
365.241	178.75
365.468	172.75
365.694	176.75
365.92	166.75
366.147	195.75
366.373	182.75
366.599	162.75
366.826	172.75
367.052	161.75
367.278	183.75
367.505	178.75
367.731	200.75
367.957	192.75
368.184	170.75
368.41	178.75
368.636	180.75
368.862	173.75
369.089	173.75
369.315	175.75
369.541	172.75
369.767	184.75
369.993	164.75
370.219	167.75
370.445	181.75
370.672	196.75
370.898	192.75
371.124	180.75
371.35	178.75
371.576	200.75
371.802	192.75
372.028	187.75
372.254	166.75
372.48	198.75
372.706	173.75
372.932	178.75
373.158	186.75
373.384	203.75
373.61	178.75
373.835	218.75
374.061	197.75
374.287	196.75
374.513	182.75
374.739	184.75
374.965	205.75
375.191	192.75
375.416	183.75
375.642	183.75
375.868	173.75
376.094	193.75
376.319	189.75
376.545	186.75
376.771	179.75
376.997	172.75
377.222	176.75
377.448	189.75
377.674	182.75
377.899	180.75
378.125	182.75
378.35	183.75
378.576	171.75
378.802	181.75
379.027	179.75
379.253	200.75
379.478	187.75
379.704	182.75
379.929	190.75
380.155	178.75
380.38	194.75
380.606	181.75
380.831	190.75
381.057	194.75
381.282	188.75
381.507	184.75
381.733	181.75
381.958	194.75
382.184	194.75
382.409	201.75
382.634	199.75
382.86	177.75
383.085	204.75
383.31	199.75
383.535	189.75
383.761	204.75
383.986	194.75
384.211	221.75
384.436	185.75
384.662	206.75
384.887	204.75
385.112	203.75
385.337	216.75
385.562	211.75
385.787	205.75
386.013	202.75
386.238	203.75
386.463	189.75
386.688	221.75
386.913	204.75
387.138	199.75
387.363	196.75
387.588	201.75
387.813	193.75
388.038	204.75
388.263	202.75
388.488	204.75
388.713	198.75
388.938	200.75
389.163	178.75
389.387	197.75
389.612	198.75
389.837	203.75
390.062	199.75
390.287	211.75
390.512	211.75
390.736	205.75
390.961	213.75
391.186	196.75
391.411	201.75
391.636	216.75
391.86	217.75
392.085	219.75
392.31	215.75
392.534	211.75
392.759	209.75
392.984	229.75
393.208	218.75
393.433	211.75
393.658	205.75
393.882	210.75
394.107	209.75
394.331	215.75
394.556	192.75
394.78	219.75
395.005	214.75
395.229	204.75
395.454	214.75
395.678	198.75
395.903	203.75
396.127	221.75
396.352	215.75
396.576	209.75
396.801	220.75
397.025	213.75
397.249	221.75
397.474	216.75
397.698	223.75
397.922	217.75
398.147	228.75
398.371	244.75
398.595	237.75
398.82	233.75
399.044	245.75
399.268	246.75
399.492	251.75
399.717	276.75
399.941	267.75
400.165	263.75
400.389	252.75
400.613	261.75
400.837	239.75
401.062	237.75
401.286	248.75
401.51	227.75
401.734	214.75
401.958	232.75
402.182	238.75
402.406	250.75
402.63	240.75
402.854	226.75
403.078	240.75
403.302	237.75
403.526	234.75
403.75	251.75
403.974	243.75
404.198	261.75
404.422	262.75
404.645	274.75
404.869	282.75
405.093	299.75
405.317	310.75
405.541	302.75
405.765	293.75
405.988	272.75
406.212	274.75
406.436	251.75
406.66	262.75
406.883	253.75
407.107	248.75
407.331	256.75
407.555	258.75
407.778	284.75
408.002	254.75
408.226	269.75
408.449	267.75
408.673	248.75
408.896	249.75
409.12	249.75
409.344	243.75
409.567	237.75
409.791	239.75
410.014	227.75
410.238	266.75
410.461	237.75
410.685	247.75
410.908	255.75
411.132	252.75
411.355	250.75
411.578	262.75
411.802	270.75
412.025	260.75
412.249	289.75
412.472	324.75
412.695	325.75
412.919	299.75
413.142	295.75
413.365	290.75
413.589	248.75
413.812	273.75
414.035	273.75
414.258	274.75
414.482	253.75
414.705	234.75
414.928	245.75
415.151	256.75
415.374	251.75
415.597	232.75
415.821	243.75
416.044	246.75
416.267	237.75
416.49	228.75
416.713	241.75
416.936	228.75
417.159	247.75
417.382	265.75
417.605	261.75
417.828	263.75
418.051	253.75
418.274	252.75
418.497	229.75
418.72	241.75
418.943	248.75
419.166	249.75
419.389	249.75
419.611	277.75
419.834	293.75
420.057	278.75
420.28	302.75
420.503	298.75
420.726	284.75
420.948	261.75
421.171	279.75
421.394	255.75
421.617	249.75
421.839	248.75
422.062	240.75
422.285	232.75
422.507	237.75
422.73	234.75
422.953	225.75
423.175	244.75
423.398	256.75
423.621	265.75
423.843	236.75
424.066	239.75
424.288	242.75
424.511	233.75
424.733	239.75
424.956	241.75
425.178	231.75
425.401	238.75
425.623	231.75
425.846	238.75
426.068	220.75
426.291	244.75
426.513	236.75
426.735	220.75
426.958	233.75
427.18	243.75
427.402	250.75
427.625	292.75
427.847	331.75
428.069	316.75
428.292	294.75
428.514	259.75
428.736	239.75
428.958	231.75
429.181	239.75
429.403	249.75
429.625	244.75
429.847	217.75
430.069	248.75
430.292	244.75
430.514	236.75
430.736	218.75
430.958	232.75
431.18	228.75
431.402	226.75
431.624	229.75
431.846	217.75
432.068	212.75
432.29	230.75
432.512	232.75
432.734	219.75
432.956	230.75
433.178	226.75
433.4	233.75
433.622	218.75
433.844	212.75
434.066	228.75
434.287	214.75
434.509	210.75
434.731	221.75
434.953	217.75
435.175	237.75
435.397	226.75
435.618	224.75
435.84	221.75
436.062	219.75
436.284	209.75
436.505	215.75
436.727	238.75
436.949	240.75
437.17	225.75
437.392	217.75
437.614	208.75
437.835	204.75
438.057	218.75
438.278	191.75
438.5	208.75
438.721	214.75
438.943	216.75
439.165	208.75
439.386	203.75
439.608	236.75
439.829	236.75
440.05	229.75
440.272	222.75
440.493	218.75
440.715	204.75
440.936	226.75
441.158	233.75
441.379	241.75
441.6	219.75
441.822	217.75
442.043	235.75
442.264	228.75
442.486	220.75
442.707	233.75
442.928	218.75
443.149	228.75
443.371	224.75
443.592	221.75
443.813	228.75
444.034	234.75
444.255	230.75
444.476	241.75
444.698	228.75
444.919	245.75
445.14	317.75
445.361	275.75
445.582	229.75
445.803	235.75
446.024	217.75
446.245	191.75
446.466	210.75
446.687	221.75
446.908	224.75
447.129	215.75
447.35	215.75
447.571	227.75
447.792	203.75
448.013	214.75
448.234	214.75
448.455	205.75
448.675	215.75
448.896	218.75
449.117	209.75
449.338	190.75
449.559	207.75
449.779	215.75
450	202.75
450.221	214.75
450.442	215.75
450.662	205.75
450.883	197.75
451.104	203.75
451.324	226.75
451.545	210.75
451.766	206.75
451.986	199.75
452.207	212.75
452.428	206.75
452.648	188.75
452.869	195.75
453.089	198.75
453.31	193.75
453.53	204.75
453.751	198.75
453.971	200.75
454.192	211.75
454.412	193.75
454.633	196.75
454.853	187.75
455.073	206.75
455.294	197.75
455.514	210.75
455.734	188.75
455.955	190.75
456.175	201.75
456.395	200.75
456.616	182.75
456.836	191.75
457.056	210.75
457.276	200.75
457.497	213.75
457.717	215.75
457.937	218.75
458.157	211.75
458.377	192.75
458.598	200.75
458.818	218.75
459.038	216.75
459.258	230.75
459.478	205.75
459.698	236.75
459.918	227.75
460.138	216.75
460.358	217.75
460.578	240.75
460.798	231.75
461.018	216.75
461.238	221.75
461.458	241.75
461.678	238.75
461.898	234.75
462.118	251.75
462.338	240.75
462.558	250.75
462.777	254.75
462.997	264.75
463.217	274.75
463.437	282.75
463.657	265.75
463.876	247.75
464.096	258.75
464.316	236.75
464.536	258.75
464.755	245.75
464.975	246.75
465.195	258.75
465.414	252.75
465.634	245.75
465.854	218.75
466.073	226.75
466.293	236.75
466.512	226.75
466.732	242.75
466.951	249.75
467.171	252.75
467.391	257.75
467.61	285.75
467.829	379.75
468.049	686.75
468.268	824.75
468.488	482.75
468.707	354.75
468.927	306.75
469.146	281.75
469.365	276.75
469.585	250.75
469.804	258.75
470.023	261.75
470.243	258.75
470.462	264.75
470.681	266.75
470.901	270.75
471.12	276.75
471.339	296.75
471.558	320.75
471.777	391.75
471.997	548.75
472.216	1116.75
472.435	1788.75
472.654	977.75
472.873	568.75
473.092	412.75
473.311	368.75
473.53	341.75
473.749	319.75
473.968	299.75
474.187	267.75
474.406	276.75
474.625	280.75
474.844	254.75
475.063	248.75
475.282	247.75
475.501	250.75
475.72	249.75
475.939	255.75
476.158	239.75
476.377	241.75
476.596	253.75
476.814	253.75
477.033	252.75
477.252	237.75
477.471	269.75
477.69	276.75
477.908	257.75
478.127	265.75
478.346	270.75
478.564	267.75
478.783	293.75
479.002	290.75
479.22	290.75
479.439	315.75
479.658	312.75
479.876	345.75
480.095	350.75
480.313	375.75
480.532	465.75
480.751	623.75
480.969	1244.75
481.188	2772.75
481.406	2226.75
481.624	1053.75
481.843	696.75
482.061	557.75
482.28	503.75
482.498	436.75
482.717	392.75
482.935	386.75
483.153	371.75
483.372	356.75
483.59	333.75
483.808	344.75
484.027	300.75
484.245	309.75
484.463	325.75
484.681	316.75
484.9	298.75
485.118	283.75
485.336	318.75
485.554	307.75
485.772	285.75
485.99	278.75
486.209	273.75
486.427	275.75
486.645	291.75
486.863	317.75
487.081	292.75
487.299	300.75
487.517	307.75
487.735	312.75
487.953	305.75
488.171	288.75
488.389	299.75
488.607	300.75
488.825	310.75
489.043	314.75
489.261	308.75
489.479	310.75
489.696	325.75
489.914	314.75
490.132	326.75
490.35	344.75
490.568	368.75
490.786	369.75
491.003	392.75
491.221	421.75
491.439	486.75
491.657	470.75
491.874	469.75
492.092	482.75
492.31	468.75
492.527	510.75
492.745	539.75
492.963	506.75
493.18	483.75
493.398	488.75
493.615	433.75
493.833	430.75
494.05	401.75
494.268	399.75
494.485	397.75
494.703	385.75
494.92	373.75
495.138	360.75
495.355	362.75
495.573	380.75
495.79	354.75
496.008	360.75
496.225	372.75
496.442	350.75
496.66	341.75
496.877	332.75
497.094	343.75
497.312	330.75
497.529	340.75
497.746	332.75
497.963	329.75
498.181	351.75
498.398	347.75
498.615	344.75
498.832	356.75
499.049	377.75
499.267	374.75
499.484	386.75
499.701	385.75
499.918	420.75
500.135	456.75
500.352	463.75
500.569	509.75
500.786	511.75
501.003	480.75
501.22	431.75
501.437	409.75
501.654	374.75
501.871	378.75
502.088	362.75
502.305	342.75
502.522	328.75
502.739	329.75
502.956	314.75
503.172	301.75
503.389	312.75
