Data from StdC_HRD10591_017.txt Node
Date: Fri May 16 15:28:49 EDT 2025
User: Yrep
Spectrometer: HR+D1059
Trigger mode: 1
Integration Time (sec): 1.000000E-1
Scans to average: 1
Electric dark correction enabled: true
Nonlinearity correction enabled: false
Boxcar width: 0
XAxis mode: Wavelengths
Number of Pixels in Spectrum: 2048
>>>>>Begin Spectral Data<<<<<
223.165	-24.44
223.4	-24.44
223.635	-24.44
223.869	-15.44
224.104	-13.44
224.338	-11.44
224.573	-22.44
224.808	4.56
225.042	-13.44
225.277	0.56
225.511	-4.44
225.746	-0.44
225.98	0.56
226.215	15.56
226.449	7.56
226.683	13.56
226.918	28.56
227.152	34.56
227.387	47.56
227.621	40.56
227.856	50.56
228.09	52.56
228.324	63.56
228.559	53.56
228.793	52.56
229.027	67.56
229.262	57.56
229.496	62.56
229.73	61.56
229.964	75.56
230.199	72.56
230.433	78.56
230.667	83.56
230.901	67.56
231.136	84.56
231.37	84.56
231.604	80.56
231.838	84.56
232.072	82.56
232.306	70.56
232.541	90.56
232.775	81.56
233.009	76.56
233.243	82.56
233.477	81.56
233.711	79.56
233.945	91.56
234.179	80.56
234.413	84.56
234.647	86.56
234.881	77.56
235.115	77.56
235.349	85.56
235.583	78.56
235.817	86.56
236.051	75.56
236.285	80.56
236.519	84.56
236.753	78.56
236.987	62.56
237.221	72.56
237.455	79.56
237.689	76.56
237.922	65.56
238.156	68.56
238.39	67.56
238.624	74.56
238.858	74.56
239.091	75.56
239.325	69.56
239.559	85.56
239.793	71.56
240.027	71.56
240.26	66.56
240.494	72.56
240.728	80.56
240.961	89.56
241.195	76.56
241.429	66.56
241.662	76.56
241.896	84.56
242.13	78.56
242.363	79.56
242.597	67.56
242.83	76.56
243.064	74.56
243.298	76.56
243.531	67.56
243.765	88.56
243.998	73.56
244.232	83.56
244.465	73.56
244.699	89.56
244.932	84.56
245.166	70.56
245.399	87.56
245.633	70.56
245.866	76.56
246.099	54.56
246.333	67.56
246.566	74.56
246.8	73.56
247.033	65.56
247.266	72.56
247.5	81.56
247.733	80.56
247.966	64.56
248.2	87.56
248.433	72.56
248.666	70.56
248.899	78.56
249.133	72.56
249.366	96.56
249.599	90.56
249.832	70.56
250.066	87.56
250.299	93.56
250.532	91.56
250.765	79.56
250.998	81.56
251.231	74.56
251.465	85.56
251.698	56.56
251.931	81.56
252.164	68.56
252.397	84.56
252.63	85.56
252.863	86.56
253.096	87.56
253.329	77.56
253.562	72.56
253.795	81.56
254.028	80.56
254.261	73.56
254.494	85.56
254.727	66.56
254.96	75.56
255.193	84.56
255.426	78.56
255.659	75.56
255.892	65.56
256.124	75.56
256.357	89.56
256.59	78.56
256.823	88.56
257.056	86.56
257.289	77.56
257.521	90.56
257.754	88.56
257.987	84.56
258.22	84.56
258.452	88.56
258.685	85.56
258.918	69.56
259.151	93.56
259.383	76.56
259.616	77.56
259.849	89.56
260.081	75.56
260.314	82.56
260.547	82.56
260.779	77.56
261.012	70.56
261.244	93.56
261.477	74.56
261.71	81.56
261.942	63.56
262.175	82.56
262.407	67.56
262.64	82.56
262.872	85.56
263.105	70.56
263.337	84.56
263.57	86.56
263.802	80.56
264.035	74.56
264.267	74.56
264.499	72.56
264.732	78.56
264.964	65.56
265.197	78.56
265.429	75.56
265.661	90.56
265.894	81.56
266.126	75.56
266.358	100.56
266.591	81.56
266.823	78.56
267.055	66.56
267.287	70.56
267.52	62.56
267.752	72.56
267.984	76.56
268.216	93.56
268.448	85.56
268.681	88.56
268.913	73.56
269.145	92.56
269.377	85.56
269.609	79.56
269.841	65.56
270.073	68.56
270.306	76.56
270.538	88.56
270.77	81.56
271.002	76.56
271.234	88.56
271.466	78.56
271.698	86.56
271.93	93.56
272.162	72.56
272.394	81.56
272.626	80.56
272.858	89.56
273.09	76.56
273.322	70.56
273.553	86.56
273.785	71.56
274.017	80.56
274.249	76.56
274.481	90.56
274.713	90.56
274.945	75.56
275.176	74.56
275.408	81.56
275.64	100.56
275.872	96.56
276.104	90.56
276.335	89.56
276.567	76.56
276.799	78.56
277.031	95.56
277.262	93.56
277.494	89.56
277.726	85.56
277.957	100.56
278.189	66.56
278.421	75.56
278.652	88.56
278.884	82.56
279.115	83.56
279.347	79.56
279.579	94.56
279.81	84.56
280.042	95.56
280.273	114.56
280.505	89.56
280.736	63.56
280.968	71.56
281.199	84.56
281.431	85.56
281.662	84.56
281.894	67.56
282.125	76.56
282.356	96.56
282.588	80.56
282.819	72.56
283.051	82.56
283.282	88.56
283.513	95.56
283.745	81.56
283.976	76.56
284.207	89.56
284.439	80.56
284.67	78.56
284.901	69.56
285.132	80.56
285.364	76.56
285.595	84.56
285.826	79.56
286.057	84.56
286.288	95.56
286.52	85.56
286.751	72.56
286.982	65.56
287.213	70.56
287.444	78.56
287.675	82.56
287.906	88.56
288.138	87.56
288.369	81.56
288.6	84.56
288.831	74.56
289.062	73.56
289.293	79.56
289.524	88.56
289.755	91.56
289.986	71.56
290.217	86.56
290.448	89.56
290.679	75.56
290.91	91.56
291.141	87.56
291.371	88.56
291.602	78.56
291.833	72.56
292.064	77.56
292.295	95.56
292.526	80.56
292.757	80.56
292.987	82.56
293.218	85.56
293.449	76.56
293.68	72.56
293.91	81.56
294.141	82.56
294.372	86.56
294.603	88.56
294.833	80.56
295.064	82.56
295.295	78.56
295.525	77.56
295.756	96.56
295.987	86.56
296.217	85.56
296.448	91.56
296.679	84.56
296.909	90.56
297.14	73.56
297.37	88.56
297.601	78.56
297.831	90.56
298.062	79.56
298.292	88.56
298.523	96.56
298.753	63.56
298.984	78.56
299.214	90.56
299.445	82.56
299.675	94.56
299.905	89.56
300.136	90.56
300.366	81.56
300.597	77.56
300.827	77.56
301.057	78.56
301.288	76.56
301.518	84.56
301.748	78.56
301.979	89.56
302.209	92.56
302.439	86.56
302.669	89.56
302.9	74.56
303.13	82.56
303.36	79.56
303.59	82.56
303.82	76.56
304.051	88.56
304.281	85.56
304.511	76.56
304.741	82.56
304.971	77.56
305.201	73.56
305.431	87.56
305.661	74.56
305.891	86.56
306.121	76.56
306.352	80.56
306.582	78.56
306.812	85.56
307.042	76.56
307.272	86.56
307.502	87.56
307.731	95.56
307.961	87.56
308.191	90.56
308.421	64.56
308.651	74.56
308.881	95.56
309.111	80.56
309.341	84.56
309.571	87.56
309.8	78.56
310.03	85.56
310.26	69.56
310.49	77.56
310.72	82.56
310.949	80.56
311.179	72.56
311.409	79.56
311.639	79.56
311.868	84.56
312.098	70.56
312.328	82.56
312.557	79.56
312.787	74.56
313.017	75.56
313.246	84.56
313.476	70.56
313.706	80.56
313.935	80.56
314.165	71.56
314.394	74.56
314.624	85.56
314.853	84.56
315.083	74.56
315.312	84.56
315.542	83.56
315.771	87.56
316.001	65.56
316.23	81.56
316.46	86.56
316.689	92.56
316.919	83.56
317.148	91.56
317.377	86.56
317.607	77.56
317.836	75.56
318.065	79.56
318.295	97.56
318.524	87.56
318.753	94.56
318.983	94.56
319.212	115.56
319.441	86.56
319.67	91.56
319.9	88.56
320.129	71.56
320.358	81.56
320.587	91.56
320.816	78.56
321.046	80.56
321.275	76.56
321.504	95.56
321.733	70.56
321.962	88.56
322.191	92.56
322.42	89.56
322.649	98.56
322.878	77.56
323.108	91.56
323.337	96.56
323.566	83.56
323.795	80.56
324.024	74.56
324.253	90.56
324.482	80.56
324.71	82.56
324.939	77.56
325.168	74.56
325.397	90.56
325.626	83.56
325.855	93.56
326.084	86.56
326.313	77.56
326.542	81.56
326.77	103.56
326.999	81.56
327.228	87.56
327.457	90.56
327.686	94.56
327.914	104.56
328.143	112.56
328.372	113.56
328.6	105.56
328.829	88.56
329.058	91.56
329.287	97.56
329.515	96.56
329.744	108.56
329.972	121.56
330.201	179.56
330.43	182.56
330.658	126.56
330.887	90.56
331.115	82.56
331.344	77.56
331.572	75.56
331.801	96.56
332.03	70.56
332.258	70.56
332.486	85.56
332.715	87.56
332.943	96.56
333.172	98.56
333.4	90.56
333.629	87.56
333.857	104.56
334.085	130.56
334.314	194.56
334.542	223.56
334.771	196.56
334.999	95.56
335.227	81.56
335.455	81.56
335.684	100.56
335.912	74.56
336.14	80.56
336.369	82.56
336.597	89.56
336.825	76.56
337.053	84.56
337.281	72.56
337.51	74.56
337.738	77.56
337.966	70.56
338.194	89.56
338.422	80.56
338.65	74.56
338.878	74.56
339.106	73.56
339.334	76.56
339.562	76.56
339.79	71.56
340.018	87.56
340.246	90.56
340.474	76.56
340.702	80.56
340.93	90.56
341.158	88.56
341.386	77.56
341.614	89.56
341.842	84.56
342.07	85.56
342.298	75.56
342.526	76.56
342.754	80.56
342.981	72.56
343.209	76.56
343.437	104.56
343.665	88.56
343.893	80.56
344.12	86.56
344.348	76.56
344.576	78.56
344.804	73.56
345.031	79.56
345.259	92.56
345.487	70.56
345.714	74.56
345.942	77.56
346.17	68.56
346.397	72.56
346.625	82.56
346.853	83.56
347.08	84.56
347.308	75.56
347.535	104.56
347.763	75.56
347.99	100.56
348.218	89.56
348.445	78.56
348.673	65.56
348.9	82.56
349.128	92.56
349.355	93.56
349.583	82.56
349.81	91.56
350.037	87.56
350.265	81.56
350.492	79.56
350.72	88.56
350.947	90.56
351.174	90.56
351.402	89.56
351.629	95.56
351.856	67.56
352.083	74.56
352.311	84.56
352.538	74.56
352.765	74.56
352.992	82.56
353.22	85.56
353.447	72.56
353.674	92.56
353.901	76.56
354.128	87.56
354.355	77.56
354.583	80.56
354.81	86.56
355.037	96.56
355.264	92.56
355.491	80.56
355.718	74.56
355.945	74.56
356.172	77.56
356.399	83.56
356.626	78.56
356.853	80.56
357.08	84.56
357.307	84.56
357.534	77.56
357.761	87.56
357.988	85.56
358.215	85.56
358.441	85.56
358.668	82.56
358.895	85.56
359.122	83.56
359.349	75.56
359.576	78.56
359.802	76.56
360.029	68.56
360.256	72.56
360.483	63.56
360.709	68.56
360.936	78.56
361.163	91.56
361.39	87.56
361.616	83.56
361.843	89.56
362.07	75.56
362.296	72.56
362.523	78.56
362.749	74.56
362.976	79.56
363.203	92.56
363.429	96.56
363.656	97.56
363.882	80.56
364.109	72.56
364.335	73.56
364.562	77.56
364.788	90.56
365.015	84.56
365.241	83.56
365.468	91.56
365.694	73.56
365.92	87.56
366.147	80.56
366.373	85.56
366.599	72.56
366.826	89.56
367.052	82.56
367.278	87.56
367.505	80.56
367.731	71.56
367.957	80.56
368.184	88.56
368.41	87.56
368.636	74.56
368.862	84.56
369.089	72.56
369.315	88.56
369.541	91.56
369.767	71.56
369.993	93.56
370.219	80.56
370.445	77.56
370.672	82.56
370.898	86.56
371.124	84.56
371.35	78.56
371.576	91.56
371.802	82.56
372.028	86.56
372.254	66.56
372.48	87.56
372.706	88.56
372.932	89.56
373.158	74.56
373.384	100.56
373.61	92.56
373.835	96.56
374.061	86.56
374.287	82.56
374.513	76.56
374.739	77.56
374.965	86.56
375.191	75.56
375.416	91.56
375.642	83.56
375.868	68.56
376.094	76.56
376.319	77.56
376.545	76.56
376.771	89.56
376.997	78.56
377.222	90.56
377.448	93.56
377.674	68.56
377.899	72.56
378.125	81.56
378.35	64.56
378.576	96.56
378.802	87.56
379.027	85.56
379.253	82.56
379.478	86.56
379.704	81.56
379.929	76.56
380.155	76.56
380.38	85.56
380.606	85.56
380.831	72.56
381.057	92.56
381.282	86.56
381.507	81.56
381.733	87.56
381.958	92.56
382.184	108.56
382.409	84.56
382.634	71.56
382.86	88.56
383.085	69.56
383.31	80.56
383.535	80.56
383.761	93.56
383.986	83.56
384.211	81.56
384.436	90.56
384.662	77.56
384.887	68.56
385.112	78.56
385.337	82.56
385.562	71.56
385.787	92.56
386.013	84.56
386.238	78.56
386.463	95.56
386.688	104.56
386.913	74.56
387.138	73.56
387.363	95.56
387.588	92.56
387.813	94.56
388.038	81.56
388.263	85.56
388.488	66.56
388.713	81.56
388.938	91.56
389.163	80.56
389.387	77.56
389.612	79.56
389.837	83.56
390.062	92.56
390.287	86.56
390.512	88.56
390.736	73.56
390.961	71.56
391.186	92.56
391.411	96.56
391.636	84.56
391.86	88.56
392.085	85.56
392.31	76.56
392.534	86.56
392.759	65.56
392.984	78.56
393.208	84.56
393.433	79.56
393.658	84.56
393.882	84.56
394.107	87.56
394.331	86.56
394.556	85.56
394.78	87.56
395.005	82.56
395.229	80.56
395.454	86.56
395.678	90.56
395.903	88.56
396.127	90.56
396.352	88.56
396.576	83.56
396.801	90.56
397.025	90.56
397.249	100.56
397.474	92.56
397.698	69.56
397.922	82.56
398.147	84.56
398.371	93.56
398.595	90.56
398.82	87.56
399.044	86.56
399.268	92.56
399.492	86.56
399.717	85.56
399.941	70.56
400.165	78.56
400.389	85.56
400.613	90.56
400.837	87.56
401.062	76.56
401.286	89.56
401.51	81.56
401.734	74.56
401.958	67.56
402.182	82.56
402.406	78.56
402.63	89.56
402.854	80.56
403.078	102.56
403.302	102.56
403.526	89.56
403.75	77.56
403.974	76.56
404.198	78.56
404.422	81.56
404.645	80.56
404.869	89.56
405.093	74.56
405.317	104.56
405.541	87.56
405.765	75.56
405.988	78.56
406.212	84.56
406.436	80.56
406.66	84.56
406.883	92.56
407.107	97.56
407.331	81.56
407.555	96.56
407.778	85.56
408.002	84.56
408.226	79.56
408.449	81.56
408.673	78.56
408.896	81.56
409.12	77.56
409.344	90.56
409.567	80.56
409.791	85.56
410.014	76.56
410.238	102.56
410.461	86.56
410.685	91.56
410.908	96.56
411.132	73.56
411.355	82.56
411.578	95.56
411.802	104.56
412.025	81.56
412.249	80.56
412.472	70.56
412.695	84.56
412.919	94.56
413.142	91.56
413.365	77.56
413.589	102.56
413.812	85.56
414.035	92.56
414.258	78.56
414.482	78.56
414.705	76.56
414.928	74.56
415.151	97.56
415.374	81.56
415.597	84.56
415.821	80.56
416.044	87.56
416.267	84.56
416.49	49.56
416.713	100.56
416.936	86.56
417.159	77.56
417.382	89.56
417.605	82.56
417.828	73.56
418.051	79.56
418.274	78.56
418.497	85.56
418.72	78.56
418.943	72.56
419.166	85.56
419.389	93.56
419.611	94.56
419.834	82.56
420.057	96.56
420.28	102.56
420.503	81.56
420.726	89.56
420.948	89.56
421.171	79.56
421.394	77.56
421.617	91.56
421.839	78.56
422.062	89.56
422.285	75.56
422.507	81.56
422.73	88.56
422.953	88.56
423.175	84.56
423.398	82.56
423.621	76.56
423.843	90.56
424.066	83.56
424.288	85.56
424.511	86.56
424.733	72.56
424.956	85.56
425.178	88.56
425.401	86.56
425.623	88.56
425.846	82.56
426.068	81.56
426.291	86.56
426.513	84.56
426.735	81.56
426.958	72.56
427.18	81.56
427.402	91.56
427.625	93.56
427.847	81.56
428.069	86.56
428.292	94.56
428.514	104.56
428.736	89.56
428.958	73.56
429.181	87.56
429.403	92.56
429.625	74.56
429.847	76.56
430.069	89.56
430.292	81.56
430.514	90.56
430.736	77.56
430.958	90.56
431.18	83.56
431.402	82.56
431.624	89.56
431.846	64.56
432.068	88.56
432.29	86.56
432.512	87.56
432.734	89.56
432.956	67.56
433.178	78.56
433.4	75.56
433.622	92.56
433.844	74.56
434.066	66.56
434.287	75.56
434.509	82.56
434.731	85.56
434.953	84.56
435.175	75.56
435.397	76.56
435.618	85.56
435.84	89.56
436.062	97.56
436.284	84.56
436.505	86.56
436.727	75.56
436.949	90.56
437.17	72.56
437.392	68.56
437.614	84.56
437.835	85.56
438.057	85.56
438.278	84.56
438.5	71.56
438.721	92.56
438.943	92.56
439.165	84.56
439.386	74.56
439.608	88.56
439.829	92.56
440.05	79.56
440.272	87.56
440.493	76.56
440.715	84.56
440.936	88.56
441.158	85.56
441.379	77.56
441.6	78.56
441.822	104.56
442.043	91.56
442.264	86.56
442.486	92.56
442.707	76.56
442.928	86.56
443.149	72.56
443.371	82.56
443.592	88.56
443.813	87.56
444.034	73.56
444.255	82.56
444.476	80.56
444.698	80.56
444.919	85.56
445.14	176.56
445.361	140.56
445.582	88.56
445.803	77.56
446.024	87.56
446.245	77.56
446.466	73.56
446.687	81.56
446.908	91.56
447.129	83.56
447.35	98.56
447.571	89.56
447.792	91.56
448.013	86.56
448.234	85.56
448.455	88.56
448.675	76.56
448.896	91.56
449.117	98.56
449.338	82.56
449.559	82.56
449.779	90.56
450	70.56
450.221	84.56
450.442	80.56
450.662	88.56
450.883	90.56
451.104	82.56
451.324	76.56
451.545	86.56
451.766	88.56
451.986	91.56
452.207	69.56
452.428	72.56
452.648	92.56
452.869	72.56
453.089	98.56
453.31	76.56
453.53	81.56
453.751	76.56
453.971	86.56
454.192	72.56
454.412	73.56
454.633	78.56
454.853	79.56
455.073	76.56
455.294	73.56
455.514	77.56
455.734	82.56
455.955	84.56
456.175	76.56
456.395	74.56
456.616	90.56
456.836	70.56
457.056	85.56
457.276	94.56
457.497	87.56
457.717	96.56
457.937	91.56
458.157	69.56
458.377	72.56
458.598	59.56
458.818	79.56
459.038	79.56
459.258	78.56
459.478	70.56
459.698	82.56
459.918	77.56
460.138	92.56
460.358	74.56
460.578	81.56
460.798	80.56
461.018	82.56
461.238	99.56
461.458	96.56
461.678	88.56
461.898	77.56
462.118	74.56
462.338	77.56
462.558	84.56
462.777	85.56
462.997	93.56
463.217	86.56
463.437	87.56
463.657	94.56
463.876	78.56
464.096	87.56
464.316	78.56
464.536	103.56
464.755	88.56
464.975	78.56
465.195	90.56
465.414	88.56
465.634	95.56
465.854	76.56
466.073	94.56
466.293	99.56
466.512	80.56
466.732	80.56
466.951	90.56
467.171	92.56
467.391	111.56
467.61	97.56
467.829	95.56
468.049	168.56
468.268	164.56
468.488	94.56
468.707	94.56
468.927	92.56
469.146	93.56
469.365	86.56
469.585	88.56
469.804	85.56
470.023	95.56
470.243	76.56
470.462	100.56
470.681	104.56
470.901	89.56
471.12	81.56
471.339	81.56
471.558	91.56
471.777	90.56
471.997	119.56
472.216	234.56
472.435	300.56
472.654	126.56
472.873	97.56
473.092	83.56
473.311	92.56
473.53	93.56
473.749	75.56
473.968	86.56
474.187	72.56
474.406	83.56
474.625	85.56
474.844	90.56
475.063	89.56
475.282	85.56
475.501	88.56
475.72	94.56
475.939	83.56
476.158	94.56
476.377	81.56
476.596	73.56
476.814	85.56
477.033	81.56
477.252	87.56
477.471	94.56
477.69	93.56
477.908	94.56
478.127	92.56
478.346	73.56
478.564	85.56
478.783	92.56
479.002	79.56
479.22	86.56
479.439	96.56
479.658	87.56
479.876	85.56
480.095	90.56
480.313	91.56
480.532	105.56
480.751	111.56
480.969	220.56
481.188	500.56
481.406	281.56
481.624	106.56
481.843	92.56
482.061	89.56
482.28	87.56
482.498	82.56
482.717	74.56
482.935	66.56
483.153	77.56
483.372	85.56
483.59	82.56
483.808	74.56
484.027	81.56
484.245	88.56
484.463	76.56
484.681	83.56
484.9	83.56
485.118	76.56
485.336	72.56
485.554	64.56
485.772	88.56
485.99	72.56
486.209	87.56
486.427	91.56
486.645	82.56
486.863	82.56
487.081	88.56
487.299	81.56
487.517	72.56
487.735	81.56
487.953	92.56
488.171	81.56
488.389	89.56
488.607	84.56
488.825	89.56
489.043	85.56
489.261	89.56
489.479	78.56
489.696	99.56
489.914	74.56
490.132	84.56
490.35	89.56
490.568	77.56
490.786	72.56
491.003	82.56
491.221	98.56
491.439	93.56
491.657	82.56
491.874	94.56
492.092	88.56
492.31	100.56
492.527	84.56
492.745	76.56
492.963	90.56
493.18	83.56
493.398	75.56
493.615	90.56
493.833	78.56
494.05	92.56
494.268	95.56
494.485	84.56
494.703	90.56
494.92	86.56
495.138	88.56
495.355	97.56
495.573	78.56
495.79	90.56
496.008	87.56
496.225	92.56
496.442	89.56
496.66	77.56
496.877	97.56
497.094	93.56
497.312	81.56
497.529	79.56
497.746	87.56
497.963	100.56
498.181	77.56
498.398	78.56
498.615	85.56
498.832	78.56
499.049	79.56
499.267	100.56
499.484	75.56
499.701	84.56
499.918	93.56
500.135	83.56
500.352	93.56
500.569	90.56
500.786	94.56
501.003	80.56
501.22	84.56
501.437	95.56
501.654	92.56
501.871	98.56
502.088	76.56
502.305	96.56
502.522	85.56
502.739	74.56
502.956	81.56
503.172	87.56
503.389	90.56
503.606	91.56
503.823	90.56
504.04	83.56
504.256	89.56
504.473	87.56
504.69	81.56
504.907	100.56
505.123	91.56
505.34	91.56
505.557	90.56
505.773	67.56
505.99	78.56
506.207	88.56
506.423	74.56
506.64	87.56
506.856	76.56
507.073	80.56
507.289	69.56
507.506	92.56
507.722	90.56
507.939	101.56
508.155	86.56
508.372	76.56
508.588	82.56
508.805	97.56
509.021	81.56
509.238	82.56
509.454	100.56
509.67	81.56
509.887	78.56
510.103	80.56
510.319	87.56
510.536	78.56
510.752	81.56
510.968	77.56
511.184	82.56
511.401	74.56
511.617	79.56
511.833	86.56
512.049	69.56
512.265	81.56
512.481	80.56
512.698	91.56
512.914	82.56
513.13	89.56
513.346	80.56
513.562	95.56
513.778	84.56
513.994	62.56
514.21	82.56
514.426	70.56
514.642	93.56
514.858	96.56
515.074	96.56
515.29	79.56
515.506	79.56
515.721	72.56
515.937	86.56
516.153	87.56
516.369	80.56
516.585	71.56
516.801	82.56
517.016	88.56
517.232	91.56
517.448	92.56
517.664	65.56
517.879	88.56
518.095	76.56
518.311	78.56
518.527	86.56
518.742	79.56
518.958	76.56
519.173	78.56
519.389	75.56
519.605	93.56
