Data from StdC_HRD10591_094.txt Node
Date: Fri May 16 15:29:27 EDT 2025
User: Yrep
Spectrometer: HR+D1059
Trigger mode: 1
Integration Time (sec): 1.000000E-1
Scans to average: 1
Electric dark correction enabled: true
Nonlinearity correction enabled: false
Boxcar width: 0
XAxis mode: Wavelengths
Number of Pixels in Spectrum: 2048
>>>>>Begin Spectral Data<<<<<
223.165	-16.69
223.4	-16.69
223.635	-16.69
223.869	-17.69
224.104	-21.69
224.338	-3.69
224.573	-19.69
224.808	-7.69
225.042	-4.69
225.277	-11.69
225.511	-9.69
225.746	-4.69
225.98	14.31
226.215	10.31
226.449	15.31
226.683	19.31
226.918	29.31
227.152	29.31
227.387	20.31
227.621	46.31
227.856	24.31
228.09	53.31
228.324	57.31
228.559	62.31
228.793	66.31
229.027	87.31
229.262	68.31
229.496	80.31
229.73	76.31
229.964	100.31
230.199	76.31
230.433	79.31
230.667	86.31
230.901	76.31
231.136	102.31
231.37	106.31
231.604	108.31
231.838	91.31
232.072	77.31
232.306	88.31
232.541	94.31
232.775	96.31
233.009	104.31
233.243	104.31
233.477	77.31
233.711	102.31
233.945	82.31
234.179	86.31
234.413	96.31
234.647	92.31
234.881	86.31
235.115	90.31
235.349	103.31
235.583	84.31
235.817	96.31
236.051	96.31
236.285	88.31
236.519	89.31
236.753	86.31
236.987	98.31
237.221	89.31
237.455	91.31
237.689	95.31
237.922	84.31
238.156	88.31
238.39	86.31
238.624	101.31
238.858	86.31
239.091	89.31
239.325	98.31
239.559	105.31
239.793	94.31
240.027	91.31
240.26	83.31
240.494	75.31
240.728	83.31
240.961	77.31
241.195	103.31
241.429	87.31
241.662	86.31
241.896	82.31
242.13	88.31
242.363	90.31
242.597	106.31
242.83	91.31
243.064	96.31
243.298	91.31
243.531	97.31
243.765	99.31
243.998	117.31
244.232	115.31
244.465	115.31
244.699	116.31
244.932	98.31
245.166	107.31
245.399	111.31
245.633	100.31
245.866	92.31
246.099	94.31
246.333	105.31
246.566	97.31
246.8	98.31
247.033	99.31
247.266	108.31
247.5	109.31
247.733	101.31
247.966	111.31
248.2	108.31
248.433	118.31
248.666	110.31
248.899	110.31
249.133	122.31
249.366	128.31
249.599	131.31
249.832	146.31
250.066	157.31
250.299	177.31
250.532	211.31
250.765	191.31
250.998	185.31
251.231	129.31
251.465	138.31
251.698	115.31
251.931	138.31
252.164	119.31
252.397	128.31
252.63	136.31
252.863	126.31
253.096	118.31
253.329	135.31
253.562	126.31
253.795	128.31
254.028	111.31
254.261	123.31
254.494	123.31
254.727	145.31
254.96	136.31
255.193	143.31
255.426	165.31
255.659	197.31
255.892	270.31
256.124	313.31
256.357	268.31
256.59	218.31
256.823	185.31
257.056	169.31
257.289	156.31
257.521	158.31
257.754	139.31
257.987	150.31
258.22	154.31
258.452	139.31
258.685	136.31
258.918	120.31
259.151	124.31
259.383	143.31
259.616	142.31
259.849	145.31
260.081	143.31
260.314	147.31
260.547	146.31
260.779	147.31
261.012	136.31
261.244	144.31
261.477	138.31
261.71	131.31
261.942	130.31
262.175	138.31
262.407	152.31
262.64	116.31
262.872	135.31
263.105	113.31
263.337	132.31
263.57	137.31
263.802	115.31
264.035	126.31
264.267	115.31
264.499	128.31
264.732	134.31
264.964	130.31
265.197	123.31
265.429	129.31
265.661	128.31
265.894	122.31
266.126	124.31
266.358	131.31
266.591	130.31
266.823	136.31
267.055	132.31
267.287	137.31
267.52	136.31
267.752	133.31
267.984	138.31
268.216	132.31
268.448	143.31
268.681	131.31
268.913	129.31
269.145	126.31
269.377	141.31
269.609	137.31
269.841	131.31
270.073	137.31
270.306	147.31
270.538	143.31
270.77	131.31
271.002	138.31
271.234	137.31
271.466	145.31
271.698	138.31
271.93	145.31
272.162	155.31
272.394	137.31
272.626	135.31
272.858	138.31
273.09	135.31
273.322	142.31
273.553	131.31
273.785	152.31
274.017	153.31
274.249	144.31
274.481	151.31
274.713	147.31
274.945	145.31
275.176	166.31
275.408	174.31
275.64	174.31
275.872	187.31
276.104	180.31
276.335	176.31
276.567	190.31
276.799	211.31
277.031	225.31
277.262	240.31
277.494	221.31
277.726	212.31
277.957	198.31
278.189	190.31
278.421	186.31
278.652	186.31
278.884	188.31
279.115	171.31
279.347	194.31
279.579	207.31
279.81	227.31
280.042	264.31
280.273	285.31
280.505	270.31
280.736	211.31
280.968	198.31
281.199	176.31
281.431	175.31
281.662	174.31
281.894	163.31
282.125	173.31
282.356	152.31
282.588	172.31
282.819	172.31
283.051	150.31
283.282	156.31
283.513	180.31
283.745	169.31
283.976	160.31
284.207	163.31
284.439	168.31
284.67	159.31
284.901	158.31
285.132	155.31
285.364	153.31
285.595	170.31
285.826	144.31
286.057	164.31
286.288	166.31
286.52	158.31
286.751	153.31
286.982	159.31
287.213	166.31
287.444	158.31
287.675	166.31
287.906	160.31
288.138	160.31
288.369	151.31
288.6	157.31
288.831	163.31
289.062	155.31
289.293	151.31
289.524	177.31
289.755	158.31
289.986	162.31
290.217	164.31
290.448	156.31
290.679	174.31
290.91	155.31
291.141	157.31
291.371	180.31
291.602	160.31
291.833	159.31
292.064	161.31
292.295	155.31
292.526	144.31
292.757	169.31
292.987	178.31
293.218	152.31
293.449	160.31
293.68	157.31
293.91	146.31
294.141	163.31
294.372	157.31
294.603	145.31
294.833	164.31
295.064	161.31
295.295	164.31
295.525	162.31
295.756	160.31
295.987	151.31
296.217	168.31
296.448	169.31
296.679	174.31
296.909	145.31
297.14	155.31
297.37	168.31
297.601	152.31
297.831	148.31
298.062	166.31
298.292	168.31
298.523	173.31
298.753	152.31
298.984	152.31
299.214	171.31
299.445	179.31
299.675	175.31
299.905	169.31
300.136	156.31
300.366	166.31
300.597	163.31
300.827	152.31
301.057	157.31
301.288	166.31
301.518	182.31
301.748	172.31
301.979	200.31
302.209	165.31
302.439	163.31
302.669	177.31
302.9	182.31
303.13	179.31
303.36	184.31
303.59	200.31
303.82	203.31
304.051	201.31
304.281	188.31
304.511	168.31
304.741	183.31
304.971	157.31
305.201	174.31
305.431	157.31
305.661	164.31
305.891	170.31
306.121	177.31
306.352	177.31
306.582	177.31
306.812	180.31
307.042	205.31
307.272	228.31
307.502	224.31
307.731	234.31
307.961	191.31
308.191	162.31
308.421	159.31
308.651	194.31
308.881	182.31
309.111	188.31
309.341	167.31
309.571	186.31
309.8	177.31
310.03	165.31
310.26	186.31
310.49	170.31
310.72	169.31
310.949	183.31
311.179	178.31
311.409	192.31
311.639	178.31
311.868	186.31
312.098	188.31
312.328	166.31
312.557	184.31
312.787	175.31
313.017	174.31
313.246	183.31
313.476	181.31
313.706	190.31
313.935	195.31
314.165	178.31
314.394	175.31
314.624	186.31
314.853	188.31
315.083	177.31
315.312	182.31
315.542	191.31
315.771	193.31
316.001	173.31
316.23	166.31
316.46	183.31
316.689	177.31
316.919	171.31
317.148	196.31
317.377	178.31
317.607	204.31
317.836	185.31
318.065	193.31
318.295	188.31
318.524	188.31
318.753	194.31
318.983	180.31
319.212	192.31
319.441	174.31
319.67	196.31
319.9	186.31
320.129	198.31
320.358	192.31
320.587	195.31
320.816	174.31
321.046	186.31
321.275	187.31
321.504	182.31
321.733	200.31
321.962	195.31
322.191	208.31
322.42	208.31
322.649	216.31
322.878	214.31
323.108	216.31
323.337	211.31
323.566	230.31
323.795	234.31
324.024	215.31
324.253	222.31
324.482	227.31
324.71	216.31
324.939	228.31
325.168	226.31
325.397	210.31
325.626	242.31
325.855	257.31
326.084	251.31
326.313	255.31
326.542	264.31
326.77	273.31
326.999	289.31
327.228	306.31
327.457	347.31
327.686	446.31
327.914	560.31
328.143	736.31
328.372	783.31
328.6	544.31
328.829	407.31
329.058	385.31
329.287	437.31
329.515	517.31
329.744	689.31
329.972	1035.31
330.201	1378.31
330.43	1403.31
330.658	808.31
330.887	512.31
331.115	387.31
331.344	374.31
331.572	340.31
331.801	339.31
332.03	353.31
332.258	339.31
332.486	347.31
332.715	354.31
332.943	385.31
333.172	428.31
333.4	473.31
333.629	555.31
333.857	744.31
334.085	1096.31
334.314	1536.31
334.542	1928.31
334.771	1585.31
334.999	794.31
335.227	537.31
335.455	441.31
335.684	386.31
335.912	355.31
336.14	314.31
336.369	304.31
336.597	277.31
336.825	266.31
337.053	245.31
337.281	245.31
337.51	251.31
337.738	231.31
337.966	232.31
338.194	217.31
338.422	228.31
338.65	207.31
338.878	210.31
339.106	223.31
339.334	215.31
339.562	222.31
339.79	216.31
340.018	208.31
340.246	221.31
340.474	223.31
340.702	210.31
340.93	206.31
341.158	228.31
341.386	191.31
341.614	194.31
341.842	220.31
342.07	212.31
342.298	188.31
342.526	197.31
342.754	188.31
342.981	195.31
343.209	198.31
343.437	195.31
343.665	200.31
343.893	212.31
344.12	211.31
344.348	214.31
344.576	196.31
344.804	195.31
345.031	198.31
345.259	190.31
345.487	180.31
345.714	201.31
345.942	188.31
346.17	191.31
346.397	175.31
346.625	191.31
346.853	178.31
347.08	204.31
347.308	198.31
347.535	191.31
347.763	186.31
347.99	193.31
348.218	196.31
348.445	190.31
348.673	205.31
348.9	196.31
349.128	188.31
349.355	184.31
349.583	200.31
349.81	187.31
350.037	185.31
350.265	178.31
350.492	192.31
350.72	186.31
350.947	178.31
351.174	184.31
351.402	193.31
351.629	204.31
351.856	205.31
352.083	186.31
352.311	190.31
352.538	190.31
352.765	183.31
352.992	198.31
353.22	194.31
353.447	194.31
353.674	197.31
353.901	184.31
354.128	200.31
354.355	192.31
354.583	205.31
354.81	182.31
355.037	187.31
355.264	192.31
355.491	195.31
355.718	179.31
355.945	191.31
356.172	169.31
356.399	189.31
356.626	189.31
356.853	197.31
357.08	175.31
357.307	182.31
357.534	178.31
357.761	185.31
357.988	187.31
358.215	172.31
358.441	181.31
358.668	174.31
358.895	206.31
359.122	194.31
359.349	182.31
359.576	183.31
359.802	186.31
360.029	174.31
360.256	187.31
360.483	190.31
360.709	197.31
360.936	202.31
361.163	184.31
361.39	196.31
361.616	195.31
361.843	166.31
362.07	171.31
362.296	191.31
362.523	187.31
362.749	168.31
362.976	176.31
363.203	180.31
363.429	172.31
363.656	184.31
363.882	186.31
364.109	184.31
364.335	185.31
364.562	183.31
364.788	183.31
365.015	183.31
365.241	186.31
365.468	190.31
365.694	178.31
365.92	191.31
366.147	200.31
366.373	191.31
366.599	185.31
366.826	181.31
367.052	180.31
367.278	167.31
367.505	191.31
367.731	196.31
367.957	187.31
368.184	174.31
368.41	186.31
368.636	183.31
368.862	202.31
369.089	185.31
369.315	192.31
369.541	184.31
369.767	189.31
369.993	176.31
370.219	197.31
370.445	191.31
370.672	188.31
370.898	200.31
371.124	186.31
371.35	184.31
371.576	199.31
371.802	200.31
372.028	189.31
372.254	193.31
372.48	187.31
372.706	198.31
372.932	207.31
373.158	203.31
373.384	175.31
373.61	182.31
373.835	182.31
374.061	179.31
374.287	196.31
374.513	187.31
374.739	207.31
374.965	190.31
375.191	198.31
375.416	191.31
375.642	180.31
375.868	180.31
376.094	186.31
376.319	178.31
376.545	192.31
376.771	198.31
376.997	193.31
377.222	186.31
377.448	194.31
377.674	186.31
377.899	193.31
378.125	199.31
378.35	185.31
378.576	171.31
378.802	211.31
379.027	188.31
379.253	203.31
379.478	181.31
379.704	198.31
379.929	204.31
380.155	192.31
380.38	192.31
380.606	193.31
380.831	202.31
381.057	205.31
381.282	197.31
381.507	183.31
381.733	195.31
381.958	194.31
382.184	195.31
382.409	204.31
382.634	210.31
382.86	199.31
383.085	194.31
383.31	183.31
383.535	203.31
383.761	209.31
383.986	198.31
384.211	185.31
384.436	204.31
384.662	223.31
384.887	218.31
385.112	211.31
385.337	208.31
385.562	187.31
385.787	187.31
386.013	214.31
386.238	205.31
386.463	212.31
386.688	193.31
386.913	204.31
387.138	202.31
387.363	211.31
387.588	210.31
387.813	233.31
388.038	214.31
388.263	201.31
388.488	209.31
388.713	203.31
388.938	217.31
389.163	223.31
389.387	214.31
389.612	215.31
389.837	205.31
390.062	222.31
390.287	211.31
390.512	204.31
390.736	204.31
390.961	210.31
391.186	207.31
391.411	233.31
391.636	220.31
391.86	230.31
392.085	212.31
392.31	219.31
392.534	217.31
392.759	234.31
392.984	221.31
393.208	220.31
393.433	214.31
393.658	215.31
393.882	228.31
394.107	222.31
394.331	225.31
394.556	225.31
394.78	215.31
395.005	210.31
395.229	206.31
395.454	210.31
395.678	218.31
395.903	225.31
396.127	227.31
396.352	217.31
396.576	226.31
396.801	216.31
397.025	218.31
397.249	229.31
397.474	235.31
397.698	208.31
397.922	247.31
398.147	236.31
398.371	240.31
398.595	254.31
398.82	231.31
399.044	247.31
399.268	253.31
399.492	274.31
399.717	287.31
399.941	272.31
400.165	270.31
400.389	267.31
400.613	253.31
400.837	239.31
401.062	251.31
401.286	235.31
401.51	223.31
401.734	254.31
401.958	240.31
402.182	238.31
402.406	242.31
402.63	237.31
402.854	259.31
403.078	244.31
403.302	246.31
403.526	252.31
403.75	271.31
403.974	258.31
404.198	256.31
404.422	284.31
404.645	290.31
404.869	288.31
405.093	303.31
405.317	325.31
405.541	310.31
405.765	283.31
405.988	271.31
406.212	270.31
406.436	278.31
406.66	265.31
406.883	272.31
407.107	260.31
407.331	272.31
407.555	279.31
407.778	261.31
408.002	269.31
408.226	271.31
408.449	263.31
408.673	247.31
408.896	242.31
409.12	252.31
409.344	256.31
409.567	257.31
409.791	248.31
410.014	262.31
410.238	243.31
410.461	258.31
410.685	240.31
410.908	263.31
411.132	263.31
411.355	259.31
411.578	278.31
411.802	266.31
412.025	286.31
412.249	292.31
412.472	329.31
412.695	330.31
412.919	321.31
413.142	325.31
413.365	285.31
413.589	257.31
413.812	288.31
414.035	272.31
414.258	258.31
414.482	261.31
414.705	242.31
414.928	255.31
415.151	253.31
415.374	248.31
415.597	254.31
415.821	246.31
416.044	255.31
416.267	249.31
416.49	257.31
416.713	255.31
416.936	248.31
417.159	235.31
417.382	271.31
417.605	273.31
417.828	286.31
418.051	238.31
418.274	238.31
418.497	253.31
418.72	257.31
418.943	258.31
419.166	259.31
419.389	283.31
419.611	273.31
419.834	298.31
420.057	294.31
420.28	291.31
420.503	295.31
420.726	281.31
420.948	278.31
421.171	280.31
421.394	283.31
421.617	259.31
421.839	242.31
422.062	266.31
422.285	230.31
422.507	248.31
422.73	243.31
422.953	249.31
423.175	250.31
423.398	268.31
423.621	244.31
423.843	268.31
424.066	254.31
424.288	242.31
424.511	241.31
424.733	237.31
424.956	238.31
425.178	234.31
425.401	255.31
425.623	236.31
425.846	250.31
426.068	238.31
426.291	241.31
426.513	228.31
426.735	252.31
426.958	243.31
427.18	265.31
427.402	264.31
427.625	287.31
427.847	327.31
428.069	350.31
428.292	295.31
428.514	299.31
428.736	239.31
428.958	251.31
429.181	232.31
429.403	225.31
429.625	224.31
429.847	251.31
430.069	258.31
430.292	227.31
430.514	237.31
430.736	234.31
430.958	236.31
431.18	236.31
431.402	241.31
431.624	224.31
431.846	215.31
432.068	225.31
432.29	220.31
432.512	230.31
432.734	242.31
432.956	215.31
433.178	230.31
433.4	225.31
433.622	221.31
433.844	232.31
434.066	227.31
434.287	218.31
434.509	213.31
434.731	234.31
434.953	234.31
435.175	223.31
435.397	243.31
435.618	240.31
435.84	225.31
436.062	233.31
436.284	228.31
436.505	234.31
436.727	218.31
436.949	223.31
437.17	208.31
437.392	219.31
437.614	217.31
437.835	213.31
438.057	215.31
438.278	206.31
438.5	218.31
438.721	222.31
438.943	222.31
439.165	214.31
439.386	227.31
439.608	232.31
439.829	221.31
440.05	238.31
440.272	200.31
440.493	217.31
440.715	220.31
440.936	209.31
441.158	238.31
441.379	241.31
441.6	230.31
441.822	233.31
442.043	234.31
442.264	233.31
442.486	251.31
442.707	236.31
442.928	246.31
443.149	242.31
443.371	234.31
443.592	225.31
443.813	239.31
444.034	241.31
444.255	253.31
444.476	256.31
444.698	242.31
444.919	236.31
445.14	332.31
445.361	274.31
445.582	242.31
445.803	233.31
446.024	257.31
446.245	220.31
446.466	237.31
446.687	234.31
446.908	239.31
447.129	232.31
447.35	234.31
447.571	209.31
447.792	219.31
448.013	240.31
448.234	224.31
448.455	233.31
448.675	214.31
448.896	206.31
449.117	216.31
449.338	214.31
449.559	219.31
449.779	201.31
450	212.31
450.221	212.31
450.442	222.31
450.662	210.31
450.883	233.31
451.104	227.31
451.324	240.31
451.545	199.31
451.766	216.31
451.986	203.31
452.207	214.31
452.428	216.31
452.648	196.31
452.869	198.31
453.089	191.31
453.31	200.31
453.53	204.31
453.751	204.31
453.971	222.31
454.192	210.31
454.412	197.31
454.633	202.31
454.853	212.31
455.073	208.31
455.294	208.31
455.514	220.31
455.734	209.31
455.955	210.31
456.175	209.31
456.395	200.31
456.616	199.31
456.836	210.31
457.056	206.31
457.276	219.31
457.497	209.31
457.717	195.31
457.937	215.31
458.157	217.31
458.377	211.31
458.598	227.31
458.818	216.31
459.038	228.31
459.258	212.31
459.478	227.31
459.698	241.31
459.918	222.31
460.138	222.31
460.358	226.31
460.578	248.31
460.798	253.31
461.018	255.31
461.238	220.31
461.458	252.31
461.678	224.31
461.898	251.31
462.118	240.31
462.338	259.31
462.558	261.31
462.777	274.31
462.997	271.31
463.217	282.31
463.437	271.31
463.657	255.31
463.876	254.31
464.096	259.31
464.316	251.31
464.536	252.31
464.755	243.31
464.975	249.31
465.195	248.31
465.414	244.31
465.634	244.31
465.854	248.31
466.073	249.31
466.293	246.31
466.512	247.31
466.732	241.31
466.951	258.31
467.171	260.31
467.391	268.31
467.61	289.31
467.829	417.31
468.049	728.31
468.268	864.31
468.488	505.31
468.707	349.31
468.927	312.31
469.146	276.31
469.365	269.31
469.585	261.31
469.804	249.31
470.023	275.31
470.243	267.31
470.462	259.31
470.681	278.31
470.901	273.31
471.12	284.31
471.339	308.31
471.558	321.31
471.777	388.31
471.997	577.31
472.216	1172.31
472.435	1820.31
472.654	995.31
472.873	588.31
473.092	465.31
473.311	399.31
473.53	351.31
473.749	340.31
473.968	319.31
474.187	295.31
474.406	293.31
474.625	287.31
474.844	274.31
475.063	276.31
475.282	270.31
475.501	260.31
475.72	274.31
475.939	274.31
476.158	272.31
476.377	271.31
476.596	251.31
476.814	252.31
477.033	242.31
477.252	256.31
477.471	272.31
477.69	278.31
477.908	284.31
478.127	277.31
478.346	276.31
478.564	274.31
478.783	275.31
479.002	294.31
479.22	298.31
479.439	309.31
479.658	334.31
479.876	345.31
480.095	361.31
480.313	417.31
480.532	474.31
480.751	624.31
480.969	1297.31
481.188	2840.31
481.406	2318.31
481.624	1096.31
481.843	682.31
482.061	562.31
482.28	507.31
482.498	464.31
482.717	411.31
482.935	375.31
483.153	374.31
483.372	353.31
483.59	369.31
483.808	351.31
484.027	323.31
484.245	313.31
484.463	316.31
484.681	302.31
484.9	310.31
485.118	315.31
485.336	315.31
485.554	295.31
485.772	314.31
485.99	304.31
486.209	306.31
486.427	308.31
486.645	283.31
486.863	318.31
487.081	300.31
487.299	288.31
487.517	314.31
487.735	308.31
487.953	316.31
488.171	304.31
488.389	284.31
488.607	303.31
488.825	302.31
489.043	316.31
489.261	322.31
489.479	304.31
489.696	346.31
489.914	330.31
490.132	346.31
490.35	359.31
490.568	376.31
490.786	383.31
491.003	414.31
491.221	438.31
491.439	486.31
491.657	482.31
491.874	450.31
492.092	492.31
492.31	497.31
492.527	513.31
492.745	552.31
492.963	529.31
493.18	504.31
493.398	477.31
493.615	458.31
493.833	433.31
494.05	431.31
494.268	403.31
494.485	400.31
494.703	391.31
494.92	397.31
495.138	379.31
495.355	360.31
495.573	383.31
495.79	365.31
496.008	358.31
496.225	363.31
496.442	351.31
496.66	350.31
496.877	341.31
497.094	360.31
497.312	343.31
497.529	353.31
497.746	346.31
497.963	359.31
498.181	344.31
498.398	358.31
498.615	372.31
498.832	348.31
499.049	382.31
499.267	376.31
499.484	394.31
499.701	414.31
499.918	418.31
500.135	447.31
500.352	487.31
500.569	504.31
500.786	498.31
501.003	446.31
501.22	450.31
501.437	419.31
501.654	396.31
501.871	398.31
502.088	358.31
502.305	343.31
502.522	336.31
502.739	319.31
502.956	324.31
503.172	329.31
503.389	301.31
