Data from StdC_HRD10591_026.txt Node
Date: Fri May 16 15:28:53 EDT 2025
User: Yrep
Spectrometer: HR+D1059
Trigger mode: 1
Integration Time (sec): 1.000000E-1
Scans to average: 1
Electric dark correction enabled: true
Nonlinearity correction enabled: false
Boxcar width: 0
XAxis mode: Wavelengths
Number of Pixels in Spectrum: 2048
>>>>>Begin Spectral Data<<<<<
223.165	-23
223.4	-23
223.635	-23
223.869	-32
224.104	-11
224.338	-23
224.573	-18
224.808	-11
225.042	-16
225.277	-11
225.511	2
225.746	5
225.98	16
226.215	14
226.449	29
226.683	22
226.918	20
227.152	37
227.387	31
227.621	43
227.856	47
228.09	57
228.324	48
228.559	59
228.793	59
229.027	59
229.262	69
229.496	72
229.73	76
229.964	68
230.199	89
230.433	63
230.667	87
230.901	82
231.136	78
231.37	69
231.604	89
231.838	80
232.072	97
232.306	89
232.541	93
232.775	84
233.009	110
233.243	94
233.477	89
233.711	84
233.945	86
234.179	91
234.413	84
234.647	92
234.881	84
235.115	90
235.349	90
235.583	89
235.817	89
236.051	73
236.285	85
236.519	86
236.753	102
236.987	83
237.221	94
237.455	93
237.689	78
237.922	72
238.156	86
238.39	107
238.624	83
238.858	95
239.091	84
239.325	103
239.559	84
239.793	101
240.027	94
240.26	89
240.494	85
240.728	86
240.961	92
241.195	108
241.429	97
241.662	89
241.896	79
242.13	86
242.363	88
242.597	83
242.83	108
243.064	97
243.298	92
243.531	107
243.765	101
243.998	92
244.232	101
244.465	100
244.699	94
244.932	101
245.166	89
245.399	96
245.633	103
245.866	105
246.099	107
246.333	114
246.566	88
246.8	94
247.033	108
247.266	101
247.5	99
247.733	101
247.966	104
248.2	100
248.433	115
248.666	108
248.899	91
249.133	112
249.366	117
249.599	115
249.832	128
250.066	137
250.299	167
250.532	202
250.765	182
250.998	146
251.231	136
251.465	135
251.698	111
251.931	111
252.164	109
252.397	109
252.63	122
252.863	129
253.096	127
253.329	120
253.562	117
253.795	124
254.028	120
254.261	123
254.494	130
254.727	128
254.96	120
255.193	145
255.426	155
255.659	197
255.892	268
256.124	308
256.357	247
256.59	181
256.823	159
257.056	142
257.289	148
257.521	142
257.754	143
257.987	125
258.22	142
258.452	145
258.685	133
258.918	143
259.151	128
259.383	132
259.616	140
259.849	148
260.081	118
260.314	123
260.547	131
260.779	129
261.012	137
261.244	118
261.477	135
261.71	136
261.942	117
262.175	121
262.407	128
262.64	119
262.872	135
263.105	118
263.337	127
263.57	126
263.802	136
264.035	133
264.267	144
264.499	128
264.732	136
264.964	138
265.197	129
265.429	121
265.661	120
265.894	125
266.126	115
266.358	125
266.591	137
266.823	119
267.055	110
267.287	145
267.52	129
267.752	132
267.984	118
268.216	131
268.448	143
268.681	123
268.913	120
269.145	138
269.377	133
269.609	124
269.841	125
270.073	141
270.306	136
270.538	141
270.77	147
271.002	141
271.234	142
271.466	150
271.698	148
271.93	147
272.162	123
272.394	141
272.626	163
272.858	134
273.09	144
273.322	148
273.553	128
273.785	150
274.017	146
274.249	143
274.481	157
274.713	145
274.945	155
275.176	171
275.408	155
275.64	175
275.872	170
276.104	176
276.335	185
276.567	169
276.799	196
277.031	203
277.262	224
277.494	219
277.726	207
277.957	173
278.189	175
278.421	163
278.652	177
278.884	167
279.115	179
279.347	185
279.579	192
279.81	216
280.042	240
280.273	242
280.505	242
280.736	210
280.968	204
281.199	176
281.431	168
281.662	173
281.894	168
282.125	155
282.356	188
282.588	168
282.819	152
283.051	165
283.282	138
283.513	169
283.745	155
283.976	158
284.207	161
284.439	161
284.67	176
284.901	146
285.132	171
285.364	146
285.595	176
285.826	159
286.057	156
286.288	157
286.52	169
286.751	162
286.982	155
287.213	155
287.444	144
287.675	159
287.906	149
288.138	160
288.369	168
288.6	161
288.831	144
289.062	177
289.293	158
289.524	153
289.755	172
289.986	153
290.217	154
290.448	144
290.679	155
290.91	151
291.141	161
291.371	153
291.602	159
291.833	152
292.064	154
292.295	156
292.526	164
292.757	172
292.987	149
293.218	163
293.449	140
293.68	143
293.91	148
294.141	167
294.372	143
294.603	156
294.833	149
295.064	150
295.295	167
295.525	148
295.756	152
295.987	168
296.217	152
296.448	150
296.679	140
296.909	176
297.14	132
297.37	151
297.601	144
297.831	142
298.062	156
298.292	166
298.523	147
298.753	179
298.984	167
299.214	157
299.445	154
299.675	158
299.905	147
300.136	161
300.366	151
300.597	158
300.827	174
301.057	156
301.288	156
301.518	169
301.748	173
301.979	181
302.209	166
302.439	173
302.669	159
302.9	171
303.13	166
303.36	186
303.59	198
303.82	199
304.051	187
304.281	175
304.511	174
304.741	169
304.971	156
305.201	167
305.431	177
305.661	161
305.891	165
306.121	159
306.352	188
306.582	180
306.812	178
307.042	196
307.272	209
307.502	222
307.731	198
307.961	180
308.191	161
308.421	175
308.651	165
308.881	183
309.111	172
309.341	156
309.571	165
309.8	159
310.03	185
310.26	181
310.49	167
310.72	175
310.949	169
311.179	162
311.409	166
311.639	187
311.868	171
312.098	158
312.328	159
312.557	186
312.787	174
313.017	190
313.246	169
313.476	191
313.706	187
313.935	166
314.165	183
314.394	170
314.624	192
314.853	189
315.083	176
315.312	179
315.542	185
315.771	167
316.001	187
316.23	186
316.46	191
316.689	170
316.919	179
317.148	181
317.377	181
317.607	196
317.836	184
318.065	186
318.295	182
318.524	187
318.753	172
318.983	180
319.212	177
319.441	181
319.67	169
319.9	184
320.129	175
320.358	166
320.587	167
320.816	182
321.046	171
321.275	197
321.504	186
321.733	194
321.962	188
322.191	184
322.42	204
322.649	197
322.878	202
323.108	217
323.337	202
323.566	204
323.795	223
324.024	232
324.253	215
324.482	215
324.71	228
324.939	215
325.168	223
325.397	234
325.626	221
325.855	232
326.084	256
326.313	243
326.542	243
326.77	248
326.999	278
327.228	303
327.457	313
327.686	398
327.914	543
328.143	688
328.372	729
328.6	528
328.829	401
329.058	387
329.287	399
329.515	489
329.744	646
329.972	950
330.201	1261
330.43	1265
330.658	765
330.887	464
331.115	377
331.344	352
331.572	306
331.801	335
332.03	312
332.258	317
332.486	332
332.715	347
332.943	363
333.172	381
333.4	451
333.629	521
333.857	692
334.085	1001
334.314	1448
334.542	1764
334.771	1415
334.999	741
335.227	511
335.455	408
335.684	361
335.912	327
336.14	301
336.369	277
336.597	259
336.825	254
337.053	238
337.281	253
337.51	247
337.738	230
337.966	235
338.194	239
338.422	218
338.65	222
338.878	208
339.106	209
339.334	216
339.562	213
339.79	207
340.018	208
340.246	200
340.474	200
340.702	207
340.93	215
341.158	191
341.386	191
341.614	200
341.842	197
342.07	202
342.298	198
342.526	179
342.754	190
342.981	199
343.209	204
343.437	202
343.665	209
343.893	203
344.12	198
344.348	199
344.576	201
344.804	186
345.031	189
345.259	189
345.487	188
345.714	195
345.942	185
346.17	193
346.397	178
346.625	182
346.853	176
347.08	164
347.308	192
347.535	191
347.763	195
347.99	184
348.218	172
348.445	204
348.673	175
348.9	182
349.128	175
349.355	168
349.583	185
349.81	185
350.037	190
350.265	192
350.492	195
350.72	183
350.947	183
351.174	189
351.402	183
351.629	184
351.856	166
352.083	191
352.311	185
352.538	195
352.765	180
352.992	181
353.22	188
353.447	175
353.674	181
353.901	186
354.128	175
354.355	179
354.583	208
354.81	173
355.037	179
355.264	185
355.491	156
355.718	170
355.945	194
356.172	199
356.399	186
356.626	186
356.853	185
357.08	188
357.307	197
357.534	182
357.761	185
357.988	177
358.215	173
358.441	176
358.668	174
358.895	186
359.122	186
359.349	183
359.576	174
359.802	168
360.029	188
360.256	199
360.483	165
360.709	171
360.936	180
361.163	166
361.39	169
361.616	192
361.843	183
362.07	168
362.296	170
362.523	180
362.749	167
362.976	167
363.203	180
363.429	173
363.656	185
363.882	174
364.109	180
364.335	172
364.562	179
364.788	172
365.015	176
365.241	181
365.468	167
365.694	177
365.92	188
366.147	189
366.373	188
366.599	197
366.826	169
367.052	177
367.278	183
367.505	180
367.731	174
367.957	180
368.184	186
368.41	180
368.636	179
368.862	192
369.089	188
369.315	179
369.541	191
369.767	188
369.993	176
370.219	161
370.445	198
370.672	173
370.898	186
371.124	168
371.35	186
371.576	174
371.802	173
372.028	186
372.254	183
372.48	197
372.706	206
372.932	182
373.158	199
373.384	184
373.61	184
373.835	192
374.061	184
374.287	195
374.513	195
374.739	186
374.965	179
375.191	175
375.416	196
375.642	190
375.868	187
376.094	193
376.319	181
376.545	200
376.771	187
376.997	182
377.222	177
377.448	191
377.674	177
377.899	187
378.125	173
378.35	183
378.576	175
378.802	180
379.027	194
379.253	180
379.478	203
379.704	194
379.929	201
380.155	186
380.38	173
380.606	186
380.831	184
381.057	190
381.282	188
381.507	190
381.733	195
381.958	190
382.184	203
382.409	198
382.634	194
382.86	189
383.085	190
383.31	213
383.535	195
383.761	180
383.986	186
384.211	213
384.436	186
384.662	200
384.887	205
385.112	205
385.337	197
385.562	205
385.787	189
386.013	183
386.238	200
386.463	200
386.688	214
386.913	218
387.138	189
387.363	204
387.588	205
387.813	214
388.038	220
388.263	197
388.488	187
388.713	221
388.938	201
389.163	216
389.387	196
389.612	191
389.837	205
390.062	201
390.287	202
390.512	205
390.736	208
390.961	209
391.186	208
391.411	203
391.636	228
391.86	211
392.085	211
392.31	200
392.534	204
392.759	212
392.984	205
393.208	208
393.433	223
393.658	211
393.882	214
394.107	204
394.331	207
394.556	196
394.78	213
395.005	203
395.229	219
395.454	213
395.678	193
395.903	214
396.127	205
396.352	195
396.576	212
396.801	211
397.025	216
397.249	212
397.474	220
397.698	222
397.922	221
398.147	221
398.371	233
398.595	218
398.82	251
399.044	251
399.268	260
399.492	276
399.717	277
399.941	275
400.165	256
400.389	258
400.613	259
400.837	236
401.062	237
401.286	234
401.51	220
401.734	228
401.958	233
402.182	236
402.406	244
402.63	225
402.854	231
403.078	255
403.302	248
403.526	263
403.75	255
403.974	246
404.198	259
404.422	251
404.645	281
404.869	272
405.093	311
405.317	327
405.541	303
405.765	255
405.988	274
406.212	267
406.436	264
406.66	250
406.883	248
407.107	251
407.331	242
407.555	261
407.778	264
408.002	267
408.226	243
408.449	265
408.673	263
408.896	248
409.12	235
409.344	236
409.567	232
409.791	265
410.014	246
410.238	244
410.461	260
410.685	248
410.908	244
411.132	260
411.355	233
411.578	279
411.802	264
412.025	277
412.249	286
412.472	291
412.695	327
412.919	313
413.142	312
413.365	287
413.589	271
413.812	245
414.035	244
414.258	260
414.482	244
414.705	258
414.928	256
415.151	245
415.374	259
415.597	250
415.821	244
416.044	249
416.267	243
416.49	244
416.713	249
416.936	242
417.159	236
417.382	255
417.605	239
417.828	260
418.051	244
418.274	244
418.497	220
418.72	241
418.943	254
419.166	255
419.389	278
419.611	281
419.834	267
420.057	272
420.28	305
420.503	295
420.726	285
420.948	266
421.171	270
421.394	250
421.617	236
421.839	245
422.062	243
422.285	225
422.507	247
422.73	253
422.953	234
423.175	245
423.398	245
423.621	238
423.843	223
424.066	223
424.288	249
424.511	237
424.733	234
424.956	239
425.178	245
425.401	235
425.623	227
425.846	244
426.068	225
426.291	229
426.513	241
426.735	231
426.958	228
427.18	258
427.402	250
427.625	272
427.847	319
428.069	322
428.292	293
428.514	244
428.736	232
428.958	235
429.181	242
429.403	238
429.625	237
429.847	230
430.069	232
430.292	236
430.514	235
430.736	227
430.958	217
431.18	223
431.402	229
431.624	217
431.846	220
432.068	211
432.29	220
432.512	208
432.734	232
432.956	218
433.178	221
433.4	229
433.622	213
433.844	225
434.066	233
434.287	223
434.509	216
434.731	208
434.953	218
435.175	232
435.397	223
435.618	225
435.84	220
436.062	247
436.284	221
436.505	227
436.727	227
436.949	213
437.17	206
437.392	221
437.614	208
437.835	218
438.057	221
438.278	224
438.5	202
438.721	223
438.943	232
439.165	221
439.386	206
439.608	220
439.829	239
440.05	235
440.272	225
440.493	225
440.715	217
440.936	203
441.158	238
441.379	225
441.6	220
441.822	231
442.043	233
442.264	251
442.486	218
442.707	219
442.928	216
443.149	234
443.371	235
443.592	232
443.813	239
444.034	235
444.255	231
444.476	244
444.698	227
444.919	246
445.14	314
445.361	280
445.582	235
445.803	233
446.024	222
446.245	236
446.466	213
446.687	225
446.908	218
447.129	214
447.35	220
447.571	217
447.792	221
448.013	237
448.234	221
448.455	218
448.675	236
448.896	231
449.117	207
449.338	212
449.559	218
449.779	214
450	206
450.221	209
450.442	218
450.662	217
450.883	192
451.104	207
451.324	202
451.545	207
451.766	207
451.986	215
452.207	204
452.428	204
452.648	225
452.869	195
453.089	195
453.31	209
453.53	201
453.751	206
453.971	203
454.192	203
454.412	199
454.633	205
454.853	189
455.073	220
455.294	198
455.514	209
455.734	206
455.955	209
456.175	192
456.395	201
456.616	207
456.836	197
457.056	205
457.276	200
457.497	200
457.717	208
457.937	209
458.157	214
458.377	199
458.598	203
458.818	204
459.038	206
459.258	231
459.478	211
459.698	213
459.918	241
460.138	213
460.358	229
460.578	256
460.798	238
461.018	227
461.238	233
461.458	238
461.678	227
461.898	233
462.118	243
462.338	249
462.558	256
462.777	261
462.997	265
463.217	280
463.437	272
463.657	252
463.876	271
464.096	257
464.316	246
464.536	264
464.755	256
464.975	239
465.195	243
465.414	231
465.634	229
465.854	246
466.073	235
466.293	224
466.512	229
466.732	251
466.951	238
467.171	264
467.391	267
467.61	276
467.829	374
468.049	662
468.268	752
468.488	487
468.707	341
468.927	288
469.146	289
469.365	257
469.585	252
469.804	256
470.023	245
470.243	254
470.462	249
470.681	268
470.901	256
471.12	269
471.339	287
471.558	306
471.777	384
471.997	505
472.216	1105
472.435	1611
472.654	947
472.873	565
473.092	420
473.311	389
473.53	340
473.749	315
473.968	308
474.187	279
474.406	276
474.625	283
474.844	268
475.063	281
475.282	260
475.501	251
475.72	276
475.939	236
476.158	277
476.377	257
476.596	256
476.814	250
477.033	264
477.252	249
477.471	243
477.69	271
477.908	270
478.127	261
478.346	276
478.564	262
478.783	281
479.002	294
479.22	292
479.439	297
479.658	316
479.876	299
480.095	335
480.313	380
480.532	446
480.751	601
480.969	1191
481.188	2639
481.406	2071
481.624	1021
481.843	663
482.061	542
482.28	467
482.498	420
482.717	379
482.935	357
483.153	365
483.372	355
483.59	326
483.808	307
484.027	313
484.245	310
484.463	311
484.681	305
484.9	293
485.118	280
485.336	289
485.554	302
485.772	295
485.99	279
486.209	281
486.427	291
486.645	285
486.863	292
487.081	283
487.299	278
487.517	299
487.735	291
487.953	304
488.171	302
488.389	291
488.607	294
488.825	309
489.043	286
489.261	295
489.479	315
489.696	325
489.914	313
490.132	332
490.35	336
490.568	328
490.786	384
491.003	411
491.221	440
491.439	454
491.657	472
491.874	455
492.092	489
492.31	465
492.527	531
492.745	536
492.963	512
493.18	479
493.398	453
493.615	430
493.833	424
494.05	403
494.268	399
494.485	389
494.703	386
494.92	372
495.138	379
495.355	360
495.573	372
495.79	361
496.008	369
496.225	352
496.442	345
496.66	357
496.877	335
497.094	347
497.312	333
497.529	330
497.746	333
497.963	347
498.181	344
498.398	352
498.615	324
498.832	375
499.049	363
499.267	385
499.484	405
499.701	388
499.918	408
500.135	456
500.352	479
500.569	508
500.786	498
501.003	455
501.22	437
501.437	410
501.654	367
501.871	362
502.088	350
502.305	347
502.522	340
502.739	327
502.956	331
503.172	319
503.389	313
503.606	285
503.823	288
504.04	307
504.256	309
504.473	303
504.69	285
504.907	283
505.123	289
505.34	272
505.557	278
505.773	265
505.99	281
506.207	268
506.423	247
506.64	260
506.856	247
507.073	261
507.289	256
507.506	267
507.722	250
507.939	258
508.155	268
508.372	241
508.588	267
508.805	241
509.021	243
509.238	254
509.454	250
509.67	248
509.887	252
510.103	242
510.319	239
510.536	261
510.752	253
510.968	235
511.184	265
511.401	253
511.617	271
511.833	323
512.049	319
512.265	305
512.481	275
512.698	254
512.914	259
513.13	243
513.346	231
513.562	257
513.778	248
513.994	248
514.21	257
514.426	244
514.642	232
514.858	252
515.074	243
515.29	229
515.506	240
515.721	254
515.937	247
516.153	240
516.369	245
516.585	223
516.801	260
517.016	251
517.232	257
517.448	268
517.664	255
517.879	258
518.095	268
518.311	277
518.527	256
518.742	260
518.958	247
519.173	248
519.389	241
519.605	249
519.82	242
520.036	236
520.251	232
520.467	219
520.682	224
520.898	241
521.113	227
521.329	239
521.544	240
521.76	238
521.975	241
522.19	225
522.406	212
522.621	232
522.836	239
523.052	221
523.267	211
523.482	231
523.698	234
523.913	229
524.128	238
524.343	218
524.559	219
524.774	215
524.989	221
525.204	234
525.419	217
525.634	211
525.849	225
526.064	224
526.28	219
526.495	221
526.71	194
526.925	220
527.14	200
527.355	211
527.57	217
527.785	224
527.999	222
528.214	201
528.429	229
528.644	223
528.859	213
529.074	212
529.289	231
529.503	221
529.718	214
529.933	210
530.148	224
530.363	213
530.577	217
530.792	214
531.007	190
531.221	227
531.436	210
531.651	203
531.865	213
532.08	206
532.295	211
532.509	208
532.724	203
532.938	220
533.153	207
533.367	214
533.582	216
533.796	213
534.011	216
534.225	203
534.44	203
534.654	215
534.868	206
535.083	224
535.297	230
535.511	214
535.726	220
535.94	212
536.154	201
536.369	207
536.583	213
536.797	196
537.011	197
537.225	190
537.44	177
537.654	218
537.868	205
538.082	203
538.296	224
538.51	217
538.724	203
538.938	210
539.153	214
539.367	212
539.581	204
539.795	198
540.009	202
540.222	206
540.436	213
540.65	212
540.864	214
541.078	211
541.292	213
541.506	216
541.72	219
541.934	206
542.147	217
542.361	209
542.575	215
542.789	219
543.002	211
543.216	207
543.43	211
543.644	221
543.857	206
544.071	217
544.285	221
544.498	220
544.712	203
544.925	200
545.139	223
545.352	221
545.566	201
545.779	215
545.993	213
546.206	213
546.42	190
546.633	212
546.847	210
547.06	211
547.274	222
547.487	213
547.7	206
547.914	205
548.127	208
548.34	211
548.554	215
548.767	214
548.98	223
549.193	229
549.407	217
549.62	209
549.833	223
550.046	230
550.259	219
550.473	201
550.686	205
550.899	231
551.112	221
551.325	206
551.538	199
551.751	202
551.964	207
552.177	212
552.39	224
552.603	213
552.816	215
553.029	209
553.242	211
553.455	223
553.667	228
553.88	214
554.093	212
554.306	215
554.519	234
554.732	229
554.944	227
555.157	214
555.37	219
555.583	211
555.795	214
556.008	219
556.221	207
556.433	204
556.646	205
556.859	206
557.071	195
557.284	187
557.496	216
557.709	211
557.921	197
558.134	199
558.346	209
558.559	201
558.771	180
558.984	198
559.196	187
559.409	197
559.621	202
559.833	192
560.046	197
560.258	197
560.47	204
560.683	205
560.895	195
561.107	197
561.32	186
561.532	197
561.744	189
561.956	186
562.168	201
562.381	207
562.593	203
562.805	185
563.017	184
563.229	195
563.441	198
563.653	199
563.865	190
564.077	196
564.289	206
564.501	185
564.713	175
564.925	189
565.137	173
565.349	199
