Data from StdC_HRD10591_104.txt Node
Date: Fri May 16 15:30:28 EDT 2025
User: Yrep
Spectrometer: HR+D1059
Trigger mode: 1
Integration Time (sec): 1.000000E-1
Scans to average: 1
Electric dark correction enabled: true
Nonlinearity correction enabled: false
Boxcar width: 0
XAxis mode: Wavelengths
Number of Pixels in Spectrum: 2048
>>>>>Begin Spectral Data<<<<<
223.165	-19.12
223.4	-19.12
223.635	-19.12
223.869	-29.12
224.104	-28.12
224.338	-6.12
224.573	-18.12
224.808	-17.12
225.042	-9.12
225.277	-8.12
225.511	1.88
225.746	7.88
225.98	7.88
226.215	0.88
226.449	14.88
226.683	38.88
226.918	18.88
227.152	43.88
227.387	38.88
227.621	24.88
227.856	48.88
228.09	48.88
228.324	45.88
228.559	47.88
228.793	60.88
229.027	68.88
229.262	70.88
229.496	70.88
229.73	75.88
229.964	78.88
230.199	84.88
230.433	78.88
230.667	83.88
230.901	70.88
231.136	76.88
231.37	78.88
231.604	66.88
231.838	72.88
232.072	74.88
232.306	77.88
232.541	92.88
232.775	71.88
233.009	84.88
233.243	84.88
233.477	99.88
233.711	86.88
233.945	77.88
234.179	95.88
234.413	84.88
234.647	75.88
234.881	76.88
235.115	94.88
235.349	85.88
235.583	63.88
235.817	104.88
236.051	88.88
236.285	76.88
236.519	80.88
236.753	73.88
236.987	79.88
237.221	73.88
237.455	81.88
237.689	72.88
237.922	67.88
238.156	78.88
238.39	58.88
238.624	71.88
238.858	64.88
239.091	65.88
239.325	61.88
239.559	63.88
239.793	75.88
240.027	79.88
240.26	93.88
240.494	84.88
240.728	66.88
240.961	79.88
241.195	77.88
241.429	88.88
241.662	74.88
241.896	72.88
242.13	78.88
242.363	80.88
242.597	86.88
242.83	64.88
243.064	85.88
243.298	85.88
243.531	78.88
243.765	78.88
243.998	79.88
244.232	95.88
244.465	81.88
244.699	67.88
244.932	79.88
245.166	86.88
245.399	83.88
245.633	76.88
245.866	86.88
246.099	80.88
246.333	79.88
246.566	84.88
246.8	63.88
247.033	69.88
247.266	63.88
247.5	76.88
247.733	72.88
247.966	85.88
248.2	78.88
248.433	76.88
248.666	83.88
248.899	92.88
249.133	94.88
249.366	89.88
249.599	94.88
249.832	79.88
250.066	98.88
250.299	87.88
250.532	86.88
250.765	71.88
250.998	86.88
251.231	70.88
251.465	89.88
251.698	75.88
251.931	71.88
252.164	72.88
252.397	86.88
252.63	91.88
252.863	69.88
253.096	99.88
253.329	79.88
253.562	78.88
253.795	99.88
254.028	97.88
254.261	86.88
254.494	72.88
254.727	83.88
254.96	91.88
255.193	98.88
255.426	80.88
255.659	79.88
255.892	81.88
256.124	84.88
256.357	89.88
256.59	95.88
256.823	74.88
257.056	84.88
257.289	88.88
257.521	78.88
257.754	90.88
257.987	73.88
258.22	88.88
258.452	95.88
258.685	100.88
258.918	102.88
259.151	65.88
259.383	90.88
259.616	99.88
259.849	92.88
260.081	78.88
260.314	74.88
260.547	108.88
260.779	79.88
261.012	91.88
261.244	82.88
261.477	86.88
261.71	84.88
261.942	81.88
262.175	92.88
262.407	82.88
262.64	93.88
262.872	90.88
263.105	79.88
263.337	74.88
263.57	88.88
263.802	81.88
264.035	90.88
264.267	92.88
264.499	84.88
264.732	98.88
264.964	86.88
265.197	84.88
265.429	99.88
265.661	96.88
265.894	95.88
266.126	97.88
266.358	98.88
266.591	86.88
266.823	91.88
267.055	94.88
267.287	98.88
267.52	94.88
267.752	87.88
267.984	100.88
268.216	97.88
268.448	100.88
268.681	108.88
268.913	86.88
269.145	98.88
269.377	94.88
269.609	83.88
269.841	92.88
270.073	89.88
270.306	93.88
270.538	94.88
270.77	89.88
271.002	96.88
271.234	102.88
271.466	107.88
271.698	88.88
271.93	87.88
272.162	98.88
272.394	94.88
272.626	103.88
272.858	87.88
273.09	105.88
273.322	106.88
273.553	103.88
273.785	91.88
274.017	82.88
274.249	87.88
274.481	97.88
274.713	98.88
274.945	103.88
275.176	89.88
275.408	90.88
275.64	103.88
275.872	74.88
276.104	100.88
276.335	105.88
276.567	102.88
276.799	93.88
277.031	102.88
277.262	105.88
277.494	104.88
277.726	108.88
277.957	88.88
278.189	86.88
278.421	96.88
278.652	89.88
278.884	100.88
279.115	109.88
279.347	118.88
279.579	103.88
279.81	83.88
280.042	102.88
280.273	114.88
280.505	111.88
280.736	100.88
280.968	92.88
281.199	99.88
281.431	107.88
281.662	98.88
281.894	103.88
282.125	80.88
282.356	80.88
282.588	100.88
282.819	109.88
283.051	98.88
283.282	110.88
283.513	105.88
283.745	98.88
283.976	100.88
284.207	99.88
284.439	108.88
284.67	102.88
284.901	101.88
285.132	99.88
285.364	82.88
285.595	92.88
285.826	99.88
286.057	103.88
286.288	112.88
286.52	108.88
286.751	101.88
286.982	101.88
287.213	96.88
287.444	104.88
287.675	101.88
287.906	104.88
288.138	107.88
288.369	109.88
288.6	106.88
288.831	107.88
289.062	94.88
289.293	102.88
289.524	113.88
289.755	93.88
289.986	95.88
290.217	109.88
290.448	123.88
290.679	99.88
290.91	108.88
291.141	89.88
291.371	108.88
291.602	111.88
291.833	110.88
292.064	109.88
292.295	90.88
292.526	86.88
292.757	112.88
292.987	119.88
293.218	93.88
293.449	107.88
293.68	106.88
293.91	105.88
294.141	95.88
294.372	104.88
294.603	113.88
294.833	98.88
295.064	88.88
295.295	100.88
295.525	106.88
295.756	92.88
295.987	93.88
296.217	96.88
296.448	103.88
296.679	103.88
296.909	103.88
297.14	122.88
297.37	106.88
297.601	108.88
297.831	106.88
298.062	94.88
298.292	102.88
298.523	104.88
298.753	106.88
298.984	102.88
299.214	107.88
299.445	110.88
299.675	100.88
299.905	106.88
300.136	91.88
300.366	107.88
300.597	108.88
300.827	95.88
301.057	113.88
301.288	110.88
301.518	100.88
301.748	98.88
301.979	124.88
302.209	114.88
302.439	102.88
302.669	109.88
302.9	109.88
303.13	101.88
303.36	108.88
303.59	102.88
303.82	99.88
304.051	99.88
304.281	104.88
304.511	92.88
304.741	123.88
304.971	98.88
305.201	110.88
305.431	103.88
305.661	119.88
305.891	101.88
306.121	112.88
306.352	116.88
306.582	106.88
306.812	107.88
307.042	107.88
307.272	120.88
307.502	120.88
307.731	114.88
307.961	99.88
308.191	107.88
308.421	112.88
308.651	104.88
308.881	107.88
309.111	114.88
309.341	99.88
309.571	111.88
309.8	131.88
310.03	111.88
310.26	126.88
310.49	106.88
310.72	120.88
310.949	120.88
311.179	115.88
311.409	96.88
311.639	100.88
311.868	105.88
312.098	105.88
312.328	115.88
312.557	110.88
312.787	106.88
313.017	113.88
313.246	115.88
313.476	95.88
313.706	98.88
313.935	114.88
314.165	130.88
314.394	116.88
314.624	100.88
314.853	118.88
315.083	115.88
315.312	104.88
315.542	104.88
315.771	109.88
316.001	100.88
316.23	123.88
316.46	122.88
316.689	116.88
316.919	116.88
317.148	110.88
317.377	119.88
317.607	111.88
317.836	100.88
318.065	110.88
318.295	124.88
318.524	109.88
318.753	118.88
318.983	128.88
319.212	115.88
319.441	120.88
319.67	110.88
319.9	117.88
320.129	109.88
320.358	108.88
320.587	110.88
320.816	107.88
321.046	113.88
321.275	106.88
321.504	109.88
321.733	118.88
321.962	123.88
322.191	111.88
322.42	121.88
322.649	119.88
322.878	118.88
323.108	131.88
323.337	121.88
323.566	122.88
323.795	112.88
324.024	111.88
324.253	88.88
324.482	107.88
324.71	110.88
324.939	122.88
325.168	115.88
325.397	114.88
325.626	114.88
325.855	106.88
326.084	122.88
326.313	107.88
326.542	99.88
326.77	124.88
326.999	114.88
327.228	107.88
327.457	114.88
327.686	113.88
327.914	114.88
328.143	120.88
328.372	112.88
328.6	116.88
328.829	116.88
329.058	132.88
329.287	114.88
329.515	105.88
329.744	114.88
329.972	106.88
330.201	98.88
330.43	116.88
330.658	117.88
330.887	120.88
331.115	139.88
331.344	124.88
331.572	119.88
331.801	116.88
332.03	119.88
332.258	112.88
332.486	139.88
332.715	129.88
332.943	136.88
333.172	122.88
333.4	126.88
333.629	108.88
333.857	121.88
334.085	148.88
334.314	124.88
334.542	118.88
334.771	142.88
334.999	121.88
335.227	120.88
335.455	137.88
335.684	131.88
335.912	132.88
336.14	133.88
336.369	125.88
336.597	131.88
336.825	134.88
337.053	122.88
337.281	120.88
337.51	133.88
337.738	122.88
337.966	124.88
338.194	135.88
338.422	110.88
338.65	120.88
338.878	119.88
339.106	115.88
339.334	137.88
339.562	124.88
339.79	122.88
340.018	109.88
340.246	122.88
340.474	117.88
340.702	121.88
340.93	114.88
341.158	122.88
341.386	125.88
341.614	110.88
341.842	112.88
342.07	122.88
342.298	118.88
342.526	125.88
342.754	139.88
342.981	134.88
343.209	124.88
343.437	141.88
343.665	137.88
343.893	128.88
344.12	117.88
344.348	123.88
344.576	114.88
344.804	128.88
345.031	122.88
345.259	116.88
345.487	119.88
345.714	108.88
345.942	117.88
346.17	123.88
346.397	115.88
346.625	118.88
346.853	123.88
347.08	129.88
347.308	106.88
347.535	113.88
347.763	132.88
347.99	130.88
348.218	133.88
348.445	138.88
348.673	124.88
348.9	118.88
349.128	118.88
349.355	127.88
349.583	138.88
349.81	122.88
350.037	108.88
350.265	124.88
350.492	119.88
350.72	109.88
350.947	125.88
351.174	122.88
351.402	118.88
351.629	122.88
351.856	114.88
352.083	126.88
352.311	116.88
352.538	114.88
352.765	124.88
352.992	126.88
353.22	117.88
353.447	121.88
353.674	126.88
353.901	116.88
354.128	120.88
354.355	114.88
354.583	111.88
354.81	124.88
355.037	124.88
355.264	120.88
355.491	116.88
355.718	118.88
355.945	135.88
356.172	123.88
356.399	123.88
356.626	123.88
356.853	109.88
357.08	114.88
357.307	128.88
357.534	120.88
357.761	122.88
357.988	119.88
358.215	122.88
358.441	118.88
358.668	136.88
358.895	132.88
359.122	118.88
359.349	131.88
359.576	119.88
359.802	118.88
360.029	123.88
360.256	132.88
360.483	107.88
360.709	120.88
360.936	122.88
361.163	124.88
361.39	111.88
361.616	124.88
361.843	132.88
362.07	125.88
362.296	129.88
362.523	118.88
362.749	112.88
362.976	118.88
363.203	130.88
363.429	132.88
363.656	117.88
363.882	111.88
364.109	120.88
364.335	116.88
364.562	112.88
364.788	126.88
365.015	138.88
365.241	122.88
365.468	126.88
365.694	125.88
365.92	123.88
366.147	109.88
366.373	133.88
366.599	114.88
366.826	120.88
367.052	118.88
367.278	127.88
367.505	125.88
367.731	123.88
367.957	128.88
368.184	124.88
368.41	126.88
368.636	109.88
368.862	117.88
369.089	118.88
369.315	116.88
369.541	125.88
369.767	119.88
369.993	120.88
370.219	131.88
370.445	120.88
370.672	126.88
370.898	135.88
371.124	135.88
371.35	125.88
371.576	125.88
371.802	118.88
372.028	137.88
372.254	130.88
372.48	122.88
372.706	124.88
372.932	122.88
373.158	124.88
373.384	133.88
373.61	129.88
373.835	135.88
374.061	121.88
374.287	126.88
374.513	139.88
374.739	148.88
374.965	127.88
375.191	133.88
375.416	128.88
375.642	128.88
375.868	150.88
376.094	120.88
376.319	127.88
376.545	132.88
376.771	133.88
376.997	130.88
377.222	136.88
377.448	115.88
377.674	133.88
377.899	126.88
378.125	122.88
378.35	123.88
378.576	131.88
378.802	133.88
379.027	138.88
379.253	126.88
379.478	123.88
379.704	135.88
379.929	128.88
380.155	114.88
380.38	144.88
380.606	138.88
380.831	135.88
381.057	137.88
381.282	133.88
381.507	130.88
381.733	134.88
381.958	127.88
382.184	127.88
382.409	146.88
382.634	130.88
382.86	133.88
383.085	148.88
383.31	136.88
383.535	138.88
383.761	139.88
383.986	141.88
384.211	127.88
384.436	148.88
384.662	140.88
384.887	148.88
385.112	147.88
385.337	151.88
385.562	154.88
385.787	152.88
386.013	143.88
386.238	139.88
386.463	143.88
386.688	147.88
386.913	157.88
387.138	162.88
387.363	140.88
387.588	156.88
387.813	151.88
388.038	161.88
388.263	134.88
388.488	138.88
388.713	126.88
388.938	149.88
389.163	135.88
389.387	137.88
389.612	135.88
389.837	156.88
390.062	147.88
390.287	133.88
390.512	146.88
390.736	127.88
390.961	141.88
391.186	146.88
391.411	137.88
391.636	138.88
391.86	146.88
392.085	139.88
392.31	134.88
392.534	134.88
392.759	148.88
392.984	143.88
393.208	137.88
393.433	125.88
393.658	138.88
393.882	159.88
394.107	149.88
394.331	140.88
394.556	136.88
394.78	142.88
395.005	139.88
395.229	153.88
395.454	149.88
395.678	153.88
395.903	143.88
396.127	151.88
396.352	126.88
396.576	144.88
396.801	145.88
397.025	153.88
397.249	150.88
397.474	157.88
397.698	135.88
397.922	148.88
398.147	143.88
398.371	143.88
398.595	147.88
398.82	135.88
399.044	152.88
399.268	164.88
399.492	165.88
399.717	178.88
399.941	174.88
400.165	175.88
400.389	155.88
400.613	154.88
400.837	162.88
401.062	155.88
401.286	163.88
401.51	146.88
401.734	164.88
401.958	156.88
402.182	157.88
402.406	151.88
402.63	157.88
402.854	141.88
403.078	163.88
403.302	145.88
403.526	152.88
403.75	157.88
403.974	157.88
404.198	154.88
404.422	165.88
404.645	162.88
404.869	152.88
405.093	168.88
405.317	164.88
405.541	164.88
405.765	154.88
405.988	147.88
406.212	151.88
406.436	178.88
406.66	170.88
406.883	152.88
407.107	172.88
407.331	193.88
407.555	173.88
407.778	172.88
408.002	178.88
408.226	169.88
408.449	173.88
408.673	160.88
408.896	168.88
409.12	154.88
409.344	174.88
409.567	180.88
409.791	151.88
410.014	160.88
410.238	162.88
410.461	149.88
410.685	143.88
410.908	157.88
411.132	167.88
411.355	150.88
411.578	146.88
411.802	150.88
412.025	162.88
412.249	170.88
412.472	157.88
412.695	158.88
412.919	155.88
413.142	154.88
413.365	154.88
413.589	160.88
413.812	175.88
414.035	143.88
414.258	150.88
414.482	150.88
414.705	164.88
414.928	156.88
415.151	179.88
415.374	166.88
415.597	159.88
415.821	146.88
416.044	162.88
416.267	176.88
416.49	149.88
416.713	150.88
416.936	164.88
417.159	165.88
417.382	151.88
417.605	153.88
417.828	156.88
418.051	149.88
418.274	142.88
418.497	157.88
418.72	162.88
418.943	147.88
419.166	157.88
419.389	164.88
419.611	168.88
419.834	156.88
420.057	163.88
420.28	158.88
420.503	150.88
420.726	158.88
420.948	155.88
421.171	162.88
421.394	162.88
421.617	169.88
421.839	146.88
422.062	164.88
422.285	146.88
422.507	157.88
422.73	146.88
422.953	168.88
423.175	157.88
423.398	147.88
423.621	154.88
423.843	150.88
424.066	162.88
424.288	149.88
424.511	151.88
424.733	142.88
424.956	149.88
425.178	145.88
425.401	170.88
425.623	166.88
425.846	170.88
426.068	142.88
426.291	150.88
426.513	162.88
426.735	158.88
426.958	160.88
427.18	152.88
427.402	144.88
427.625	129.88
427.847	145.88
428.069	152.88
428.292	155.88
428.514	147.88
428.736	159.88
428.958	166.88
429.181	156.88
429.403	149.88
429.625	152.88
429.847	136.88
430.069	148.88
430.292	138.88
430.514	151.88
430.736	140.88
430.958	139.88
431.18	148.88
431.402	143.88
431.624	146.88
431.846	152.88
432.068	155.88
432.29	145.88
432.512	155.88
432.734	146.88
432.956	126.88
433.178	162.88
433.4	163.88
433.622	164.88
433.844	136.88
434.066	151.88
434.287	162.88
434.509	162.88
434.731	160.88
434.953	152.88
435.175	148.88
435.397	154.88
435.618	144.88
435.84	134.88
436.062	132.88
436.284	157.88
436.505	147.88
436.727	150.88
436.949	158.88
437.17	156.88
437.392	155.88
437.614	146.88
437.835	155.88
438.057	135.88
438.278	140.88
438.5	147.88
438.721	151.88
438.943	151.88
439.165	155.88
439.386	132.88
439.608	142.88
439.829	143.88
440.05	140.88
440.272	144.88
440.493	147.88
440.715	172.88
440.936	144.88
441.158	158.88
441.379	141.88
441.6	141.88
441.822	157.88
442.043	155.88
442.264	154.88
442.486	128.88
442.707	158.88
442.928	152.88
443.149	156.88
443.371	138.88
443.592	164.88
443.813	151.88
444.034	134.88
444.255	154.88
444.476	156.88
444.698	151.88
444.919	153.88
445.14	250.88
445.361	198.88
445.582	154.88
445.803	153.88
446.024	140.88
446.245	144.88
446.466	151.88
446.687	149.88
446.908	153.88
447.129	159.88
447.35	132.88
447.571	147.88
447.792	151.88
448.013	138.88
448.234	135.88
448.455	135.88
448.675	139.88
448.896	140.88
449.117	138.88
449.338	148.88
449.559	138.88
449.779	133.88
450	119.88
450.221	142.88
450.442	143.88
450.662	151.88
450.883	152.88
451.104	146.88
451.324	151.88
451.545	126.88
451.766	152.88
451.986	147.88
452.207	137.88
452.428	138.88
452.648	141.88
452.869	128.88
453.089	139.88
453.31	151.88
453.53	138.88
453.751	135.88
453.971	141.88
454.192	132.88
454.412	133.88
454.633	127.88
454.853	143.88
455.073	142.88
455.294	139.88
455.514	137.88
455.734	139.88
455.955	146.88
456.175	123.88
456.395	141.88
456.616	146.88
456.836	139.88
457.056	129.88
457.276	123.88
457.497	126.88
457.717	149.88
457.937	142.88
458.157	133.88
458.377	129.88
458.598	140.88
458.818	139.88
459.038	139.88
459.258	144.88
459.478	134.88
459.698	155.88
459.918	146.88
460.138	155.88
460.358	158.88
460.578	154.88
460.798	157.88
461.018	166.88
461.238	170.88
461.458	153.88
461.678	164.88
461.898	164.88
462.118	154.88
462.338	159.88
462.558	169.88
462.777	164.88
462.997	174.88
463.217	174.88
463.437	156.88
463.657	154.88
463.876	156.88
464.096	184.88
464.316	159.88
464.536	159.88
464.755	149.88
464.975	155.88
465.195	164.88
465.414	151.88
465.634	138.88
465.854	148.88
466.073	141.88
466.293	147.88
466.512	145.88
466.732	132.88
466.951	150.88
467.171	134.88
467.391	147.88
467.61	135.88
467.829	151.88
468.049	148.88
468.268	150.88
468.488	149.88
468.707	150.88
468.927	144.88
469.146	159.88
469.365	146.88
469.585	147.88
469.804	139.88
470.023	158.88
470.243	140.88
470.462	158.88
470.681	136.88
470.901	157.88
471.12	141.88
471.339	155.88
471.558	150.88
471.777	162.88
471.997	159.88
472.216	138.88
472.435	140.88
472.654	133.88
472.873	129.88
473.092	159.88
473.311	150.88
473.53	156.88
473.749	134.88
473.968	143.88
474.187	152.88
474.406	148.88
474.625	149.88
474.844	153.88
475.063	159.88
475.282	143.88
475.501	131.88
475.72	151.88
475.939	144.88
476.158	153.88
476.377	142.88
476.596	136.88
476.814	156.88
477.033	151.88
477.252	138.88
477.471	155.88
477.69	146.88
477.908	146.88
478.127	162.88
478.346	158.88
478.564	163.88
478.783	167.88
479.002	167.88
479.22	145.88
479.439	151.88
479.658	153.88
479.876	144.88
480.095	147.88
480.313	156.88
480.532	169.88
480.751	152.88
480.969	166.88
481.188	184.88
481.406	171.88
481.624	138.88
481.843	144.88
482.061	151.88
482.28	168.88
482.498	146.88
482.717	158.88
482.935	152.88
483.153	140.88
483.372	157.88
483.59	155.88
483.808	178.88
484.027	163.88
484.245	172.88
484.463	175.88
484.681	164.88
484.9	164.88
485.118	164.88
485.336	163.88
485.554	175.88
485.772	165.88
485.99	174.88
486.209	162.88
486.427	162.88
486.645	167.88
486.863	166.88
487.081	163.88
487.299	171.88
487.517	165.88
487.735	164.88
487.953	161.88
488.171	180.88
488.389	174.88
488.607	173.88
488.825	155.88
489.043	160.88
489.261	166.88
489.479	175.88
489.696	142.88
489.914	168.88
490.132	168.88
490.35	167.88
490.568	182.88
490.786	172.88
491.003	184.88
491.221	169.88
491.439	173.88
491.657	181.88
491.874	179.88
492.092	183.88
492.31	159.88
492.527	168.88
492.745	176.88
492.963	162.88
493.18	172.88
493.398	168.88
493.615	178.88
493.833	180.88
494.05	171.88
494.268	180.88
494.485	174.88
494.703	184.88
494.92	184.88
495.138	200.88
495.355	175.88
495.573	171.88
495.79	171.88
496.008	181.88
496.225	182.88
496.442	186.88
496.66	186.88
496.877	187.88
497.094	165.88
497.312	182.88
497.529	202.88
497.746	179.88
497.963	184.88
498.181	198.88
498.398	198.88
498.615	192.88
498.832	214.88
499.049	214.88
499.267	214.88
499.484	223.88
499.701	237.88
499.918	250.88
500.135	266.88
500.352	287.88
500.569	261.88
500.786	262.88
501.003	270.88
501.22	254.88
501.437	235.88
501.654	249.88
501.871	212.88
502.088	220.88
502.305	216.88
502.522	193.88
502.739	204.88
502.956	175.88
503.172	198.88
503.389	180.88
503.606	182.88
503.823	167.88
504.04	184.88
504.256	177.88
504.473	192.88
504.69	185.88
504.907	188.88
505.123	177.88
505.34	170.88
505.557	178.88
505.773	170.88
505.99	154.88
