Data from StdC_HRD10591_061.txt Node
Date: Fri May 16 15:29:11 EDT 2025
User: Yrep
Spectrometer: HR+D1059
Trigger mode: 1
Integration Time (sec): 1.000000E-1
Scans to average: 1
Electric dark correction enabled: true
Nonlinearity correction enabled: false
Boxcar width: 0
XAxis mode: Wavelengths
Number of Pixels in Spectrum: 2048
>>>>>Begin Spectral Data<<<<<
223.165	-29.19
223.4	-29.19
223.635	-29.19
223.869	-21.19
224.104	-17.19
224.338	-26.19
224.573	-4.19
224.808	-10.19
225.042	-14.19
225.277	-9.19
225.511	-2.19
225.746	11.81
225.98	4.81
226.215	17.81
226.449	21.81
226.683	16.81
226.918	32.81
227.152	27.81
227.387	21.81
227.621	40.81
227.856	44.81
228.09	37.81
228.324	52.81
228.559	65.81
228.793	50.81
229.027	68.81
229.262	62.81
229.496	70.81
229.73	74.81
229.964	90.81
230.199	84.81
230.433	76.81
230.667	96.81
230.901	90.81
231.136	98.81
231.37	91.81
231.604	95.81
231.838	74.81
232.072	85.81
232.306	88.81
232.541	87.81
232.775	84.81
233.009	94.81
233.243	78.81
233.477	82.81
233.711	88.81
233.945	81.81
234.179	91.81
234.413	86.81
234.647	88.81
234.881	86.81
235.115	83.81
235.349	78.81
235.583	85.81
235.817	92.81
236.051	102.81
236.285	88.81
236.519	92.81
236.753	99.81
236.987	79.81
237.221	84.81
237.455	91.81
237.689	105.81
237.922	82.81
238.156	90.81
238.39	94.81
238.624	89.81
238.858	87.81
239.091	86.81
239.325	93.81
239.559	93.81
239.793	97.81
240.027	94.81
240.26	91.81
240.494	84.81
240.728	90.81
240.961	97.81
241.195	94.81
241.429	90.81
241.662	84.81
241.896	84.81
242.13	105.81
242.363	90.81
242.597	99.81
242.83	84.81
243.064	108.81
243.298	109.81
243.531	95.81
243.765	102.81
243.998	102.81
244.232	101.81
244.465	93.81
244.699	102.81
244.932	97.81
245.166	90.81
245.399	105.81
245.633	97.81
245.866	86.81
246.099	94.81
246.333	107.81
246.566	102.81
246.8	91.81
247.033	91.81
247.266	112.81
247.5	100.81
247.733	100.81
247.966	101.81
248.2	109.81
248.433	104.81
248.666	115.81
248.899	114.81
249.133	114.81
249.366	109.81
249.599	126.81
249.832	141.81
250.066	140.81
250.299	158.81
250.532	190.81
250.765	159.81
250.998	150.81
251.231	124.81
251.465	129.81
251.698	118.81
251.931	108.81
252.164	125.81
252.397	123.81
252.63	108.81
252.863	116.81
253.096	122.81
253.329	139.81
253.562	126.81
253.795	139.81
254.028	126.81
254.261	130.81
254.494	127.81
254.727	132.81
254.96	116.81
255.193	141.81
255.426	154.81
255.659	181.81
255.892	258.81
256.124	307.81
256.357	248.81
256.59	206.81
256.823	176.81
257.056	176.81
257.289	153.81
257.521	148.81
257.754	140.81
257.987	138.81
258.22	130.81
258.452	143.81
258.685	142.81
258.918	143.81
259.151	130.81
259.383	130.81
259.616	131.81
259.849	132.81
260.081	137.81
260.314	135.81
260.547	120.81
260.779	141.81
261.012	134.81
261.244	131.81
261.477	134.81
261.71	124.81
261.942	155.81
262.175	129.81
262.407	113.81
262.64	123.81
262.872	123.81
263.105	125.81
263.337	134.81
263.57	123.81
263.802	114.81
264.035	126.81
264.267	112.81
264.499	129.81
264.732	121.81
264.964	137.81
265.197	142.81
265.429	135.81
265.661	122.81
265.894	130.81
266.126	123.81
266.358	139.81
266.591	121.81
266.823	115.81
267.055	134.81
267.287	139.81
267.52	112.81
267.752	130.81
267.984	133.81
268.216	136.81
268.448	131.81
268.681	136.81
268.913	131.81
269.145	125.81
269.377	140.81
269.609	134.81
269.841	156.81
270.073	139.81
270.306	146.81
270.538	151.81
270.77	142.81
271.002	134.81
271.234	144.81
271.466	150.81
271.698	126.81
271.93	137.81
272.162	141.81
272.394	133.81
272.626	145.81
272.858	148.81
273.09	129.81
273.322	134.81
273.553	141.81
273.785	147.81
274.017	161.81
274.249	156.81
274.481	169.81
274.713	152.81
274.945	155.81
275.176	156.81
275.408	187.81
275.64	170.81
275.872	171.81
276.104	176.81
276.335	155.81
276.567	177.81
276.799	184.81
277.031	199.81
277.262	223.81
277.494	210.81
277.726	187.81
277.957	200.81
278.189	186.81
278.421	185.81
278.652	173.81
278.884	182.81
279.115	178.81
279.347	189.81
279.579	207.81
279.81	223.81
280.042	235.81
280.273	276.81
280.505	242.81
280.736	206.81
280.968	184.81
281.199	184.81
281.431	192.81
281.662	174.81
281.894	171.81
282.125	175.81
282.356	152.81
282.588	159.81
282.819	150.81
283.051	143.81
283.282	159.81
283.513	180.81
283.745	164.81
283.976	164.81
284.207	153.81
284.439	165.81
284.67	153.81
284.901	168.81
285.132	159.81
285.364	155.81
285.595	154.81
285.826	168.81
286.057	161.81
286.288	146.81
286.52	148.81
286.751	161.81
286.982	166.81
287.213	156.81
287.444	153.81
287.675	132.81
287.906	148.81
288.138	153.81
288.369	159.81
288.6	158.81
288.831	162.81
289.062	160.81
289.293	155.81
289.524	171.81
289.755	162.81
289.986	161.81
290.217	146.81
290.448	140.81
290.679	167.81
290.91	154.81
291.141	153.81
291.371	154.81
291.602	157.81
291.833	153.81
292.064	146.81
292.295	181.81
292.526	168.81
292.757	148.81
292.987	155.81
293.218	145.81
293.449	152.81
293.68	155.81
293.91	159.81
294.141	165.81
294.372	162.81
294.603	160.81
294.833	172.81
295.064	156.81
295.295	146.81
295.525	139.81
295.756	147.81
295.987	166.81
296.217	155.81
296.448	173.81
296.679	155.81
296.909	139.81
297.14	158.81
297.37	149.81
297.601	134.81
297.831	164.81
298.062	166.81
298.292	165.81
298.523	149.81
298.753	155.81
298.984	145.81
299.214	166.81
299.445	161.81
299.675	151.81
299.905	178.81
300.136	155.81
300.366	148.81
300.597	154.81
300.827	157.81
301.057	161.81
301.288	169.81
301.518	153.81
301.748	158.81
301.979	204.81
302.209	166.81
302.439	164.81
302.669	159.81
302.9	160.81
303.13	169.81
303.36	190.81
303.59	164.81
303.82	200.81
304.051	185.81
304.281	177.81
304.511	170.81
304.741	159.81
304.971	172.81
305.201	173.81
305.431	168.81
305.661	152.81
305.891	155.81
306.121	165.81
306.352	172.81
306.582	156.81
306.812	178.81
307.042	204.81
307.272	203.81
307.502	228.81
307.731	217.81
307.961	194.81
308.191	150.81
308.421	150.81
308.651	186.81
308.881	176.81
309.111	151.81
309.341	162.81
309.571	186.81
309.8	177.81
310.03	177.81
310.26	176.81
310.49	168.81
310.72	173.81
310.949	174.81
311.179	179.81
311.409	160.81
311.639	175.81
311.868	178.81
312.098	168.81
312.328	177.81
312.557	164.81
312.787	171.81
313.017	181.81
313.246	180.81
313.476	169.81
313.706	169.81
313.935	178.81
314.165	176.81
314.394	175.81
314.624	176.81
314.853	164.81
315.083	159.81
315.312	164.81
315.542	169.81
315.771	180.81
316.001	159.81
316.23	186.81
316.46	175.81
316.689	164.81
316.919	170.81
317.148	190.81
317.377	181.81
317.607	166.81
317.836	182.81
318.065	188.81
318.295	173.81
318.524	171.81
318.753	185.81
318.983	189.81
319.212	172.81
319.441	178.81
319.67	190.81
319.9	188.81
320.129	184.81
320.358	188.81
320.587	201.81
320.816	188.81
321.046	194.81
321.275	193.81
321.504	207.81
321.733	203.81
321.962	202.81
322.191	184.81
322.42	197.81
322.649	200.81
322.878	188.81
323.108	189.81
323.337	184.81
323.566	207.81
323.795	227.81
324.024	238.81
324.253	199.81
324.482	198.81
324.71	202.81
324.939	225.81
325.168	217.81
325.397	224.81
325.626	244.81
325.855	227.81
326.084	235.81
326.313	232.81
326.542	256.81
326.77	256.81
326.999	276.81
327.228	270.81
327.457	344.81
327.686	393.81
327.914	521.81
328.143	664.81
328.372	722.81
328.6	530.81
328.829	371.81
329.058	379.81
329.287	409.81
329.515	487.81
329.744	656.81
329.972	925.81
330.201	1276.81
330.43	1250.81
330.658	772.81
330.887	463.81
331.115	396.81
331.344	359.81
331.572	305.81
331.801	317.81
332.03	341.81
332.258	314.81
332.486	323.81
332.715	333.81
332.943	372.81
333.172	384.81
333.4	428.81
333.629	518.81
333.857	678.81
334.085	1014.81
334.314	1497.81
334.542	1801.81
334.771	1463.81
334.999	744.81
335.227	491.81
335.455	394.81
335.684	344.81
335.912	327.81
336.14	309.81
336.369	268.81
336.597	274.81
336.825	261.81
337.053	247.81
337.281	235.81
337.51	236.81
337.738	244.81
337.966	232.81
338.194	234.81
338.422	228.81
338.65	215.81
338.878	203.81
339.106	219.81
339.334	212.81
339.562	202.81
339.79	200.81
340.018	186.81
340.246	206.81
340.474	198.81
340.702	200.81
340.93	200.81
341.158	197.81
341.386	183.81
341.614	198.81
341.842	188.81
342.07	192.81
342.298	188.81
342.526	195.81
342.754	196.81
342.981	191.81
343.209	180.81
343.437	213.81
343.665	206.81
343.893	201.81
344.12	194.81
344.348	198.81
344.576	215.81
344.804	206.81
345.031	171.81
345.259	198.81
345.487	190.81
345.714	188.81
345.942	202.81
346.17	182.81
346.397	206.81
346.625	177.81
346.853	193.81
347.08	184.81
347.308	184.81
347.535	198.81
347.763	187.81
347.99	188.81
348.218	180.81
348.445	177.81
348.673	178.81
348.9	189.81
349.128	168.81
349.355	184.81
349.583	185.81
349.81	180.81
350.037	154.81
350.265	191.81
350.492	180.81
350.72	166.81
350.947	186.81
351.174	176.81
351.402	194.81
351.629	182.81
351.856	186.81
352.083	183.81
352.311	193.81
352.538	180.81
352.765	178.81
352.992	199.81
353.22	178.81
353.447	171.81
353.674	180.81
353.901	179.81
354.128	173.81
354.355	173.81
354.583	168.81
354.81	170.81
355.037	173.81
355.264	181.81
355.491	166.81
355.718	180.81
355.945	168.81
356.172	197.81
356.399	170.81
356.626	183.81
356.853	201.81
357.08	186.81
357.307	164.81
357.534	174.81
357.761	195.81
357.988	184.81
358.215	184.81
358.441	165.81
358.668	184.81
358.895	167.81
359.122	192.81
359.349	180.81
359.576	177.81
359.802	176.81
360.029	158.81
360.256	180.81
360.483	183.81
360.709	181.81
360.936	181.81
361.163	179.81
361.39	160.81
361.616	173.81
361.843	184.81
362.07	168.81
362.296	188.81
362.523	186.81
362.749	171.81
362.976	170.81
363.203	173.81
363.429	165.81
363.656	179.81
363.882	181.81
364.109	184.81
364.335	168.81
364.562	182.81
364.788	178.81
365.015	185.81
365.241	168.81
365.468	185.81
365.694	151.81
365.92	161.81
366.147	180.81
366.373	172.81
366.599	173.81
366.826	169.81
367.052	181.81
367.278	193.81
367.505	190.81
367.731	190.81
367.957	179.81
368.184	173.81
368.41	167.81
368.636	161.81
368.862	172.81
369.089	177.81
369.315	188.81
369.541	186.81
369.767	170.81
369.993	181.81
370.219	192.81
370.445	171.81
370.672	175.81
370.898	185.81
371.124	188.81
371.35	192.81
371.576	184.81
371.802	180.81
372.028	195.81
372.254	187.81
372.48	197.81
372.706	190.81
372.932	178.81
373.158	199.81
373.384	187.81
373.61	168.81
373.835	193.81
374.061	159.81
374.287	191.81
374.513	187.81
374.739	201.81
374.965	192.81
375.191	189.81
375.416	190.81
375.642	185.81
375.868	182.81
376.094	189.81
376.319	190.81
376.545	191.81
376.771	196.81
376.997	190.81
377.222	189.81
377.448	176.81
377.674	204.81
377.899	169.81
378.125	183.81
378.35	196.81
378.576	172.81
378.802	173.81
379.027	188.81
379.253	168.81
379.478	190.81
379.704	185.81
379.929	186.81
380.155	186.81
380.38	176.81
380.606	192.81
380.831	195.81
381.057	191.81
381.282	186.81
381.507	197.81
381.733	186.81
381.958	198.81
382.184	201.81
382.409	185.81
382.634	209.81
382.86	192.81
383.085	191.81
383.31	181.81
383.535	190.81
383.761	194.81
383.986	195.81
384.211	178.81
384.436	182.81
384.662	198.81
384.887	209.81
385.112	200.81
385.337	192.81
385.562	194.81
385.787	193.81
386.013	197.81
386.238	215.81
386.463	214.81
386.688	200.81
386.913	172.81
387.138	199.81
387.363	199.81
387.588	223.81
387.813	217.81
388.038	205.81
388.263	211.81
388.488	201.81
388.713	202.81
388.938	200.81
389.163	201.81
389.387	213.81
389.612	196.81
389.837	192.81
390.062	210.81
390.287	203.81
390.512	184.81
390.736	206.81
390.961	196.81
391.186	207.81
391.411	215.81
391.636	206.81
391.86	206.81
392.085	221.81
392.31	204.81
392.534	214.81
392.759	220.81
392.984	194.81
393.208	199.81
393.433	207.81
393.658	212.81
393.882	208.81
394.107	204.81
394.331	217.81
394.556	208.81
394.78	220.81
395.005	212.81
395.229	200.81
395.454	213.81
395.678	209.81
395.903	208.81
396.127	222.81
396.352	200.81
396.576	199.81
396.801	230.81
397.025	225.81
397.249	218.81
397.474	221.81
397.698	219.81
397.922	225.81
398.147	232.81
398.371	229.81
398.595	250.81
398.82	242.81
399.044	229.81
399.268	259.81
399.492	253.81
399.717	262.81
399.941	269.81
400.165	251.81
400.389	252.81
400.613	247.81
400.837	240.81
401.062	225.81
401.286	246.81
401.51	230.81
401.734	225.81
401.958	236.81
402.182	224.81
402.406	228.81
402.63	224.81
402.854	236.81
403.078	228.81
403.302	258.81
403.526	240.81
403.75	247.81
403.974	253.81
404.198	242.81
404.422	265.81
404.645	276.81
404.869	273.81
405.093	304.81
405.317	300.81
405.541	288.81
405.765	273.81
405.988	266.81
406.212	261.81
406.436	262.81
406.66	265.81
406.883	257.81
407.107	245.81
407.331	250.81
407.555	255.81
407.778	275.81
408.002	252.81
408.226	255.81
408.449	256.81
408.673	254.81
408.896	249.81
409.12	240.81
409.344	250.81
409.567	238.81
409.791	237.81
410.014	255.81
410.238	241.81
410.461	237.81
410.685	252.81
410.908	261.81
411.132	247.81
411.355	255.81
411.578	248.81
411.802	266.81
412.025	269.81
412.249	275.81
412.472	321.81
412.695	338.81
412.919	301.81
413.142	297.81
413.365	284.81
413.589	271.81
413.812	278.81
414.035	255.81
414.258	264.81
414.482	246.81
414.705	257.81
414.928	264.81
415.151	239.81
415.374	245.81
415.597	237.81
415.821	239.81
416.044	254.81
416.267	237.81
416.49	226.81
416.713	253.81
416.936	242.81
417.159	249.81
417.382	282.81
417.605	250.81
417.828	265.81
418.051	249.81
418.274	245.81
418.497	255.81
418.72	230.81
418.943	234.81
419.166	263.81
419.389	270.81
419.611	270.81
419.834	234.81
420.057	273.81
420.28	301.81
420.503	301.81
420.726	271.81
420.948	270.81
421.171	265.81
421.394	262.81
421.617	239.81
421.839	248.81
422.062	262.81
422.285	247.81
422.507	239.81
422.73	230.81
422.953	234.81
423.175	236.81
423.398	226.81
423.621	234.81
423.843	243.81
424.066	214.81
424.288	226.81
424.511	231.81
424.733	250.81
424.956	224.81
425.178	226.81
425.401	230.81
425.623	228.81
425.846	225.81
426.068	247.81
426.291	238.81
426.513	234.81
426.735	239.81
426.958	254.81
427.18	243.81
427.402	261.81
427.625	277.81
427.847	298.81
428.069	334.81
428.292	273.81
428.514	248.81
428.736	216.81
428.958	230.81
429.181	223.81
429.403	223.81
429.625	217.81
429.847	246.81
430.069	242.81
430.292	240.81
430.514	219.81
430.736	212.81
430.958	233.81
431.18	212.81
431.402	219.81
431.624	209.81
431.846	244.81
432.068	223.81
432.29	205.81
432.512	235.81
432.734	210.81
432.956	215.81
433.178	207.81
433.4	228.81
433.622	232.81
433.844	199.81
434.066	224.81
434.287	224.81
434.509	217.81
434.731	203.81
434.953	215.81
435.175	219.81
435.397	230.81
435.618	219.81
435.84	220.81
436.062	219.81
436.284	224.81
436.505	220.81
436.727	224.81
436.949	220.81
437.17	216.81
437.392	199.81
437.614	199.81
437.835	206.81
438.057	222.81
438.278	202.81
438.5	209.81
438.721	210.81
438.943	208.81
439.165	220.81
439.386	212.81
439.608	220.81
439.829	225.81
440.05	230.81
440.272	222.81
440.493	228.81
440.715	230.81
440.936	229.81
441.158	205.81
441.379	225.81
441.6	236.81
441.822	234.81
442.043	229.81
442.264	221.81
442.486	221.81
442.707	239.81
442.928	224.81
443.149	226.81
443.371	229.81
443.592	236.81
443.813	235.81
444.034	230.81
444.255	239.81
444.476	225.81
444.698	225.81
444.919	240.81
445.14	318.81
445.361	275.81
445.582	227.81
445.803	246.81
446.024	237.81
446.245	218.81
446.466	214.81
446.687	219.81
446.908	222.81
447.129	229.81
447.35	211.81
447.571	218.81
447.792	220.81
448.013	206.81
448.234	223.81
448.455	216.81
448.675	208.81
448.896	209.81
449.117	206.81
449.338	213.81
449.559	208.81
449.779	208.81
450	194.81
450.221	214.81
450.442	202.81
450.662	207.81
450.883	204.81
451.104	208.81
451.324	195.81
451.545	203.81
451.766	190.81
451.986	219.81
452.207	226.81
452.428	206.81
452.648	205.81
452.869	200.81
453.089	193.81
453.31	198.81
453.53	180.81
453.751	171.81
453.971	202.81
454.192	198.81
454.412	182.81
454.633	207.81
454.853	221.81
455.073	198.81
455.294	184.81
455.514	196.81
455.734	188.81
455.955	190.81
456.175	196.81
456.395	190.81
456.616	194.81
456.836	208.81
457.056	202.81
457.276	199.81
457.497	180.81
457.717	222.81
457.937	196.81
458.157	208.81
458.377	201.81
458.598	209.81
458.818	212.81
459.038	218.81
459.258	224.81
459.478	215.81
459.698	227.81
459.918	235.81
460.138	217.81
460.358	223.81
460.578	236.81
460.798	225.81
461.018	226.81
461.238	215.81
461.458	237.81
461.678	227.81
461.898	243.81
462.118	232.81
462.338	249.81
462.558	244.81
462.777	246.81
462.997	259.81
463.217	280.81
463.437	257.81
463.657	250.81
463.876	241.81
464.096	242.81
464.316	249.81
464.536	258.81
464.755	262.81
464.975	248.81
465.195	233.81
465.414	234.81
465.634	238.81
465.854	237.81
466.073	246.81
466.293	230.81
466.512	232.81
466.732	226.81
466.951	232.81
467.171	247.81
467.391	244.81
467.61	268.81
467.829	366.81
468.049	659.81
468.268	797.81
468.488	477.81
468.707	333.81
468.927	299.81
469.146	253.81
469.365	253.81
469.585	249.81
469.804	260.81
470.023	259.81
470.243	269.81
470.462	258.81
470.681	273.81
470.901	270.81
471.12	273.81
471.339	289.81
471.558	310.81
471.777	358.81
471.997	494.81
472.216	1094.81
472.435	1648.81
472.654	919.81
472.873	543.81
473.092	411.81
473.311	372.81
473.53	322.81
473.749	303.81
473.968	310.81
474.187	274.81
474.406	279.81
474.625	269.81
474.844	262.81
475.063	244.81
475.282	268.81
475.501	249.81
475.72	263.81
475.939	248.81
476.158	255.81
476.377	241.81
476.596	238.81
476.814	247.81
477.033	249.81
477.252	252.81
477.471	260.81
477.69	249.81
477.908	260.81
478.127	281.81
478.346	255.81
478.564	285.81
478.783	297.81
479.002	283.81
479.22	278.81
479.439	296.81
479.658	292.81
479.876	321.81
480.095	327.81
480.313	389.81
480.532	424.81
480.751	602.81
480.969	1182.81
481.188	2615.81
481.406	2094.81
481.624	1035.81
481.843	663.81
482.061	520.81
482.28	457.81
482.498	416.81
482.717	382.81
482.935	364.81
483.153	361.81
483.372	321.81
483.59	335.81
483.808	308.81
484.027	312.81
484.245	326.81
484.463	295.81
484.681	287.81
484.9	286.81
485.118	286.81
485.336	288.81
485.554	296.81
485.772	276.81
485.99	264.81
486.209	284.81
486.427	289.81
486.645	298.81
486.863	297.81
487.081	280.81
487.299	288.81
487.517	287.81
487.735	295.81
487.953	300.81
488.171	298.81
488.389	296.81
488.607	294.81
488.825	297.81
489.043	301.81
489.261	308.81
489.479	311.81
489.696	304.81
489.914	311.81
490.132	327.81
490.35	328.81
490.568	336.81
490.786	364.81
491.003	351.81
491.221	410.81
491.439	450.81
491.657	453.81
491.874	478.81
492.092	444.81
492.31	455.81
492.527	511.81
492.745	534.81
492.963	491.81
493.18	465.81
493.398	455.81
493.615	428.81
493.833	411.81
494.05	403.81
494.268	390.81
494.485	378.81
494.703	400.81
494.92	381.81
495.138	369.81
495.355	366.81
495.573	352.81
495.79	360.81
496.008	358.81
496.225	366.81
496.442	360.81
496.66	357.81
496.877	341.81
497.094	334.81
497.312	340.81
497.529	341.81
497.746	333.81
497.963	319.81
498.181	331.81
498.398	339.81
498.615	325.81
498.832	342.81
499.049	340.81
499.267	375.81
499.484	371.81
499.701	380.81
499.918	422.81
500.135	410.81
500.352	456.81
500.569	476.81
500.786	511.81
501.003	475.81
501.22	440.81
501.437	396.81
501.654	380.81
501.871	349.81
502.088	351.81
502.305	352.81
502.522	319.81
502.739	339.81
502.956	310.81
503.172	306.81
503.389	302.81
