Data from StdC_HRD10591_028.txt Node
Date: Fri May 16 15:28:54 EDT 2025
User: Yrep
Spectrometer: HR+D1059
Trigger mode: 1
Integration Time (sec): 1.000000E-1
Scans to average: 1
Electric dark correction enabled: true
Nonlinearity correction enabled: false
Boxcar width: 0
XAxis mode: Wavelengths
Number of Pixels in Spectrum: 2048
>>>>>Begin Spectral Data<<<<<
223.165	-16.19
223.4	-16.19
223.635	-16.19
223.869	-10.19
224.104	-12.19
224.338	-21.19
224.573	-10.19
224.808	-5.19
225.042	0.81
225.277	-9.19
225.511	-4.19
225.746	6.81
225.98	1.81
226.215	15.81
226.449	10.81
226.683	8.81
226.918	15.81
227.152	27.81
227.387	24.81
227.621	44.81
227.856	43.81
228.09	34.81
228.324	46.81
228.559	53.81
228.793	70.81
229.027	82.81
229.262	64.81
229.496	59.81
229.73	67.81
229.964	84.81
230.199	87.81
230.433	78.81
230.667	81.81
230.901	76.81
231.136	86.81
231.37	94.81
231.604	79.81
231.838	81.81
232.072	101.81
232.306	95.81
232.541	85.81
232.775	70.81
233.009	90.81
233.243	93.81
233.477	92.81
233.711	78.81
233.945	90.81
234.179	94.81
234.413	88.81
234.647	72.81
234.881	94.81
235.115	87.81
235.349	79.81
235.583	91.81
235.817	81.81
236.051	64.81
236.285	90.81
236.519	80.81
236.753	84.81
236.987	91.81
237.221	95.81
237.455	98.81
237.689	86.81
237.922	87.81
238.156	83.81
238.39	75.81
238.624	75.81
238.858	88.81
239.091	80.81
239.325	87.81
239.559	98.81
239.793	91.81
240.027	90.81
240.26	74.81
240.494	90.81
240.728	85.81
240.961	87.81
241.195	98.81
241.429	96.81
241.662	86.81
241.896	96.81
242.13	93.81
242.363	92.81
242.597	100.81
242.83	78.81
243.064	100.81
243.298	94.81
243.531	96.81
243.765	89.81
243.998	88.81
244.232	104.81
244.465	89.81
244.699	109.81
244.932	98.81
245.166	101.81
245.399	92.81
245.633	94.81
245.866	112.81
246.099	109.81
246.333	92.81
246.566	98.81
246.8	98.81
247.033	104.81
247.266	108.81
247.5	117.81
247.733	103.81
247.966	98.81
248.2	114.81
248.433	126.81
248.666	109.81
248.899	111.81
249.133	115.81
249.366	118.81
249.599	123.81
249.832	115.81
250.066	139.81
250.299	167.81
250.532	181.81
250.765	170.81
250.998	139.81
251.231	118.81
251.465	138.81
251.698	117.81
251.931	115.81
252.164	109.81
252.397	114.81
252.63	120.81
252.863	123.81
253.096	120.81
253.329	105.81
253.562	127.81
253.795	122.81
254.028	116.81
254.261	117.81
254.494	124.81
254.727	135.81
254.96	115.81
255.193	143.81
255.426	153.81
255.659	187.81
255.892	234.81
256.124	283.81
256.357	250.81
256.59	185.81
256.823	181.81
257.056	153.81
257.289	147.81
257.521	128.81
257.754	149.81
257.987	150.81
258.22	123.81
258.452	134.81
258.685	143.81
258.918	121.81
259.151	121.81
259.383	124.81
259.616	121.81
259.849	121.81
260.081	125.81
260.314	132.81
260.547	124.81
260.779	123.81
261.012	125.81
261.244	129.81
261.477	126.81
261.71	135.81
261.942	123.81
262.175	135.81
262.407	131.81
262.64	118.81
262.872	118.81
263.105	123.81
263.337	136.81
263.57	126.81
263.802	118.81
264.035	119.81
264.267	136.81
264.499	138.81
264.732	110.81
264.964	124.81
265.197	118.81
265.429	118.81
265.661	132.81
265.894	141.81
266.126	140.81
266.358	127.81
266.591	106.81
266.823	128.81
267.055	127.81
267.287	123.81
267.52	123.81
267.752	119.81
267.984	123.81
268.216	124.81
268.448	133.81
268.681	138.81
268.913	125.81
269.145	155.81
269.377	136.81
269.609	118.81
269.841	140.81
270.073	135.81
270.306	117.81
270.538	119.81
270.77	131.81
271.002	132.81
271.234	132.81
271.466	140.81
271.698	123.81
271.93	124.81
272.162	134.81
272.394	140.81
272.626	141.81
272.858	129.81
273.09	132.81
273.322	131.81
273.553	147.81
273.785	147.81
274.017	140.81
274.249	153.81
274.481	136.81
274.713	137.81
274.945	150.81
275.176	156.81
275.408	158.81
275.64	165.81
275.872	151.81
276.104	165.81
276.335	158.81
276.567	183.81
276.799	173.81
277.031	205.81
277.262	207.81
277.494	204.81
277.726	172.81
277.957	176.81
278.189	183.81
278.421	187.81
278.652	174.81
278.884	183.81
279.115	173.81
279.347	185.81
279.579	185.81
279.81	216.81
280.042	215.81
280.273	259.81
280.505	248.81
280.736	211.81
280.968	187.81
281.199	195.81
281.431	165.81
281.662	158.81
281.894	170.81
282.125	146.81
282.356	159.81
282.588	144.81
282.819	148.81
283.051	150.81
283.282	163.81
283.513	164.81
283.745	149.81
283.976	148.81
284.207	142.81
284.439	171.81
284.67	146.81
284.901	154.81
285.132	154.81
285.364	164.81
285.595	149.81
285.826	143.81
286.057	149.81
286.288	153.81
286.52	143.81
286.751	172.81
286.982	146.81
287.213	148.81
287.444	147.81
287.675	145.81
287.906	144.81
288.138	158.81
288.369	147.81
288.6	147.81
288.831	157.81
289.062	149.81
289.293	151.81
289.524	164.81
289.755	142.81
289.986	170.81
290.217	154.81
290.448	166.81
290.679	150.81
290.91	153.81
291.141	142.81
291.371	156.81
291.602	153.81
291.833	146.81
292.064	136.81
292.295	162.81
292.526	127.81
292.757	159.81
292.987	146.81
293.218	162.81
293.449	136.81
293.68	145.81
293.91	164.81
294.141	137.81
294.372	149.81
294.603	148.81
294.833	166.81
295.064	132.81
295.295	152.81
295.525	139.81
295.756	151.81
295.987	155.81
296.217	167.81
296.448	148.81
296.679	162.81
296.909	152.81
297.14	137.81
297.37	162.81
297.601	157.81
297.831	147.81
298.062	155.81
298.292	154.81
298.523	155.81
298.753	157.81
298.984	159.81
299.214	156.81
299.445	142.81
299.675	157.81
299.905	164.81
300.136	151.81
300.366	157.81
300.597	144.81
300.827	156.81
301.057	159.81
301.288	155.81
301.518	143.81
301.748	166.81
301.979	189.81
302.209	148.81
302.439	157.81
302.669	163.81
302.9	176.81
303.13	162.81
303.36	166.81
303.59	207.81
303.82	207.81
304.051	186.81
304.281	183.81
304.511	171.81
304.741	152.81
304.971	163.81
305.201	164.81
305.431	154.81
305.661	155.81
305.891	164.81
306.121	178.81
306.352	159.81
306.582	172.81
306.812	176.81
307.042	201.81
307.272	194.81
307.502	213.81
307.731	198.81
307.961	173.81
308.191	166.81
308.421	156.81
308.651	184.81
308.881	188.81
309.111	154.81
309.341	159.81
309.571	163.81
309.8	164.81
310.03	177.81
310.26	179.81
310.49	172.81
310.72	167.81
310.949	165.81
311.179	164.81
311.409	157.81
311.639	172.81
311.868	173.81
312.098	163.81
312.328	165.81
312.557	181.81
312.787	179.81
313.017	162.81
313.246	176.81
313.476	173.81
313.706	167.81
313.935	183.81
314.165	173.81
314.394	178.81
314.624	162.81
314.853	176.81
315.083	196.81
315.312	174.81
315.542	161.81
315.771	164.81
316.001	175.81
316.23	165.81
316.46	182.81
316.689	175.81
316.919	181.81
317.148	166.81
317.377	165.81
317.607	170.81
317.836	171.81
318.065	170.81
318.295	170.81
318.524	175.81
318.753	181.81
318.983	166.81
319.212	173.81
319.441	185.81
319.67	183.81
319.9	186.81
320.129	170.81
320.358	185.81
320.587	197.81
320.816	191.81
321.046	192.81
321.275	177.81
321.504	184.81
321.733	183.81
321.962	179.81
322.191	186.81
322.42	180.81
322.649	184.81
322.878	187.81
323.108	184.81
323.337	211.81
323.566	192.81
323.795	211.81
324.024	218.81
324.253	216.81
324.482	208.81
324.71	218.81
324.939	205.81
325.168	231.81
325.397	217.81
325.626	240.81
325.855	223.81
326.084	228.81
326.313	253.81
326.542	264.81
326.77	267.81
326.999	268.81
327.228	271.81
327.457	332.81
327.686	413.81
327.914	509.81
328.143	656.81
328.372	712.81
328.6	530.81
328.829	379.81
329.058	362.81
329.287	397.81
329.515	483.81
329.744	642.81
329.972	905.81
330.201	1222.81
330.43	1254.81
330.658	756.81
330.887	464.81
331.115	381.81
331.344	331.81
331.572	329.81
331.801	330.81
332.03	317.81
332.258	320.81
332.486	316.81
332.715	336.81
332.943	349.81
333.172	375.81
333.4	422.81
333.629	520.81
333.857	676.81
334.085	991.81
334.314	1418.81
334.542	1736.81
334.771	1402.81
334.999	738.81
335.227	495.81
335.455	373.81
335.684	346.81
335.912	321.81
336.14	300.81
336.369	269.81
336.597	254.81
336.825	249.81
337.053	255.81
337.281	225.81
337.51	215.81
337.738	226.81
337.966	229.81
338.194	213.81
338.422	213.81
338.65	219.81
338.878	218.81
339.106	210.81
339.334	211.81
339.562	182.81
339.79	203.81
340.018	214.81
340.246	192.81
340.474	196.81
340.702	198.81
340.93	192.81
341.158	193.81
341.386	188.81
341.614	192.81
341.842	186.81
342.07	187.81
342.298	182.81
342.526	206.81
342.754	191.81
342.981	194.81
343.209	198.81
343.437	205.81
343.665	196.81
343.893	204.81
344.12	202.81
344.348	170.81
344.576	186.81
344.804	207.81
345.031	191.81
345.259	189.81
345.487	187.81
345.714	187.81
345.942	185.81
346.17	183.81
346.397	208.81
346.625	185.81
346.853	166.81
347.08	185.81
347.308	173.81
347.535	197.81
347.763	159.81
347.99	173.81
348.218	176.81
348.445	171.81
348.673	176.81
348.9	185.81
349.128	174.81
349.355	166.81
349.583	179.81
349.81	180.81
350.037	192.81
350.265	169.81
350.492	185.81
350.72	157.81
350.947	167.81
351.174	195.81
351.402	188.81
351.629	182.81
351.856	172.81
352.083	179.81
352.311	180.81
352.538	163.81
352.765	186.81
352.992	186.81
353.22	173.81
353.447	184.81
353.674	159.81
353.901	188.81
354.128	192.81
354.355	168.81
354.583	183.81
354.81	190.81
355.037	196.81
355.264	190.81
355.491	182.81
355.718	176.81
355.945	185.81
356.172	170.81
356.399	171.81
356.626	174.81
356.853	183.81
357.08	172.81
357.307	183.81
357.534	182.81
357.761	200.81
357.988	188.81
358.215	187.81
358.441	170.81
358.668	174.81
358.895	174.81
359.122	181.81
359.349	181.81
359.576	181.81
359.802	179.81
360.029	167.81
360.256	177.81
360.483	158.81
360.709	176.81
360.936	198.81
361.163	182.81
361.39	166.81
361.616	169.81
361.843	170.81
362.07	169.81
362.296	166.81
362.523	184.81
362.749	162.81
362.976	168.81
363.203	174.81
363.429	182.81
363.656	180.81
363.882	175.81
364.109	156.81
364.335	169.81
364.562	184.81
364.788	190.81
365.015	182.81
365.241	178.81
365.468	180.81
365.694	174.81
365.92	179.81
366.147	167.81
366.373	167.81
366.599	158.81
366.826	167.81
367.052	164.81
367.278	174.81
367.505	179.81
367.731	182.81
367.957	179.81
368.184	183.81
368.41	174.81
368.636	190.81
368.862	183.81
369.089	167.81
369.315	189.81
369.541	189.81
369.767	172.81
369.993	177.81
370.219	178.81
370.445	174.81
370.672	178.81
370.898	188.81
371.124	183.81
371.35	184.81
371.576	178.81
371.802	164.81
372.028	163.81
372.254	183.81
372.48	196.81
372.706	193.81
372.932	171.81
373.158	194.81
373.384	180.81
373.61	179.81
373.835	168.81
374.061	168.81
374.287	188.81
374.513	188.81
374.739	184.81
374.965	199.81
375.191	190.81
375.416	198.81
375.642	185.81
375.868	172.81
376.094	173.81
376.319	179.81
376.545	182.81
376.771	180.81
376.997	188.81
377.222	181.81
377.448	172.81
377.674	186.81
377.899	174.81
378.125	171.81
378.35	180.81
378.576	174.81
378.802	181.81
379.027	182.81
379.253	170.81
379.478	176.81
379.704	190.81
379.929	183.81
380.155	156.81
380.38	182.81
380.606	177.81
380.831	192.81
381.057	183.81
381.282	196.81
381.507	185.81
381.733	187.81
381.958	167.81
382.184	186.81
382.409	179.81
382.634	190.81
382.86	200.81
383.085	197.81
383.31	204.81
383.535	194.81
383.761	202.81
383.986	197.81
384.211	204.81
384.436	199.81
384.662	198.81
384.887	166.81
385.112	188.81
385.337	214.81
385.562	206.81
385.787	192.81
386.013	189.81
386.238	198.81
386.463	194.81
386.688	217.81
386.913	197.81
387.138	202.81
387.363	195.81
387.588	200.81
387.813	201.81
388.038	200.81
388.263	197.81
388.488	197.81
388.713	203.81
388.938	194.81
389.163	201.81
389.387	199.81
389.612	199.81
389.837	207.81
390.062	184.81
390.287	190.81
390.512	180.81
390.736	209.81
390.961	202.81
391.186	203.81
391.411	205.81
391.636	205.81
391.86	206.81
392.085	202.81
392.31	230.81
392.534	222.81
392.759	211.81
392.984	202.81
393.208	216.81
393.433	206.81
393.658	209.81
393.882	210.81
394.107	183.81
394.331	180.81
394.556	200.81
394.78	208.81
395.005	215.81
395.229	219.81
395.454	219.81
395.678	221.81
395.903	219.81
396.127	199.81
396.352	227.81
396.576	236.81
396.801	198.81
397.025	219.81
397.249	224.81
397.474	226.81
397.698	214.81
397.922	222.81
398.147	219.81
398.371	214.81
398.595	223.81
398.82	250.81
399.044	240.81
399.268	240.81
399.492	262.81
399.717	264.81
399.941	266.81
400.165	258.81
400.389	260.81
400.613	230.81
400.837	237.81
401.062	234.81
401.286	230.81
401.51	221.81
401.734	223.81
401.958	225.81
402.182	238.81
402.406	227.81
402.63	246.81
402.854	237.81
403.078	244.81
403.302	255.81
403.526	256.81
403.75	245.81
403.974	253.81
404.198	249.81
404.422	255.81
404.645	271.81
404.869	260.81
405.093	294.81
405.317	296.81
405.541	296.81
405.765	265.81
405.988	267.81
406.212	259.81
406.436	261.81
406.66	256.81
406.883	250.81
407.107	254.81
407.331	256.81
407.555	264.81
407.778	251.81
408.002	255.81
408.226	243.81
408.449	246.81
408.673	257.81
408.896	248.81
409.12	238.81
409.344	240.81
409.567	242.81
409.791	246.81
410.014	265.81
410.238	259.81
410.461	243.81
410.685	247.81
410.908	238.81
411.132	234.81
411.355	242.81
411.578	242.81
411.802	239.81
412.025	263.81
412.249	268.81
412.472	292.81
412.695	308.81
412.919	298.81
413.142	286.81
413.365	276.81
413.589	258.81
413.812	247.81
414.035	259.81
414.258	255.81
414.482	255.81
414.705	244.81
414.928	247.81
415.151	236.81
415.374	238.81
415.597	227.81
415.821	237.81
416.044	236.81
416.267	240.81
416.49	222.81
416.713	232.81
416.936	260.81
417.159	242.81
417.382	253.81
417.605	262.81
417.828	260.81
418.051	239.81
418.274	244.81
418.497	234.81
418.72	235.81
418.943	239.81
419.166	257.81
419.389	252.81
419.611	252.81
419.834	277.81
420.057	274.81
420.28	291.81
420.503	282.81
420.726	269.81
420.948	270.81
421.171	251.81
421.394	251.81
421.617	250.81
421.839	237.81
422.062	237.81
422.285	247.81
422.507	234.81
422.73	240.81
422.953	222.81
423.175	235.81
423.398	237.81
423.621	236.81
423.843	236.81
424.066	232.81
424.288	235.81
424.511	232.81
424.733	243.81
424.956	243.81
425.178	244.81
425.401	232.81
425.623	230.81
425.846	246.81
426.068	223.81
426.291	242.81
426.513	215.81
426.735	223.81
426.958	228.81
427.18	222.81
427.402	235.81
427.625	261.81
427.847	293.81
428.069	335.81
428.292	275.81
428.514	238.81
428.736	243.81
428.958	230.81
429.181	232.81
429.403	228.81
429.625	229.81
429.847	224.81
430.069	227.81
430.292	211.81
430.514	207.81
430.736	229.81
430.958	224.81
431.18	205.81
431.402	238.81
431.624	214.81
431.846	204.81
432.068	211.81
432.29	221.81
432.512	209.81
432.734	218.81
432.956	212.81
433.178	214.81
433.4	199.81
433.622	218.81
433.844	213.81
434.066	218.81
434.287	212.81
434.509	227.81
434.731	210.81
434.953	226.81
435.175	213.81
435.397	235.81
435.618	210.81
435.84	200.81
436.062	223.81
436.284	226.81
436.505	198.81
436.727	229.81
436.949	210.81
437.17	201.81
437.392	215.81
437.614	219.81
437.835	212.81
438.057	205.81
438.278	205.81
438.5	201.81
438.721	229.81
438.943	218.81
439.165	219.81
439.386	220.81
439.608	222.81
439.829	204.81
440.05	211.81
440.272	221.81
440.493	182.81
440.715	240.81
440.936	220.81
441.158	207.81
441.379	214.81
441.6	217.81
441.822	223.81
442.043	226.81
442.264	232.81
442.486	207.81
442.707	240.81
442.928	226.81
443.149	226.81
443.371	227.81
443.592	227.81
443.813	222.81
444.034	226.81
444.255	234.81
444.476	229.81
444.698	228.81
444.919	248.81
445.14	297.81
445.361	252.81
445.582	209.81
445.803	220.81
446.024	214.81
446.245	226.81
446.466	223.81
446.687	222.81
446.908	211.81
447.129	211.81
447.35	213.81
447.571	209.81
447.792	206.81
448.013	208.81
448.234	208.81
448.455	214.81
448.675	205.81
448.896	211.81
449.117	200.81
449.338	198.81
449.559	207.81
449.779	202.81
450	200.81
450.221	214.81
450.442	201.81
450.662	205.81
450.883	215.81
451.104	213.81
451.324	202.81
451.545	202.81
451.766	202.81
451.986	186.81
452.207	202.81
452.428	199.81
452.648	173.81
452.869	207.81
453.089	228.81
453.31	192.81
453.53	211.81
453.751	192.81
453.971	182.81
454.192	184.81
454.412	186.81
454.633	192.81
454.853	183.81
455.073	200.81
455.294	180.81
455.514	189.81
455.734	187.81
455.955	196.81
456.175	194.81
456.395	198.81
456.616	205.81
456.836	190.81
457.056	198.81
457.276	207.81
457.497	207.81
457.717	200.81
457.937	214.81
458.157	208.81
458.377	208.81
458.598	213.81
458.818	222.81
459.038	207.81
459.258	209.81
459.478	211.81
459.698	213.81
459.918	206.81
460.138	232.81
460.358	231.81
460.578	229.81
460.798	219.81
461.018	222.81
461.238	219.81
461.458	217.81
461.678	231.81
461.898	248.81
462.118	233.81
462.338	226.81
462.558	251.81
462.777	233.81
462.997	255.81
463.217	259.81
463.437	255.81
463.657	252.81
463.876	267.81
464.096	262.81
464.316	252.81
464.536	262.81
464.755	240.81
464.975	251.81
465.195	230.81
465.414	234.81
465.634	223.81
465.854	227.81
466.073	216.81
466.293	216.81
466.512	236.81
466.732	215.81
466.951	250.81
467.171	226.81
467.391	243.81
467.61	264.81
467.829	354.81
468.049	607.81
468.268	745.81
468.488	452.81
468.707	349.81
468.927	275.81
469.146	284.81
469.365	267.81
469.585	251.81
469.804	256.81
470.023	230.81
470.243	243.81
470.462	247.81
470.681	264.81
470.901	257.81
471.12	262.81
471.339	285.81
471.558	308.81
471.777	350.81
471.997	522.81
472.216	1058.81
472.435	1574.81
472.654	892.81
472.873	546.81
473.092	397.81
473.311	369.81
473.53	306.81
473.749	293.81
473.968	285.81
474.187	261.81
474.406	256.81
474.625	259.81
474.844	258.81
475.063	263.81
475.282	267.81
475.501	274.81
475.72	243.81
475.939	250.81
476.158	240.81
476.377	250.81
476.596	262.81
476.814	242.81
477.033	238.81
477.252	258.81
477.471	245.81
477.69	249.81
477.908	255.81
478.127	263.81
478.346	279.81
478.564	271.81
478.783	265.81
479.002	262.81
479.22	283.81
479.439	293.81
479.658	296.81
479.876	319.81
480.095	321.81
480.313	375.81
480.532	443.81
480.751	583.81
480.969	1149.81
481.188	2506.81
481.406	2050.81
481.624	996.81
481.843	650.81
482.061	521.81
482.28	467.81
482.498	408.81
482.717	378.81
482.935	350.81
483.153	338.81
483.372	327.81
483.59	330.81
483.808	308.81
484.027	305.81
484.245	301.81
484.463	308.81
484.681	298.81
484.9	286.81
485.118	293.81
485.336	295.81
485.554	275.81
485.772	302.81
485.99	289.81
486.209	270.81
486.427	276.81
486.645	265.81
486.863	282.81
487.081	275.81
487.299	272.81
487.517	261.81
487.735	282.81
487.953	292.81
488.171	308.81
488.389	305.81
488.607	297.81
488.825	305.81
489.043	301.81
489.261	318.81
489.479	306.81
489.696	313.81
489.914	318.81
490.132	328.81
490.35	327.81
490.568	341.81
490.786	371.81
491.003	363.81
491.221	419.81
491.439	462.81
491.657	446.81
491.874	451.81
492.092	460.81
492.31	457.81
492.527	496.81
492.745	523.81
492.963	524.81
493.18	464.81
493.398	444.81
493.615	432.81
493.833	403.81
494.05	386.81
494.268	380.81
494.485	361.81
494.703	377.81
494.92	366.81
495.138	377.81
495.355	369.81
495.573	342.81
495.79	343.81
496.008	343.81
496.225	327.81
496.442	344.81
496.66	356.81
496.877	328.81
497.094	334.81
497.312	335.81
497.529	315.81
497.746	320.81
497.963	321.81
498.181	338.81
498.398	341.81
498.615	343.81
498.832	350.81
499.049	364.81
499.267	356.81
499.484	373.81
499.701	384.81
499.918	411.81
500.135	434.81
500.352	458.81
500.569	479.81
500.786	481.81
501.003	475.81
501.22	428.81
501.437	402.81
501.654	370.81
501.871	347.81
502.088	342.81
502.305	346.81
502.522	330.81
502.739	324.81
502.956	300.81
503.172	301.81
503.389	312.81
503.606	287.81
