Data from StdC_HRD10591_021.txt Node
Date: Fri May 16 15:28:51 EDT 2025
User: Yrep
Spectrometer: HR+D1059
Trigger mode: 1
Integration Time (sec): 1.000000E-1
Scans to average: 1
Electric dark correction enabled: true
Nonlinearity correction enabled: false
Boxcar width: 0
XAxis mode: Wavelengths
Number of Pixels in Spectrum: 2048
>>>>>Begin Spectral Data<<<<<
223.165	-20.06
223.4	-20.06
223.635	-20.06
223.869	-9.06
224.104	-21.06
224.338	-14.06
224.573	-12.06
224.808	-13.06
225.042	2.94
225.277	-18.06
225.511	-21.06
225.746	5.94
225.98	2.94
226.215	15.94
226.449	16.94
226.683	28.94
226.918	30.94
227.152	23.94
227.387	39.94
227.621	24.94
227.856	37.94
228.09	54.94
228.324	53.94
228.559	58.94
228.793	66.94
229.027	67.94
229.262	57.94
229.496	63.94
229.73	82.94
229.964	75.94
230.199	94.94
230.433	94.94
230.667	89.94
230.901	80.94
231.136	83.94
231.37	75.94
231.604	105.94
231.838	110.94
232.072	78.94
232.306	79.94
232.541	90.94
232.775	76.94
233.009	91.94
233.243	91.94
233.477	73.94
233.711	83.94
233.945	94.94
234.179	78.94
234.413	94.94
234.647	90.94
234.881	99.94
235.115	90.94
235.349	94.94
235.583	97.94
235.817	81.94
236.051	88.94
236.285	81.94
236.519	85.94
236.753	94.94
236.987	95.94
237.221	91.94
237.455	87.94
237.689	72.94
237.922	93.94
238.156	80.94
238.39	80.94
238.624	81.94
238.858	79.94
239.091	92.94
239.325	103.94
239.559	87.94
239.793	85.94
240.027	108.94
240.26	92.94
240.494	88.94
240.728	94.94
240.961	95.94
241.195	108.94
241.429	98.94
241.662	108.94
241.896	106.94
242.13	102.94
242.363	104.94
242.597	100.94
242.83	94.94
243.064	105.94
243.298	113.94
243.531	109.94
243.765	108.94
243.998	92.94
244.232	99.94
244.465	87.94
244.699	114.94
244.932	91.94
245.166	106.94
245.399	95.94
245.633	95.94
245.866	105.94
246.099	95.94
246.333	93.94
246.566	118.94
246.8	102.94
247.033	109.94
247.266	104.94
247.5	112.94
247.733	109.94
247.966	100.94
248.2	110.94
248.433	96.94
248.666	105.94
248.899	114.94
249.133	105.94
249.366	117.94
249.599	117.94
249.832	129.94
250.066	142.94
250.299	164.94
250.532	198.94
250.765	171.94
250.998	150.94
251.231	134.94
251.465	108.94
251.698	127.94
251.931	117.94
252.164	121.94
252.397	102.94
252.63	130.94
252.863	114.94
253.096	139.94
253.329	112.94
253.562	129.94
253.795	136.94
254.028	126.94
254.261	139.94
254.494	120.94
254.727	127.94
254.96	128.94
255.193	139.94
255.426	161.94
255.659	163.94
255.892	254.94
256.124	308.94
256.357	248.94
256.59	186.94
256.823	180.94
257.056	161.94
257.289	155.94
257.521	134.94
257.754	141.94
257.987	132.94
258.22	139.94
258.452	136.94
258.685	116.94
258.918	121.94
259.151	129.94
259.383	142.94
259.616	127.94
259.849	120.94
260.081	136.94
260.314	143.94
260.547	142.94
260.779	127.94
261.012	122.94
261.244	130.94
261.477	131.94
261.71	118.94
261.942	136.94
262.175	126.94
262.407	123.94
262.64	124.94
262.872	137.94
263.105	126.94
263.337	127.94
263.57	128.94
263.802	123.94
264.035	123.94
264.267	123.94
264.499	125.94
264.732	129.94
264.964	120.94
265.197	116.94
265.429	122.94
265.661	126.94
265.894	132.94
266.126	135.94
266.358	129.94
266.591	123.94
266.823	113.94
267.055	130.94
267.287	116.94
267.52	113.94
267.752	119.94
267.984	128.94
268.216	127.94
268.448	133.94
268.681	139.94
268.913	128.94
269.145	132.94
269.377	132.94
269.609	141.94
269.841	140.94
270.073	145.94
270.306	136.94
270.538	129.94
270.77	140.94
271.002	126.94
271.234	142.94
271.466	138.94
271.698	143.94
271.93	133.94
272.162	140.94
272.394	142.94
272.626	133.94
272.858	146.94
273.09	146.94
273.322	141.94
273.553	144.94
273.785	148.94
274.017	155.94
274.249	160.94
274.481	148.94
274.713	158.94
274.945	155.94
275.176	154.94
275.408	174.94
275.64	173.94
275.872	180.94
276.104	190.94
276.335	174.94
276.567	173.94
276.799	191.94
277.031	198.94
277.262	214.94
277.494	230.94
277.726	166.94
277.957	176.94
278.189	163.94
278.421	173.94
278.652	168.94
278.884	187.94
279.115	159.94
279.347	186.94
279.579	204.94
279.81	216.94
280.042	256.94
280.273	260.94
280.505	246.94
280.736	208.94
280.968	199.94
281.199	191.94
281.431	185.94
281.662	176.94
281.894	154.94
282.125	159.94
282.356	156.94
282.588	155.94
282.819	161.94
283.051	145.94
283.282	144.94
283.513	147.94
283.745	157.94
283.976	155.94
284.207	158.94
284.439	153.94
284.67	154.94
284.901	154.94
285.132	150.94
285.364	164.94
285.595	151.94
285.826	149.94
286.057	138.94
286.288	144.94
286.52	164.94
286.751	148.94
286.982	152.94
287.213	156.94
287.444	156.94
287.675	160.94
287.906	161.94
288.138	135.94
288.369	158.94
288.6	164.94
288.831	152.94
289.062	167.94
289.293	168.94
289.524	156.94
289.755	149.94
289.986	150.94
290.217	147.94
290.448	143.94
290.679	161.94
290.91	169.94
291.141	148.94
291.371	159.94
291.602	161.94
291.833	146.94
292.064	144.94
292.295	140.94
292.526	135.94
292.757	165.94
292.987	138.94
293.218	148.94
293.449	141.94
293.68	158.94
293.91	148.94
294.141	155.94
294.372	150.94
294.603	154.94
294.833	142.94
295.064	161.94
295.295	159.94
295.525	154.94
295.756	156.94
295.987	148.94
296.217	141.94
296.448	145.94
296.679	137.94
296.909	148.94
297.14	152.94
297.37	143.94
297.601	148.94
297.831	149.94
298.062	148.94
298.292	149.94
298.523	158.94
298.753	157.94
298.984	159.94
299.214	140.94
299.445	164.94
299.675	158.94
299.905	154.94
300.136	167.94
300.366	170.94
300.597	161.94
300.827	164.94
301.057	149.94
301.288	156.94
301.518	161.94
301.748	153.94
301.979	185.94
302.209	174.94
302.439	161.94
302.669	168.94
302.9	159.94
303.13	166.94
303.36	172.94
303.59	199.94
303.82	214.94
304.051	174.94
304.281	161.94
304.511	166.94
304.741	161.94
304.971	178.94
305.201	158.94
305.431	167.94
305.661	161.94
305.891	160.94
306.121	162.94
306.352	154.94
306.582	157.94
306.812	170.94
307.042	212.94
307.272	206.94
307.502	228.94
307.731	220.94
307.961	202.94
308.191	165.94
308.421	164.94
308.651	160.94
308.881	155.94
309.111	166.94
309.341	166.94
309.571	167.94
309.8	159.94
310.03	162.94
310.26	162.94
310.49	169.94
310.72	166.94
310.949	172.94
311.179	153.94
311.409	180.94
311.639	161.94
311.868	182.94
312.098	184.94
312.328	159.94
312.557	190.94
312.787	174.94
313.017	184.94
313.246	177.94
313.476	167.94
313.706	175.94
313.935	174.94
314.165	162.94
314.394	159.94
314.624	175.94
314.853	180.94
315.083	176.94
315.312	176.94
315.542	182.94
315.771	164.94
316.001	176.94
316.23	185.94
316.46	174.94
316.689	175.94
316.919	178.94
317.148	187.94
317.377	193.94
317.607	189.94
317.836	190.94
318.065	167.94
318.295	170.94
318.524	191.94
318.753	169.94
318.983	165.94
319.212	168.94
319.441	176.94
319.67	199.94
319.9	180.94
320.129	180.94
320.358	157.94
320.587	192.94
320.816	174.94
321.046	176.94
321.275	177.94
321.504	184.94
321.733	179.94
321.962	192.94
322.191	200.94
322.42	199.94
322.649	199.94
322.878	183.94
323.108	210.94
323.337	196.94
323.566	205.94
323.795	216.94
324.024	208.94
324.253	223.94
324.482	218.94
324.71	224.94
324.939	216.94
325.168	235.94
325.397	223.94
325.626	244.94
325.855	232.94
326.084	248.94
326.313	219.94
326.542	240.94
326.77	265.94
326.999	281.94
327.228	299.94
327.457	322.94
327.686	387.94
327.914	532.94
328.143	702.94
328.372	738.94
328.6	509.94
328.829	389.94
329.058	360.94
329.287	393.94
329.515	489.94
329.744	642.94
329.972	942.94
330.201	1290.94
330.43	1302.94
330.658	768.94
330.887	472.94
331.115	370.94
331.344	328.94
331.572	321.94
331.801	320.94
332.03	317.94
332.258	309.94
332.486	329.94
332.715	334.94
332.943	375.94
333.172	393.94
333.4	472.94
333.629	518.94
333.857	685.94
334.085	1017.94
334.314	1463.94
334.542	1791.94
334.771	1413.94
334.999	734.94
335.227	488.94
335.455	384.94
335.684	352.94
335.912	312.94
336.14	297.94
336.369	282.94
336.597	258.94
336.825	262.94
337.053	264.94
337.281	226.94
337.51	217.94
337.738	238.94
337.966	209.94
338.194	209.94
338.422	240.94
338.65	228.94
338.878	203.94
339.106	212.94
339.334	205.94
339.562	189.94
339.79	206.94
340.018	196.94
340.246	208.94
340.474	193.94
340.702	199.94
340.93	191.94
341.158	199.94
341.386	188.94
341.614	198.94
341.842	196.94
342.07	200.94
342.298	186.94
342.526	198.94
342.754	185.94
342.981	190.94
343.209	198.94
343.437	217.94
343.665	190.94
343.893	176.94
344.12	207.94
344.348	201.94
344.576	192.94
344.804	200.94
345.031	197.94
345.259	190.94
345.487	168.94
345.714	201.94
345.942	183.94
346.17	194.94
346.397	174.94
346.625	187.94
346.853	173.94
347.08	181.94
347.308	185.94
347.535	180.94
347.763	194.94
347.99	192.94
348.218	174.94
348.445	186.94
348.673	178.94
348.9	171.94
349.128	189.94
349.355	183.94
349.583	154.94
349.81	186.94
350.037	184.94
350.265	185.94
350.492	178.94
350.72	172.94
350.947	172.94
351.174	174.94
351.402	183.94
351.629	190.94
351.856	184.94
352.083	186.94
352.311	185.94
352.538	173.94
352.765	171.94
352.992	186.94
353.22	177.94
353.447	170.94
353.674	186.94
353.901	188.94
354.128	180.94
354.355	173.94
354.583	178.94
354.81	181.94
355.037	178.94
355.264	191.94
355.491	174.94
355.718	182.94
355.945	180.94
356.172	185.94
356.399	175.94
356.626	194.94
356.853	186.94
357.08	186.94
357.307	161.94
357.534	190.94
357.761	164.94
357.988	178.94
358.215	191.94
358.441	184.94
358.668	190.94
358.895	185.94
359.122	174.94
359.349	172.94
359.576	171.94
359.802	178.94
360.029	184.94
360.256	183.94
360.483	164.94
360.709	182.94
360.936	186.94
361.163	182.94
361.39	184.94
361.616	178.94
361.843	182.94
362.07	176.94
362.296	180.94
362.523	171.94
362.749	200.94
362.976	179.94
363.203	198.94
363.429	164.94
363.656	197.94
363.882	174.94
364.109	174.94
364.335	177.94
364.562	183.94
364.788	175.94
365.015	174.94
365.241	154.94
365.468	184.94
365.694	175.94
365.92	188.94
366.147	188.94
366.373	189.94
366.599	170.94
366.826	181.94
367.052	179.94
367.278	187.94
367.505	150.94
367.731	184.94
367.957	174.94
368.184	182.94
368.41	160.94
368.636	181.94
368.862	164.94
369.089	183.94
369.315	183.94
369.541	182.94
369.767	173.94
369.993	188.94
370.219	175.94
370.445	192.94
370.672	198.94
370.898	186.94
371.124	179.94
371.35	179.94
371.576	169.94
371.802	191.94
372.028	175.94
372.254	179.94
372.48	184.94
372.706	192.94
372.932	188.94
373.158	189.94
373.384	186.94
373.61	204.94
373.835	190.94
374.061	179.94
374.287	187.94
374.513	181.94
374.739	171.94
374.965	179.94
375.191	197.94
375.416	165.94
375.642	181.94
375.868	181.94
376.094	182.94
376.319	180.94
376.545	188.94
376.771	189.94
376.997	189.94
377.222	184.94
377.448	189.94
377.674	182.94
377.899	187.94
378.125	186.94
378.35	196.94
378.576	181.94
378.802	179.94
379.027	185.94
379.253	187.94
379.478	171.94
379.704	178.94
379.929	180.94
380.155	190.94
380.38	181.94
380.606	175.94
380.831	191.94
381.057	186.94
381.282	173.94
381.507	187.94
381.733	202.94
381.958	188.94
382.184	210.94
382.409	184.94
382.634	192.94
382.86	183.94
383.085	195.94
383.31	200.94
383.535	190.94
383.761	189.94
383.986	201.94
384.211	187.94
384.436	194.94
384.662	191.94
384.887	202.94
385.112	204.94
385.337	197.94
385.562	200.94
385.787	214.94
386.013	196.94
386.238	214.94
386.463	213.94
386.688	198.94
386.913	185.94
387.138	196.94
387.363	178.94
387.588	197.94
387.813	224.94
388.038	202.94
388.263	206.94
388.488	219.94
388.713	176.94
388.938	206.94
389.163	198.94
389.387	216.94
389.612	207.94
389.837	212.94
390.062	205.94
390.287	214.94
390.512	216.94
390.736	204.94
390.961	213.94
391.186	198.94
391.411	212.94
391.636	217.94
391.86	214.94
392.085	222.94
392.31	216.94
392.534	204.94
392.759	214.94
392.984	221.94
393.208	204.94
393.433	200.94
393.658	206.94
393.882	219.94
394.107	215.94
394.331	215.94
394.556	210.94
394.78	217.94
395.005	209.94
395.229	215.94
395.454	212.94
395.678	226.94
395.903	213.94
396.127	224.94
396.352	220.94
396.576	217.94
396.801	221.94
397.025	217.94
397.249	226.94
397.474	222.94
397.698	215.94
397.922	232.94
398.147	223.94
398.371	228.94
398.595	241.94
398.82	230.94
399.044	262.94
399.268	266.94
399.492	267.94
399.717	255.94
399.941	267.94
400.165	268.94
400.389	254.94
400.613	249.94
400.837	238.94
401.062	245.94
401.286	237.94
401.51	251.94
401.734	232.94
401.958	237.94
402.182	213.94
402.406	231.94
402.63	236.94
402.854	243.94
403.078	253.94
403.302	246.94
403.526	244.94
403.75	257.94
403.974	240.94
404.198	260.94
404.422	252.94
404.645	264.94
404.869	274.94
405.093	287.94
405.317	325.94
405.541	316.94
405.765	285.94
405.988	260.94
406.212	279.94
406.436	247.94
406.66	262.94
406.883	250.94
407.107	251.94
407.331	271.94
407.555	270.94
407.778	267.94
408.002	238.94
408.226	261.94
408.449	258.94
408.673	261.94
408.896	233.94
409.12	248.94
409.344	254.94
409.567	255.94
409.791	240.94
410.014	244.94
410.238	224.94
410.461	252.94
410.685	262.94
410.908	254.94
411.132	248.94
411.355	224.94
411.578	255.94
411.802	267.94
412.025	261.94
412.249	286.94
412.472	334.94
412.695	334.94
412.919	309.94
413.142	293.94
413.365	271.94
413.589	264.94
413.812	261.94
414.035	270.94
414.258	263.94
414.482	262.94
414.705	255.94
414.928	256.94
415.151	233.94
415.374	246.94
415.597	247.94
415.821	248.94
416.044	234.94
416.267	240.94
416.49	241.94
416.713	250.94
416.936	261.94
417.159	259.94
417.382	251.94
417.605	251.94
417.828	260.94
418.051	263.94
418.274	244.94
418.497	259.94
418.72	235.94
418.943	249.94
419.166	255.94
419.389	248.94
419.611	272.94
419.834	291.94
420.057	288.94
420.28	307.94
420.503	294.94
420.726	274.94
420.948	262.94
421.171	273.94
421.394	252.94
421.617	225.94
421.839	252.94
422.062	255.94
422.285	243.94
422.507	244.94
422.73	245.94
422.953	232.94
423.175	230.94
423.398	249.94
423.621	219.94
423.843	220.94
424.066	219.94
424.288	233.94
424.511	230.94
424.733	235.94
424.956	236.94
425.178	258.94
425.401	216.94
425.623	228.94
425.846	234.94
426.068	234.94
426.291	217.94
426.513	233.94
426.735	241.94
426.958	247.94
427.18	252.94
427.402	268.94
427.625	277.94
427.847	324.94
428.069	327.94
428.292	297.94
428.514	252.94
428.736	247.94
428.958	244.94
429.181	242.94
429.403	241.94
429.625	219.94
429.847	225.94
430.069	230.94
430.292	245.94
430.514	217.94
430.736	232.94
430.958	211.94
431.18	214.94
431.402	245.94
431.624	218.94
431.846	230.94
432.068	212.94
432.29	225.94
432.512	230.94
432.734	216.94
432.956	216.94
433.178	225.94
433.4	208.94
433.622	217.94
433.844	215.94
434.066	225.94
434.287	224.94
434.509	233.94
434.731	238.94
434.953	212.94
435.175	227.94
435.397	246.94
435.618	213.94
435.84	209.94
436.062	217.94
436.284	238.94
436.505	230.94
436.727	216.94
436.949	217.94
437.17	209.94
437.392	214.94
437.614	220.94
437.835	222.94
438.057	209.94
438.278	207.94
438.5	225.94
438.721	210.94
438.943	217.94
439.165	209.94
439.386	237.94
439.608	204.94
439.829	226.94
440.05	214.94
440.272	203.94
440.493	217.94
440.715	211.94
440.936	221.94
441.158	215.94
441.379	224.94
441.6	217.94
441.822	224.94
442.043	246.94
442.264	230.94
442.486	232.94
442.707	222.94
442.928	217.94
443.149	225.94
443.371	218.94
443.592	245.94
443.813	221.94
444.034	224.94
444.255	241.94
444.476	220.94
444.698	236.94
444.919	251.94
445.14	313.94
445.361	268.94
445.582	237.94
445.803	222.94
446.024	228.94
446.245	219.94
446.466	222.94
446.687	237.94
446.908	221.94
447.129	215.94
447.35	233.94
447.571	218.94
447.792	229.94
448.013	208.94
448.234	196.94
448.455	208.94
448.675	212.94
448.896	219.94
449.117	225.94
449.338	217.94
449.559	209.94
449.779	212.94
450	204.94
450.221	208.94
450.442	200.94
450.662	213.94
450.883	220.94
451.104	201.94
451.324	212.94
451.545	211.94
451.766	208.94
451.986	212.94
452.207	192.94
452.428	206.94
452.648	210.94
452.869	201.94
453.089	197.94
453.31	201.94
453.53	203.94
453.751	210.94
453.971	194.94
454.192	198.94
454.412	197.94
454.633	207.94
454.853	200.94
455.073	180.94
455.294	213.94
455.514	194.94
455.734	206.94
455.955	203.94
456.175	194.94
456.395	198.94
456.616	200.94
456.836	216.94
457.056	221.94
457.276	204.94
457.497	216.94
457.717	208.94
457.937	205.94
458.157	214.94
458.377	207.94
458.598	210.94
458.818	216.94
459.038	217.94
459.258	210.94
459.478	227.94
459.698	228.94
459.918	232.94
460.138	226.94
460.358	234.94
460.578	232.94
460.798	226.94
461.018	238.94
461.238	257.94
461.458	239.94
461.678	223.94
461.898	228.94
462.118	237.94
462.338	241.94
462.558	246.94
462.777	235.94
462.997	256.94
463.217	284.94
463.437	265.94
463.657	264.94
463.876	253.94
464.096	264.94
464.316	252.94
464.536	257.94
464.755	246.94
464.975	230.94
465.195	231.94
465.414	224.94
465.634	231.94
465.854	233.94
466.073	245.94
466.293	239.94
466.512	233.94
466.732	228.94
466.951	215.94
467.171	237.94
467.391	249.94
467.61	296.94
467.829	370.94
468.049	634.94
468.268	766.94
468.488	456.94
468.707	338.94
468.927	302.94
469.146	280.94
469.365	270.94
469.585	267.94
469.804	261.94
470.023	254.94
470.243	268.94
470.462	267.94
470.681	267.94
470.901	258.94
471.12	273.94
471.339	284.94
471.558	283.94
471.777	358.94
471.997	493.94
472.216	1099.94
472.435	1649.94
472.654	939.94
472.873	558.94
473.092	407.94
473.311	350.94
473.53	324.94
473.749	314.94
473.968	301.94
474.187	282.94
474.406	287.94
474.625	265.94
474.844	276.94
475.063	256.94
475.282	247.94
475.501	249.94
475.72	258.94
475.939	262.94
476.158	249.94
476.377	238.94
476.596	274.94
476.814	259.94
477.033	255.94
477.252	241.94
477.471	253.94
477.69	263.94
477.908	267.94
478.127	265.94
478.346	268.94
478.564	275.94
478.783	274.94
479.002	289.94
479.22	282.94
479.439	310.94
479.658	304.94
479.876	336.94
480.095	344.94
480.313	376.94
480.532	436.94
480.751	612.94
480.969	1174.94
481.188	2578.94
481.406	2092.94
481.624	1012.94
481.843	682.94
482.061	534.94
482.28	460.94
482.498	406.94
482.717	386.94
482.935	370.94
483.153	360.94
483.372	340.94
483.59	343.94
483.808	330.94
484.027	319.94
484.245	309.94
484.463	303.94
484.681	303.94
484.9	299.94
485.118	302.94
485.336	305.94
485.554	275.94
485.772	292.94
485.99	268.94
486.209	304.94
486.427	285.94
486.645	272.94
486.863	298.94
487.081	300.94
487.299	270.94
487.517	298.94
487.735	298.94
487.953	292.94
488.171	297.94
488.389	299.94
488.607	306.94
488.825	305.94
489.043	306.94
489.261	320.94
489.479	315.94
489.696	326.94
489.914	317.94
490.132	322.94
490.35	353.94
490.568	359.94
490.786	376.94
491.003	380.94
491.221	443.94
491.439	469.94
491.657	483.94
491.874	458.94
492.092	456.94
492.31	474.94
492.527	530.94
492.745	548.94
492.963	511.94
493.18	493.94
493.398	459.94
493.615	455.94
493.833	436.94
494.05	413.94
494.268	400.94
494.485	407.94
494.703	401.94
494.92	378.94
495.138	360.94
495.355	373.94
495.573	357.94
495.79	363.94
496.008	348.94
496.225	347.94
496.442	342.94
496.66	352.94
496.877	356.94
497.094	348.94
497.312	349.94
497.529	344.94
497.746	354.94
497.963	319.94
498.181	349.94
498.398	317.94
498.615	359.94
498.832	348.94
499.049	352.94
499.267	371.94
499.484	381.94
499.701	385.94
499.918	407.94
500.135	454.94
500.352	454.94
500.569	505.94
500.786	504.94
501.003	474.94
501.22	429.94
501.437	397.94
501.654	372.94
501.871	378.94
502.088	341.94
502.305	324.94
502.522	343.94
502.739	329.94
502.956	321.94
503.172	302.94
503.389	308.94
