Data from StdC_HRD10591_052.txt Node
Date: Fri May 16 15:29:06 EDT 2025
User: Yrep
Spectrometer: HR+D1059
Trigger mode: 1
Integration Time (sec): 1.000000E-1
Scans to average: 1
Electric dark correction enabled: true
Nonlinearity correction enabled: false
Boxcar width: 0
XAxis mode: Wavelengths
Number of Pixels in Spectrum: 2048
>>>>>Begin Spectral Data<<<<<
223.165	-20.44
223.4	-20.44
223.635	-20.44
223.869	-16.44
224.104	-24.44
224.338	-4.44
224.573	-32.44
224.808	-17.44
225.042	3.56
225.277	2.56
225.511	-6.44
225.746	-8.44
225.98	0.56
226.215	9.56
226.449	22.56
226.683	30.56
226.918	33.56
227.152	27.56
227.387	22.56
227.621	39.56
227.856	43.56
228.09	40.56
228.324	49.56
228.559	45.56
228.793	60.56
229.027	68.56
229.262	65.56
229.496	69.56
229.73	57.56
229.964	67.56
230.199	66.56
230.433	71.56
230.667	80.56
230.901	88.56
231.136	83.56
231.37	92.56
231.604	81.56
231.838	73.56
232.072	82.56
232.306	87.56
232.541	83.56
232.775	90.56
233.009	78.56
233.243	95.56
233.477	91.56
233.711	79.56
233.945	68.56
234.179	84.56
234.413	80.56
234.647	81.56
234.881	87.56
235.115	84.56
235.349	87.56
235.583	78.56
235.817	77.56
236.051	91.56
236.285	88.56
236.519	97.56
236.753	77.56
236.987	97.56
237.221	65.56
237.455	89.56
237.689	92.56
237.922	79.56
238.156	79.56
238.39	75.56
238.624	68.56
238.858	79.56
239.091	75.56
239.325	76.56
239.559	104.56
239.793	77.56
240.027	87.56
240.26	87.56
240.494	91.56
240.728	86.56
240.961	90.56
241.195	94.56
241.429	104.56
241.662	86.56
241.896	79.56
242.13	83.56
242.363	89.56
242.597	89.56
242.83	98.56
243.064	92.56
243.298	78.56
243.531	87.56
243.765	92.56
243.998	91.56
244.232	106.56
244.465	106.56
244.699	91.56
244.932	97.56
245.166	93.56
245.399	100.56
245.633	97.56
245.866	103.56
246.099	107.56
246.333	106.56
246.566	98.56
246.8	104.56
247.033	79.56
247.266	86.56
247.5	96.56
247.733	98.56
247.966	81.56
248.2	97.56
248.433	95.56
248.666	107.56
248.899	111.56
249.133	111.56
249.366	119.56
249.599	108.56
249.832	120.56
250.066	135.56
250.299	169.56
250.532	197.56
250.765	185.56
250.998	142.56
251.231	125.56
251.465	122.56
251.698	137.56
251.931	131.56
252.164	137.56
252.397	108.56
252.63	105.56
252.863	109.56
253.096	114.56
253.329	113.56
253.562	117.56
253.795	110.56
254.028	130.56
254.261	121.56
254.494	110.56
254.727	124.56
254.96	134.56
255.193	141.56
255.426	172.56
255.659	190.56
255.892	257.56
256.124	313.56
256.357	249.56
256.59	205.56
256.823	160.56
257.056	159.56
257.289	149.56
257.521	155.56
257.754	122.56
257.987	125.56
258.22	131.56
258.452	142.56
258.685	132.56
258.918	122.56
259.151	128.56
259.383	134.56
259.616	135.56
259.849	129.56
260.081	139.56
260.314	128.56
260.547	130.56
260.779	139.56
261.012	144.56
261.244	135.56
261.477	134.56
261.71	123.56
261.942	117.56
262.175	120.56
262.407	126.56
262.64	118.56
262.872	115.56
263.105	127.56
263.337	128.56
263.57	124.56
263.802	136.56
264.035	125.56
264.267	107.56
264.499	122.56
264.732	99.56
264.964	140.56
265.197	118.56
265.429	114.56
265.661	135.56
265.894	125.56
266.126	133.56
266.358	111.56
266.591	122.56
266.823	121.56
267.055	118.56
267.287	137.56
267.52	135.56
267.752	125.56
267.984	127.56
268.216	125.56
268.448	131.56
268.681	123.56
268.913	129.56
269.145	129.56
269.377	130.56
269.609	134.56
269.841	140.56
270.073	138.56
270.306	139.56
270.538	131.56
270.77	126.56
271.002	121.56
271.234	141.56
271.466	144.56
271.698	148.56
271.93	129.56
272.162	129.56
272.394	140.56
272.626	131.56
272.858	134.56
273.09	150.56
273.322	133.56
273.553	135.56
273.785	148.56
274.017	138.56
274.249	146.56
274.481	136.56
274.713	134.56
274.945	145.56
275.176	144.56
275.408	163.56
275.64	177.56
275.872	179.56
276.104	181.56
276.335	177.56
276.567	172.56
276.799	203.56
277.031	212.56
277.262	236.56
277.494	214.56
277.726	188.56
277.957	179.56
278.189	171.56
278.421	181.56
278.652	160.56
278.884	188.56
279.115	171.56
279.347	179.56
279.579	193.56
279.81	218.56
280.042	250.56
280.273	269.56
280.505	247.56
280.736	211.56
280.968	212.56
281.199	187.56
281.431	169.56
281.662	164.56
281.894	179.56
282.125	172.56
282.356	155.56
282.588	158.56
282.819	163.56
283.051	148.56
283.282	151.56
283.513	161.56
283.745	152.56
283.976	163.56
284.207	137.56
284.439	141.56
284.67	155.56
284.901	153.56
285.132	162.56
285.364	150.56
285.595	162.56
285.826	169.56
286.057	160.56
286.288	144.56
286.52	143.56
286.751	157.56
286.982	154.56
287.213	152.56
287.444	172.56
287.675	160.56
287.906	155.56
288.138	149.56
288.369	152.56
288.6	160.56
288.831	153.56
289.062	139.56
289.293	149.56
289.524	154.56
289.755	152.56
289.986	150.56
290.217	155.56
290.448	150.56
290.679	139.56
290.91	155.56
291.141	156.56
291.371	151.56
291.602	139.56
291.833	160.56
292.064	139.56
292.295	159.56
292.526	150.56
292.757	154.56
292.987	147.56
293.218	139.56
293.449	151.56
293.68	149.56
293.91	164.56
294.141	153.56
294.372	155.56
294.603	147.56
294.833	137.56
295.064	149.56
295.295	145.56
295.525	143.56
295.756	143.56
295.987	149.56
296.217	161.56
296.448	150.56
296.679	137.56
296.909	146.56
297.14	146.56
297.37	148.56
297.601	138.56
297.831	155.56
298.062	151.56
298.292	152.56
298.523	156.56
298.753	143.56
298.984	149.56
299.214	145.56
299.445	150.56
299.675	144.56
299.905	171.56
300.136	159.56
300.366	149.56
300.597	167.56
300.827	174.56
301.057	159.56
301.288	149.56
301.518	153.56
301.748	165.56
301.979	181.56
302.209	153.56
302.439	156.56
302.669	157.56
302.9	163.56
303.13	163.56
303.36	181.56
303.59	193.56
303.82	199.56
304.051	196.56
304.281	159.56
304.511	159.56
304.741	164.56
304.971	168.56
305.201	164.56
305.431	165.56
305.661	177.56
305.891	161.56
306.121	159.56
306.352	168.56
306.582	174.56
306.812	190.56
307.042	195.56
307.272	221.56
307.502	235.56
307.731	198.56
307.961	188.56
308.191	164.56
308.421	184.56
308.651	170.56
308.881	172.56
309.111	174.56
309.341	159.56
309.571	174.56
309.8	171.56
310.03	160.56
310.26	160.56
310.49	160.56
310.72	165.56
310.949	163.56
311.179	153.56
311.409	159.56
311.639	164.56
311.868	173.56
312.098	165.56
312.328	179.56
312.557	175.56
312.787	179.56
313.017	161.56
313.246	183.56
313.476	177.56
313.706	177.56
313.935	164.56
314.165	171.56
314.394	178.56
314.624	172.56
314.853	172.56
315.083	179.56
315.312	171.56
315.542	178.56
315.771	165.56
316.001	172.56
316.23	178.56
316.46	175.56
316.689	179.56
316.919	195.56
317.148	183.56
317.377	181.56
317.607	187.56
317.836	169.56
318.065	172.56
318.295	160.56
318.524	197.56
318.753	177.56
318.983	187.56
319.212	187.56
319.441	175.56
319.67	177.56
319.9	183.56
320.129	188.56
320.358	199.56
320.587	177.56
320.816	182.56
321.046	181.56
321.275	187.56
321.504	180.56
321.733	185.56
321.962	196.56
322.191	193.56
322.42	190.56
322.649	203.56
322.878	206.56
323.108	203.56
323.337	197.56
323.566	203.56
323.795	203.56
324.024	211.56
324.253	207.56
324.482	208.56
324.71	208.56
324.939	226.56
325.168	228.56
325.397	224.56
325.626	232.56
325.855	253.56
326.084	244.56
326.313	252.56
326.542	249.56
326.77	251.56
326.999	268.56
327.228	290.56
327.457	332.56
327.686	417.56
327.914	557.56
328.143	735.56
328.372	751.56
328.6	556.56
328.829	410.56
329.058	405.56
329.287	412.56
329.515	492.56
329.744	692.56
329.972	1019.56
330.201	1347.56
330.43	1345.56
330.658	800.56
330.887	473.56
331.115	410.56
331.344	342.56
331.572	336.56
331.801	310.56
332.03	302.56
332.258	337.56
332.486	332.56
332.715	346.56
332.943	377.56
333.172	404.56
333.4	441.56
333.629	546.56
333.857	746.56
334.085	1091.56
334.314	1580.56
334.542	1871.56
334.771	1547.56
334.999	769.56
335.227	526.56
335.455	420.56
335.684	379.56
335.912	312.56
336.14	294.56
336.369	274.56
336.597	275.56
336.825	253.56
337.053	246.56
337.281	274.56
337.51	236.56
337.738	230.56
337.966	233.56
338.194	215.56
338.422	204.56
338.65	235.56
338.878	218.56
339.106	220.56
339.334	223.56
339.562	227.56
339.79	219.56
340.018	217.56
340.246	210.56
340.474	191.56
340.702	194.56
340.93	206.56
341.158	192.56
341.386	183.56
341.614	204.56
341.842	198.56
342.07	190.56
342.298	189.56
342.526	195.56
342.754	205.56
342.981	193.56
343.209	194.56
343.437	214.56
343.665	193.56
343.893	197.56
344.12	209.56
344.348	210.56
344.576	189.56
344.804	186.56
345.031	188.56
345.259	192.56
345.487	202.56
345.714	176.56
345.942	172.56
346.17	172.56
346.397	185.56
346.625	178.56
346.853	187.56
347.08	176.56
347.308	179.56
347.535	185.56
347.763	191.56
347.99	197.56
348.218	196.56
348.445	187.56
348.673	175.56
348.9	163.56
349.128	189.56
349.355	197.56
349.583	204.56
349.81	162.56
350.037	175.56
350.265	201.56
350.492	187.56
350.72	172.56
350.947	179.56
351.174	185.56
351.402	176.56
351.629	185.56
351.856	179.56
352.083	185.56
352.311	165.56
352.538	177.56
352.765	188.56
352.992	183.56
353.22	174.56
353.447	199.56
353.674	184.56
353.901	172.56
354.128	184.56
354.355	185.56
354.583	197.56
354.81	195.56
355.037	195.56
355.264	169.56
355.491	179.56
355.718	189.56
355.945	187.56
356.172	174.56
356.399	179.56
356.626	179.56
356.853	175.56
357.08	176.56
357.307	171.56
357.534	175.56
357.761	171.56
357.988	179.56
358.215	181.56
358.441	187.56
358.668	162.56
358.895	157.56
359.122	174.56
359.349	180.56
359.576	177.56
359.802	167.56
360.029	172.56
360.256	151.56
360.483	179.56
360.709	178.56
360.936	179.56
361.163	186.56
361.39	194.56
361.616	175.56
361.843	171.56
362.07	190.56
362.296	171.56
362.523	191.56
362.749	186.56
362.976	159.56
363.203	179.56
363.429	165.56
363.656	188.56
363.882	193.56
364.109	183.56
364.335	187.56
364.562	181.56
364.788	169.56
365.015	181.56
365.241	181.56
365.468	176.56
365.694	175.56
365.92	172.56
366.147	194.56
366.373	179.56
366.599	182.56
366.826	165.56
367.052	181.56
367.278	185.56
367.505	187.56
367.731	189.56
367.957	172.56
368.184	179.56
368.41	192.56
368.636	183.56
368.862	189.56
369.089	173.56
369.315	180.56
369.541	186.56
369.767	190.56
369.993	175.56
370.219	165.56
370.445	169.56
370.672	177.56
370.898	186.56
371.124	186.56
371.35	185.56
371.576	187.56
371.802	181.56
372.028	194.56
372.254	188.56
372.48	185.56
372.706	203.56
372.932	181.56
373.158	182.56
373.384	175.56
373.61	205.56
373.835	189.56
374.061	193.56
374.287	181.56
374.513	161.56
374.739	178.56
374.965	179.56
375.191	191.56
375.416	201.56
375.642	200.56
375.868	191.56
376.094	191.56
376.319	180.56
376.545	181.56
376.771	182.56
376.997	196.56
377.222	192.56
377.448	175.56
377.674	188.56
377.899	183.56
378.125	166.56
378.35	187.56
378.576	167.56
378.802	181.56
379.027	180.56
379.253	194.56
379.478	187.56
379.704	195.56
379.929	199.56
380.155	188.56
380.38	184.56
380.606	211.56
380.831	195.56
381.057	191.56
381.282	184.56
381.507	179.56
381.733	192.56
381.958	194.56
382.184	187.56
382.409	187.56
382.634	173.56
382.86	210.56
383.085	186.56
383.31	197.56
383.535	183.56
383.761	207.56
383.986	192.56
384.211	207.56
384.436	189.56
384.662	205.56
384.887	189.56
385.112	190.56
385.337	201.56
385.562	204.56
385.787	200.56
386.013	198.56
386.238	199.56
386.463	217.56
386.688	215.56
386.913	208.56
387.138	203.56
387.363	202.56
387.588	204.56
387.813	210.56
388.038	214.56
388.263	204.56
388.488	197.56
388.713	207.56
388.938	195.56
389.163	201.56
389.387	211.56
389.612	191.56
389.837	216.56
390.062	205.56
390.287	200.56
390.512	208.56
390.736	219.56
390.961	223.56
391.186	197.56
391.411	199.56
391.636	219.56
391.86	213.56
392.085	228.56
392.31	217.56
392.534	201.56
392.759	206.56
392.984	209.56
393.208	202.56
393.433	198.56
393.658	201.56
393.882	195.56
394.107	197.56
394.331	197.56
394.556	204.56
394.78	222.56
395.005	227.56
395.229	208.56
395.454	232.56
395.678	219.56
395.903	229.56
396.127	213.56
396.352	211.56
396.576	217.56
396.801	211.56
397.025	223.56
397.249	217.56
397.474	223.56
397.698	231.56
397.922	229.56
398.147	213.56
398.371	221.56
398.595	231.56
398.82	226.56
399.044	238.56
399.268	260.56
399.492	261.56
399.717	297.56
399.941	287.56
400.165	279.56
400.389	259.56
400.613	232.56
400.837	231.56
401.062	241.56
401.286	221.56
401.51	228.56
401.734	233.56
401.958	257.56
402.182	254.56
402.406	234.56
402.63	243.56
402.854	235.56
403.078	250.56
403.302	244.56
403.526	247.56
403.75	247.56
403.974	243.56
404.198	249.56
404.422	262.56
404.645	260.56
404.869	281.56
405.093	310.56
405.317	317.56
405.541	328.56
405.765	296.56
405.988	261.56
406.212	269.56
406.436	242.56
406.66	251.56
406.883	243.56
407.107	265.56
407.331	257.56
407.555	251.56
407.778	265.56
408.002	276.56
408.226	253.56
408.449	262.56
408.673	245.56
408.896	249.56
409.12	253.56
409.344	253.56
409.567	250.56
409.791	236.56
410.014	263.56
410.238	239.56
410.461	251.56
410.685	253.56
410.908	245.56
411.132	265.56
411.355	255.56
411.578	253.56
411.802	262.56
412.025	275.56
412.249	285.56
412.472	297.56
412.695	345.56
412.919	317.56
413.142	301.56
413.365	282.56
413.589	264.56
413.812	266.56
414.035	255.56
414.258	248.56
414.482	243.56
414.705	264.56
414.928	261.56
415.151	252.56
415.374	247.56
415.597	251.56
415.821	247.56
416.044	252.56
416.267	251.56
416.49	229.56
416.713	226.56
416.936	244.56
417.159	244.56
417.382	264.56
417.605	268.56
417.828	255.56
418.051	247.56
418.274	241.56
418.497	241.56
418.72	257.56
418.943	251.56
419.166	239.56
419.389	277.56
419.611	287.56
419.834	276.56
420.057	296.56
420.28	327.56
420.503	305.56
420.726	275.56
420.948	256.56
421.171	264.56
421.394	268.56
421.617	254.56
421.839	242.56
422.062	237.56
422.285	217.56
422.507	232.56
422.73	243.56
422.953	220.56
423.175	247.56
423.398	250.56
423.621	230.56
423.843	253.56
424.066	225.56
424.288	231.56
424.511	232.56
424.733	229.56
424.956	239.56
425.178	229.56
425.401	239.56
425.623	239.56
425.846	221.56
426.068	229.56
426.291	243.56
426.513	228.56
426.735	231.56
426.958	229.56
427.18	237.56
427.402	258.56
427.625	299.56
427.847	333.56
428.069	324.56
428.292	301.56
428.514	259.56
428.736	244.56
428.958	239.56
429.181	232.56
429.403	218.56
429.625	228.56
429.847	236.56
430.069	237.56
430.292	247.56
430.514	239.56
430.736	219.56
430.958	232.56
431.18	229.56
431.402	239.56
431.624	228.56
431.846	220.56
432.068	236.56
432.29	225.56
432.512	195.56
432.734	223.56
432.956	224.56
433.178	220.56
433.4	207.56
433.622	214.56
433.844	219.56
434.066	228.56
434.287	231.56
434.509	237.56
434.731	233.56
434.953	233.56
435.175	216.56
435.397	233.56
435.618	212.56
435.84	228.56
436.062	215.56
436.284	203.56
436.505	203.56
436.727	225.56
436.949	223.56
437.17	211.56
437.392	215.56
437.614	213.56
437.835	201.56
438.057	200.56
438.278	216.56
438.5	226.56
438.721	212.56
438.943	214.56
439.165	214.56
439.386	209.56
439.608	234.56
439.829	215.56
440.05	204.56
440.272	221.56
440.493	217.56
440.715	219.56
440.936	227.56
441.158	229.56
441.379	212.56
441.6	228.56
441.822	227.56
442.043	214.56
442.264	217.56
442.486	234.56
442.707	223.56
442.928	228.56
443.149	240.56
443.371	228.56
443.592	225.56
443.813	225.56
444.034	236.56
444.255	221.56
444.476	222.56
444.698	237.56
444.919	244.56
445.14	310.56
445.361	285.56
445.582	242.56
445.803	223.56
446.024	221.56
446.245	208.56
446.466	225.56
446.687	216.56
446.908	219.56
447.129	223.56
447.35	211.56
447.571	212.56
447.792	210.56
448.013	207.56
448.234	207.56
448.455	221.56
448.675	205.56
448.896	200.56
449.117	227.56
449.338	219.56
449.559	201.56
449.779	198.56
450	200.56
450.221	211.56
450.442	210.56
450.662	215.56
450.883	211.56
451.104	218.56
451.324	211.56
451.545	218.56
451.766	199.56
451.986	203.56
452.207	202.56
452.428	193.56
452.648	205.56
452.869	192.56
453.089	196.56
453.31	199.56
453.53	207.56
453.751	202.56
453.971	184.56
454.192	208.56
454.412	185.56
454.633	196.56
454.853	202.56
455.073	199.56
455.294	189.56
455.514	199.56
455.734	189.56
455.955	202.56
456.175	197.56
456.395	193.56
456.616	203.56
456.836	202.56
457.056	217.56
457.276	228.56
457.497	211.56
457.717	198.56
457.937	207.56
458.157	202.56
458.377	204.56
458.598	213.56
458.818	205.56
459.038	224.56
459.258	218.56
459.478	223.56
459.698	211.56
459.918	218.56
460.138	225.56
460.358	234.56
460.578	229.56
460.798	241.56
461.018	239.56
461.238	252.56
461.458	241.56
461.678	251.56
461.898	237.56
462.118	231.56
462.338	240.56
462.558	261.56
462.777	258.56
462.997	283.56
463.217	288.56
463.437	253.56
463.657	264.56
463.876	268.56
464.096	261.56
464.316	255.56
464.536	262.56
464.755	256.56
464.975	240.56
465.195	246.56
465.414	238.56
465.634	243.56
465.854	229.56
466.073	229.56
466.293	232.56
466.512	237.56
466.732	255.56
466.951	233.56
467.171	245.56
467.391	257.56
467.61	283.56
467.829	379.56
468.049	691.56
468.268	845.56
468.488	487.56
468.707	348.56
468.927	298.56
469.146	285.56
469.365	268.56
469.585	254.56
469.804	260.56
470.023	254.56
470.243	262.56
470.462	259.56
470.681	282.56
470.901	273.56
471.12	259.56
471.339	294.56
471.558	317.56
471.777	353.56
471.997	547.56
472.216	1155.56
472.435	1770.56
472.654	977.56
472.873	592.56
473.092	439.56
473.311	357.56
473.53	341.56
473.749	310.56
473.968	294.56
474.187	303.56
474.406	289.56
474.625	271.56
474.844	283.56
475.063	247.56
475.282	271.56
475.501	244.56
475.72	236.56
475.939	253.56
476.158	248.56
476.377	238.56
476.596	249.56
476.814	243.56
477.033	255.56
477.252	267.56
477.471	272.56
477.69	256.56
477.908	257.56
478.127	277.56
478.346	262.56
478.564	286.56
478.783	284.56
479.002	294.56
479.22	317.56
479.439	301.56
479.658	300.56
479.876	329.56
480.095	347.56
480.313	372.56
480.532	463.56
480.751	612.56
480.969	1272.56
481.188	2796.56
481.406	2277.56
481.624	1100.56
481.843	713.56
482.061	559.56
482.28	498.56
482.498	451.56
482.717	403.56
482.935	381.56
483.153	359.56
483.372	355.56
483.59	340.56
483.808	315.56
484.027	324.56
484.245	293.56
484.463	295.56
484.681	291.56
484.9	299.56
485.118	292.56
485.336	293.56
485.554	281.56
485.772	284.56
485.99	297.56
486.209	307.56
486.427	284.56
486.645	280.56
486.863	275.56
487.081	296.56
487.299	301.56
487.517	303.56
487.735	293.56
487.953	309.56
488.171	297.56
488.389	297.56
488.607	327.56
488.825	296.56
489.043	304.56
489.261	320.56
489.479	319.56
489.696	315.56
489.914	325.56
490.132	328.56
490.35	347.56
490.568	339.56
490.786	369.56
491.003	392.56
491.221	424.56
491.439	468.56
491.657	452.56
491.874	473.56
492.092	479.56
492.31	495.56
492.527	559.56
492.745	540.56
492.963	509.56
493.18	488.56
493.398	479.56
493.615	455.56
493.833	430.56
494.05	406.56
494.268	420.56
494.485	402.56
494.703	394.56
494.92	386.56
495.138	356.56
495.355	367.56
495.573	358.56
495.79	356.56
496.008	347.56
496.225	347.56
496.442	356.56
496.66	335.56
496.877	335.56
497.094	350.56
497.312	323.56
497.529	344.56
497.746	342.56
497.963	333.56
498.181	346.56
498.398	360.56
498.615	353.56
498.832	353.56
499.049	356.56
499.267	375.56
499.484	378.56
499.701	391.56
499.918	431.56
500.135	432.56
500.352	465.56
500.569	521.56
500.786	506.56
501.003	465.56
501.22	449.56
501.437	410.56
501.654	395.56
501.871	372.56
502.088	344.56
502.305	364.56
502.522	347.56
502.739	323.56
502.956	318.56
503.172	319.56
503.389	307.56
503.606	285.56
