Data from StdC_HRD10591_075.txt Node
Date: Fri May 16 15:29:18 EDT 2025
User: Yrep
Spectrometer: HR+D1059
Trigger mode: 1
Integration Time (sec): 1.000000E-1
Scans to average: 1
Electric dark correction enabled: true
Nonlinearity correction enabled: false
Boxcar width: 0
XAxis mode: Wavelengths
Number of Pixels in Spectrum: 2048
>>>>>Begin Spectral Data<<<<<
223.165	-15.19
223.4	-15.19
223.635	-15.19
223.869	-24.19
224.104	-27.19
224.338	-14.19
224.573	-10.19
224.808	-0.19
225.042	-10.19
225.277	3.81
225.511	-0.19
225.746	2.81
225.98	12.81
226.215	15.81
226.449	14.81
226.683	24.81
226.918	10.81
227.152	15.81
227.387	31.81
227.621	41.81
227.856	47.81
228.09	45.81
228.324	42.81
228.559	50.81
228.793	64.81
229.027	72.81
229.262	74.81
229.496	72.81
229.73	72.81
229.964	75.81
230.199	74.81
230.433	73.81
230.667	68.81
230.901	79.81
231.136	84.81
231.37	83.81
231.604	87.81
231.838	75.81
232.072	96.81
232.306	102.81
232.541	74.81
232.775	103.81
233.009	92.81
233.243	89.81
233.477	90.81
233.711	100.81
233.945	100.81
234.179	85.81
234.413	96.81
234.647	95.81
234.881	103.81
235.115	93.81
235.349	87.81
235.583	88.81
235.817	85.81
236.051	77.81
236.285	78.81
236.519	102.81
236.753	84.81
236.987	76.81
237.221	97.81
237.455	105.81
237.689	88.81
237.922	97.81
238.156	81.81
238.39	76.81
238.624	79.81
238.858	90.81
239.091	91.81
239.325	89.81
239.559	95.81
239.793	84.81
240.027	101.81
240.26	97.81
240.494	88.81
240.728	95.81
240.961	105.81
241.195	105.81
241.429	88.81
241.662	100.81
241.896	107.81
242.13	71.81
242.363	95.81
242.597	83.81
242.83	90.81
243.064	103.81
243.298	118.81
243.531	104.81
243.765	112.81
243.998	109.81
244.232	97.81
244.465	105.81
244.699	105.81
244.932	97.81
245.166	114.81
245.399	110.81
245.633	95.81
245.866	108.81
246.099	110.81
246.333	108.81
246.566	106.81
246.8	98.81
247.033	103.81
247.266	108.81
247.5	83.81
247.733	110.81
247.966	111.81
248.2	95.81
248.433	105.81
248.666	112.81
248.899	101.81
249.133	117.81
249.366	117.81
249.599	112.81
249.832	102.81
250.066	135.81
250.299	146.81
250.532	204.81
250.765	188.81
250.998	170.81
251.231	124.81
251.465	125.81
251.698	104.81
251.931	120.81
252.164	119.81
252.397	106.81
252.63	129.81
252.863	128.81
253.096	127.81
253.329	136.81
253.562	128.81
253.795	108.81
254.028	119.81
254.261	112.81
254.494	138.81
254.727	129.81
254.96	125.81
255.193	137.81
255.426	155.81
255.659	199.81
255.892	255.81
256.124	303.81
256.357	248.81
256.59	195.81
256.823	180.81
257.056	151.81
257.289	171.81
257.521	139.81
257.754	150.81
257.987	144.81
258.22	145.81
258.452	139.81
258.685	127.81
258.918	131.81
259.151	136.81
259.383	137.81
259.616	130.81
259.849	125.81
260.081	129.81
260.314	135.81
260.547	134.81
260.779	130.81
261.012	144.81
261.244	149.81
261.477	143.81
261.71	131.81
261.942	126.81
262.175	132.81
262.407	129.81
262.64	118.81
262.872	123.81
263.105	133.81
263.337	130.81
263.57	120.81
263.802	105.81
264.035	120.81
264.267	116.81
264.499	113.81
264.732	132.81
264.964	114.81
265.197	108.81
265.429	128.81
265.661	124.81
265.894	129.81
266.126	123.81
266.358	123.81
266.591	136.81
266.823	118.81
267.055	121.81
267.287	125.81
267.52	121.81
267.752	128.81
267.984	123.81
268.216	135.81
268.448	120.81
268.681	137.81
268.913	134.81
269.145	126.81
269.377	116.81
269.609	134.81
269.841	132.81
270.073	127.81
270.306	122.81
270.538	141.81
270.77	122.81
271.002	130.81
271.234	141.81
271.466	136.81
271.698	153.81
271.93	130.81
272.162	137.81
272.394	142.81
272.626	134.81
272.858	144.81
273.09	141.81
273.322	155.81
273.553	142.81
273.785	151.81
274.017	142.81
274.249	160.81
274.481	158.81
274.713	156.81
274.945	144.81
275.176	150.81
275.408	172.81
275.64	168.81
275.872	193.81
276.104	172.81
276.335	169.81
276.567	184.81
276.799	188.81
277.031	206.81
277.262	222.81
277.494	211.81
277.726	178.81
277.957	202.81
278.189	171.81
278.421	168.81
278.652	177.81
278.884	174.81
279.115	182.81
279.347	182.81
279.579	198.81
279.81	215.81
280.042	243.81
280.273	281.81
280.505	254.81
280.736	207.81
280.968	186.81
281.199	177.81
281.431	181.81
281.662	191.81
281.894	159.81
282.125	167.81
282.356	164.81
282.588	162.81
282.819	162.81
283.051	164.81
283.282	150.81
283.513	162.81
283.745	157.81
283.976	152.81
284.207	146.81
284.439	172.81
284.67	158.81
284.901	168.81
285.132	155.81
285.364	150.81
285.595	155.81
285.826	156.81
286.057	155.81
286.288	150.81
286.52	154.81
286.751	148.81
286.982	150.81
287.213	164.81
287.444	146.81
287.675	160.81
287.906	166.81
288.138	146.81
288.369	157.81
288.6	174.81
288.831	165.81
289.062	160.81
289.293	153.81
289.524	155.81
289.755	174.81
289.986	161.81
290.217	152.81
290.448	149.81
290.679	162.81
290.91	160.81
291.141	151.81
291.371	161.81
291.602	158.81
291.833	153.81
292.064	154.81
292.295	142.81
292.526	161.81
292.757	161.81
292.987	141.81
293.218	148.81
293.449	160.81
293.68	161.81
293.91	163.81
294.141	148.81
294.372	158.81
294.603	157.81
294.833	155.81
295.064	167.81
295.295	129.81
295.525	168.81
295.756	153.81
295.987	154.81
296.217	145.81
296.448	164.81
296.679	159.81
296.909	151.81
297.14	159.81
297.37	148.81
297.601	164.81
297.831	146.81
298.062	169.81
298.292	155.81
298.523	149.81
298.753	153.81
298.984	158.81
299.214	157.81
299.445	149.81
299.675	160.81
299.905	149.81
300.136	158.81
300.366	148.81
300.597	170.81
300.827	170.81
301.057	167.81
301.288	158.81
301.518	164.81
301.748	169.81
301.979	184.81
302.209	156.81
302.439	159.81
302.669	161.81
302.9	155.81
303.13	155.81
303.36	171.81
303.59	199.81
303.82	197.81
304.051	188.81
304.281	182.81
304.511	189.81
304.741	180.81
304.971	166.81
305.201	170.81
305.431	186.81
305.661	158.81
305.891	174.81
306.121	159.81
306.352	141.81
306.582	187.81
306.812	182.81
307.042	197.81
307.272	238.81
307.502	238.81
307.731	204.81
307.961	194.81
308.191	172.81
308.421	177.81
308.651	180.81
308.881	171.81
309.111	160.81
309.341	169.81
309.571	164.81
309.8	159.81
310.03	169.81
310.26	184.81
310.49	161.81
310.72	161.81
310.949	167.81
311.179	185.81
311.409	184.81
311.639	185.81
311.868	170.81
312.098	176.81
312.328	164.81
312.557	165.81
312.787	180.81
313.017	180.81
313.246	165.81
313.476	169.81
313.706	175.81
313.935	157.81
314.165	187.81
314.394	185.81
314.624	175.81
314.853	175.81
315.083	170.81
315.312	179.81
315.542	181.81
315.771	166.81
316.001	175.81
316.23	178.81
316.46	186.81
316.689	187.81
316.919	188.81
317.148	186.81
317.377	184.81
317.607	182.81
317.836	172.81
318.065	169.81
318.295	173.81
318.524	190.81
318.753	202.81
318.983	187.81
319.212	182.81
319.441	194.81
319.67	183.81
319.9	176.81
320.129	181.81
320.358	184.81
320.587	169.81
320.816	198.81
321.046	176.81
321.275	190.81
321.504	195.81
321.733	190.81
321.962	195.81
322.191	184.81
322.42	190.81
322.649	198.81
322.878	205.81
323.108	200.81
323.337	188.81
323.566	209.81
323.795	197.81
324.024	234.81
324.253	217.81
324.482	225.81
324.71	219.81
324.939	221.81
325.168	198.81
325.397	230.81
325.626	237.81
325.855	235.81
326.084	250.81
326.313	250.81
326.542	244.81
326.77	258.81
326.999	279.81
327.228	297.81
327.457	336.81
327.686	420.81
327.914	558.81
328.143	693.81
328.372	745.81
328.6	504.81
328.829	384.81
329.058	391.81
329.287	408.81
329.515	510.81
329.744	678.81
329.972	1014.81
330.201	1308.81
330.43	1310.81
330.658	771.81
330.887	502.81
331.115	384.81
331.344	338.81
331.572	341.81
331.801	300.81
332.03	311.81
332.258	320.81
332.486	319.81
332.715	343.81
332.943	362.81
333.172	395.81
333.4	431.81
333.629	527.81
333.857	705.81
334.085	1068.81
334.314	1508.81
334.542	1825.81
334.771	1490.81
334.999	772.81
335.227	519.81
335.455	410.81
335.684	362.81
335.912	296.81
336.14	302.81
336.369	290.81
336.597	260.81
336.825	250.81
337.053	252.81
337.281	232.81
337.51	257.81
337.738	246.81
337.966	220.81
338.194	213.81
338.422	216.81
338.65	216.81
338.878	213.81
339.106	205.81
339.334	219.81
339.562	213.81
339.79	223.81
340.018	212.81
340.246	218.81
340.474	206.81
340.702	195.81
340.93	209.81
341.158	200.81
341.386	211.81
341.614	193.81
341.842	196.81
342.07	202.81
342.298	209.81
342.526	182.81
342.754	195.81
342.981	185.81
343.209	204.81
343.437	220.81
343.665	191.81
343.893	194.81
344.12	202.81
344.348	203.81
344.576	188.81
344.804	194.81
345.031	192.81
345.259	185.81
345.487	192.81
345.714	182.81
345.942	181.81
346.17	191.81
346.397	194.81
346.625	182.81
346.853	173.81
347.08	173.81
347.308	191.81
347.535	191.81
347.763	185.81
347.99	197.81
348.218	189.81
348.445	182.81
348.673	178.81
348.9	187.81
349.128	185.81
349.355	181.81
349.583	180.81
349.81	177.81
350.037	182.81
350.265	178.81
350.492	180.81
350.72	164.81
350.947	183.81
351.174	185.81
351.402	186.81
351.629	169.81
351.856	202.81
352.083	167.81
352.311	169.81
352.538	171.81
352.765	174.81
352.992	191.81
353.22	178.81
353.447	194.81
353.674	182.81
353.901	185.81
354.128	173.81
354.355	182.81
354.583	187.81
354.81	190.81
355.037	183.81
355.264	177.81
355.491	195.81
355.718	192.81
355.945	188.81
356.172	184.81
356.399	184.81
356.626	185.81
356.853	182.81
357.08	170.81
357.307	170.81
357.534	185.81
357.761	178.81
357.988	182.81
358.215	177.81
358.441	189.81
358.668	179.81
358.895	169.81
359.122	181.81
359.349	173.81
359.576	178.81
359.802	168.81
360.029	192.81
360.256	189.81
360.483	183.81
360.709	174.81
360.936	184.81
361.163	193.81
361.39	183.81
361.616	168.81
361.843	183.81
362.07	184.81
362.296	161.81
362.523	186.81
362.749	168.81
362.976	181.81
363.203	187.81
363.429	180.81
363.656	183.81
363.882	173.81
364.109	193.81
364.335	179.81
364.562	171.81
364.788	158.81
365.015	183.81
365.241	158.81
365.468	190.81
365.694	179.81
365.92	176.81
366.147	171.81
366.373	168.81
366.599	183.81
366.826	173.81
367.052	194.81
367.278	190.81
367.505	175.81
367.731	189.81
367.957	171.81
368.184	186.81
368.41	180.81
368.636	193.81
368.862	188.81
369.089	176.81
369.315	168.81
369.541	177.81
369.767	183.81
369.993	179.81
370.219	193.81
370.445	192.81
370.672	182.81
370.898	195.81
371.124	195.81
371.35	187.81
371.576	198.81
371.802	178.81
372.028	190.81
372.254	170.81
372.48	197.81
372.706	194.81
372.932	193.81
373.158	192.81
373.384	190.81
373.61	188.81
373.835	190.81
374.061	189.81
374.287	184.81
374.513	190.81
374.739	186.81
374.965	173.81
375.191	189.81
375.416	175.81
375.642	193.81
375.868	165.81
376.094	186.81
376.319	189.81
376.545	201.81
376.771	184.81
376.997	190.81
377.222	176.81
377.448	189.81
377.674	186.81
377.899	194.81
378.125	184.81
378.35	190.81
378.576	177.81
378.802	180.81
379.027	174.81
379.253	187.81
379.478	189.81
379.704	202.81
379.929	187.81
380.155	190.81
380.38	192.81
380.606	176.81
380.831	189.81
381.057	187.81
381.282	184.81
381.507	181.81
381.733	173.81
381.958	189.81
382.184	205.81
382.409	195.81
382.634	197.81
382.86	194.81
383.085	203.81
383.31	192.81
383.535	197.81
383.761	197.81
383.986	197.81
384.211	197.81
384.436	183.81
384.662	202.81
384.887	196.81
385.112	200.81
385.337	204.81
385.562	198.81
385.787	181.81
386.013	211.81
386.238	203.81
386.463	202.81
386.688	212.81
386.913	205.81
387.138	209.81
387.363	198.81
387.588	210.81
387.813	204.81
388.038	221.81
388.263	204.81
388.488	200.81
388.713	195.81
388.938	201.81
389.163	204.81
389.387	208.81
389.612	198.81
389.837	212.81
390.062	206.81
390.287	193.81
390.512	188.81
390.736	200.81
390.961	208.81
391.186	181.81
391.411	197.81
391.636	223.81
391.86	214.81
392.085	221.81
392.31	214.81
392.534	207.81
392.759	207.81
392.984	219.81
393.208	211.81
393.433	208.81
393.658	203.81
393.882	225.81
394.107	193.81
394.331	221.81
394.556	204.81
394.78	217.81
395.005	206.81
395.229	219.81
395.454	202.81
395.678	226.81
395.903	212.81
396.127	243.81
396.352	230.81
396.576	202.81
396.801	223.81
397.025	224.81
397.249	214.81
397.474	222.81
397.698	230.81
397.922	225.81
398.147	236.81
398.371	232.81
398.595	232.81
398.82	238.81
399.044	249.81
399.268	250.81
399.492	268.81
399.717	281.81
399.941	273.81
400.165	261.81
400.389	253.81
400.613	244.81
400.837	226.81
401.062	235.81
401.286	244.81
401.51	244.81
401.734	238.81
401.958	248.81
402.182	230.81
402.406	228.81
402.63	246.81
402.854	225.81
403.078	233.81
403.302	220.81
403.526	244.81
403.75	260.81
403.974	252.81
404.198	271.81
404.422	247.81
404.645	274.81
404.869	291.81
405.093	314.81
405.317	312.81
405.541	313.81
405.765	286.81
405.988	285.81
406.212	273.81
406.436	250.81
406.66	255.81
406.883	259.81
407.107	263.81
407.331	249.81
407.555	257.81
407.778	253.81
408.002	268.81
408.226	262.81
408.449	270.81
408.673	258.81
408.896	256.81
409.12	250.81
409.344	237.81
409.567	228.81
409.791	239.81
410.014	256.81
410.238	261.81
410.461	249.81
410.685	258.81
410.908	235.81
411.132	244.81
411.355	244.81
411.578	252.81
411.802	240.81
412.025	259.81
412.249	277.81
412.472	307.81
412.695	331.81
412.919	304.81
413.142	314.81
413.365	278.81
413.589	251.81
413.812	250.81
414.035	261.81
414.258	249.81
414.482	253.81
414.705	246.81
414.928	249.81
415.151	258.81
415.374	251.81
415.597	253.81
415.821	257.81
416.044	250.81
416.267	255.81
416.49	232.81
416.713	237.81
416.936	237.81
417.159	240.81
417.382	246.81
417.605	262.81
417.828	257.81
418.051	251.81
418.274	263.81
418.497	246.81
418.72	232.81
418.943	234.81
419.166	276.81
419.389	262.81
419.611	277.81
419.834	278.81
420.057	292.81
420.28	305.81
420.503	286.81
420.726	279.81
420.948	263.81
421.171	260.81
421.394	256.81
421.617	252.81
421.839	252.81
422.062	238.81
422.285	219.81
422.507	249.81
422.73	245.81
422.953	233.81
423.175	249.81
423.398	223.81
423.621	236.81
423.843	241.81
424.066	246.81
424.288	234.81
424.511	253.81
424.733	244.81
424.956	247.81
425.178	240.81
425.401	246.81
425.623	249.81
425.846	258.81
426.068	235.81
426.291	258.81
426.513	248.81
426.735	234.81
426.958	226.81
427.18	240.81
427.402	262.81
427.625	278.81
427.847	303.81
428.069	343.81
428.292	296.81
428.514	253.81
428.736	236.81
428.958	244.81
429.181	232.81
429.403	240.81
429.625	236.81
429.847	221.81
430.069	228.81
430.292	219.81
430.514	217.81
430.736	240.81
430.958	230.81
431.18	225.81
431.402	224.81
431.624	219.81
431.846	222.81
432.068	226.81
432.29	230.81
432.512	233.81
432.734	224.81
432.956	228.81
433.178	230.81
433.4	205.81
433.622	214.81
433.844	226.81
434.066	212.81
434.287	234.81
434.509	221.81
434.731	229.81
434.953	220.81
435.175	224.81
435.397	228.81
435.618	218.81
435.84	227.81
436.062	225.81
436.284	230.81
436.505	221.81
436.727	219.81
436.949	221.81
437.17	213.81
437.392	206.81
437.614	218.81
437.835	207.81
438.057	217.81
438.278	201.81
438.5	220.81
438.721	209.81
438.943	211.81
439.165	225.81
439.386	200.81
439.608	212.81
439.829	228.81
440.05	234.81
440.272	223.81
440.493	217.81
440.715	199.81
440.936	226.81
441.158	226.81
441.379	226.81
441.6	234.81
441.822	221.81
442.043	225.81
442.264	237.81
442.486	227.81
442.707	238.81
442.928	225.81
443.149	236.81
443.371	232.81
443.592	212.81
443.813	213.81
444.034	236.81
444.255	247.81
444.476	241.81
444.698	250.81
444.919	248.81
445.14	313.81
445.361	280.81
445.582	251.81
445.803	220.81
446.024	248.81
446.245	240.81
446.466	221.81
446.687	216.81
446.908	233.81
447.129	207.81
447.35	220.81
447.571	210.81
447.792	215.81
448.013	223.81
448.234	208.81
448.455	200.81
448.675	208.81
448.896	218.81
449.117	212.81
449.338	193.81
449.559	212.81
449.779	219.81
450	211.81
450.221	223.81
450.442	205.81
450.662	210.81
450.883	209.81
451.104	198.81
451.324	212.81
451.545	195.81
451.766	200.81
451.986	201.81
452.207	216.81
452.428	204.81
452.648	194.81
452.869	183.81
453.089	194.81
453.31	202.81
453.53	208.81
453.751	217.81
453.971	196.81
454.192	192.81
454.412	198.81
454.633	210.81
454.853	188.81
455.073	193.81
455.294	199.81
455.514	207.81
455.734	195.81
455.955	199.81
456.175	198.81
456.395	198.81
456.616	197.81
456.836	206.81
457.056	210.81
457.276	199.81
457.497	221.81
457.717	198.81
457.937	203.81
458.157	201.81
458.377	234.81
458.598	210.81
458.818	213.81
459.038	205.81
459.258	212.81
459.478	226.81
459.698	197.81
459.918	232.81
460.138	234.81
460.358	211.81
460.578	228.81
460.798	238.81
461.018	236.81
461.238	235.81
461.458	243.81
461.678	237.81
461.898	250.81
462.118	239.81
462.338	238.81
462.558	242.81
462.777	246.81
462.997	247.81
463.217	264.81
463.437	275.81
463.657	240.81
463.876	257.81
464.096	252.81
464.316	254.81
464.536	254.81
464.755	247.81
464.975	241.81
465.195	256.81
465.414	239.81
465.634	239.81
465.854	230.81
466.073	240.81
466.293	239.81
466.512	242.81
466.732	249.81
466.951	252.81
467.171	248.81
467.391	255.81
467.61	290.81
467.829	380.81
468.049	655.81
468.268	780.81
468.488	472.81
468.707	338.81
468.927	297.81
469.146	286.81
469.365	267.81
469.585	249.81
469.804	252.81
470.023	275.81
470.243	250.81
470.462	249.81
470.681	270.81
470.901	276.81
471.12	263.81
471.339	306.81
471.558	320.81
471.777	349.81
471.997	540.81
472.216	1124.81
472.435	1734.81
472.654	956.81
472.873	521.81
473.092	433.81
473.311	375.81
473.53	327.81
473.749	320.81
473.968	302.81
474.187	296.81
474.406	275.81
474.625	274.81
474.844	262.81
475.063	252.81
475.282	244.81
475.501	253.81
475.72	276.81
475.939	254.81
476.158	250.81
476.377	258.81
476.596	248.81
476.814	244.81
477.033	265.81
477.252	260.81
477.471	246.81
477.69	268.81
477.908	251.81
478.127	282.81
478.346	267.81
478.564	274.81
478.783	267.81
479.002	292.81
479.22	302.81
479.439	290.81
479.658	295.81
479.876	310.81
480.095	330.81
480.313	405.81
480.532	434.81
480.751	632.81
480.969	1214.81
481.188	2748.81
481.406	2208.81
481.624	1032.81
481.843	685.81
482.061	549.81
482.28	468.81
482.498	426.81
482.717	383.81
482.935	380.81
483.153	363.81
483.372	344.81
483.59	319.81
483.808	331.81
484.027	312.81
484.245	308.81
484.463	308.81
484.681	328.81
484.9	300.81
485.118	304.81
485.336	287.81
485.554	280.81
485.772	294.81
485.99	312.81
486.209	298.81
486.427	275.81
486.645	270.81
486.863	290.81
487.081	299.81
487.299	298.81
487.517	323.81
487.735	305.81
487.953	308.81
488.171	314.81
488.389	315.81
488.607	320.81
488.825	316.81
489.043	318.81
489.261	314.81
489.479	310.81
489.696	317.81
489.914	298.81
490.132	323.81
490.35	344.81
490.568	364.81
490.786	378.81
491.003	391.81
491.221	425.81
491.439	467.81
491.657	457.81
491.874	477.81
492.092	457.81
492.31	471.81
492.527	512.81
492.745	539.81
492.963	512.81
493.18	487.81
493.398	454.81
493.615	461.81
493.833	401.81
494.05	399.81
494.268	388.81
494.485	394.81
494.703	367.81
494.92	392.81
495.138	383.81
495.355	378.81
495.573	356.81
495.79	376.81
496.008	350.81
496.225	349.81
496.442	341.81
496.66	343.81
496.877	342.81
497.094	344.81
497.312	341.81
497.529	353.81
497.746	340.81
497.963	346.81
498.181	342.81
498.398	336.81
498.615	345.81
498.832	351.81
499.049	358.81
499.267	389.81
499.484	394.81
499.701	413.81
499.918	418.81
500.135	444.81
500.352	472.81
500.569	494.81
500.786	516.81
501.003	464.81
501.22	423.81
501.437	394.81
501.654	372.81
501.871	363.81
502.088	344.81
502.305	341.81
502.522	330.81
502.739	338.81
502.956	312.81
503.172	296.81
503.389	322.81
