Data from StdC_HRD10591_081.txt Node
Date: Fri May 16 15:29:21 EDT 2025
User: Yrep
Spectrometer: HR+D1059
Trigger mode: 1
Integration Time (sec): 1.000000E-1
Scans to average: 1
Electric dark correction enabled: true
Nonlinearity correction enabled: false
Boxcar width: 0
XAxis mode: Wavelengths
Number of Pixels in Spectrum: 2048
>>>>>Begin Spectral Data<<<<<
223.165	-25.25
223.4	-25.25
223.635	-25.25
223.869	-31.25
224.104	-18.25
224.338	-8.25
224.573	-8.25
224.808	-19.25
225.042	10.75
225.277	-2.25
225.511	-17.25
225.746	12.75
225.98	4.75
226.215	17.75
226.449	8.75
226.683	13.75
226.918	25.75
227.152	35.75
227.387	29.75
227.621	48.75
227.856	56.75
228.09	59.75
228.324	53.75
228.559	62.75
228.793	58.75
229.027	66.75
229.262	71.75
229.496	68.75
229.73	84.75
229.964	90.75
230.199	83.75
230.433	88.75
230.667	106.75
230.901	86.75
231.136	86.75
231.37	86.75
231.604	93.75
231.838	93.75
232.072	91.75
232.306	87.75
232.541	99.75
232.775	102.75
233.009	88.75
233.243	86.75
233.477	95.75
233.711	98.75
233.945	82.75
234.179	97.75
234.413	94.75
234.647	98.75
234.881	94.75
235.115	104.75
235.349	98.75
235.583	96.75
235.817	97.75
236.051	90.75
236.285	90.75
236.519	101.75
236.753	106.75
236.987	86.75
237.221	86.75
237.455	90.75
237.689	86.75
237.922	93.75
238.156	97.75
238.39	108.75
238.624	94.75
238.858	98.75
239.091	99.75
239.325	105.75
239.559	100.75
239.793	100.75
240.027	85.75
240.26	88.75
240.494	95.75
240.728	100.75
240.961	102.75
241.195	94.75
241.429	92.75
241.662	102.75
241.896	108.75
242.13	87.75
242.363	102.75
242.597	110.75
242.83	104.75
243.064	106.75
243.298	100.75
243.531	107.75
243.765	97.75
243.998	97.75
244.232	113.75
244.465	94.75
244.699	111.75
244.932	109.75
245.166	111.75
245.399	96.75
245.633	109.75
245.866	112.75
246.099	103.75
246.333	109.75
246.566	117.75
246.8	112.75
247.033	105.75
247.266	97.75
247.5	108.75
247.733	125.75
247.966	110.75
248.2	119.75
248.433	112.75
248.666	116.75
248.899	109.75
249.133	127.75
249.366	119.75
249.599	127.75
249.832	134.75
250.066	148.75
250.299	175.75
250.532	211.75
250.765	193.75
250.998	157.75
251.231	147.75
251.465	140.75
251.698	142.75
251.931	140.75
252.164	117.75
252.397	127.75
252.63	110.75
252.863	128.75
253.096	111.75
253.329	142.75
253.562	134.75
253.795	117.75
254.028	142.75
254.261	131.75
254.494	132.75
254.727	135.75
254.96	156.75
255.193	160.75
255.426	165.75
255.659	189.75
255.892	246.75
256.124	326.75
256.357	264.75
256.59	205.75
256.823	183.75
257.056	156.75
257.289	163.75
257.521	144.75
257.754	163.75
257.987	143.75
258.22	152.75
258.452	135.75
258.685	139.75
258.918	139.75
259.151	146.75
259.383	146.75
259.616	141.75
259.849	144.75
260.081	134.75
260.314	135.75
260.547	142.75
260.779	151.75
261.012	140.75
261.244	155.75
261.477	135.75
261.71	145.75
261.942	121.75
262.175	122.75
262.407	134.75
262.64	140.75
262.872	118.75
263.105	122.75
263.337	137.75
263.57	135.75
263.802	142.75
264.035	126.75
264.267	140.75
264.499	133.75
264.732	122.75
264.964	113.75
265.197	141.75
265.429	134.75
265.661	137.75
265.894	127.75
266.126	145.75
266.358	134.75
266.591	138.75
266.823	136.75
267.055	134.75
267.287	135.75
267.52	141.75
267.752	148.75
267.984	137.75
268.216	142.75
268.448	140.75
268.681	138.75
268.913	142.75
269.145	143.75
269.377	151.75
269.609	139.75
269.841	151.75
270.073	136.75
270.306	141.75
270.538	141.75
270.77	145.75
271.002	146.75
271.234	152.75
271.466	147.75
271.698	156.75
271.93	150.75
272.162	146.75
272.394	147.75
272.626	139.75
272.858	148.75
273.09	148.75
273.322	143.75
273.553	164.75
273.785	152.75
274.017	151.75
274.249	162.75
274.481	164.75
274.713	146.75
274.945	168.75
275.176	165.75
275.408	164.75
275.64	178.75
275.872	202.75
276.104	194.75
276.335	196.75
276.567	191.75
276.799	200.75
277.031	215.75
277.262	225.75
277.494	220.75
277.726	200.75
277.957	205.75
278.189	206.75
278.421	179.75
278.652	170.75
278.884	171.75
279.115	190.75
279.347	177.75
279.579	196.75
279.81	234.75
280.042	264.75
280.273	287.75
280.505	259.75
280.736	214.75
280.968	194.75
281.199	196.75
281.431	181.75
281.662	174.75
281.894	164.75
282.125	168.75
282.356	165.75
282.588	186.75
282.819	162.75
283.051	159.75
283.282	149.75
283.513	162.75
283.745	166.75
283.976	173.75
284.207	157.75
284.439	160.75
284.67	152.75
284.901	159.75
285.132	166.75
285.364	164.75
285.595	173.75
285.826	158.75
286.057	160.75
286.288	158.75
286.52	183.75
286.751	167.75
286.982	177.75
287.213	167.75
287.444	145.75
287.675	172.75
287.906	163.75
288.138	172.75
288.369	162.75
288.6	165.75
288.831	176.75
289.062	181.75
289.293	183.75
289.524	170.75
289.755	173.75
289.986	159.75
290.217	172.75
290.448	174.75
290.679	167.75
290.91	168.75
291.141	175.75
291.371	158.75
291.602	159.75
291.833	153.75
292.064	154.75
292.295	135.75
292.526	163.75
292.757	168.75
292.987	154.75
293.218	161.75
293.449	143.75
293.68	145.75
293.91	160.75
294.141	158.75
294.372	159.75
294.603	168.75
294.833	170.75
295.064	173.75
295.295	165.75
295.525	165.75
295.756	148.75
295.987	176.75
296.217	161.75
296.448	163.75
296.679	164.75
296.909	162.75
297.14	143.75
297.37	175.75
297.601	147.75
297.831	153.75
298.062	159.75
298.292	155.75
298.523	142.75
298.753	172.75
298.984	174.75
299.214	166.75
299.445	170.75
299.675	167.75
299.905	173.75
300.136	160.75
300.366	164.75
300.597	178.75
300.827	176.75
301.057	172.75
301.288	164.75
301.518	165.75
301.748	170.75
301.979	191.75
302.209	195.75
302.439	179.75
302.669	171.75
302.9	176.75
303.13	190.75
303.36	186.75
303.59	190.75
303.82	197.75
304.051	189.75
304.281	191.75
304.511	179.75
304.741	186.75
304.971	175.75
305.201	164.75
305.431	148.75
305.661	180.75
305.891	171.75
306.121	172.75
306.352	175.75
306.582	173.75
306.812	188.75
307.042	212.75
307.272	228.75
307.502	235.75
307.731	231.75
307.961	196.75
308.191	199.75
308.421	183.75
308.651	177.75
308.881	178.75
309.111	193.75
309.341	175.75
309.571	168.75
309.8	182.75
310.03	171.75
310.26	164.75
310.49	181.75
310.72	176.75
310.949	166.75
311.179	176.75
311.409	189.75
311.639	191.75
311.868	173.75
312.098	180.75
312.328	166.75
312.557	180.75
312.787	175.75
313.017	178.75
313.246	175.75
313.476	173.75
313.706	205.75
313.935	194.75
314.165	159.75
314.394	177.75
314.624	178.75
314.853	184.75
315.083	184.75
315.312	175.75
315.542	186.75
315.771	170.75
316.001	164.75
316.23	172.75
316.46	172.75
316.689	177.75
316.919	165.75
317.148	181.75
317.377	172.75
317.607	176.75
317.836	189.75
318.065	189.75
318.295	168.75
318.524	188.75
318.753	204.75
318.983	190.75
319.212	194.75
319.441	188.75
319.67	196.75
319.9	190.75
320.129	179.75
320.358	196.75
320.587	180.75
320.816	176.75
321.046	188.75
321.275	179.75
321.504	191.75
321.733	186.75
321.962	211.75
322.191	194.75
322.42	203.75
322.649	205.75
322.878	206.75
323.108	209.75
323.337	201.75
323.566	210.75
323.795	212.75
324.024	225.75
324.253	218.75
324.482	220.75
324.71	231.75
324.939	230.75
325.168	211.75
325.397	236.75
325.626	240.75
325.855	228.75
326.084	246.75
326.313	250.75
326.542	250.75
326.77	271.75
326.999	275.75
327.228	306.75
327.457	347.75
327.686	416.75
327.914	551.75
328.143	712.75
328.372	748.75
328.6	531.75
328.829	421.75
329.058	382.75
329.287	431.75
329.515	493.75
329.744	691.75
329.972	972.75
330.201	1324.75
330.43	1359.75
330.658	815.75
330.887	482.75
331.115	408.75
331.344	352.75
331.572	324.75
331.801	330.75
332.03	314.75
332.258	336.75
332.486	352.75
332.715	338.75
332.943	366.75
333.172	422.75
333.4	453.75
333.629	518.75
333.857	713.75
334.085	1062.75
334.314	1523.75
334.542	1887.75
334.771	1492.75
334.999	768.75
335.227	504.75
335.455	411.75
335.684	350.75
335.912	343.75
336.14	301.75
336.369	299.75
336.597	277.75
336.825	284.75
337.053	264.75
337.281	244.75
337.51	239.75
337.738	233.75
337.966	238.75
338.194	256.75
338.422	224.75
338.65	205.75
338.878	231.75
339.106	227.75
339.334	239.75
339.562	206.75
339.79	232.75
340.018	212.75
340.246	198.75
340.474	221.75
340.702	222.75
340.93	201.75
341.158	189.75
341.386	199.75
341.614	206.75
341.842	198.75
342.07	195.75
342.298	215.75
342.526	197.75
342.754	200.75
342.981	196.75
343.209	217.75
343.437	203.75
343.665	215.75
343.893	214.75
344.12	203.75
344.348	209.75
344.576	206.75
344.804	195.75
345.031	186.75
345.259	223.75
345.487	190.75
345.714	180.75
345.942	193.75
346.17	192.75
346.397	199.75
346.625	190.75
346.853	189.75
347.08	180.75
347.308	205.75
347.535	183.75
347.763	187.75
347.99	181.75
348.218	192.75
348.445	205.75
348.673	190.75
348.9	209.75
349.128	196.75
349.355	204.75
349.583	194.75
349.81	188.75
350.037	194.75
350.265	205.75
350.492	189.75
350.72	187.75
350.947	198.75
351.174	196.75
351.402	190.75
351.629	187.75
351.856	200.75
352.083	206.75
352.311	208.75
352.538	215.75
352.765	185.75
352.992	208.75
353.22	199.75
353.447	196.75
353.674	191.75
353.901	186.75
354.128	189.75
354.355	196.75
354.583	200.75
354.81	191.75
355.037	178.75
355.264	190.75
355.491	170.75
355.718	179.75
355.945	192.75
356.172	187.75
356.399	173.75
356.626	178.75
356.853	188.75
357.08	189.75
357.307	186.75
357.534	198.75
357.761	180.75
357.988	182.75
358.215	212.75
358.441	197.75
358.668	193.75
358.895	191.75
359.122	186.75
359.349	181.75
359.576	166.75
359.802	182.75
360.029	205.75
360.256	192.75
360.483	181.75
360.709	177.75
360.936	177.75
361.163	175.75
361.39	172.75
361.616	163.75
361.843	195.75
362.07	180.75
362.296	193.75
362.523	187.75
362.749	198.75
362.976	194.75
363.203	173.75
363.429	185.75
363.656	195.75
363.882	181.75
364.109	194.75
364.335	189.75
364.562	192.75
364.788	198.75
365.015	199.75
365.241	177.75
365.468	165.75
365.694	193.75
365.92	182.75
366.147	187.75
366.373	178.75
366.599	191.75
366.826	175.75
367.052	194.75
367.278	190.75
367.505	181.75
367.731	175.75
367.957	202.75
368.184	179.75
368.41	184.75
368.636	174.75
368.862	181.75
369.089	191.75
369.315	189.75
369.541	197.75
369.767	167.75
369.993	190.75
370.219	174.75
370.445	183.75
370.672	207.75
370.898	183.75
371.124	185.75
371.35	190.75
371.576	186.75
371.802	196.75
372.028	176.75
372.254	193.75
372.48	184.75
372.706	191.75
372.932	176.75
373.158	192.75
373.384	202.75
373.61	181.75
373.835	180.75
374.061	197.75
374.287	201.75
374.513	189.75
374.739	205.75
374.965	186.75
375.191	207.75
375.416	189.75
375.642	204.75
375.868	205.75
376.094	194.75
376.319	186.75
376.545	198.75
376.771	191.75
376.997	194.75
377.222	187.75
377.448	188.75
377.674	173.75
377.899	189.75
378.125	210.75
378.35	203.75
378.576	173.75
378.802	186.75
379.027	179.75
379.253	192.75
379.478	180.75
379.704	202.75
379.929	189.75
380.155	195.75
380.38	183.75
380.606	194.75
380.831	210.75
381.057	198.75
381.282	191.75
381.507	193.75
381.733	184.75
381.958	196.75
382.184	212.75
382.409	204.75
382.634	200.75
382.86	192.75
383.085	207.75
383.31	215.75
383.535	215.75
383.761	203.75
383.986	207.75
384.211	203.75
384.436	206.75
384.662	200.75
384.887	218.75
385.112	199.75
385.337	202.75
385.562	202.75
385.787	209.75
386.013	235.75
386.238	210.75
386.463	207.75
386.688	220.75
386.913	209.75
387.138	198.75
387.363	191.75
387.588	210.75
387.813	218.75
388.038	222.75
388.263	213.75
388.488	225.75
388.713	213.75
388.938	223.75
389.163	201.75
389.387	197.75
389.612	202.75
389.837	176.75
390.062	205.75
390.287	210.75
390.512	219.75
390.736	204.75
390.961	216.75
391.186	220.75
391.411	227.75
391.636	226.75
391.86	210.75
392.085	225.75
392.31	227.75
392.534	229.75
392.759	218.75
392.984	228.75
393.208	216.75
393.433	224.75
393.658	216.75
393.882	198.75
394.107	221.75
394.331	207.75
394.556	225.75
394.78	218.75
395.005	209.75
395.229	215.75
395.454	232.75
395.678	230.75
395.903	215.75
396.127	232.75
396.352	225.75
396.576	229.75
396.801	223.75
397.025	210.75
397.249	223.75
397.474	243.75
397.698	243.75
397.922	237.75
398.147	255.75
398.371	236.75
398.595	245.75
398.82	243.75
399.044	250.75
399.268	268.75
399.492	257.75
399.717	275.75
399.941	276.75
400.165	263.75
400.389	253.75
400.613	263.75
400.837	249.75
401.062	247.75
401.286	243.75
401.51	233.75
401.734	226.75
401.958	230.75
402.182	255.75
402.406	251.75
402.63	235.75
402.854	259.75
403.078	242.75
403.302	242.75
403.526	251.75
403.75	255.75
403.974	254.75
404.198	246.75
404.422	289.75
404.645	282.75
404.869	281.75
405.093	318.75
405.317	303.75
405.541	312.75
405.765	280.75
405.988	282.75
406.212	275.75
406.436	269.75
406.66	284.75
406.883	260.75
407.107	263.75
407.331	267.75
407.555	278.75
407.778	273.75
408.002	253.75
408.226	264.75
408.449	267.75
408.673	252.75
408.896	266.75
409.12	261.75
409.344	260.75
409.567	240.75
409.791	253.75
410.014	247.75
410.238	247.75
410.461	258.75
410.685	253.75
410.908	268.75
411.132	263.75
411.355	248.75
411.578	261.75
411.802	274.75
412.025	274.75
412.249	291.75
412.472	328.75
412.695	340.75
412.919	310.75
413.142	305.75
413.365	281.75
413.589	272.75
413.812	263.75
414.035	279.75
414.258	272.75
414.482	276.75
414.705	268.75
414.928	254.75
415.151	259.75
415.374	250.75
415.597	261.75
415.821	258.75
416.044	264.75
416.267	225.75
416.49	247.75
416.713	250.75
416.936	250.75
417.159	240.75
417.382	269.75
417.605	263.75
417.828	272.75
418.051	266.75
418.274	251.75
418.497	274.75
418.72	263.75
418.943	265.75
419.166	265.75
419.389	285.75
419.611	267.75
419.834	277.75
420.057	285.75
420.28	294.75
420.503	300.75
420.726	290.75
420.948	275.75
421.171	283.75
421.394	259.75
421.617	271.75
421.839	255.75
422.062	264.75
422.285	258.75
422.507	271.75
422.73	256.75
422.953	250.75
423.175	236.75
423.398	269.75
423.621	240.75
423.843	262.75
424.066	260.75
424.288	262.75
424.511	231.75
424.733	246.75
424.956	253.75
425.178	236.75
425.401	242.75
425.623	244.75
425.846	248.75
426.068	260.75
426.291	252.75
426.513	250.75
426.735	245.75
426.958	246.75
427.18	261.75
427.402	258.75
427.625	274.75
427.847	318.75
428.069	334.75
428.292	302.75
428.514	276.75
428.736	256.75
428.958	243.75
429.181	250.75
429.403	239.75
429.625	223.75
429.847	250.75
430.069	236.75
430.292	238.75
430.514	224.75
430.736	234.75
430.958	234.75
431.18	240.75
431.402	221.75
431.624	218.75
431.846	216.75
432.068	220.75
432.29	222.75
432.512	246.75
432.734	252.75
432.956	227.75
433.178	223.75
433.4	226.75
433.622	228.75
433.844	229.75
434.066	235.75
434.287	238.75
434.509	240.75
434.731	254.75
434.953	227.75
435.175	209.75
435.397	248.75
435.618	232.75
435.84	230.75
436.062	223.75
436.284	231.75
436.505	232.75
436.727	221.75
436.949	230.75
437.17	218.75
437.392	205.75
437.614	231.75
437.835	231.75
438.057	219.75
438.278	226.75
438.5	234.75
438.721	230.75
438.943	221.75
439.165	239.75
439.386	215.75
439.608	230.75
439.829	227.75
440.05	222.75
440.272	222.75
440.493	231.75
440.715	225.75
440.936	218.75
441.158	229.75
441.379	245.75
441.6	240.75
441.822	246.75
442.043	242.75
442.264	243.75
442.486	236.75
442.707	242.75
442.928	237.75
443.149	229.75
443.371	239.75
443.592	232.75
443.813	222.75
444.034	244.75
444.255	252.75
444.476	260.75
444.698	250.75
444.919	252.75
445.14	346.75
445.361	294.75
445.582	238.75
445.803	226.75
446.024	224.75
446.245	232.75
446.466	239.75
446.687	222.75
446.908	228.75
447.129	229.75
447.35	216.75
447.571	226.75
447.792	227.75
448.013	200.75
448.234	234.75
448.455	223.75
448.675	222.75
448.896	219.75
449.117	212.75
449.338	206.75
449.559	216.75
449.779	221.75
450	229.75
450.221	223.75
450.442	228.75
450.662	229.75
450.883	197.75
451.104	214.75
451.324	227.75
451.545	217.75
451.766	211.75
451.986	215.75
452.207	200.75
452.428	208.75
452.648	205.75
452.869	200.75
453.089	204.75
453.31	217.75
453.53	197.75
453.751	194.75
453.971	210.75
454.192	196.75
454.412	196.75
454.633	210.75
454.853	212.75
455.073	217.75
455.294	212.75
455.514	194.75
455.734	213.75
455.955	214.75
456.175	226.75
456.395	208.75
456.616	218.75
456.836	218.75
457.056	213.75
457.276	215.75
457.497	224.75
457.717	212.75
457.937	216.75
458.157	213.75
458.377	218.75
458.598	209.75
458.818	214.75
459.038	215.75
459.258	218.75
459.478	239.75
459.698	215.75
459.918	220.75
460.138	231.75
460.358	243.75
460.578	256.75
460.798	235.75
461.018	240.75
461.238	243.75
461.458	238.75
461.678	243.75
461.898	236.75
462.118	236.75
462.338	254.75
462.558	238.75
462.777	249.75
462.997	264.75
463.217	270.75
463.437	262.75
463.657	255.75
463.876	269.75
464.096	260.75
464.316	271.75
464.536	255.75
464.755	255.75
464.975	270.75
465.195	242.75
465.414	242.75
465.634	247.75
465.854	229.75
466.073	239.75
466.293	233.75
466.512	218.75
466.732	247.75
466.951	257.75
467.171	279.75
467.391	247.75
467.61	301.75
467.829	378.75
468.049	682.75
468.268	830.75
468.488	520.75
468.707	355.75
468.927	299.75
469.146	277.75
469.365	261.75
469.585	267.75
469.804	273.75
470.023	280.75
470.243	275.75
470.462	278.75
470.681	268.75
470.901	269.75
471.12	263.75
471.339	305.75
471.558	314.75
471.777	384.75
471.997	546.75
472.216	1145.75
472.435	1697.75
472.654	956.75
472.873	571.75
473.092	442.75
473.311	401.75
473.53	357.75
473.749	320.75
473.968	313.75
474.187	304.75
474.406	292.75
474.625	300.75
474.844	281.75
475.063	274.75
475.282	278.75
475.501	247.75
475.72	258.75
475.939	261.75
476.158	263.75
476.377	256.75
476.596	258.75
476.814	239.75
477.033	258.75
477.252	265.75
477.471	276.75
477.69	264.75
477.908	271.75
478.127	284.75
478.346	288.75
478.564	292.75
478.783	294.75
479.002	303.75
479.22	304.75
479.439	335.75
479.658	349.75
479.876	325.75
480.095	363.75
480.313	393.75
480.532	464.75
480.751	629.75
480.969	1253.75
481.188	2736.75
481.406	2177.75
481.624	1080.75
481.843	703.75
482.061	566.75
482.28	506.75
482.498	451.75
482.717	399.75
482.935	373.75
483.153	355.75
483.372	350.75
483.59	339.75
483.808	334.75
484.027	299.75
484.245	314.75
484.463	318.75
484.681	312.75
484.9	326.75
485.118	303.75
485.336	284.75
485.554	291.75
485.772	296.75
485.99	289.75
486.209	279.75
486.427	287.75
486.645	314.75
486.863	314.75
487.081	298.75
487.299	305.75
487.517	311.75
487.735	321.75
487.953	289.75
488.171	308.75
488.389	307.75
488.607	312.75
488.825	329.75
489.043	328.75
489.261	322.75
489.479	317.75
489.696	336.75
489.914	333.75
490.132	339.75
490.35	356.75
490.568	383.75
490.786	365.75
491.003	395.75
491.221	442.75
491.439	478.75
491.657	474.75
491.874	472.75
492.092	459.75
492.31	491.75
492.527	516.75
492.745	549.75
492.963	530.75
493.18	507.75
493.398	465.75
493.615	468.75
493.833	446.75
494.05	442.75
494.268	421.75
494.485	402.75
494.703	376.75
494.92	384.75
495.138	395.75
495.355	399.75
495.573	364.75
495.79	358.75
496.008	381.75
496.225	364.75
496.442	376.75
496.66	367.75
496.877	334.75
497.094	352.75
497.312	351.75
497.529	352.75
497.746	338.75
497.963	335.75
498.181	348.75
498.398	357.75
498.615	383.75
498.832	347.75
499.049	356.75
499.267	378.75
499.484	377.75
499.701	401.75
499.918	419.75
500.135	452.75
500.352	487.75
500.569	503.75
500.786	505.75
501.003	457.75
501.22	452.75
501.437	413.75
501.654	386.75
501.871	383.75
502.088	367.75
502.305	370.75
502.522	329.75
502.739	336.75
502.956	326.75
503.172	316.75
