Data from StdC_HRD10591_016.txt Node
Date: Fri May 16 15:28:48 EDT 2025
User: Yrep
Spectrometer: HR+D1059
Trigger mode: 1
Integration Time (sec): 1.000000E-1
Scans to average: 1
Electric dark correction enabled: true
Nonlinearity correction enabled: false
Boxcar width: 0
XAxis mode: Wavelengths
Number of Pixels in Spectrum: 2048
>>>>>Begin Spectral Data<<<<<
223.165	-13.44
223.4	-13.44
223.635	-13.44
223.869	-22.44
224.104	-14.44
224.338	-17.44
224.573	-11.44
224.808	-11.44
225.042	-11.44
225.277	0.56
225.511	-0.44
225.746	-3.44
225.98	17.56
226.215	8.56
226.449	0.56
226.683	26.56
226.918	13.56
227.152	38.56
227.387	40.56
227.621	43.56
227.856	50.56
228.09	39.56
228.324	50.56
228.559	52.56
228.793	54.56
229.027	86.56
229.262	78.56
229.496	66.56
229.73	76.56
229.964	72.56
230.199	82.56
230.433	83.56
230.667	67.56
230.901	69.56
231.136	93.56
231.37	89.56
231.604	93.56
231.838	87.56
232.072	76.56
232.306	81.56
232.541	85.56
232.775	81.56
233.009	94.56
233.243	85.56
233.477	90.56
233.711	91.56
233.945	96.56
234.179	82.56
234.413	72.56
234.647	92.56
234.881	81.56
235.115	76.56
235.349	92.56
235.583	96.56
235.817	85.56
236.051	95.56
236.285	92.56
236.519	92.56
236.753	97.56
236.987	101.56
237.221	79.56
237.455	88.56
237.689	84.56
237.922	91.56
238.156	95.56
238.39	84.56
238.624	78.56
238.858	104.56
239.091	96.56
239.325	98.56
239.559	83.56
239.793	98.56
240.027	88.56
240.26	93.56
240.494	86.56
240.728	110.56
240.961	84.56
241.195	89.56
241.429	108.56
241.662	71.56
241.896	106.56
242.13	97.56
242.363	110.56
242.597	91.56
242.83	98.56
243.064	88.56
243.298	99.56
243.531	99.56
243.765	109.56
243.998	102.56
244.232	91.56
244.465	100.56
244.699	100.56
244.932	102.56
245.166	106.56
245.399	95.56
245.633	96.56
245.866	88.56
246.099	114.56
246.333	99.56
246.566	81.56
246.8	96.56
247.033	105.56
247.266	120.56
247.5	98.56
247.733	94.56
247.966	121.56
248.2	104.56
248.433	92.56
248.666	106.56
248.899	114.56
249.133	114.56
249.366	121.56
249.599	137.56
249.832	132.56
250.066	133.56
250.299	159.56
250.532	193.56
250.765	167.56
250.998	151.56
251.231	118.56
251.465	128.56
251.698	130.56
251.931	131.56
252.164	110.56
252.397	120.56
252.63	111.56
252.863	108.56
253.096	120.56
253.329	131.56
253.562	126.56
253.795	135.56
254.028	140.56
254.261	104.56
254.494	136.56
254.727	139.56
254.96	142.56
255.193	149.56
255.426	168.56
255.659	191.56
255.892	266.56
256.124	310.56
256.357	240.56
256.59	191.56
256.823	192.56
257.056	167.56
257.289	164.56
257.521	134.56
257.754	147.56
257.987	137.56
258.22	145.56
258.452	143.56
258.685	142.56
258.918	142.56
259.151	124.56
259.383	131.56
259.616	124.56
259.849	129.56
260.081	129.56
260.314	140.56
260.547	132.56
260.779	117.56
261.012	121.56
261.244	121.56
261.477	133.56
261.71	122.56
261.942	129.56
262.175	123.56
262.407	135.56
262.64	123.56
262.872	106.56
263.105	118.56
263.337	115.56
263.57	121.56
263.802	119.56
264.035	120.56
264.267	127.56
264.499	130.56
264.732	127.56
264.964	130.56
265.197	131.56
265.429	109.56
265.661	137.56
265.894	131.56
266.126	126.56
266.358	129.56
266.591	122.56
266.823	139.56
267.055	138.56
267.287	140.56
267.52	125.56
267.752	136.56
267.984	134.56
268.216	133.56
268.448	126.56
268.681	135.56
268.913	137.56
269.145	131.56
269.377	138.56
269.609	126.56
269.841	136.56
270.073	132.56
270.306	153.56
270.538	124.56
270.77	134.56
271.002	146.56
271.234	136.56
271.466	145.56
271.698	138.56
271.93	137.56
272.162	141.56
272.394	135.56
272.626	149.56
272.858	142.56
273.09	141.56
273.322	154.56
273.553	139.56
273.785	143.56
274.017	154.56
274.249	154.56
274.481	149.56
274.713	141.56
274.945	147.56
275.176	158.56
275.408	175.56
275.64	181.56
275.872	173.56
276.104	184.56
276.335	195.56
276.567	172.56
276.799	199.56
277.031	206.56
277.262	232.56
277.494	210.56
277.726	193.56
277.957	200.56
278.189	164.56
278.421	157.56
278.652	184.56
278.884	172.56
279.115	176.56
279.347	191.56
279.579	197.56
279.81	218.56
280.042	253.56
280.273	271.56
280.505	252.56
280.736	188.56
280.968	195.56
281.199	199.56
281.431	163.56
281.662	180.56
281.894	169.56
282.125	172.56
282.356	164.56
282.588	155.56
282.819	185.56
283.051	171.56
283.282	149.56
283.513	185.56
283.745	153.56
283.976	157.56
284.207	151.56
284.439	151.56
284.67	169.56
284.901	158.56
285.132	152.56
285.364	157.56
285.595	165.56
285.826	161.56
286.057	161.56
286.288	149.56
286.52	154.56
286.751	166.56
286.982	157.56
287.213	159.56
287.444	165.56
287.675	164.56
287.906	169.56
288.138	173.56
288.369	147.56
288.6	163.56
288.831	145.56
289.062	158.56
289.293	171.56
289.524	151.56
289.755	174.56
289.986	166.56
290.217	158.56
290.448	154.56
290.679	170.56
290.91	146.56
291.141	169.56
291.371	138.56
291.602	166.56
291.833	152.56
292.064	157.56
292.295	168.56
292.526	157.56
292.757	144.56
292.987	161.56
293.218	150.56
293.449	152.56
293.68	143.56
293.91	162.56
294.141	159.56
294.372	150.56
294.603	152.56
294.833	158.56
295.064	159.56
295.295	141.56
295.525	161.56
295.756	156.56
295.987	145.56
296.217	150.56
296.448	170.56
296.679	154.56
296.909	153.56
297.14	159.56
297.37	153.56
297.601	167.56
297.831	155.56
298.062	166.56
298.292	156.56
298.523	156.56
298.753	153.56
298.984	179.56
299.214	153.56
299.445	167.56
299.675	177.56
299.905	166.56
300.136	165.56
300.366	170.56
300.597	171.56
300.827	176.56
301.057	162.56
301.288	169.56
301.518	164.56
301.748	165.56
301.979	167.56
302.209	165.56
302.439	153.56
302.669	163.56
302.9	173.56
303.13	179.56
303.36	185.56
303.59	198.56
303.82	200.56
304.051	186.56
304.281	175.56
304.511	164.56
304.741	156.56
304.971	168.56
305.201	186.56
305.431	177.56
305.661	170.56
305.891	172.56
306.121	171.56
306.352	173.56
306.582	173.56
306.812	166.56
307.042	201.56
307.272	244.56
307.502	219.56
307.731	205.56
307.961	194.56
308.191	181.56
308.421	188.56
308.651	186.56
308.881	164.56
309.111	165.56
309.341	161.56
309.571	168.56
309.8	202.56
310.03	180.56
310.26	164.56
310.49	167.56
310.72	167.56
310.949	186.56
311.179	167.56
311.409	161.56
311.639	185.56
311.868	175.56
312.098	185.56
312.328	177.56
312.557	189.56
312.787	177.56
313.017	173.56
313.246	178.56
313.476	183.56
313.706	178.56
313.935	182.56
314.165	180.56
314.394	175.56
314.624	178.56
314.853	175.56
315.083	185.56
315.312	185.56
315.542	185.56
315.771	170.56
316.001	165.56
316.23	175.56
316.46	173.56
316.689	174.56
316.919	174.56
317.148	165.56
317.377	187.56
317.607	172.56
317.836	182.56
318.065	176.56
318.295	181.56
318.524	172.56
318.753	202.56
318.983	174.56
319.212	182.56
319.441	188.56
319.67	192.56
319.9	188.56
320.129	175.56
320.358	197.56
320.587	184.56
320.816	195.56
321.046	184.56
321.275	206.56
321.504	184.56
321.733	184.56
321.962	185.56
322.191	193.56
322.42	193.56
322.649	202.56
322.878	216.56
323.108	217.56
323.337	217.56
323.566	231.56
323.795	217.56
324.024	231.56
324.253	223.56
324.482	222.56
324.71	223.56
324.939	217.56
325.168	223.56
325.397	243.56
325.626	247.56
325.855	232.56
326.084	248.56
326.313	256.56
326.542	242.56
326.77	258.56
326.999	284.56
327.228	301.56
327.457	334.56
327.686	407.56
327.914	542.56
328.143	694.56
328.372	741.56
328.6	528.56
328.829	388.56
329.058	374.56
329.287	401.56
329.515	484.56
329.744	667.56
329.972	963.56
330.201	1257.56
330.43	1290.56
330.658	775.56
330.887	496.56
331.115	412.56
331.344	339.56
331.572	330.56
331.801	335.56
332.03	315.56
332.258	305.56
332.486	338.56
332.715	332.56
332.943	374.56
333.172	418.56
333.4	450.56
333.629	555.56
333.857	716.56
334.085	1044.56
334.314	1456.56
334.542	1809.56
334.771	1447.56
334.999	772.56
335.227	508.56
335.455	422.56
335.684	364.56
335.912	342.56
336.14	310.56
336.369	296.56
336.597	288.56
336.825	259.56
337.053	249.56
337.281	253.56
337.51	246.56
337.738	253.56
337.966	220.56
338.194	210.56
338.422	228.56
338.65	231.56
338.878	222.56
339.106	224.56
339.334	236.56
339.562	211.56
339.79	207.56
340.018	216.56
340.246	197.56
340.474	217.56
340.702	202.56
340.93	203.56
341.158	190.56
341.386	208.56
341.614	206.56
341.842	199.56
342.07	196.56
342.298	198.56
342.526	195.56
342.754	194.56
342.981	185.56
343.209	194.56
343.437	216.56
343.665	208.56
343.893	212.56
344.12	214.56
344.348	217.56
344.576	207.56
344.804	189.56
345.031	200.56
345.259	191.56
345.487	192.56
345.714	184.56
345.942	170.56
346.17	190.56
346.397	194.56
346.625	199.56
346.853	202.56
347.08	194.56
347.308	176.56
347.535	186.56
347.763	182.56
347.99	191.56
348.218	192.56
348.445	187.56
348.673	201.56
348.9	190.56
349.128	191.56
349.355	178.56
349.583	185.56
349.81	186.56
350.037	200.56
350.265	193.56
350.492	192.56
350.72	184.56
350.947	191.56
351.174	189.56
351.402	181.56
351.629	180.56
351.856	201.56
352.083	192.56
352.311	192.56
352.538	184.56
352.765	194.56
352.992	194.56
353.22	195.56
353.447	178.56
353.674	186.56
353.901	180.56
354.128	186.56
354.355	183.56
354.583	177.56
354.81	189.56
355.037	202.56
355.264	198.56
355.491	176.56
355.718	177.56
355.945	178.56
356.172	181.56
356.399	174.56
356.626	192.56
356.853	180.56
357.08	182.56
357.307	187.56
357.534	172.56
357.761	177.56
357.988	194.56
358.215	193.56
358.441	192.56
358.668	186.56
358.895	176.56
359.122	203.56
359.349	169.56
359.576	176.56
359.802	185.56
360.029	172.56
360.256	183.56
360.483	200.56
360.709	166.56
360.936	185.56
361.163	175.56
361.39	173.56
361.616	177.56
361.843	180.56
362.07	188.56
362.296	183.56
362.523	196.56
362.749	182.56
362.976	184.56
363.203	191.56
363.429	189.56
363.656	159.56
363.882	181.56
364.109	199.56
364.335	192.56
364.562	174.56
364.788	194.56
365.015	192.56
365.241	178.56
365.468	179.56
365.694	166.56
365.92	184.56
366.147	186.56
366.373	172.56
366.599	197.56
366.826	194.56
367.052	175.56
367.278	181.56
367.505	171.56
367.731	184.56
367.957	180.56
368.184	185.56
368.41	181.56
368.636	184.56
368.862	193.56
369.089	180.56
369.315	187.56
369.541	191.56
369.767	206.56
369.993	186.56
370.219	181.56
370.445	168.56
370.672	190.56
370.898	178.56
371.124	175.56
371.35	195.56
371.576	194.56
371.802	191.56
372.028	191.56
372.254	186.56
372.48	204.56
372.706	188.56
372.932	184.56
373.158	193.56
373.384	183.56
373.61	190.56
373.835	188.56
374.061	174.56
374.287	175.56
374.513	189.56
374.739	189.56
374.965	208.56
375.191	197.56
375.416	187.56
375.642	192.56
375.868	178.56
376.094	189.56
376.319	180.56
376.545	188.56
376.771	181.56
376.997	184.56
377.222	196.56
377.448	192.56
377.674	193.56
377.899	179.56
378.125	197.56
378.35	176.56
378.576	196.56
378.802	189.56
379.027	193.56
379.253	184.56
379.478	195.56
379.704	193.56
379.929	200.56
380.155	200.56
380.38	200.56
380.606	192.56
380.831	182.56
381.057	188.56
381.282	191.56
381.507	204.56
381.733	212.56
381.958	183.56
382.184	193.56
382.409	197.56
382.634	201.56
382.86	189.56
383.085	201.56
383.31	192.56
383.535	195.56
383.761	200.56
383.986	229.56
384.211	202.56
384.436	209.56
384.662	195.56
384.887	192.56
385.112	208.56
385.337	197.56
385.562	207.56
385.787	213.56
386.013	197.56
386.238	225.56
386.463	208.56
386.688	214.56
386.913	218.56
387.138	217.56
387.363	209.56
387.588	206.56
387.813	206.56
388.038	193.56
388.263	207.56
388.488	209.56
388.713	220.56
388.938	221.56
389.163	228.56
389.387	216.56
389.612	206.56
389.837	220.56
390.062	213.56
390.287	200.56
390.512	212.56
390.736	187.56
390.961	201.56
391.186	203.56
391.411	207.56
391.636	204.56
391.86	225.56
392.085	212.56
392.31	215.56
392.534	220.56
392.759	213.56
392.984	193.56
393.208	212.56
393.433	209.56
393.658	223.56
393.882	222.56
394.107	215.56
394.331	212.56
394.556	225.56
394.78	222.56
395.005	231.56
395.229	218.56
395.454	230.56
395.678	215.56
395.903	244.56
396.127	215.56
396.352	226.56
396.576	223.56
396.801	217.56
397.025	217.56
397.249	229.56
397.474	221.56
397.698	228.56
397.922	232.56
398.147	229.56
398.371	238.56
398.595	218.56
398.82	242.56
399.044	249.56
399.268	272.56
399.492	283.56
399.717	284.56
399.941	270.56
400.165	263.56
400.389	242.56
400.613	248.56
400.837	253.56
401.062	257.56
401.286	245.56
401.51	241.56
401.734	237.56
401.958	252.56
402.182	228.56
402.406	239.56
402.63	238.56
402.854	265.56
403.078	246.56
403.302	262.56
403.526	246.56
403.75	235.56
403.974	253.56
404.198	259.56
404.422	273.56
404.645	281.56
404.869	275.56
405.093	273.56
405.317	320.56
405.541	308.56
405.765	281.56
405.988	266.56
406.212	270.56
406.436	265.56
406.66	260.56
406.883	257.56
407.107	271.56
407.331	267.56
407.555	258.56
407.778	257.56
408.002	269.56
408.226	268.56
408.449	247.56
408.673	274.56
408.896	265.56
409.12	224.56
409.344	246.56
409.567	256.56
409.791	258.56
410.014	262.56
410.238	244.56
410.461	255.56
410.685	256.56
410.908	252.56
411.132	265.56
411.355	232.56
411.578	256.56
411.802	244.56
412.025	265.56
412.249	282.56
412.472	300.56
412.695	344.56
412.919	316.56
413.142	299.56
413.365	293.56
413.589	258.56
413.812	264.56
414.035	260.56
414.258	273.56
414.482	272.56
414.705	247.56
414.928	266.56
415.151	249.56
415.374	252.56
415.597	264.56
415.821	266.56
416.044	245.56
416.267	248.56
416.49	250.56
416.713	238.56
416.936	247.56
417.159	250.56
417.382	246.56
417.605	269.56
417.828	268.56
418.051	246.56
418.274	258.56
418.497	243.56
418.72	250.56
418.943	268.56
419.166	249.56
419.389	273.56
419.611	279.56
419.834	284.56
420.057	267.56
420.28	293.56
420.503	294.56
420.726	313.56
420.948	280.56
421.171	264.56
421.394	255.56
421.617	252.56
421.839	250.56
422.062	252.56
422.285	235.56
422.507	245.56
422.73	263.56
422.953	246.56
423.175	239.56
423.398	258.56
423.621	242.56
423.843	246.56
424.066	262.56
424.288	237.56
424.511	233.56
424.733	248.56
424.956	249.56
425.178	236.56
425.401	245.56
425.623	244.56
425.846	242.56
426.068	248.56
426.291	254.56
426.513	248.56
426.735	258.56
426.958	248.56
427.18	240.56
427.402	251.56
427.625	293.56
427.847	314.56
428.069	316.56
428.292	280.56
428.514	259.56
428.736	257.56
428.958	264.56
429.181	253.56
429.403	225.56
429.625	224.56
429.847	231.56
430.069	236.56
430.292	238.56
430.514	217.56
430.736	220.56
430.958	232.56
431.18	225.56
431.402	222.56
431.624	224.56
431.846	213.56
432.068	209.56
432.29	218.56
432.512	223.56
432.734	215.56
432.956	236.56
433.178	237.56
433.4	239.56
433.622	218.56
433.844	233.56
434.066	238.56
434.287	222.56
434.509	214.56
434.731	225.56
434.953	238.56
435.175	228.56
435.397	246.56
435.618	236.56
435.84	215.56
436.062	216.56
436.284	206.56
436.505	221.56
436.727	215.56
436.949	221.56
437.17	218.56
437.392	217.56
437.614	211.56
437.835	204.56
438.057	219.56
438.278	209.56
438.5	213.56
438.721	232.56
438.943	216.56
439.165	202.56
439.386	236.56
439.608	221.56
439.829	221.56
440.05	217.56
440.272	212.56
440.493	213.56
440.715	216.56
440.936	215.56
441.158	226.56
441.379	230.56
441.6	234.56
441.822	232.56
442.043	233.56
442.264	230.56
442.486	238.56
442.707	237.56
442.928	220.56
443.149	240.56
443.371	232.56
443.592	229.56
443.813	241.56
444.034	215.56
444.255	226.56
444.476	252.56
444.698	228.56
444.919	242.56
445.14	328.56
445.361	264.56
445.582	239.56
445.803	226.56
446.024	230.56
446.245	237.56
446.466	234.56
446.687	246.56
446.908	217.56
447.129	219.56
447.35	218.56
447.571	213.56
447.792	232.56
448.013	234.56
448.234	219.56
448.455	232.56
448.675	212.56
448.896	203.56
449.117	218.56
449.338	190.56
449.559	221.56
449.779	210.56
450	222.56
450.221	202.56
450.442	225.56
450.662	200.56
450.883	197.56
451.104	219.56
451.324	212.56
451.545	207.56
451.766	199.56
451.986	184.56
452.207	206.56
452.428	208.56
452.648	214.56
452.869	215.56
453.089	210.56
453.31	167.56
453.53	199.56
453.751	215.56
453.971	210.56
454.192	202.56
454.412	196.56
454.633	208.56
454.853	214.56
455.073	215.56
455.294	214.56
455.514	211.56
455.734	195.56
455.955	216.56
456.175	194.56
456.395	209.56
456.616	211.56
456.836	213.56
457.056	212.56
457.276	202.56
457.497	206.56
457.717	212.56
457.937	202.56
458.157	198.56
458.377	216.56
458.598	199.56
458.818	220.56
459.038	217.56
459.258	210.56
459.478	217.56
459.698	221.56
459.918	226.56
460.138	221.56
460.358	223.56
460.578	270.56
460.798	236.56
461.018	250.56
461.238	242.56
461.458	237.56
461.678	250.56
461.898	240.56
462.118	240.56
462.338	248.56
462.558	243.56
462.777	251.56
462.997	265.56
463.217	249.56
463.437	285.56
463.657	262.56
463.876	269.56
464.096	226.56
464.316	260.56
464.536	252.56
464.755	248.56
464.975	256.56
465.195	247.56
465.414	244.56
465.634	234.56
465.854	234.56
466.073	234.56
466.293	254.56
466.512	238.56
466.732	241.56
466.951	246.56
467.171	237.56
467.391	262.56
467.61	284.56
467.829	381.56
468.049	642.56
468.268	802.56
468.488	475.56
468.707	348.56
468.927	312.56
469.146	284.56
469.365	272.56
469.585	267.56
469.804	265.56
470.023	250.56
470.243	257.56
470.462	276.56
470.681	265.56
470.901	271.56
471.12	284.56
471.339	288.56
471.558	302.56
471.777	367.56
471.997	503.56
472.216	1115.56
472.435	1660.56
472.654	946.56
472.873	578.56
473.092	423.56
473.311	378.56
473.53	338.56
473.749	320.56
473.968	301.56
474.187	281.56
474.406	284.56
474.625	277.56
474.844	271.56
475.063	271.56
475.282	272.56
475.501	271.56
475.72	264.56
475.939	264.56
476.158	264.56
476.377	266.56
476.596	248.56
476.814	244.56
477.033	249.56
477.252	250.56
477.471	268.56
477.69	285.56
477.908	262.56
478.127	263.56
478.346	276.56
478.564	281.56
478.783	284.56
479.002	295.56
479.22	308.56
479.439	314.56
479.658	330.56
479.876	339.56
480.095	341.56
480.313	384.56
480.532	461.56
480.751	629.56
480.969	1215.56
481.188	2657.56
481.406	2134.56
481.624	1047.56
481.843	695.56
482.061	558.56
482.28	462.56
482.498	435.56
482.717	385.56
482.935	386.56
483.153	365.56
483.372	346.56
483.59	335.56
483.808	328.56
484.027	325.56
484.245	318.56
484.463	318.56
484.681	320.56
484.9	309.56
485.118	308.56
485.336	300.56
485.554	294.56
485.772	302.56
485.99	301.56
486.209	309.56
486.427	291.56
486.645	288.56
486.863	312.56
487.081	290.56
487.299	304.56
487.517	288.56
487.735	317.56
487.953	302.56
488.171	323.56
488.389	318.56
488.607	313.56
488.825	308.56
489.043	312.56
489.261	306.56
489.479	315.56
489.696	299.56
489.914	320.56
490.132	358.56
490.35	342.56
490.568	366.56
490.786	386.56
491.003	402.56
491.221	424.56
491.439	464.56
491.657	447.56
491.874	465.56
492.092	489.56
492.31	509.56
492.527	529.56
492.745	514.56
492.963	528.56
493.18	501.56
493.398	465.56
493.615	442.56
493.833	443.56
494.05	406.56
494.268	399.56
494.485	400.56
494.703	382.56
494.92	382.56
495.138	381.56
495.355	373.56
495.573	357.56
495.79	359.56
496.008	355.56
496.225	351.56
496.442	357.56
496.66	364.56
496.877	360.56
497.094	346.56
497.312	353.56
497.529	349.56
497.746	363.56
497.963	340.56
498.181	339.56
498.398	342.56
498.615	336.56
498.832	358.56
499.049	380.56
499.267	392.56
499.484	422.56
499.701	402.56
499.918	447.56
500.135	439.56
500.352	471.56
500.569	511.56
500.786	508.56
501.003	469.56
501.22	445.56
501.437	426.56
501.654	396.56
501.871	388.56
502.088	350.56
502.305	357.56
502.522	342.56
502.739	364.56
502.956	338.56
503.172	297.56
503.389	317.56
503.606	332.56
