Data from StdC_HRD10591_089.txt Node
Date: Fri May 16 15:29:25 EDT 2025
User: Yrep
Spectrometer: HR+D1059
Trigger mode: 1
Integration Time (sec): 1.000000E-1
Scans to average: 1
Electric dark correction enabled: true
Nonlinearity correction enabled: false
Boxcar width: 0
XAxis mode: Wavelengths
Number of Pixels in Spectrum: 2048
>>>>>Begin Spectral Data<<<<<
223.165	-15.75
223.4	-15.75
223.635	-15.75
223.869	-10.75
224.104	-0.75
224.338	-31.75
224.573	-16.75
224.808	-16.75
225.042	-17.75
225.277	-5.75
225.511	12.25
225.746	-9.75
225.98	4.25
226.215	11.25
226.449	26.25
226.683	30.25
226.918	13.25
227.152	28.25
227.387	31.25
227.621	30.25
227.856	42.25
228.09	52.25
228.324	52.25
228.559	58.25
228.793	72.25
229.027	60.25
229.262	72.25
229.496	75.25
229.73	89.25
229.964	79.25
230.199	80.25
230.433	84.25
230.667	75.25
230.901	84.25
231.136	113.25
231.37	92.25
231.604	92.25
231.838	79.25
232.072	91.25
232.306	89.25
232.541	87.25
232.775	82.25
233.009	90.25
233.243	95.25
233.477	92.25
233.711	100.25
233.945	87.25
234.179	84.25
234.413	90.25
234.647	94.25
234.881	95.25
235.115	86.25
235.349	91.25
235.583	94.25
235.817	88.25
236.051	86.25
236.285	97.25
236.519	90.25
236.753	81.25
236.987	94.25
237.221	95.25
237.455	92.25
237.689	87.25
237.922	102.25
238.156	98.25
238.39	105.25
238.624	97.25
238.858	82.25
239.091	93.25
239.325	96.25
239.559	93.25
239.793	78.25
240.027	86.25
240.26	94.25
240.494	80.25
240.728	90.25
240.961	107.25
241.195	94.25
241.429	96.25
241.662	82.25
241.896	90.25
242.13	95.25
242.363	91.25
242.597	94.25
242.83	99.25
243.064	97.25
243.298	104.25
243.531	97.25
243.765	100.25
243.998	104.25
244.232	98.25
244.465	102.25
244.699	93.25
244.932	109.25
245.166	106.25
245.399	96.25
245.633	98.25
245.866	106.25
246.099	105.25
246.333	92.25
246.566	100.25
246.8	105.25
247.033	99.25
247.266	86.25
247.5	115.25
247.733	122.25
247.966	106.25
248.2	92.25
248.433	104.25
248.666	102.25
248.899	116.25
249.133	102.25
249.366	112.25
249.599	124.25
249.832	128.25
250.066	159.25
250.299	158.25
250.532	215.25
250.765	183.25
250.998	159.25
251.231	144.25
251.465	136.25
251.698	133.25
251.931	125.25
252.164	126.25
252.397	122.25
252.63	124.25
252.863	116.25
253.096	117.25
253.329	118.25
253.562	143.25
253.795	124.25
254.028	123.25
254.261	134.25
254.494	142.25
254.727	137.25
254.96	135.25
255.193	140.25
255.426	147.25
255.659	170.25
255.892	244.25
256.124	296.25
256.357	248.25
256.59	190.25
256.823	170.25
257.056	157.25
257.289	132.25
257.521	151.25
257.754	143.25
257.987	138.25
258.22	140.25
258.452	143.25
258.685	157.25
258.918	142.25
259.151	145.25
259.383	138.25
259.616	130.25
259.849	139.25
260.081	128.25
260.314	128.25
260.547	132.25
260.779	147.25
261.012	132.25
261.244	132.25
261.477	144.25
261.71	136.25
261.942	136.25
262.175	143.25
262.407	132.25
262.64	145.25
262.872	126.25
263.105	138.25
263.337	135.25
263.57	126.25
263.802	132.25
264.035	115.25
264.267	116.25
264.499	127.25
264.732	130.25
264.964	114.25
265.197	123.25
265.429	115.25
265.661	107.25
265.894	133.25
266.126	140.25
266.358	127.25
266.591	129.25
266.823	148.25
267.055	118.25
267.287	145.25
267.52	134.25
267.752	154.25
267.984	131.25
268.216	128.25
268.448	137.25
268.681	139.25
268.913	124.25
269.145	121.25
269.377	147.25
269.609	126.25
269.841	132.25
270.073	130.25
270.306	138.25
270.538	156.25
270.77	128.25
271.002	143.25
271.234	136.25
271.466	145.25
271.698	137.25
271.93	125.25
272.162	132.25
272.394	146.25
272.626	165.25
272.858	136.25
273.09	142.25
273.322	150.25
273.553	146.25
273.785	157.25
274.017	145.25
274.249	163.25
274.481	145.25
274.713	154.25
274.945	158.25
275.176	153.25
275.408	169.25
275.64	159.25
275.872	184.25
276.104	179.25
276.335	178.25
276.567	164.25
276.799	194.25
277.031	207.25
277.262	238.25
277.494	208.25
277.726	203.25
277.957	192.25
278.189	179.25
278.421	168.25
278.652	180.25
278.884	187.25
279.115	169.25
279.347	194.25
279.579	207.25
279.81	206.25
280.042	250.25
280.273	258.25
280.505	250.25
280.736	210.25
280.968	201.25
281.199	201.25
281.431	161.25
281.662	184.25
281.894	170.25
282.125	174.25
282.356	161.25
282.588	158.25
282.819	159.25
283.051	170.25
283.282	152.25
283.513	162.25
283.745	162.25
283.976	153.25
284.207	152.25
284.439	148.25
284.67	147.25
284.901	159.25
285.132	151.25
285.364	147.25
285.595	167.25
285.826	153.25
286.057	155.25
286.288	154.25
286.52	154.25
286.751	154.25
286.982	157.25
287.213	161.25
287.444	169.25
287.675	157.25
287.906	156.25
288.138	176.25
288.369	152.25
288.6	160.25
288.831	163.25
289.062	171.25
289.293	159.25
289.524	166.25
289.755	176.25
289.986	160.25
290.217	165.25
290.448	150.25
290.679	150.25
290.91	170.25
291.141	162.25
291.371	163.25
291.602	162.25
291.833	153.25
292.064	161.25
292.295	151.25
292.526	164.25
292.757	153.25
292.987	163.25
293.218	160.25
293.449	153.25
293.68	155.25
293.91	157.25
294.141	168.25
294.372	137.25
294.603	166.25
294.833	138.25
295.064	160.25
295.295	155.25
295.525	165.25
295.756	157.25
295.987	152.25
296.217	156.25
296.448	151.25
296.679	158.25
296.909	148.25
297.14	157.25
297.37	150.25
297.601	144.25
297.831	161.25
298.062	166.25
298.292	178.25
298.523	155.25
298.753	154.25
298.984	166.25
299.214	162.25
299.445	162.25
299.675	164.25
299.905	167.25
300.136	147.25
300.366	167.25
300.597	177.25
300.827	161.25
301.057	160.25
301.288	162.25
301.518	187.25
301.748	182.25
301.979	181.25
302.209	177.25
302.439	162.25
302.669	163.25
302.9	156.25
303.13	158.25
303.36	187.25
303.59	202.25
303.82	206.25
304.051	199.25
304.281	180.25
304.511	175.25
304.741	173.25
304.971	173.25
305.201	164.25
305.431	174.25
305.661	171.25
305.891	172.25
306.121	167.25
306.352	163.25
306.582	169.25
306.812	186.25
307.042	200.25
307.272	235.25
307.502	232.25
307.731	213.25
307.961	184.25
308.191	177.25
308.421	166.25
308.651	179.25
308.881	167.25
309.111	189.25
309.341	174.25
309.571	174.25
309.8	151.25
310.03	180.25
310.26	157.25
310.49	172.25
310.72	182.25
310.949	155.25
311.179	162.25
311.409	184.25
311.639	177.25
311.868	182.25
312.098	171.25
312.328	183.25
312.557	172.25
312.787	170.25
313.017	170.25
313.246	185.25
313.476	170.25
313.706	162.25
313.935	173.25
314.165	164.25
314.394	167.25
314.624	178.25
314.853	186.25
315.083	179.25
315.312	166.25
315.542	178.25
315.771	168.25
316.001	169.25
316.23	187.25
316.46	176.25
316.689	175.25
316.919	183.25
317.148	179.25
317.377	194.25
317.607	170.25
317.836	207.25
318.065	174.25
318.295	192.25
318.524	174.25
318.753	195.25
318.983	186.25
319.212	182.25
319.441	192.25
319.67	194.25
319.9	193.25
320.129	180.25
320.358	171.25
320.587	186.25
320.816	193.25
321.046	191.25
321.275	183.25
321.504	211.25
321.733	196.25
321.962	190.25
322.191	195.25
322.42	187.25
322.649	195.25
322.878	194.25
323.108	197.25
323.337	227.25
323.566	188.25
323.795	196.25
324.024	215.25
324.253	235.25
324.482	230.25
324.71	217.25
324.939	214.25
325.168	222.25
325.397	217.25
325.626	245.25
325.855	252.25
326.084	236.25
326.313	242.25
326.542	238.25
326.77	257.25
326.999	280.25
327.228	311.25
327.457	343.25
327.686	415.25
327.914	541.25
328.143	693.25
328.372	746.25
328.6	524.25
328.829	387.25
329.058	388.25
329.287	414.25
329.515	495.25
329.744	673.25
329.972	957.25
330.201	1297.25
330.43	1308.25
330.658	765.25
330.887	484.25
331.115	374.25
331.344	342.25
331.572	338.25
331.801	306.25
332.03	305.25
332.258	307.25
332.486	303.25
332.715	341.25
332.943	348.25
333.172	399.25
333.4	464.25
333.629	541.25
333.857	698.25
334.085	1026.25
334.314	1499.25
334.542	1823.25
334.771	1462.25
334.999	780.25
335.227	492.25
335.455	394.25
335.684	349.25
335.912	315.25
336.14	314.25
336.369	280.25
336.597	289.25
336.825	263.25
337.053	265.25
337.281	254.25
337.51	239.25
337.738	234.25
337.966	232.25
338.194	221.25
338.422	222.25
338.65	233.25
338.878	223.25
339.106	218.25
339.334	227.25
339.562	190.25
339.79	206.25
340.018	214.25
340.246	200.25
340.474	200.25
340.702	212.25
340.93	196.25
341.158	200.25
341.386	186.25
341.614	198.25
341.842	202.25
342.07	204.25
342.298	194.25
342.526	200.25
342.754	200.25
342.981	205.25
343.209	205.25
343.437	206.25
343.665	180.25
343.893	206.25
344.12	214.25
344.348	201.25
344.576	190.25
344.804	198.25
345.031	187.25
345.259	193.25
345.487	172.25
345.714	192.25
345.942	187.25
346.17	175.25
346.397	175.25
346.625	182.25
346.853	173.25
347.08	179.25
347.308	202.25
347.535	186.25
347.763	186.25
347.99	200.25
348.218	198.25
348.445	184.25
348.673	190.25
348.9	193.25
349.128	200.25
349.355	193.25
349.583	183.25
349.81	174.25
350.037	201.25
350.265	189.25
350.492	186.25
350.72	172.25
350.947	200.25
351.174	186.25
351.402	185.25
351.629	209.25
351.856	190.25
352.083	182.25
352.311	195.25
352.538	173.25
352.765	184.25
352.992	198.25
353.22	189.25
353.447	182.25
353.674	172.25
353.901	174.25
354.128	178.25
354.355	179.25
354.583	182.25
354.81	202.25
355.037	185.25
355.264	185.25
355.491	187.25
355.718	188.25
355.945	192.25
356.172	187.25
356.399	160.25
356.626	179.25
356.853	179.25
357.08	182.25
357.307	178.25
357.534	182.25
357.761	184.25
357.988	161.25
358.215	178.25
358.441	188.25
358.668	182.25
358.895	187.25
359.122	179.25
359.349	186.25
359.576	175.25
359.802	176.25
360.029	187.25
360.256	174.25
360.483	168.25
360.709	183.25
360.936	172.25
361.163	181.25
361.39	174.25
361.616	191.25
361.843	184.25
362.07	189.25
362.296	189.25
362.523	192.25
362.749	180.25
362.976	171.25
363.203	172.25
363.429	175.25
363.656	191.25
363.882	162.25
364.109	175.25
364.335	167.25
364.562	176.25
364.788	202.25
365.015	171.25
365.241	165.25
365.468	183.25
365.694	179.25
365.92	193.25
366.147	170.25
366.373	177.25
366.599	182.25
366.826	168.25
367.052	191.25
367.278	186.25
367.505	174.25
367.731	184.25
367.957	186.25
368.184	180.25
368.41	190.25
368.636	193.25
368.862	187.25
369.089	189.25
369.315	194.25
369.541	199.25
369.767	181.25
369.993	187.25
370.219	182.25
370.445	209.25
370.672	181.25
370.898	189.25
371.124	178.25
371.35	170.25
371.576	179.25
371.802	196.25
372.028	188.25
372.254	186.25
372.48	176.25
372.706	192.25
372.932	188.25
373.158	178.25
373.384	177.25
373.61	184.25
373.835	171.25
374.061	186.25
374.287	183.25
374.513	190.25
374.739	187.25
374.965	187.25
375.191	198.25
375.416	182.25
375.642	185.25
375.868	180.25
376.094	190.25
376.319	171.25
376.545	169.25
376.771	186.25
376.997	193.25
377.222	170.25
377.448	192.25
377.674	188.25
377.899	205.25
378.125	186.25
378.35	188.25
378.576	198.25
378.802	187.25
379.027	175.25
379.253	192.25
379.478	195.25
379.704	185.25
379.929	178.25
380.155	202.25
380.38	196.25
380.606	186.25
380.831	187.25
381.057	190.25
381.282	192.25
381.507	176.25
381.733	197.25
381.958	194.25
382.184	196.25
382.409	187.25
382.634	192.25
382.86	202.25
383.085	206.25
383.31	182.25
383.535	194.25
383.761	195.25
383.986	212.25
384.211	195.25
384.436	204.25
384.662	198.25
384.887	204.25
385.112	196.25
385.337	210.25
385.562	207.25
385.787	207.25
386.013	212.25
386.238	219.25
386.463	202.25
386.688	227.25
386.913	194.25
387.138	194.25
387.363	202.25
387.588	194.25
387.813	206.25
388.038	199.25
388.263	201.25
388.488	189.25
388.713	204.25
388.938	218.25
389.163	207.25
389.387	200.25
389.612	188.25
389.837	215.25
390.062	211.25
390.287	207.25
390.512	190.25
390.736	200.25
390.961	212.25
391.186	205.25
391.411	197.25
391.636	200.25
391.86	194.25
392.085	209.25
392.31	203.25
392.534	226.25
392.759	216.25
392.984	221.25
393.208	211.25
393.433	215.25
393.658	188.25
393.882	209.25
394.107	214.25
394.331	199.25
394.556	198.25
394.78	202.25
395.005	208.25
395.229	215.25
395.454	220.25
395.678	219.25
395.903	211.25
396.127	228.25
396.352	219.25
396.576	227.25
396.801	212.25
397.025	226.25
397.249	240.25
397.474	214.25
397.698	224.25
397.922	234.25
398.147	216.25
398.371	223.25
398.595	239.25
398.82	247.25
399.044	250.25
399.268	251.25
399.492	264.25
399.717	282.25
399.941	263.25
400.165	271.25
400.389	255.25
400.613	254.25
400.837	236.25
401.062	239.25
401.286	249.25
401.51	256.25
401.734	250.25
401.958	230.25
402.182	251.25
402.406	220.25
402.63	243.25
402.854	230.25
403.078	242.25
403.302	244.25
403.526	233.25
403.75	256.25
403.974	244.25
404.198	247.25
404.422	263.25
404.645	274.25
404.869	291.25
405.093	306.25
405.317	312.25
405.541	302.25
405.765	274.25
405.988	284.25
406.212	282.25
406.436	268.25
406.66	261.25
406.883	253.25
407.107	274.25
407.331	253.25
407.555	265.25
407.778	274.25
408.002	265.25
408.226	257.25
408.449	258.25
408.673	257.25
408.896	256.25
409.12	259.25
409.344	259.25
409.567	243.25
409.791	263.25
410.014	239.25
410.238	261.25
410.461	251.25
410.685	240.25
410.908	249.25
411.132	250.25
411.355	221.25
411.578	244.25
411.802	262.25
412.025	275.25
412.249	298.25
412.472	318.25
412.695	326.25
412.919	315.25
413.142	299.25
413.365	288.25
413.589	266.25
413.812	265.25
414.035	270.25
414.258	258.25
414.482	238.25
414.705	250.25
414.928	258.25
415.151	254.25
415.374	254.25
415.597	240.25
415.821	240.25
416.044	255.25
416.267	230.25
416.49	241.25
416.713	252.25
416.936	255.25
417.159	237.25
417.382	252.25
417.605	266.25
417.828	264.25
418.051	246.25
418.274	248.25
418.497	241.25
418.72	238.25
418.943	240.25
419.166	248.25
419.389	266.25
419.611	260.25
419.834	272.25
420.057	312.25
420.28	324.25
420.503	279.25
420.726	282.25
420.948	259.25
421.171	278.25
421.394	257.25
421.617	258.25
421.839	239.25
422.062	240.25
422.285	247.25
422.507	252.25
422.73	243.25
422.953	239.25
423.175	213.25
423.398	239.25
423.621	233.25
423.843	225.25
424.066	242.25
424.288	245.25
424.511	227.25
424.733	223.25
424.956	238.25
425.178	246.25
425.401	241.25
425.623	247.25
425.846	234.25
426.068	234.25
426.291	235.25
426.513	244.25
426.735	241.25
426.958	240.25
427.18	252.25
427.402	260.25
427.625	286.25
427.847	334.25
428.069	338.25
428.292	294.25
428.514	257.25
428.736	240.25
428.958	255.25
429.181	249.25
429.403	232.25
429.625	234.25
429.847	228.25
430.069	234.25
430.292	230.25
430.514	231.25
430.736	222.25
430.958	209.25
431.18	223.25
431.402	216.25
431.624	212.25
431.846	203.25
432.068	221.25
432.29	217.25
432.512	222.25
432.734	223.25
432.956	222.25
433.178	221.25
433.4	217.25
433.622	230.25
433.844	219.25
434.066	238.25
434.287	219.25
434.509	224.25
434.731	216.25
434.953	230.25
435.175	220.25
435.397	225.25
435.618	204.25
435.84	211.25
436.062	215.25
436.284	203.25
436.505	232.25
436.727	217.25
436.949	212.25
437.17	213.25
437.392	205.25
437.614	218.25
437.835	206.25
438.057	219.25
438.278	201.25
438.5	218.25
438.721	215.25
438.943	220.25
439.165	198.25
439.386	206.25
439.608	237.25
439.829	207.25
440.05	236.25
440.272	217.25
440.493	230.25
440.715	226.25
440.936	215.25
441.158	219.25
441.379	211.25
441.6	231.25
441.822	221.25
442.043	233.25
442.264	228.25
442.486	230.25
442.707	219.25
442.928	236.25
443.149	236.25
443.371	231.25
443.592	225.25
443.813	226.25
444.034	249.25
444.255	247.25
444.476	245.25
444.698	254.25
444.919	251.25
445.14	330.25
445.361	253.25
445.582	226.25
445.803	219.25
446.024	216.25
446.245	222.25
446.466	226.25
446.687	234.25
446.908	227.25
447.129	211.25
447.35	232.25
447.571	214.25
447.792	214.25
448.013	204.25
448.234	222.25
448.455	211.25
448.675	213.25
448.896	206.25
449.117	204.25
449.338	197.25
449.559	209.25
449.779	199.25
450	210.25
450.221	236.25
450.442	210.25
450.662	196.25
450.883	197.25
451.104	209.25
451.324	200.25
451.545	197.25
451.766	210.25
451.986	216.25
452.207	193.25
452.428	208.25
452.648	200.25
452.869	199.25
453.089	193.25
453.31	204.25
453.53	201.25
453.751	192.25
453.971	224.25
454.192	214.25
454.412	189.25
454.633	213.25
454.853	194.25
455.073	197.25
455.294	208.25
455.514	206.25
455.734	194.25
455.955	195.25
456.175	189.25
456.395	196.25
456.616	190.25
456.836	210.25
457.056	214.25
457.276	203.25
457.497	202.25
457.717	187.25
457.937	206.25
458.157	209.25
458.377	206.25
458.598	217.25
458.818	222.25
459.038	218.25
459.258	206.25
459.478	205.25
459.698	204.25
459.918	206.25
460.138	232.25
460.358	232.25
460.578	232.25
460.798	241.25
461.018	239.25
461.238	218.25
461.458	234.25
461.678	236.25
461.898	246.25
462.118	230.25
462.338	242.25
462.558	254.25
462.777	240.25
462.997	277.25
463.217	296.25
463.437	272.25
463.657	265.25
463.876	255.25
464.096	257.25
464.316	254.25
464.536	249.25
464.755	266.25
464.975	255.25
465.195	235.25
465.414	232.25
465.634	251.25
465.854	234.25
466.073	252.25
466.293	226.25
466.512	234.25
466.732	227.25
466.951	227.25
467.171	236.25
467.391	261.25
467.61	284.25
467.829	368.25
468.049	663.25
468.268	786.25
468.488	488.25
468.707	348.25
468.927	309.25
469.146	283.25
469.365	265.25
469.585	259.25
469.804	270.25
470.023	252.25
470.243	252.25
470.462	280.25
470.681	255.25
470.901	265.25
471.12	293.25
471.339	282.25
471.558	287.25
471.777	364.25
471.997	539.25
472.216	1134.25
472.435	1714.25
472.654	937.25
472.873	550.25
473.092	422.25
473.311	375.25
473.53	320.25
473.749	302.25
473.968	299.25
474.187	293.25
474.406	278.25
474.625	274.25
474.844	265.25
475.063	264.25
475.282	244.25
475.501	247.25
475.72	266.25
475.939	243.25
476.158	249.25
476.377	243.25
476.596	242.25
476.814	267.25
477.033	237.25
477.252	233.25
477.471	266.25
477.69	241.25
477.908	260.25
478.127	265.25
478.346	265.25
478.564	282.25
478.783	279.25
479.002	274.25
479.22	279.25
479.439	303.25
479.658	311.25
479.876	318.25
480.095	340.25
480.313	380.25
480.532	454.25
480.751	605.25
480.969	1215.25
481.188	2629.25
481.406	2150.25
481.624	1021.25
481.843	674.25
482.061	541.25
482.28	460.25
482.498	409.25
482.717	376.25
482.935	353.25
483.153	365.25
483.372	348.25
483.59	324.25
483.808	319.25
484.027	304.25
484.245	287.25
484.463	324.25
484.681	304.25
484.9	292.25
485.118	304.25
485.336	285.25
485.554	296.25
485.772	304.25
485.99	306.25
486.209	301.25
486.427	292.25
486.645	277.25
486.863	288.25
487.081	299.25
487.299	287.25
487.517	302.25
487.735	306.25
487.953	317.25
488.171	297.25
488.389	298.25
488.607	296.25
488.825	279.25
489.043	302.25
489.261	316.25
489.479	318.25
489.696	323.25
489.914	326.25
490.132	315.25
490.35	354.25
490.568	350.25
490.786	362.25
491.003	384.25
491.221	419.25
491.439	442.25
491.657	468.25
491.874	451.25
492.092	458.25
492.31	483.25
492.527	492.25
492.745	547.25
492.963	508.25
493.18	472.25
493.398	459.25
493.615	430.25
493.833	421.25
494.05	421.25
494.268	408.25
494.485	395.25
494.703	383.25
494.92	368.25
495.138	387.25
495.355	380.25
495.573	360.25
495.79	346.25
496.008	325.25
496.225	346.25
496.442	349.25
496.66	332.25
496.877	336.25
497.094	335.25
497.312	334.25
497.529	319.25
497.746	314.25
497.963	341.25
498.181	343.25
498.398	338.25
498.615	337.25
498.832	348.25
499.049	358.25
499.267	370.25
499.484	372.25
499.701	395.25
499.918	411.25
500.135	438.25
500.352	462.25
500.569	470.25
500.786	481.25
501.003	447.25
501.22	452.25
501.437	399.25
501.654	401.25
501.871	362.25
502.088	352.25
502.305	356.25
502.522	342.25
502.739	319.25
502.956	322.25
503.172	330.25
503.389	294.25
