Data from StdC_HRD10591_076.txt Node
Date: Fri May 16 15:29:18 EDT 2025
User: Yrep
Spectrometer: HR+D1059
Trigger mode: 1
Integration Time (sec): 1.000000E-1
Scans to average: 1
Electric dark correction enabled: true
Nonlinearity correction enabled: false
Boxcar width: 0
XAxis mode: Wavelengths
Number of Pixels in Spectrum: 2048
>>>>>Begin Spectral Data<<<<<
223.165	-9.81
223.4	-9.81
223.635	-9.81
223.869	-19.81
224.104	-21.81
224.338	-16.81
224.573	-20.81
224.808	-6.81
225.042	-18.81
225.277	-3.81
225.511	-4.81
225.746	0.19
225.98	19.19
226.215	4.19
226.449	15.19
226.683	22.19
226.918	24.19
227.152	38.19
227.387	33.19
227.621	26.19
227.856	51.19
228.09	53.19
228.324	49.19
228.559	53.19
228.793	55.19
229.027	50.19
229.262	64.19
229.496	82.19
229.73	77.19
229.964	79.19
230.199	70.19
230.433	77.19
230.667	78.19
230.901	82.19
231.136	86.19
231.37	85.19
231.604	88.19
231.838	77.19
232.072	85.19
232.306	89.19
232.541	93.19
232.775	83.19
233.009	94.19
233.243	85.19
233.477	95.19
233.711	93.19
233.945	93.19
234.179	85.19
234.413	87.19
234.647	85.19
234.881	85.19
235.115	72.19
235.349	83.19
235.583	74.19
235.817	90.19
236.051	92.19
236.285	87.19
236.519	87.19
236.753	96.19
236.987	77.19
237.221	89.19
237.455	109.19
237.689	89.19
237.922	88.19
238.156	89.19
238.39	91.19
238.624	98.19
238.858	100.19
239.091	85.19
239.325	83.19
239.559	95.19
239.793	84.19
240.027	96.19
240.26	87.19
240.494	91.19
240.728	95.19
240.961	86.19
241.195	94.19
241.429	94.19
241.662	102.19
241.896	83.19
242.13	90.19
242.363	89.19
242.597	105.19
242.83	83.19
243.064	91.19
243.298	93.19
243.531	102.19
243.765	108.19
243.998	107.19
244.232	109.19
244.465	104.19
244.699	105.19
244.932	117.19
245.166	102.19
245.399	111.19
245.633	109.19
245.866	96.19
246.099	109.19
246.333	119.19
246.566	91.19
246.8	92.19
247.033	101.19
247.266	94.19
247.5	105.19
247.733	113.19
247.966	120.19
248.2	113.19
248.433	114.19
248.666	107.19
248.899	104.19
249.133	110.19
249.366	110.19
249.599	122.19
249.832	135.19
250.066	150.19
250.299	176.19
250.532	209.19
250.765	181.19
250.998	165.19
251.231	132.19
251.465	130.19
251.698	129.19
251.931	126.19
252.164	117.19
252.397	128.19
252.63	114.19
252.863	116.19
253.096	122.19
253.329	129.19
253.562	123.19
253.795	109.19
254.028	137.19
254.261	121.19
254.494	130.19
254.727	137.19
254.96	136.19
255.193	150.19
255.426	156.19
255.659	181.19
255.892	254.19
256.124	315.19
256.357	258.19
256.59	207.19
256.823	172.19
257.056	155.19
257.289	146.19
257.521	149.19
257.754	150.19
257.987	144.19
258.22	135.19
258.452	135.19
258.685	131.19
258.918	139.19
259.151	129.19
259.383	123.19
259.616	120.19
259.849	139.19
260.081	130.19
260.314	128.19
260.547	130.19
260.779	120.19
261.012	140.19
261.244	140.19
261.477	119.19
261.71	127.19
261.942	127.19
262.175	123.19
262.407	145.19
262.64	128.19
262.872	125.19
263.105	137.19
263.337	137.19
263.57	129.19
263.802	130.19
264.035	143.19
264.267	126.19
264.499	130.19
264.732	126.19
264.964	131.19
265.197	130.19
265.429	139.19
265.661	131.19
265.894	127.19
266.126	139.19
266.358	138.19
266.591	156.19
266.823	131.19
267.055	131.19
267.287	136.19
267.52	134.19
267.752	140.19
267.984	141.19
268.216	128.19
268.448	130.19
268.681	139.19
268.913	139.19
269.145	159.19
269.377	135.19
269.609	136.19
269.841	107.19
270.073	129.19
270.306	133.19
270.538	149.19
270.77	122.19
271.002	138.19
271.234	146.19
271.466	107.19
271.698	128.19
271.93	139.19
272.162	143.19
272.394	159.19
272.626	131.19
272.858	161.19
273.09	151.19
273.322	144.19
273.553	150.19
273.785	151.19
274.017	145.19
274.249	153.19
274.481	152.19
274.713	160.19
274.945	150.19
275.176	157.19
275.408	179.19
275.64	171.19
275.872	196.19
276.104	184.19
276.335	187.19
276.567	184.19
276.799	187.19
277.031	219.19
277.262	243.19
277.494	239.19
277.726	196.19
277.957	181.19
278.189	177.19
278.421	175.19
278.652	172.19
278.884	184.19
279.115	195.19
279.347	179.19
279.579	207.19
279.81	224.19
280.042	255.19
280.273	268.19
280.505	239.19
280.736	198.19
280.968	200.19
281.199	172.19
281.431	173.19
281.662	177.19
281.894	181.19
282.125	171.19
282.356	164.19
282.588	157.19
282.819	155.19
283.051	159.19
283.282	162.19
283.513	150.19
283.745	159.19
283.976	176.19
284.207	158.19
284.439	152.19
284.67	162.19
284.901	160.19
285.132	147.19
285.364	160.19
285.595	169.19
285.826	154.19
286.057	161.19
286.288	172.19
286.52	152.19
286.751	153.19
286.982	151.19
287.213	152.19
287.444	179.19
287.675	158.19
287.906	160.19
288.138	167.19
288.369	156.19
288.6	131.19
288.831	167.19
289.062	173.19
289.293	156.19
289.524	169.19
289.755	168.19
289.986	168.19
290.217	166.19
290.448	154.19
290.679	163.19
290.91	154.19
291.141	167.19
291.371	154.19
291.602	162.19
291.833	166.19
292.064	149.19
292.295	161.19
292.526	153.19
292.757	144.19
292.987	162.19
293.218	157.19
293.449	158.19
293.68	152.19
293.91	153.19
294.141	167.19
294.372	166.19
294.603	156.19
294.833	147.19
295.064	158.19
295.295	149.19
295.525	168.19
295.756	145.19
295.987	147.19
296.217	140.19
296.448	156.19
296.679	159.19
296.909	153.19
297.14	150.19
297.37	156.19
297.601	155.19
297.831	158.19
298.062	169.19
298.292	159.19
298.523	152.19
298.753	161.19
298.984	153.19
299.214	176.19
299.445	153.19
299.675	165.19
299.905	160.19
300.136	167.19
300.366	166.19
300.597	160.19
300.827	161.19
301.057	175.19
301.288	157.19
301.518	173.19
301.748	174.19
301.979	181.19
302.209	174.19
302.439	157.19
302.669	183.19
302.9	184.19
303.13	170.19
303.36	183.19
303.59	203.19
303.82	191.19
304.051	185.19
304.281	179.19
304.511	169.19
304.741	176.19
304.971	187.19
305.201	160.19
305.431	156.19
305.661	166.19
305.891	183.19
306.121	178.19
306.352	177.19
306.582	176.19
306.812	188.19
307.042	195.19
307.272	224.19
307.502	215.19
307.731	224.19
307.961	187.19
308.191	182.19
308.421	190.19
308.651	170.19
308.881	169.19
309.111	155.19
309.341	162.19
309.571	178.19
309.8	173.19
310.03	173.19
310.26	167.19
310.49	176.19
310.72	152.19
310.949	158.19
311.179	165.19
311.409	169.19
311.639	166.19
311.868	187.19
312.098	164.19
312.328	184.19
312.557	184.19
312.787	170.19
313.017	167.19
313.246	171.19
313.476	170.19
313.706	177.19
313.935	179.19
314.165	176.19
314.394	168.19
314.624	158.19
314.853	165.19
315.083	179.19
315.312	174.19
315.542	169.19
315.771	175.19
316.001	167.19
316.23	183.19
316.46	171.19
316.689	184.19
316.919	166.19
317.148	183.19
317.377	186.19
317.607	170.19
317.836	181.19
318.065	189.19
318.295	166.19
318.524	176.19
318.753	185.19
318.983	181.19
319.212	198.19
319.441	189.19
319.67	182.19
319.9	185.19
320.129	167.19
320.358	171.19
320.587	184.19
320.816	190.19
321.046	174.19
321.275	199.19
321.504	216.19
321.733	194.19
321.962	200.19
322.191	206.19
322.42	204.19
322.649	192.19
322.878	216.19
323.108	208.19
323.337	186.19
323.566	210.19
323.795	205.19
324.024	203.19
324.253	214.19
324.482	217.19
324.71	227.19
324.939	230.19
325.168	225.19
325.397	209.19
325.626	245.19
325.855	237.19
326.084	248.19
326.313	234.19
326.542	237.19
326.77	248.19
326.999	259.19
327.228	297.19
327.457	357.19
327.686	418.19
327.914	537.19
328.143	715.19
328.372	741.19
328.6	534.19
328.829	413.19
329.058	379.19
329.287	425.19
329.515	483.19
329.744	657.19
329.972	981.19
330.201	1284.19
330.43	1297.19
330.658	788.19
330.887	470.19
331.115	393.19
331.344	365.19
331.572	324.19
331.801	321.19
332.03	316.19
332.258	320.19
332.486	332.19
332.715	351.19
332.943	353.19
333.172	384.19
333.4	444.19
333.629	529.19
333.857	708.19
334.085	1040.19
334.314	1500.19
334.542	1859.19
334.771	1456.19
334.999	755.19
335.227	497.19
335.455	412.19
335.684	328.19
335.912	333.19
336.14	321.19
336.369	291.19
336.597	268.19
336.825	266.19
337.053	242.19
337.281	252.19
337.51	235.19
337.738	235.19
337.966	230.19
338.194	225.19
338.422	247.19
338.65	233.19
338.878	229.19
339.106	211.19
339.334	223.19
339.562	235.19
339.79	216.19
340.018	211.19
340.246	190.19
340.474	197.19
340.702	203.19
340.93	208.19
341.158	205.19
341.386	213.19
341.614	198.19
341.842	209.19
342.07	191.19
342.298	191.19
342.526	202.19
342.754	190.19
342.981	190.19
343.209	187.19
343.437	219.19
343.665	205.19
343.893	198.19
344.12	216.19
344.348	191.19
344.576	202.19
344.804	191.19
345.031	207.19
345.259	180.19
345.487	182.19
345.714	194.19
345.942	183.19
346.17	184.19
346.397	197.19
346.625	190.19
346.853	178.19
347.08	193.19
347.308	193.19
347.535	182.19
347.763	173.19
347.99	190.19
348.218	188.19
348.445	185.19
348.673	178.19
348.9	177.19
349.128	183.19
349.355	193.19
349.583	193.19
349.81	189.19
350.037	184.19
350.265	186.19
350.492	181.19
350.72	172.19
350.947	188.19
351.174	189.19
351.402	181.19
351.629	190.19
351.856	187.19
352.083	189.19
352.311	179.19
352.538	192.19
352.765	186.19
352.992	183.19
353.22	190.19
353.447	185.19
353.674	181.19
353.901	202.19
354.128	194.19
354.355	183.19
354.583	173.19
354.81	170.19
355.037	193.19
355.264	187.19
355.491	183.19
355.718	179.19
355.945	196.19
356.172	181.19
356.399	181.19
356.626	174.19
356.853	178.19
357.08	185.19
357.307	187.19
357.534	185.19
357.761	189.19
357.988	189.19
358.215	201.19
358.441	167.19
358.668	194.19
358.895	178.19
359.122	187.19
359.349	184.19
359.576	182.19
359.802	177.19
360.029	181.19
360.256	175.19
360.483	169.19
360.709	169.19
360.936	185.19
361.163	175.19
361.39	194.19
361.616	163.19
361.843	186.19
362.07	169.19
362.296	183.19
362.523	174.19
362.749	186.19
362.976	189.19
363.203	187.19
363.429	194.19
363.656	186.19
363.882	182.19
364.109	185.19
364.335	190.19
364.562	185.19
364.788	185.19
365.015	190.19
365.241	169.19
365.468	182.19
365.694	171.19
365.92	195.19
366.147	167.19
366.373	182.19
366.599	179.19
366.826	190.19
367.052	181.19
367.278	189.19
367.505	201.19
367.731	189.19
367.957	175.19
368.184	181.19
368.41	173.19
368.636	172.19
368.862	175.19
369.089	169.19
369.315	186.19
369.541	182.19
369.767	184.19
369.993	182.19
370.219	183.19
370.445	182.19
370.672	201.19
370.898	194.19
371.124	178.19
371.35	184.19
371.576	173.19
371.802	200.19
372.028	152.19
372.254	191.19
372.48	204.19
372.706	187.19
372.932	181.19
373.158	171.19
373.384	186.19
373.61	201.19
373.835	177.19
374.061	186.19
374.287	189.19
374.513	201.19
374.739	194.19
374.965	189.19
375.191	189.19
375.416	196.19
375.642	189.19
375.868	190.19
376.094	179.19
376.319	165.19
376.545	189.19
376.771	194.19
376.997	190.19
377.222	192.19
377.448	186.19
377.674	191.19
377.899	191.19
378.125	193.19
378.35	194.19
378.576	194.19
378.802	170.19
379.027	197.19
379.253	194.19
379.478	171.19
379.704	190.19
379.929	183.19
380.155	185.19
380.38	185.19
380.606	183.19
380.831	188.19
381.057	196.19
381.282	200.19
381.507	167.19
381.733	174.19
381.958	210.19
382.184	194.19
382.409	200.19
382.634	198.19
382.86	195.19
383.085	207.19
383.31	204.19
383.535	201.19
383.761	193.19
383.986	181.19
384.211	212.19
384.436	192.19
384.662	186.19
384.887	211.19
385.112	200.19
385.337	193.19
385.562	187.19
385.787	209.19
386.013	202.19
386.238	189.19
386.463	208.19
386.688	214.19
386.913	203.19
387.138	201.19
387.363	217.19
387.588	207.19
387.813	208.19
388.038	229.19
388.263	209.19
388.488	221.19
388.713	217.19
388.938	217.19
389.163	215.19
389.387	192.19
389.612	196.19
389.837	208.19
390.062	209.19
390.287	208.19
390.512	210.19
390.736	209.19
390.961	218.19
391.186	213.19
391.411	206.19
391.636	215.19
391.86	219.19
392.085	196.19
392.31	203.19
392.534	192.19
392.759	231.19
392.984	208.19
393.208	217.19
393.433	218.19
393.658	192.19
393.882	204.19
394.107	209.19
394.331	209.19
394.556	198.19
394.78	211.19
395.005	209.19
395.229	214.19
395.454	231.19
395.678	208.19
395.903	205.19
396.127	225.19
396.352	215.19
396.576	225.19
396.801	208.19
397.025	231.19
397.249	223.19
397.474	241.19
397.698	242.19
397.922	214.19
398.147	219.19
398.371	216.19
398.595	233.19
398.82	232.19
399.044	248.19
399.268	265.19
399.492	273.19
399.717	271.19
399.941	276.19
400.165	267.19
400.389	247.19
400.613	247.19
400.837	238.19
401.062	252.19
401.286	226.19
401.51	250.19
401.734	223.19
401.958	243.19
402.182	248.19
402.406	247.19
402.63	254.19
402.854	229.19
403.078	233.19
403.302	253.19
403.526	244.19
403.75	264.19
403.974	267.19
404.198	256.19
404.422	251.19
404.645	275.19
404.869	277.19
405.093	302.19
405.317	331.19
405.541	305.19
405.765	296.19
405.988	274.19
406.212	262.19
406.436	260.19
406.66	264.19
406.883	266.19
407.107	258.19
407.331	261.19
407.555	261.19
407.778	257.19
408.002	258.19
408.226	256.19
408.449	238.19
408.673	244.19
408.896	239.19
409.12	248.19
409.344	267.19
409.567	247.19
409.791	254.19
410.014	241.19
410.238	237.19
410.461	251.19
410.685	241.19
410.908	250.19
411.132	268.19
411.355	247.19
411.578	268.19
411.802	254.19
412.025	264.19
412.249	280.19
412.472	312.19
412.695	338.19
412.919	349.19
413.142	294.19
413.365	302.19
413.589	279.19
413.812	258.19
414.035	262.19
414.258	268.19
414.482	257.19
414.705	266.19
414.928	248.19
415.151	249.19
415.374	251.19
415.597	246.19
415.821	245.19
416.044	247.19
416.267	253.19
416.49	246.19
416.713	240.19
416.936	254.19
417.159	244.19
417.382	245.19
417.605	287.19
417.828	271.19
418.051	262.19
418.274	255.19
418.497	233.19
418.72	251.19
418.943	262.19
419.166	252.19
419.389	260.19
419.611	258.19
419.834	270.19
420.057	294.19
420.28	306.19
420.503	300.19
420.726	275.19
420.948	281.19
421.171	276.19
421.394	262.19
421.617	264.19
421.839	256.19
422.062	238.19
422.285	256.19
422.507	253.19
422.73	242.19
422.953	253.19
423.175	249.19
423.398	242.19
423.621	257.19
423.843	244.19
424.066	238.19
424.288	225.19
424.511	241.19
424.733	242.19
424.956	245.19
425.178	245.19
425.401	259.19
425.623	241.19
425.846	236.19
426.068	230.19
426.291	232.19
426.513	237.19
426.735	222.19
426.958	239.19
427.18	248.19
427.402	273.19
427.625	305.19
427.847	311.19
428.069	344.19
428.292	311.19
428.514	261.19
428.736	237.19
428.958	227.19
429.181	257.19
429.403	233.19
429.625	236.19
429.847	224.19
430.069	231.19
430.292	219.19
430.514	220.19
430.736	234.19
430.958	235.19
431.18	230.19
431.402	221.19
431.624	220.19
431.846	202.19
432.068	225.19
432.29	233.19
432.512	221.19
432.734	229.19
432.956	217.19
433.178	227.19
433.4	221.19
433.622	231.19
433.844	222.19
434.066	213.19
434.287	217.19
434.509	212.19
434.731	232.19
434.953	234.19
435.175	233.19
435.397	235.19
435.618	229.19
435.84	240.19
436.062	210.19
436.284	218.19
436.505	221.19
436.727	217.19
436.949	223.19
437.17	222.19
437.392	204.19
437.614	218.19
437.835	215.19
438.057	223.19
438.278	207.19
438.5	202.19
438.721	218.19
438.943	227.19
439.165	224.19
439.386	199.19
439.608	219.19
439.829	245.19
440.05	221.19
440.272	225.19
440.493	223.19
440.715	219.19
440.936	209.19
441.158	222.19
441.379	232.19
441.6	221.19
441.822	213.19
442.043	237.19
442.264	226.19
442.486	237.19
442.707	222.19
442.928	232.19
443.149	242.19
443.371	229.19
443.592	241.19
443.813	227.19
444.034	239.19
444.255	234.19
444.476	239.19
444.698	257.19
444.919	254.19
445.14	325.19
445.361	271.19
445.582	242.19
445.803	222.19
446.024	225.19
446.245	226.19
446.466	216.19
446.687	211.19
446.908	233.19
447.129	212.19
447.35	218.19
447.571	224.19
447.792	227.19
448.013	223.19
448.234	230.19
448.455	203.19
448.675	212.19
448.896	213.19
449.117	206.19
449.338	201.19
449.559	208.19
449.779	217.19
450	204.19
450.221	222.19
450.442	207.19
450.662	203.19
450.883	205.19
451.104	213.19
451.324	201.19
451.545	220.19
451.766	207.19
451.986	222.19
452.207	196.19
452.428	181.19
452.648	201.19
452.869	195.19
453.089	197.19
453.31	197.19
453.53	214.19
453.751	209.19
453.971	220.19
454.192	202.19
454.412	193.19
454.633	208.19
454.853	205.19
455.073	210.19
455.294	199.19
455.514	202.19
455.734	191.19
455.955	201.19
456.175	204.19
456.395	226.19
456.616	199.19
456.836	192.19
457.056	222.19
457.276	202.19
457.497	204.19
457.717	190.19
457.937	205.19
458.157	214.19
458.377	215.19
458.598	213.19
458.818	215.19
459.038	232.19
459.258	222.19
459.478	215.19
459.698	227.19
459.918	216.19
460.138	219.19
460.358	230.19
460.578	224.19
460.798	223.19
461.018	245.19
461.238	221.19
461.458	251.19
461.678	244.19
461.898	234.19
462.118	233.19
462.338	250.19
462.558	272.19
462.777	269.19
462.997	274.19
463.217	269.19
463.437	275.19
463.657	261.19
463.876	275.19
464.096	265.19
464.316	251.19
464.536	248.19
464.755	230.19
464.975	261.19
465.195	251.19
465.414	236.19
465.634	242.19
465.854	250.19
466.073	239.19
466.293	224.19
466.512	239.19
466.732	235.19
466.951	237.19
467.171	250.19
467.391	240.19
467.61	302.19
467.829	398.19
468.049	663.19
468.268	799.19
468.488	488.19
468.707	349.19
468.927	301.19
469.146	287.19
469.365	277.19
469.585	276.19
469.804	276.19
470.023	257.19
470.243	260.19
470.462	256.19
470.681	278.19
470.901	264.19
471.12	278.19
471.339	287.19
471.558	322.19
471.777	391.19
471.997	536.19
472.216	1117.19
472.435	1729.19
472.654	945.19
472.873	549.19
473.092	427.19
473.311	380.19
473.53	347.19
473.749	307.19
473.968	311.19
474.187	284.19
474.406	282.19
474.625	274.19
474.844	263.19
475.063	277.19
475.282	241.19
475.501	242.19
475.72	282.19
475.939	249.19
476.158	245.19
476.377	271.19
476.596	252.19
476.814	256.19
477.033	258.19
477.252	247.19
477.471	264.19
477.69	269.19
477.908	293.19
478.127	306.19
478.346	286.19
478.564	282.19
478.783	279.19
479.002	302.19
479.22	287.19
479.439	304.19
479.658	307.19
479.876	316.19
480.095	356.19
480.313	392.19
480.532	457.19
480.751	626.19
480.969	1247.19
481.188	2704.19
481.406	2125.19
481.624	1038.19
481.843	697.19
482.061	555.19
482.28	483.19
482.498	415.19
482.717	399.19
482.935	366.19
483.153	374.19
483.372	354.19
483.59	333.19
483.808	317.19
484.027	320.19
484.245	325.19
484.463	322.19
484.681	302.19
484.9	319.19
485.118	322.19
485.336	286.19
485.554	299.19
485.772	286.19
485.99	295.19
486.209	300.19
486.427	296.19
486.645	294.19
486.863	308.19
487.081	302.19
487.299	303.19
487.517	287.19
487.735	299.19
487.953	314.19
488.171	305.19
488.389	310.19
488.607	300.19
488.825	310.19
489.043	308.19
489.261	281.19
489.479	305.19
489.696	339.19
489.914	322.19
490.132	328.19
490.35	349.19
490.568	360.19
490.786	385.19
491.003	388.19
491.221	422.19
491.439	438.19
491.657	472.19
491.874	473.19
492.092	462.19
492.31	465.19
492.527	515.19
492.745	535.19
492.963	525.19
493.18	499.19
493.398	479.19
493.615	445.19
493.833	435.19
494.05	428.19
494.268	399.19
494.485	397.19
494.703	391.19
494.92	384.19
495.138	397.19
495.355	360.19
495.573	367.19
495.79	359.19
496.008	363.19
496.225	377.19
496.442	345.19
496.66	344.19
496.877	336.19
497.094	357.19
497.312	343.19
497.529	355.19
497.746	327.19
497.963	341.19
498.181	343.19
498.398	340.19
498.615	350.19
498.832	357.19
499.049	359.19
499.267	376.19
499.484	387.19
499.701	394.19
499.918	419.19
500.135	469.19
500.352	462.19
500.569	503.19
500.786	494.19
501.003	460.19
501.22	455.19
501.437	410.19
501.654	379.19
501.871	380.19
502.088	368.19
502.305	358.19
502.522	329.19
502.739	323.19
502.956	331.19
503.172	319.19
503.389	309.19
