Data from StdC_HRD10591_091.txt Node
Date: Fri May 16 15:29:26 EDT 2025
User: Yrep
Spectrometer: HR+D1059
Trigger mode: 1
Integration Time (sec): 1.000000E-1
Scans to average: 1
Electric dark correction enabled: true
Nonlinearity correction enabled: false
Boxcar width: 0
XAxis mode: Wavelengths
Number of Pixels in Spectrum: 2048
>>>>>Begin Spectral Data<<<<<
223.165	-16.81
223.4	-16.81
223.635	-16.81
223.869	-17.81
224.104	-16.81
224.338	-13.81
224.573	-15.81
224.808	-23.81
225.042	-7.81
225.277	-3.81
225.511	-21.81
225.746	7.19
225.98	12.19
226.215	9.19
226.449	34.19
226.683	18.19
226.918	40.19
227.152	17.19
227.387	44.19
227.621	54.19
227.856	54.19
228.09	42.19
228.324	62.19
228.559	65.19
228.793	59.19
229.027	67.19
229.262	59.19
229.496	86.19
229.73	62.19
229.964	84.19
230.199	84.19
230.433	89.19
230.667	95.19
230.901	87.19
231.136	96.19
231.37	90.19
231.604	95.19
231.838	93.19
232.072	102.19
232.306	83.19
232.541	102.19
232.775	86.19
233.009	78.19
233.243	92.19
233.477	81.19
233.711	102.19
233.945	77.19
234.179	92.19
234.413	100.19
234.647	99.19
234.881	96.19
235.115	90.19
235.349	87.19
235.583	92.19
235.817	99.19
236.051	96.19
236.285	82.19
236.519	81.19
236.753	91.19
236.987	84.19
237.221	93.19
237.455	109.19
237.689	86.19
237.922	76.19
238.156	77.19
238.39	83.19
238.624	73.19
238.858	86.19
239.091	83.19
239.325	98.19
239.559	90.19
239.793	99.19
240.027	97.19
240.26	96.19
240.494	96.19
240.728	88.19
240.961	97.19
241.195	98.19
241.429	91.19
241.662	108.19
241.896	103.19
242.13	96.19
242.363	104.19
242.597	95.19
242.83	100.19
243.064	100.19
243.298	101.19
243.531	90.19
243.765	94.19
243.998	119.19
244.232	99.19
244.465	106.19
244.699	97.19
244.932	109.19
245.166	99.19
245.399	91.19
245.633	115.19
245.866	114.19
246.099	99.19
246.333	98.19
246.566	97.19
246.8	89.19
247.033	108.19
247.266	104.19
247.5	114.19
247.733	106.19
247.966	95.19
248.2	98.19
248.433	106.19
248.666	99.19
248.899	114.19
249.133	117.19
249.366	119.19
249.599	114.19
249.832	122.19
250.066	132.19
250.299	160.19
250.532	196.19
250.765	155.19
250.998	148.19
251.231	131.19
251.465	130.19
251.698	123.19
251.931	128.19
252.164	115.19
252.397	128.19
252.63	128.19
252.863	111.19
253.096	126.19
253.329	118.19
253.562	105.19
253.795	133.19
254.028	128.19
254.261	128.19
254.494	137.19
254.727	133.19
254.96	127.19
255.193	135.19
255.426	150.19
255.659	182.19
255.892	257.19
256.124	298.19
256.357	248.19
256.59	201.19
256.823	172.19
257.056	163.19
257.289	144.19
257.521	129.19
257.754	152.19
257.987	132.19
258.22	147.19
258.452	146.19
258.685	145.19
258.918	139.19
259.151	127.19
259.383	142.19
259.616	125.19
259.849	148.19
260.081	136.19
260.314	128.19
260.547	132.19
260.779	135.19
261.012	136.19
261.244	141.19
261.477	149.19
261.71	129.19
261.942	123.19
262.175	134.19
262.407	124.19
262.64	134.19
262.872	129.19
263.105	125.19
263.337	126.19
263.57	131.19
263.802	128.19
264.035	123.19
264.267	127.19
264.499	122.19
264.732	117.19
264.964	122.19
265.197	123.19
265.429	128.19
265.661	138.19
265.894	134.19
266.126	143.19
266.358	124.19
266.591	136.19
266.823	146.19
267.055	133.19
267.287	128.19
267.52	128.19
267.752	150.19
267.984	147.19
268.216	141.19
268.448	135.19
268.681	136.19
268.913	140.19
269.145	124.19
269.377	137.19
269.609	131.19
269.841	122.19
270.073	135.19
270.306	142.19
270.538	137.19
270.77	119.19
271.002	166.19
271.234	136.19
271.466	143.19
271.698	126.19
271.93	144.19
272.162	144.19
272.394	139.19
272.626	132.19
272.858	157.19
273.09	154.19
273.322	131.19
273.553	148.19
273.785	160.19
274.017	154.19
274.249	164.19
274.481	146.19
274.713	143.19
274.945	168.19
275.176	163.19
275.408	174.19
275.64	166.19
275.872	171.19
276.104	169.19
276.335	176.19
276.567	182.19
276.799	206.19
277.031	212.19
277.262	228.19
277.494	220.19
277.726	200.19
277.957	186.19
278.189	188.19
278.421	168.19
278.652	173.19
278.884	157.19
279.115	170.19
279.347	171.19
279.579	187.19
279.81	218.19
280.042	242.19
280.273	262.19
280.505	246.19
280.736	210.19
280.968	193.19
281.199	185.19
281.431	172.19
281.662	176.19
281.894	188.19
282.125	149.19
282.356	152.19
282.588	159.19
282.819	153.19
283.051	161.19
283.282	146.19
283.513	164.19
283.745	155.19
283.976	158.19
284.207	163.19
284.439	168.19
284.67	155.19
284.901	160.19
285.132	166.19
285.364	156.19
285.595	146.19
285.826	150.19
286.057	148.19
286.288	155.19
286.52	160.19
286.751	169.19
286.982	154.19
287.213	156.19
287.444	167.19
287.675	162.19
287.906	155.19
288.138	167.19
288.369	147.19
288.6	161.19
288.831	155.19
289.062	169.19
289.293	153.19
289.524	153.19
289.755	157.19
289.986	153.19
290.217	159.19
290.448	145.19
290.679	155.19
290.91	160.19
291.141	170.19
291.371	154.19
291.602	157.19
291.833	161.19
292.064	154.19
292.295	159.19
292.526	147.19
292.757	143.19
292.987	147.19
293.218	146.19
293.449	155.19
293.68	139.19
293.91	146.19
294.141	158.19
294.372	156.19
294.603	166.19
294.833	151.19
295.064	168.19
295.295	168.19
295.525	167.19
295.756	152.19
295.987	151.19
296.217	157.19
296.448	173.19
296.679	158.19
296.909	164.19
297.14	161.19
297.37	153.19
297.601	159.19
297.831	165.19
298.062	154.19
298.292	147.19
298.523	151.19
298.753	148.19
298.984	155.19
299.214	163.19
299.445	152.19
299.675	149.19
299.905	151.19
300.136	162.19
300.366	178.19
300.597	168.19
300.827	166.19
301.057	153.19
301.288	145.19
301.518	179.19
301.748	190.19
301.979	194.19
302.209	172.19
302.439	154.19
302.669	181.19
302.9	154.19
303.13	179.19
303.36	190.19
303.59	188.19
303.82	195.19
304.051	188.19
304.281	163.19
304.511	162.19
304.741	164.19
304.971	163.19
305.201	180.19
305.431	138.19
305.661	155.19
305.891	175.19
306.121	158.19
306.352	168.19
306.582	176.19
306.812	173.19
307.042	193.19
307.272	227.19
307.502	217.19
307.731	236.19
307.961	196.19
308.191	166.19
308.421	174.19
308.651	167.19
308.881	156.19
309.111	188.19
309.341	168.19
309.571	180.19
309.8	174.19
310.03	160.19
310.26	171.19
310.49	164.19
310.72	164.19
310.949	161.19
311.179	180.19
311.409	187.19
311.639	177.19
311.868	168.19
312.098	166.19
312.328	169.19
312.557	190.19
312.787	176.19
313.017	187.19
313.246	158.19
313.476	159.19
313.706	166.19
313.935	174.19
314.165	192.19
314.394	161.19
314.624	170.19
314.853	158.19
315.083	173.19
315.312	161.19
315.542	158.19
315.771	183.19
316.001	176.19
316.23	184.19
316.46	176.19
316.689	166.19
316.919	172.19
317.148	169.19
317.377	187.19
317.607	173.19
317.836	171.19
318.065	172.19
318.295	176.19
318.524	184.19
318.753	184.19
318.983	192.19
319.212	172.19
319.441	193.19
319.67	178.19
319.9	188.19
320.129	179.19
320.358	183.19
320.587	177.19
320.816	188.19
321.046	190.19
321.275	185.19
321.504	192.19
321.733	198.19
321.962	180.19
322.191	206.19
322.42	192.19
322.649	202.19
322.878	214.19
323.108	216.19
323.337	196.19
323.566	213.19
323.795	212.19
324.024	218.19
324.253	223.19
324.482	216.19
324.71	239.19
324.939	224.19
325.168	216.19
325.397	223.19
325.626	237.19
325.855	237.19
326.084	255.19
326.313	235.19
326.542	257.19
326.77	257.19
326.999	267.19
327.228	292.19
327.457	313.19
327.686	398.19
327.914	531.19
328.143	667.19
328.372	742.19
328.6	518.19
328.829	395.19
329.058	374.19
329.287	407.19
329.515	484.19
329.744	640.19
329.972	971.19
330.201	1301.19
330.43	1271.19
330.658	762.19
330.887	447.19
331.115	366.19
331.344	346.19
331.572	334.19
331.801	320.19
332.03	320.19
332.258	342.19
332.486	321.19
332.715	324.19
332.943	348.19
333.172	385.19
333.4	440.19
333.629	522.19
333.857	671.19
334.085	1014.19
334.314	1437.19
334.542	1798.19
334.771	1431.19
334.999	728.19
335.227	487.19
335.455	412.19
335.684	346.19
335.912	318.19
336.14	310.19
336.369	287.19
336.597	259.19
336.825	253.19
337.053	228.19
337.281	245.19
337.51	246.19
337.738	225.19
337.966	233.19
338.194	238.19
338.422	214.19
338.65	210.19
338.878	209.19
339.106	223.19
339.334	210.19
339.562	205.19
339.79	201.19
340.018	208.19
340.246	209.19
340.474	214.19
340.702	205.19
340.93	181.19
341.158	205.19
341.386	186.19
341.614	188.19
341.842	207.19
342.07	198.19
342.298	206.19
342.526	196.19
342.754	199.19
342.981	218.19
343.209	190.19
343.437	202.19
343.665	183.19
343.893	208.19
344.12	193.19
344.348	199.19
344.576	196.19
344.804	186.19
345.031	194.19
345.259	182.19
345.487	196.19
345.714	188.19
345.942	187.19
346.17	193.19
346.397	184.19
346.625	184.19
346.853	193.19
347.08	187.19
347.308	174.19
347.535	193.19
347.763	186.19
347.99	166.19
348.218	174.19
348.445	189.19
348.673	194.19
348.9	194.19
349.128	185.19
349.355	186.19
349.583	184.19
349.81	182.19
350.037	190.19
350.265	178.19
350.492	168.19
350.72	207.19
350.947	176.19
351.174	197.19
351.402	182.19
351.629	188.19
351.856	191.19
352.083	182.19
352.311	184.19
352.538	195.19
352.765	193.19
352.992	183.19
353.22	189.19
353.447	186.19
353.674	169.19
353.901	189.19
354.128	187.19
354.355	192.19
354.583	184.19
354.81	166.19
355.037	194.19
355.264	192.19
355.491	186.19
355.718	188.19
355.945	178.19
356.172	199.19
356.399	175.19
356.626	176.19
356.853	191.19
357.08	194.19
357.307	169.19
357.534	168.19
357.761	170.19
357.988	194.19
358.215	177.19
358.441	180.19
358.668	183.19
358.895	179.19
359.122	182.19
359.349	192.19
359.576	177.19
359.802	186.19
360.029	182.19
360.256	189.19
360.483	162.19
360.709	169.19
360.936	188.19
361.163	167.19
361.39	163.19
361.616	177.19
361.843	182.19
362.07	177.19
362.296	188.19
362.523	186.19
362.749	180.19
362.976	171.19
363.203	159.19
363.429	186.19
363.656	182.19
363.882	168.19
364.109	195.19
364.335	194.19
364.562	169.19
364.788	172.19
365.015	185.19
365.241	177.19
365.468	178.19
365.694	172.19
365.92	190.19
366.147	179.19
366.373	191.19
366.599	191.19
366.826	185.19
367.052	189.19
367.278	166.19
367.505	186.19
367.731	179.19
367.957	171.19
368.184	170.19
368.41	188.19
368.636	178.19
368.862	186.19
369.089	174.19
369.315	169.19
369.541	168.19
369.767	200.19
369.993	183.19
370.219	185.19
370.445	191.19
370.672	187.19
370.898	190.19
371.124	180.19
371.35	166.19
371.576	167.19
371.802	183.19
372.028	188.19
372.254	194.19
372.48	196.19
372.706	163.19
372.932	194.19
373.158	168.19
373.384	200.19
373.61	191.19
373.835	190.19
374.061	184.19
374.287	190.19
374.513	173.19
374.739	203.19
374.965	199.19
375.191	190.19
375.416	178.19
375.642	176.19
375.868	197.19
376.094	174.19
376.319	186.19
376.545	177.19
376.771	173.19
376.997	181.19
377.222	183.19
377.448	195.19
377.674	200.19
377.899	194.19
378.125	188.19
378.35	163.19
378.576	188.19
378.802	192.19
379.027	171.19
379.253	183.19
379.478	185.19
379.704	179.19
379.929	194.19
380.155	182.19
380.38	193.19
380.606	208.19
380.831	182.19
381.057	201.19
381.282	184.19
381.507	192.19
381.733	196.19
381.958	180.19
382.184	177.19
382.409	190.19
382.634	200.19
382.86	200.19
383.085	184.19
383.31	196.19
383.535	209.19
383.761	190.19
383.986	193.19
384.211	193.19
384.436	210.19
384.662	201.19
384.887	204.19
385.112	203.19
385.337	195.19
385.562	204.19
385.787	207.19
386.013	207.19
386.238	205.19
386.463	193.19
386.688	214.19
386.913	192.19
387.138	202.19
387.363	199.19
387.588	204.19
387.813	206.19
388.038	195.19
388.263	215.19
388.488	198.19
388.713	199.19
388.938	193.19
389.163	211.19
389.387	196.19
389.612	206.19
389.837	209.19
390.062	215.19
390.287	203.19
390.512	200.19
390.736	221.19
390.961	206.19
391.186	205.19
391.411	214.19
391.636	208.19
391.86	212.19
392.085	218.19
392.31	208.19
392.534	194.19
392.759	226.19
392.984	217.19
393.208	209.19
393.433	197.19
393.658	205.19
393.882	209.19
394.107	191.19
394.331	208.19
394.556	220.19
394.78	224.19
395.005	206.19
395.229	202.19
395.454	223.19
395.678	195.19
395.903	215.19
396.127	225.19
396.352	216.19
396.576	216.19
396.801	225.19
397.025	196.19
397.249	216.19
397.474	228.19
397.698	216.19
397.922	234.19
398.147	216.19
398.371	225.19
398.595	247.19
398.82	235.19
399.044	250.19
399.268	243.19
399.492	272.19
399.717	268.19
399.941	265.19
400.165	264.19
400.389	254.19
400.613	249.19
400.837	225.19
401.062	242.19
401.286	244.19
401.51	220.19
401.734	238.19
401.958	222.19
402.182	247.19
402.406	242.19
402.63	235.19
402.854	241.19
403.078	234.19
403.302	238.19
403.526	244.19
403.75	226.19
403.974	240.19
404.198	241.19
404.422	264.19
404.645	255.19
404.869	266.19
405.093	288.19
405.317	304.19
405.541	313.19
405.765	274.19
405.988	280.19
406.212	245.19
406.436	266.19
406.66	256.19
406.883	264.19
407.107	264.19
407.331	248.19
407.555	264.19
407.778	259.19
408.002	251.19
408.226	248.19
408.449	246.19
408.673	261.19
408.896	261.19
409.12	260.19
409.344	245.19
409.567	242.19
409.791	242.19
410.014	241.19
410.238	263.19
410.461	238.19
410.685	241.19
410.908	257.19
411.132	240.19
411.355	237.19
411.578	253.19
411.802	267.19
412.025	270.19
412.249	270.19
412.472	293.19
412.695	324.19
412.919	325.19
413.142	298.19
413.365	271.19
413.589	275.19
413.812	248.19
414.035	250.19
414.258	251.19
414.482	245.19
414.705	245.19
414.928	243.19
415.151	249.19
415.374	244.19
415.597	234.19
415.821	248.19
416.044	254.19
416.267	240.19
416.49	243.19
416.713	238.19
416.936	227.19
417.159	234.19
417.382	248.19
417.605	249.19
417.828	256.19
418.051	252.19
418.274	244.19
418.497	231.19
418.72	223.19
418.943	253.19
419.166	247.19
419.389	258.19
419.611	275.19
419.834	267.19
420.057	294.19
420.28	306.19
420.503	291.19
420.726	289.19
420.948	281.19
421.171	263.19
421.394	248.19
421.617	238.19
421.839	235.19
422.062	251.19
422.285	257.19
422.507	233.19
422.73	223.19
422.953	246.19
423.175	228.19
423.398	250.19
423.621	248.19
423.843	242.19
424.066	236.19
424.288	228.19
424.511	252.19
424.733	238.19
424.956	232.19
425.178	233.19
425.401	221.19
425.623	236.19
425.846	226.19
426.068	231.19
426.291	220.19
426.513	244.19
426.735	248.19
426.958	257.19
427.18	252.19
427.402	264.19
427.625	245.19
427.847	308.19
428.069	328.19
428.292	292.19
428.514	244.19
428.736	252.19
428.958	250.19
429.181	242.19
429.403	230.19
429.625	220.19
429.847	227.19
430.069	228.19
430.292	230.19
430.514	214.19
430.736	219.19
430.958	223.19
431.18	208.19
431.402	224.19
431.624	217.19
431.846	227.19
432.068	212.19
432.29	220.19
432.512	214.19
432.734	227.19
432.956	220.19
433.178	226.19
433.4	217.19
433.622	219.19
433.844	205.19
434.066	209.19
434.287	218.19
434.509	214.19
434.731	234.19
434.953	239.19
435.175	226.19
435.397	230.19
435.618	222.19
435.84	228.19
436.062	216.19
436.284	221.19
436.505	204.19
436.727	218.19
436.949	210.19
437.17	223.19
437.392	214.19
437.614	202.19
437.835	202.19
438.057	212.19
438.278	209.19
438.5	231.19
438.721	209.19
438.943	205.19
439.165	219.19
439.386	200.19
439.608	222.19
439.829	206.19
440.05	223.19
440.272	215.19
440.493	212.19
440.715	219.19
440.936	230.19
441.158	202.19
441.379	239.19
441.6	238.19
441.822	243.19
442.043	231.19
442.264	231.19
442.486	229.19
442.707	247.19
442.928	223.19
443.149	227.19
443.371	217.19
443.592	227.19
443.813	234.19
444.034	228.19
444.255	234.19
444.476	239.19
444.698	229.19
444.919	252.19
445.14	326.19
445.361	269.19
445.582	226.19
445.803	206.19
446.024	227.19
446.245	238.19
446.466	230.19
446.687	217.19
446.908	215.19
447.129	217.19
447.35	210.19
447.571	221.19
447.792	204.19
448.013	210.19
448.234	209.19
448.455	211.19
448.675	196.19
448.896	197.19
449.117	202.19
449.338	205.19
449.559	196.19
449.779	209.19
450	221.19
450.221	199.19
450.442	210.19
450.662	191.19
450.883	210.19
451.104	204.19
451.324	198.19
451.545	212.19
451.766	214.19
451.986	207.19
452.207	226.19
452.428	212.19
452.648	211.19
452.869	196.19
453.089	210.19
453.31	194.19
453.53	188.19
453.751	207.19
453.971	197.19
454.192	214.19
454.412	203.19
454.633	210.19
454.853	197.19
455.073	194.19
455.294	200.19
455.514	210.19
455.734	195.19
455.955	202.19
456.175	204.19
456.395	209.19
456.616	219.19
456.836	200.19
457.056	210.19
457.276	195.19
457.497	203.19
457.717	216.19
457.937	206.19
458.157	192.19
458.377	200.19
458.598	203.19
458.818	204.19
459.038	214.19
459.258	209.19
459.478	231.19
459.698	209.19
459.918	211.19
460.138	227.19
460.358	237.19
460.578	224.19
460.798	206.19
461.018	228.19
461.238	230.19
461.458	237.19
461.678	226.19
461.898	217.19
462.118	242.19
462.338	239.19
462.558	247.19
462.777	241.19
462.997	260.19
463.217	283.19
463.437	255.19
463.657	270.19
463.876	250.19
464.096	241.19
464.316	232.19
464.536	237.19
464.755	227.19
464.975	223.19
465.195	239.19
465.414	240.19
465.634	234.19
465.854	230.19
466.073	241.19
466.293	227.19
466.512	237.19
466.732	233.19
466.951	217.19
467.171	241.19
467.391	250.19
467.61	260.19
467.829	384.19
468.049	626.19
468.268	770.19
468.488	478.19
468.707	322.19
468.927	295.19
469.146	264.19
469.365	256.19
469.585	270.19
469.804	265.19
470.023	253.19
470.243	252.19
470.462	274.19
470.681	263.19
470.901	279.19
471.12	267.19
471.339	267.19
471.558	304.19
471.777	349.19
471.997	524.19
472.216	1078.19
472.435	1634.19
472.654	926.19
472.873	552.19
473.092	417.19
473.311	373.19
473.53	322.19
473.749	308.19
473.968	314.19
474.187	279.19
474.406	271.19
474.625	263.19
474.844	263.19
475.063	254.19
475.282	254.19
475.501	255.19
475.72	253.19
475.939	264.19
476.158	263.19
476.377	254.19
476.596	234.19
476.814	242.19
477.033	238.19
477.252	256.19
477.471	258.19
477.69	256.19
477.908	236.19
478.127	268.19
478.346	275.19
478.564	284.19
478.783	271.19
479.002	284.19
479.22	276.19
479.439	300.19
479.658	308.19
479.876	314.19
480.095	327.19
480.313	348.19
480.532	440.19
480.751	592.19
480.969	1156.19
481.188	2614.19
481.406	2094.19
481.624	1006.19
481.843	667.19
482.061	517.19
482.28	462.19
482.498	392.19
482.717	385.19
482.935	360.19
483.153	361.19
483.372	335.19
483.59	306.19
483.808	329.19
484.027	319.19
484.245	306.19
484.463	314.19
484.681	330.19
484.9	294.19
485.118	298.19
485.336	273.19
485.554	279.19
485.772	279.19
485.99	279.19
486.209	287.19
486.427	289.19
486.645	276.19
486.863	282.19
487.081	269.19
487.299	285.19
487.517	274.19
487.735	296.19
487.953	320.19
488.171	286.19
488.389	285.19
488.607	291.19
488.825	297.19
489.043	315.19
489.261	299.19
489.479	317.19
489.696	315.19
489.914	301.19
490.132	307.19
490.35	349.19
490.568	334.19
490.786	353.19
491.003	387.19
491.221	396.19
491.439	440.19
491.657	455.19
491.874	440.19
492.092	448.19
492.31	473.19
492.527	486.19
492.745	499.19
492.963	483.19
493.18	463.19
493.398	431.19
493.615	436.19
493.833	422.19
494.05	404.19
494.268	376.19
494.485	369.19
494.703	406.19
494.92	398.19
495.138	347.19
495.355	362.19
495.573	360.19
495.79	334.19
496.008	343.19
496.225	341.19
496.442	346.19
496.66	345.19
496.877	348.19
497.094	341.19
497.312	328.19
497.529	322.19
497.746	333.19
497.963	311.19
498.181	325.19
498.398	336.19
498.615	328.19
498.832	331.19
499.049	350.19
499.267	379.19
499.484	395.19
499.701	394.19
499.918	406.19
500.135	439.19
500.352	457.19
500.569	494.19
500.786	504.19
501.003	456.19
501.22	428.19
501.437	392.19
501.654	367.19
501.871	356.19
502.088	331.19
502.305	328.19
502.522	313.19
502.739	313.19
502.956	299.19
503.172	325.19
503.389	283.19
