Data from StdC_HRD10591_101.txt Node
Date: Fri May 16 15:30:26 EDT 2025
User: Yrep
Spectrometer: HR+D1059
Trigger mode: 1
Integration Time (sec): 1.000000E-1
Scans to average: 1
Electric dark correction enabled: true
Nonlinearity correction enabled: false
Boxcar width: 0
XAxis mode: Wavelengths
Number of Pixels in Spectrum: 2048
>>>>>Begin Spectral Data<<<<<
223.165	-10.69
223.4	-10.69
223.635	-10.69
223.869	-6.69
224.104	-22.69
224.338	-25.69
224.573	-22.69
224.808	-15.69
225.042	-9.69
225.277	-7.69
225.511	-10.69
225.746	0.31
225.98	16.31
226.215	20.31
226.449	11.31
226.683	7.31
226.918	43.31
227.152	33.31
227.387	31.31
227.621	33.31
227.856	47.31
228.09	42.31
228.324	62.31
228.559	66.31
228.793	53.31
229.027	59.31
229.262	79.31
229.496	71.31
229.73	65.31
229.964	76.31
230.199	87.31
230.433	77.31
230.667	75.31
230.901	74.31
231.136	78.31
231.37	85.31
231.604	88.31
231.838	84.31
232.072	81.31
232.306	91.31
232.541	74.31
232.775	89.31
233.009	95.31
233.243	88.31
233.477	71.31
233.711	90.31
233.945	71.31
234.179	87.31
234.413	71.31
234.647	76.31
234.881	77.31
235.115	89.31
235.349	72.31
235.583	72.31
235.817	66.31
236.051	69.31
236.285	83.31
236.519	84.31
236.753	82.31
236.987	81.31
237.221	71.31
237.455	82.31
237.689	79.31
237.922	86.31
238.156	71.31
238.39	64.31
238.624	68.31
238.858	66.31
239.091	83.31
239.325	82.31
239.559	70.31
239.793	77.31
240.027	81.31
240.26	68.31
240.494	89.31
240.728	79.31
240.961	80.31
241.195	80.31
241.429	70.31
241.662	67.31
241.896	71.31
242.13	82.31
242.363	62.31
242.597	91.31
242.83	78.31
243.064	76.31
243.298	85.31
243.531	86.31
243.765	72.31
243.998	78.31
244.232	81.31
244.465	64.31
244.699	72.31
244.932	73.31
245.166	76.31
245.399	85.31
245.633	77.31
245.866	72.31
246.099	71.31
246.333	71.31
246.566	61.31
246.8	78.31
247.033	83.31
247.266	91.31
247.5	82.31
247.733	74.31
247.966	79.31
248.2	89.31
248.433	85.31
248.666	69.31
248.899	74.31
249.133	71.31
249.366	85.31
249.599	93.31
249.832	95.31
250.066	83.31
250.299	88.31
250.532	70.31
250.765	71.31
250.998	94.31
251.231	88.31
251.465	74.31
251.698	78.31
251.931	87.31
252.164	77.31
252.397	85.31
252.63	85.31
252.863	92.31
253.096	70.31
253.329	95.31
253.562	80.31
253.795	78.31
254.028	100.31
254.261	77.31
254.494	80.31
254.727	81.31
254.96	87.31
255.193	89.31
255.426	86.31
255.659	97.31
255.892	81.31
256.124	77.31
256.357	91.31
256.59	71.31
256.823	89.31
257.056	83.31
257.289	82.31
257.521	84.31
257.754	89.31
257.987	73.31
258.22	83.31
258.452	83.31
258.685	82.31
258.918	84.31
259.151	84.31
259.383	87.31
259.616	86.31
259.849	79.31
260.081	92.31
260.314	87.31
260.547	66.31
260.779	86.31
261.012	78.31
261.244	80.31
261.477	75.31
261.71	97.31
261.942	93.31
262.175	89.31
262.407	90.31
262.64	93.31
262.872	81.31
263.105	99.31
263.337	80.31
263.57	92.31
263.802	94.31
264.035	89.31
264.267	86.31
264.499	79.31
264.732	91.31
264.964	90.31
265.197	91.31
265.429	99.31
265.661	91.31
265.894	95.31
266.126	81.31
266.358	97.31
266.591	84.31
266.823	91.31
267.055	81.31
267.287	99.31
267.52	71.31
267.752	89.31
267.984	102.31
268.216	102.31
268.448	93.31
268.681	94.31
268.913	107.31
269.145	99.31
269.377	86.31
269.609	103.31
269.841	99.31
270.073	97.31
270.306	101.31
270.538	92.31
270.77	103.31
271.002	95.31
271.234	93.31
271.466	99.31
271.698	101.31
271.93	95.31
272.162	97.31
272.394	95.31
272.626	101.31
272.858	106.31
273.09	92.31
273.322	96.31
273.553	92.31
273.785	93.31
274.017	112.31
274.249	92.31
274.481	91.31
274.713	95.31
274.945	88.31
275.176	90.31
275.408	81.31
275.64	112.31
275.872	85.31
276.104	74.31
276.335	106.31
276.567	89.31
276.799	103.31
277.031	97.31
277.262	99.31
277.494	95.31
277.726	97.31
277.957	101.31
278.189	96.31
278.421	89.31
278.652	95.31
278.884	106.31
279.115	101.31
279.347	94.31
279.579	83.31
279.81	95.31
280.042	97.31
280.273	102.31
280.505	99.31
280.736	104.31
280.968	94.31
281.199	99.31
281.431	100.31
281.662	90.31
281.894	115.31
282.125	115.31
282.356	111.31
282.588	105.31
282.819	88.31
283.051	96.31
283.282	88.31
283.513	103.31
283.745	108.31
283.976	105.31
284.207	105.31
284.439	97.31
284.67	94.31
284.901	85.31
285.132	96.31
285.364	92.31
285.595	100.31
285.826	103.31
286.057	97.31
286.288	103.31
286.52	99.31
286.751	91.31
286.982	97.31
287.213	94.31
287.444	101.31
287.675	100.31
287.906	107.31
288.138	100.31
288.369	103.31
288.6	92.31
288.831	103.31
289.062	111.31
289.293	100.31
289.524	91.31
289.755	103.31
289.986	107.31
290.217	112.31
290.448	106.31
290.679	93.31
290.91	93.31
291.141	101.31
291.371	102.31
291.602	109.31
291.833	119.31
292.064	112.31
292.295	107.31
292.526	105.31
292.757	105.31
292.987	109.31
293.218	103.31
293.449	118.31
293.68	112.31
293.91	105.31
294.141	100.31
294.372	102.31
294.603	115.31
294.833	108.31
295.064	94.31
295.295	121.31
295.525	90.31
295.756	95.31
295.987	91.31
296.217	89.31
296.448	111.31
296.679	103.31
296.909	106.31
297.14	112.31
297.37	115.31
297.601	104.31
297.831	104.31
298.062	119.31
298.292	102.31
298.523	104.31
298.753	109.31
298.984	111.31
299.214	104.31
299.445	110.31
299.675	106.31
299.905	118.31
300.136	111.31
300.366	110.31
300.597	112.31
300.827	107.31
301.057	109.31
301.288	104.31
301.518	108.31
301.748	101.31
301.979	118.31
302.209	106.31
302.439	105.31
302.669	105.31
302.9	112.31
303.13	96.31
303.36	107.31
303.59	108.31
303.82	110.31
304.051	122.31
304.281	104.31
304.511	105.31
304.741	111.31
304.971	113.31
305.201	122.31
305.431	107.31
305.661	110.31
305.891	103.31
306.121	126.31
306.352	100.31
306.582	105.31
306.812	119.31
307.042	99.31
307.272	99.31
307.502	109.31
307.731	111.31
307.961	105.31
308.191	102.31
308.421	107.31
308.651	99.31
308.881	109.31
309.111	108.31
309.341	119.31
309.571	117.31
309.8	111.31
310.03	115.31
310.26	121.31
310.49	113.31
310.72	112.31
310.949	105.31
311.179	97.31
311.409	108.31
311.639	115.31
311.868	106.31
312.098	111.31
312.328	112.31
312.557	103.31
312.787	108.31
313.017	115.31
313.246	105.31
313.476	109.31
313.706	107.31
313.935	111.31
314.165	111.31
314.394	100.31
314.624	104.31
314.853	108.31
315.083	114.31
315.312	101.31
315.542	127.31
315.771	118.31
316.001	124.31
316.23	120.31
316.46	109.31
316.689	114.31
316.919	112.31
317.148	112.31
317.377	132.31
317.607	119.31
317.836	101.31
318.065	122.31
318.295	115.31
318.524	110.31
318.753	107.31
318.983	111.31
319.212	105.31
319.441	119.31
319.67	120.31
319.9	110.31
320.129	104.31
320.358	116.31
320.587	117.31
320.816	118.31
321.046	116.31
321.275	113.31
321.504	105.31
321.733	110.31
321.962	116.31
322.191	120.31
322.42	111.31
322.649	119.31
322.878	123.31
323.108	112.31
323.337	110.31
323.566	110.31
323.795	131.31
324.024	106.31
324.253	112.31
324.482	104.31
324.71	117.31
324.939	117.31
325.168	116.31
325.397	103.31
325.626	127.31
325.855	128.31
326.084	118.31
326.313	118.31
326.542	112.31
326.77	108.31
326.999	120.31
327.228	129.31
327.457	115.31
327.686	127.31
327.914	104.31
328.143	121.31
328.372	114.31
328.6	105.31
328.829	120.31
329.058	123.31
329.287	113.31
329.515	127.31
329.744	125.31
329.972	109.31
330.201	121.31
330.43	114.31
330.658	132.31
330.887	129.31
331.115	123.31
331.344	122.31
331.572	126.31
331.801	126.31
332.03	119.31
332.258	124.31
332.486	102.31
332.715	114.31
332.943	126.31
333.172	119.31
333.4	121.31
333.629	126.31
333.857	136.31
334.085	130.31
334.314	136.31
334.542	129.31
334.771	115.31
334.999	127.31
335.227	134.31
335.455	125.31
335.684	119.31
335.912	123.31
336.14	128.31
336.369	138.31
336.597	124.31
336.825	127.31
337.053	124.31
337.281	119.31
337.51	120.31
337.738	126.31
337.966	127.31
338.194	113.31
338.422	128.31
338.65	122.31
338.878	141.31
339.106	122.31
339.334	125.31
339.562	126.31
339.79	124.31
340.018	117.31
340.246	124.31
340.474	128.31
340.702	120.31
340.93	104.31
341.158	101.31
341.386	115.31
341.614	129.31
341.842	118.31
342.07	129.31
342.298	116.31
342.526	122.31
342.754	117.31
342.981	132.31
343.209	144.31
343.437	124.31
343.665	113.31
343.893	131.31
344.12	126.31
344.348	124.31
344.576	129.31
344.804	125.31
345.031	129.31
345.259	109.31
345.487	112.31
345.714	139.31
345.942	128.31
346.17	130.31
346.397	117.31
346.625	111.31
346.853	119.31
347.08	117.31
347.308	117.31
347.535	119.31
347.763	116.31
347.99	120.31
348.218	118.31
348.445	108.31
348.673	127.31
348.9	121.31
349.128	123.31
349.355	103.31
349.583	109.31
349.81	114.31
350.037	126.31
350.265	124.31
350.492	128.31
350.72	116.31
350.947	105.31
351.174	120.31
351.402	123.31
351.629	122.31
351.856	118.31
352.083	114.31
352.311	124.31
352.538	116.31
352.765	125.31
352.992	111.31
353.22	124.31
353.447	126.31
353.674	117.31
353.901	117.31
354.128	140.31
354.355	125.31
354.583	114.31
354.81	115.31
355.037	140.31
355.264	129.31
355.491	117.31
355.718	108.31
355.945	113.31
356.172	116.31
356.399	111.31
356.626	133.31
356.853	129.31
357.08	117.31
357.307	113.31
357.534	117.31
357.761	117.31
357.988	127.31
358.215	119.31
358.441	132.31
358.668	123.31
358.895	127.31
359.122	115.31
359.349	114.31
359.576	128.31
359.802	124.31
360.029	125.31
360.256	112.31
360.483	119.31
360.709	106.31
360.936	119.31
361.163	132.31
361.39	129.31
361.616	117.31
361.843	129.31
362.07	133.31
362.296	118.31
362.523	120.31
362.749	121.31
362.976	109.31
363.203	137.31
363.429	133.31
363.656	119.31
363.882	107.31
364.109	116.31
364.335	121.31
364.562	116.31
364.788	123.31
365.015	103.31
365.241	124.31
365.468	116.31
365.694	99.31
365.92	124.31
366.147	106.31
366.373	126.31
366.599	119.31
366.826	109.31
367.052	127.31
367.278	123.31
367.505	133.31
367.731	125.31
367.957	121.31
368.184	111.31
368.41	126.31
368.636	131.31
368.862	133.31
369.089	101.31
369.315	108.31
369.541	114.31
369.767	130.31
369.993	133.31
370.219	122.31
370.445	121.31
370.672	120.31
370.898	116.31
371.124	123.31
371.35	124.31
371.576	138.31
371.802	125.31
372.028	107.31
372.254	126.31
372.48	113.31
372.706	138.31
372.932	139.31
373.158	135.31
373.384	133.31
373.61	124.31
373.835	134.31
374.061	117.31
374.287	130.31
374.513	134.31
374.739	132.31
374.965	142.31
375.191	125.31
375.416	135.31
375.642	126.31
375.868	115.31
376.094	122.31
376.319	124.31
376.545	130.31
376.771	139.31
376.997	119.31
377.222	140.31
377.448	112.31
377.674	119.31
377.899	126.31
378.125	124.31
378.35	122.31
378.576	125.31
378.802	123.31
379.027	126.31
379.253	122.31
379.478	125.31
379.704	133.31
379.929	128.31
380.155	124.31
380.38	111.31
380.606	122.31
380.831	126.31
381.057	142.31
381.282	137.31
381.507	136.31
381.733	153.31
381.958	150.31
382.184	121.31
382.409	135.31
382.634	151.31
382.86	164.31
383.085	143.31
383.31	131.31
383.535	134.31
383.761	129.31
383.986	148.31
384.211	131.31
384.436	124.31
384.662	144.31
384.887	141.31
385.112	148.31
385.337	147.31
385.562	132.31
385.787	151.31
386.013	147.31
386.238	136.31
386.463	141.31
386.688	175.31
386.913	147.31
387.138	137.31
387.363	148.31
387.588	141.31
387.813	147.31
388.038	134.31
388.263	153.31
388.488	151.31
388.713	130.31
388.938	131.31
389.163	171.31
389.387	138.31
389.612	134.31
389.837	135.31
390.062	150.31
390.287	153.31
390.512	153.31
390.736	139.31
390.961	124.31
391.186	142.31
391.411	137.31
391.636	143.31
391.86	143.31
392.085	138.31
392.31	134.31
392.534	140.31
392.759	155.31
392.984	141.31
393.208	142.31
393.433	145.31
393.658	154.31
393.882	152.31
394.107	140.31
394.331	140.31
394.556	135.31
394.78	156.31
395.005	150.31
395.229	143.31
395.454	159.31
395.678	131.31
395.903	150.31
396.127	155.31
396.352	141.31
396.576	154.31
396.801	147.31
397.025	140.31
397.249	148.31
397.474	142.31
397.698	157.31
397.922	152.31
398.147	151.31
398.371	150.31
398.595	158.31
398.82	154.31
399.044	176.31
399.268	167.31
399.492	185.31
399.717	188.31
399.941	175.31
400.165	150.31
400.389	164.31
400.613	149.31
400.837	152.31
401.062	158.31
401.286	148.31
401.51	158.31
401.734	158.31
401.958	150.31
402.182	160.31
402.406	157.31
402.63	169.31
402.854	160.31
403.078	154.31
403.302	156.31
403.526	151.31
403.75	148.31
403.974	175.31
404.198	166.31
404.422	157.31
404.645	171.31
404.869	165.31
405.093	173.31
405.317	154.31
405.541	159.31
405.765	153.31
405.988	169.31
406.212	173.31
406.436	174.31
406.66	160.31
406.883	168.31
407.107	164.31
407.331	178.31
407.555	156.31
407.778	168.31
408.002	190.31
408.226	180.31
408.449	171.31
408.673	176.31
408.896	172.31
409.12	157.31
409.344	163.31
409.567	154.31
409.791	163.31
410.014	153.31
410.238	159.31
410.461	143.31
410.685	147.31
410.908	151.31
411.132	165.31
411.355	140.31
411.578	167.31
411.802	145.31
412.025	164.31
412.249	165.31
412.472	159.31
412.695	152.31
412.919	166.31
413.142	149.31
413.365	170.31
413.589	146.31
413.812	133.31
414.035	150.31
414.258	148.31
414.482	150.31
414.705	175.31
414.928	163.31
415.151	169.31
415.374	164.31
415.597	151.31
415.821	157.31
416.044	154.31
416.267	159.31
416.49	178.31
416.713	165.31
416.936	177.31
417.159	135.31
417.382	140.31
417.605	165.31
417.828	146.31
418.051	165.31
418.274	159.31
418.497	165.31
418.72	158.31
418.943	158.31
419.166	167.31
419.389	165.31
419.611	158.31
419.834	171.31
420.057	175.31
420.28	156.31
420.503	149.31
420.726	155.31
420.948	143.31
421.171	153.31
421.394	158.31
421.617	161.31
421.839	166.31
422.062	159.31
422.285	152.31
422.507	156.31
422.73	159.31
422.953	169.31
423.175	149.31
423.398	149.31
423.621	156.31
423.843	168.31
424.066	152.31
424.288	155.31
424.511	161.31
424.733	167.31
424.956	151.31
425.178	149.31
425.401	149.31
425.623	174.31
425.846	153.31
426.068	165.31
426.291	153.31
426.513	142.31
426.735	173.31
426.958	143.31
427.18	152.31
427.402	151.31
427.625	135.31
427.847	130.31
428.069	140.31
428.292	170.31
428.514	172.31
428.736	163.31
428.958	151.31
429.181	154.31
429.403	148.31
429.625	150.31
429.847	128.31
430.069	151.31
430.292	172.31
430.514	147.31
430.736	142.31
430.958	158.31
431.18	148.31
431.402	153.31
431.624	151.31
431.846	153.31
432.068	141.31
432.29	157.31
432.512	143.31
432.734	157.31
432.956	160.31
433.178	151.31
433.4	148.31
433.622	139.31
433.844	137.31
434.066	151.31
434.287	150.31
434.509	142.31
434.731	153.31
434.953	161.31
435.175	157.31
435.397	153.31
435.618	151.31
435.84	135.31
436.062	163.31
436.284	170.31
436.505	144.31
436.727	141.31
436.949	147.31
437.17	150.31
437.392	138.31
437.614	138.31
437.835	127.31
438.057	129.31
438.278	136.31
438.5	154.31
438.721	152.31
438.943	169.31
439.165	156.31
439.386	154.31
439.608	135.31
439.829	157.31
440.05	132.31
440.272	158.31
440.493	154.31
440.715	146.31
440.936	148.31
441.158	165.31
441.379	149.31
441.6	147.31
441.822	150.31
442.043	167.31
442.264	172.31
442.486	151.31
442.707	149.31
442.928	157.31
443.149	157.31
443.371	156.31
443.592	173.31
443.813	159.31
444.034	158.31
444.255	167.31
444.476	168.31
444.698	191.31
444.919	167.31
445.14	254.31
445.361	197.31
445.582	145.31
445.803	147.31
446.024	153.31
446.245	153.31
446.466	151.31
446.687	151.31
446.908	149.31
447.129	153.31
447.35	143.31
447.571	164.31
447.792	147.31
448.013	138.31
448.234	152.31
448.455	139.31
448.675	153.31
448.896	152.31
449.117	152.31
449.338	160.31
449.559	156.31
449.779	155.31
450	137.31
450.221	139.31
450.442	148.31
450.662	131.31
450.883	140.31
451.104	139.31
451.324	141.31
451.545	144.31
451.766	157.31
451.986	145.31
452.207	137.31
452.428	138.31
452.648	141.31
452.869	139.31
453.089	144.31
453.31	129.31
453.53	144.31
453.751	117.31
453.971	156.31
454.192	153.31
454.412	135.31
454.633	120.31
454.853	152.31
455.073	140.31
455.294	134.31
455.514	143.31
455.734	141.31
455.955	138.31
456.175	148.31
456.395	129.31
456.616	136.31
456.836	147.31
457.056	140.31
457.276	125.31
457.497	125.31
457.717	143.31
457.937	142.31
458.157	126.31
458.377	143.31
458.598	142.31
458.818	148.31
459.038	145.31
459.258	152.31
459.478	143.31
459.698	158.31
459.918	150.31
460.138	134.31
460.358	167.31
460.578	155.31
460.798	159.31
461.018	154.31
461.238	147.31
461.458	159.31
461.678	147.31
461.898	154.31
462.118	163.31
462.338	169.31
462.558	149.31
462.777	175.31
462.997	176.31
463.217	169.31
463.437	176.31
463.657	166.31
463.876	160.31
464.096	176.31
464.316	187.31
464.536	158.31
464.755	154.31
464.975	153.31
465.195	171.31
465.414	175.31
465.634	161.31
465.854	159.31
466.073	160.31
466.293	162.31
466.512	145.31
466.732	152.31
466.951	163.31
467.171	142.31
467.391	143.31
467.61	151.31
467.829	152.31
468.049	150.31
468.268	161.31
468.488	135.31
468.707	157.31
468.927	130.31
469.146	142.31
469.365	139.31
469.585	152.31
469.804	155.31
470.023	144.31
470.243	152.31
470.462	164.31
470.681	153.31
470.901	157.31
471.12	129.31
471.339	130.31
471.558	145.31
471.777	140.31
471.997	151.31
472.216	154.31
472.435	148.31
472.654	154.31
472.873	143.31
473.092	153.31
473.311	127.31
473.53	143.31
473.749	147.31
473.968	156.31
474.187	140.31
474.406	135.31
474.625	154.31
474.844	144.31
475.063	147.31
475.282	147.31
475.501	140.31
475.72	145.31
475.939	158.31
476.158	149.31
476.377	155.31
476.596	152.31
476.814	155.31
477.033	147.31
477.252	149.31
477.471	156.31
477.69	145.31
477.908	167.31
478.127	169.31
478.346	134.31
478.564	160.31
478.783	170.31
479.002	155.31
479.22	154.31
479.439	151.31
479.658	159.31
479.876	155.31
480.095	166.31
480.313	165.31
480.532	168.31
480.751	168.31
480.969	161.31
481.188	164.31
481.406	171.31
481.624	146.31
481.843	157.31
482.061	168.31
482.28	156.31
482.498	163.31
482.717	149.31
482.935	166.31
483.153	165.31
483.372	163.31
483.59	165.31
483.808	169.31
484.027	155.31
484.245	157.31
484.463	155.31
484.681	180.31
484.9	172.31
485.118	175.31
485.336	189.31
485.554	164.31
485.772	159.31
485.99	164.31
486.209	172.31
486.427	163.31
486.645	161.31
486.863	175.31
487.081	164.31
487.299	170.31
487.517	159.31
487.735	166.31
487.953	165.31
488.171	177.31
488.389	167.31
488.607	181.31
488.825	174.31
489.043	169.31
489.261	159.31
489.479	177.31
489.696	179.31
489.914	172.31
490.132	161.31
490.35	156.31
490.568	172.31
490.786	170.31
491.003	185.31
491.221	180.31
491.439	194.31
491.657	177.31
491.874	192.31
492.092	179.31
492.31	183.31
492.527	176.31
492.745	171.31
492.963	181.31
493.18	175.31
493.398	173.31
493.615	170.31
493.833	192.31
494.05	185.31
494.268	172.31
494.485	181.31
494.703	186.31
494.92	170.31
495.138	174.31
495.355	192.31
495.573	181.31
495.79	181.31
496.008	189.31
496.225	188.31
496.442	181.31
496.66	189.31
496.877	174.31
497.094	183.31
497.312	167.31
497.529	186.31
497.746	179.31
497.963	212.31
498.181	177.31
498.398	185.31
498.615	214.31
498.832	220.31
499.049	204.31
499.267	252.31
499.484	248.31
499.701	235.31
499.918	296.31
500.135	279.31
500.352	295.31
500.569	288.31
500.786	291.31
501.003	274.31
501.22	273.31
501.437	256.31
501.654	247.31
501.871	235.31
502.088	211.31
502.305	223.31
502.522	201.31
502.739	208.31
502.956	200.31
503.172	188.31
503.389	188.31
503.606	178.31
503.823	185.31
504.04	191.31
504.256	165.31
504.473	187.31
504.69	175.31
504.907	177.31
505.123	161.31
505.34	172.31
505.557	181.31
505.773	171.31
505.99	164.31
