Data from StdC_HRD10591_045.txt Node
Date: Fri May 16 15:29:03 EDT 2025
User: Yrep
Spectrometer: HR+D1059
Trigger mode: 1
Integration Time (sec): 1.000000E-1
Scans to average: 1
Electric dark correction enabled: true
Nonlinearity correction enabled: false
Boxcar width: 0
XAxis mode: Wavelengths
Number of Pixels in Spectrum: 2048
>>>>>Begin Spectral Data<<<<<
223.165	-14.5
223.4	-14.5
223.635	-14.5
223.869	-10.5
224.104	-18.5
224.338	-17.5
224.573	-12.5
224.808	-5.5
225.042	-11.5
225.277	-0.5
225.511	-16.5
225.746	10.5
225.98	3.5
226.215	7.5
226.449	24.5
226.683	15.5
226.918	16.5
227.152	29.5
227.387	36.5
227.621	26.5
227.856	28.5
228.09	28.5
228.324	43.5
228.559	50.5
228.793	42.5
229.027	81.5
229.262	68.5
229.496	80.5
229.73	87.5
229.964	62.5
230.199	75.5
230.433	76.5
230.667	80.5
230.901	92.5
231.136	96.5
231.37	96.5
231.604	79.5
231.838	85.5
232.072	99.5
232.306	87.5
232.541	78.5
232.775	89.5
233.009	90.5
233.243	95.5
233.477	85.5
233.711	82.5
233.945	80.5
234.179	87.5
234.413	95.5
234.647	79.5
234.881	89.5
235.115	90.5
235.349	86.5
235.583	84.5
235.817	89.5
236.051	96.5
236.285	77.5
236.519	82.5
236.753	86.5
236.987	88.5
237.221	100.5
237.455	94.5
237.689	88.5
237.922	88.5
238.156	94.5
238.39	70.5
238.624	95.5
238.858	86.5
239.091	89.5
239.325	74.5
239.559	94.5
239.793	104.5
240.027	92.5
240.26	84.5
240.494	115.5
240.728	92.5
240.961	83.5
241.195	109.5
241.429	80.5
241.662	86.5
241.896	87.5
242.13	86.5
242.363	90.5
242.597	83.5
242.83	91.5
243.064	92.5
243.298	101.5
243.531	87.5
243.765	95.5
243.998	96.5
244.232	100.5
244.465	108.5
244.699	83.5
244.932	82.5
245.166	92.5
245.399	103.5
245.633	106.5
245.866	102.5
246.099	94.5
246.333	94.5
246.566	110.5
246.8	99.5
247.033	79.5
247.266	113.5
247.5	102.5
247.733	97.5
247.966	106.5
248.2	104.5
248.433	102.5
248.666	117.5
248.899	121.5
249.133	110.5
249.366	121.5
249.599	124.5
249.832	117.5
250.066	138.5
250.299	164.5
250.532	209.5
250.765	182.5
250.998	152.5
251.231	135.5
251.465	127.5
251.698	114.5
251.931	122.5
252.164	127.5
252.397	110.5
252.63	113.5
252.863	119.5
253.096	126.5
253.329	109.5
253.562	122.5
253.795	122.5
254.028	124.5
254.261	116.5
254.494	115.5
254.727	129.5
254.96	125.5
255.193	142.5
255.426	164.5
255.659	184.5
255.892	250.5
256.124	296.5
256.357	250.5
256.59	190.5
256.823	183.5
257.056	151.5
257.289	146.5
257.521	151.5
257.754	145.5
257.987	135.5
258.22	146.5
258.452	134.5
258.685	127.5
258.918	120.5
259.151	125.5
259.383	134.5
259.616	132.5
259.849	124.5
260.081	136.5
260.314	124.5
260.547	137.5
260.779	132.5
261.012	149.5
261.244	126.5
261.477	124.5
261.71	129.5
261.942	117.5
262.175	116.5
262.407	125.5
262.64	116.5
262.872	126.5
263.105	131.5
263.337	122.5
263.57	126.5
263.802	116.5
264.035	134.5
264.267	141.5
264.499	119.5
264.732	141.5
264.964	132.5
265.197	126.5
265.429	140.5
265.661	130.5
265.894	116.5
266.126	126.5
266.358	125.5
266.591	125.5
266.823	131.5
267.055	138.5
267.287	133.5
267.52	126.5
267.752	134.5
267.984	126.5
268.216	124.5
268.448	130.5
268.681	128.5
268.913	135.5
269.145	149.5
269.377	124.5
269.609	129.5
269.841	136.5
270.073	118.5
270.306	133.5
270.538	145.5
270.77	126.5
271.002	132.5
271.234	140.5
271.466	143.5
271.698	130.5
271.93	141.5
272.162	131.5
272.394	144.5
272.626	130.5
272.858	140.5
273.09	150.5
273.322	147.5
273.553	146.5
273.785	139.5
274.017	152.5
274.249	156.5
274.481	156.5
274.713	166.5
274.945	166.5
275.176	154.5
275.408	151.5
275.64	178.5
275.872	178.5
276.104	174.5
276.335	168.5
276.567	175.5
276.799	197.5
277.031	212.5
277.262	231.5
277.494	215.5
277.726	196.5
277.957	196.5
278.189	153.5
278.421	164.5
278.652	170.5
278.884	167.5
279.115	174.5
279.347	195.5
279.579	216.5
279.81	219.5
280.042	244.5
280.273	271.5
280.505	247.5
280.736	219.5
280.968	190.5
281.199	181.5
281.431	166.5
281.662	170.5
281.894	164.5
282.125	169.5
282.356	174.5
282.588	155.5
282.819	156.5
283.051	146.5
283.282	163.5
283.513	162.5
283.745	166.5
283.976	162.5
284.207	172.5
284.439	170.5
284.67	149.5
284.901	149.5
285.132	164.5
285.364	162.5
285.595	166.5
285.826	179.5
286.057	138.5
286.288	151.5
286.52	150.5
286.751	165.5
286.982	150.5
287.213	151.5
287.444	157.5
287.675	159.5
287.906	157.5
288.138	148.5
288.369	150.5
288.6	158.5
288.831	156.5
289.062	159.5
289.293	158.5
289.524	171.5
289.755	168.5
289.986	140.5
290.217	148.5
290.448	149.5
290.679	162.5
290.91	155.5
291.141	157.5
291.371	155.5
291.602	140.5
291.833	139.5
292.064	152.5
292.295	150.5
292.526	162.5
292.757	141.5
292.987	152.5
293.218	156.5
293.449	149.5
293.68	148.5
293.91	142.5
294.141	148.5
294.372	157.5
294.603	150.5
294.833	162.5
295.064	160.5
295.295	150.5
295.525	146.5
295.756	168.5
295.987	150.5
296.217	151.5
296.448	162.5
296.679	173.5
296.909	168.5
297.14	158.5
297.37	172.5
297.601	169.5
297.831	146.5
298.062	152.5
298.292	140.5
298.523	156.5
298.753	173.5
298.984	165.5
299.214	152.5
299.445	144.5
299.675	166.5
299.905	158.5
300.136	153.5
300.366	162.5
300.597	165.5
300.827	172.5
301.057	162.5
301.288	160.5
301.518	178.5
301.748	186.5
301.979	178.5
302.209	171.5
302.439	162.5
302.669	150.5
302.9	157.5
303.13	164.5
303.36	192.5
303.59	174.5
303.82	204.5
304.051	191.5
304.281	182.5
304.511	185.5
304.741	183.5
304.971	165.5
305.201	170.5
305.431	160.5
305.661	156.5
305.891	158.5
306.121	154.5
306.352	156.5
306.582	175.5
306.812	180.5
307.042	208.5
307.272	205.5
307.502	230.5
307.731	214.5
307.961	189.5
308.191	190.5
308.421	168.5
308.651	149.5
308.881	171.5
309.111	170.5
309.341	171.5
309.571	179.5
309.8	179.5
310.03	177.5
310.26	167.5
310.49	163.5
310.72	171.5
310.949	164.5
311.179	162.5
311.409	156.5
311.639	181.5
311.868	163.5
312.098	171.5
312.328	166.5
312.557	159.5
312.787	185.5
313.017	178.5
313.246	148.5
313.476	165.5
313.706	173.5
313.935	168.5
314.165	165.5
314.394	174.5
314.624	164.5
314.853	185.5
315.083	181.5
315.312	173.5
315.542	186.5
315.771	181.5
316.001	164.5
316.23	158.5
316.46	160.5
316.689	177.5
316.919	185.5
317.148	175.5
317.377	182.5
317.607	172.5
317.836	168.5
318.065	188.5
318.295	168.5
318.524	179.5
318.753	160.5
318.983	180.5
319.212	182.5
319.441	182.5
319.67	173.5
319.9	190.5
320.129	172.5
320.358	180.5
320.587	178.5
320.816	182.5
321.046	193.5
321.275	174.5
321.504	181.5
321.733	193.5
321.962	193.5
322.191	195.5
322.42	184.5
322.649	206.5
322.878	200.5
323.108	204.5
323.337	196.5
323.566	209.5
323.795	230.5
324.024	223.5
324.253	220.5
324.482	200.5
324.71	212.5
324.939	211.5
325.168	225.5
325.397	221.5
325.626	235.5
325.855	235.5
326.084	230.5
326.313	254.5
326.542	244.5
326.77	256.5
326.999	252.5
327.228	291.5
327.457	317.5
327.686	399.5
327.914	524.5
328.143	692.5
328.372	734.5
328.6	521.5
328.829	409.5
329.058	374.5
329.287	396.5
329.515	494.5
329.744	676.5
329.972	980.5
330.201	1288.5
330.43	1298.5
330.658	752.5
330.887	472.5
331.115	382.5
331.344	340.5
331.572	328.5
331.801	299.5
332.03	338.5
332.258	314.5
332.486	330.5
332.715	325.5
332.943	347.5
333.172	383.5
333.4	462.5
333.629	508.5
333.857	722.5
334.085	1016.5
334.314	1462.5
334.542	1793.5
334.771	1434.5
334.999	746.5
335.227	476.5
335.455	398.5
335.684	347.5
335.912	325.5
336.14	308.5
336.369	292.5
336.597	254.5
336.825	260.5
337.053	253.5
337.281	247.5
337.51	220.5
337.738	260.5
337.966	239.5
338.194	210.5
338.422	233.5
338.65	213.5
338.878	211.5
339.106	219.5
339.334	211.5
339.562	192.5
339.79	205.5
340.018	208.5
340.246	192.5
340.474	185.5
340.702	189.5
340.93	189.5
341.158	206.5
341.386	197.5
341.614	205.5
341.842	213.5
342.07	178.5
342.298	190.5
342.526	206.5
342.754	197.5
342.981	172.5
343.209	192.5
343.437	201.5
343.665	192.5
343.893	202.5
344.12	196.5
344.348	195.5
344.576	187.5
344.804	199.5
345.031	179.5
345.259	197.5
345.487	195.5
345.714	192.5
345.942	186.5
346.17	175.5
346.397	182.5
346.625	198.5
346.853	186.5
347.08	176.5
347.308	184.5
347.535	198.5
347.763	176.5
347.99	181.5
348.218	181.5
348.445	198.5
348.673	185.5
348.9	182.5
349.128	172.5
349.355	175.5
349.583	172.5
349.81	170.5
350.037	190.5
350.265	177.5
350.492	172.5
350.72	202.5
350.947	189.5
351.174	194.5
351.402	184.5
351.629	186.5
351.856	202.5
352.083	199.5
352.311	170.5
352.538	177.5
352.765	170.5
352.992	186.5
353.22	184.5
353.447	200.5
353.674	157.5
353.901	185.5
354.128	191.5
354.355	182.5
354.583	180.5
354.81	185.5
355.037	182.5
355.264	174.5
355.491	190.5
355.718	165.5
355.945	188.5
356.172	182.5
356.399	189.5
356.626	178.5
356.853	183.5
357.08	167.5
357.307	175.5
357.534	184.5
357.761	181.5
357.988	191.5
358.215	171.5
358.441	167.5
358.668	173.5
358.895	170.5
359.122	190.5
359.349	166.5
359.576	154.5
359.802	164.5
360.029	175.5
360.256	181.5
360.483	190.5
360.709	167.5
360.936	186.5
361.163	179.5
361.39	154.5
361.616	171.5
361.843	171.5
362.07	183.5
362.296	191.5
362.523	189.5
362.749	173.5
362.976	176.5
363.203	185.5
363.429	181.5
363.656	179.5
363.882	183.5
364.109	168.5
364.335	178.5
364.562	169.5
364.788	187.5
365.015	183.5
365.241	189.5
365.468	170.5
365.694	181.5
365.92	176.5
366.147	172.5
366.373	197.5
366.599	168.5
366.826	164.5
367.052	176.5
367.278	182.5
367.505	164.5
367.731	179.5
367.957	161.5
368.184	171.5
368.41	166.5
368.636	171.5
368.862	190.5
369.089	186.5
369.315	183.5
369.541	167.5
369.767	190.5
369.993	191.5
370.219	187.5
370.445	172.5
370.672	171.5
370.898	171.5
371.124	196.5
371.35	189.5
371.576	188.5
371.802	182.5
372.028	184.5
372.254	174.5
372.48	177.5
372.706	186.5
372.932	185.5
373.158	186.5
373.384	169.5
373.61	185.5
373.835	199.5
374.061	189.5
374.287	193.5
374.513	192.5
374.739	197.5
374.965	197.5
375.191	196.5
375.416	182.5
375.642	187.5
375.868	197.5
376.094	174.5
376.319	182.5
376.545	172.5
376.771	179.5
376.997	185.5
377.222	168.5
377.448	187.5
377.674	186.5
377.899	178.5
378.125	188.5
378.35	194.5
378.576	192.5
378.802	188.5
379.027	172.5
379.253	189.5
379.478	185.5
379.704	184.5
379.929	178.5
380.155	187.5
380.38	198.5
380.606	172.5
380.831	193.5
381.057	200.5
381.282	201.5
381.507	196.5
381.733	197.5
381.958	192.5
382.184	184.5
382.409	199.5
382.634	211.5
382.86	187.5
383.085	194.5
383.31	200.5
383.535	187.5
383.761	188.5
383.986	199.5
384.211	215.5
384.436	192.5
384.662	201.5
384.887	206.5
385.112	208.5
385.337	206.5
385.562	214.5
385.787	215.5
386.013	207.5
386.238	206.5
386.463	214.5
386.688	204.5
386.913	191.5
387.138	212.5
387.363	182.5
387.588	196.5
387.813	208.5
388.038	194.5
388.263	204.5
388.488	206.5
388.713	194.5
388.938	199.5
389.163	193.5
389.387	208.5
389.612	207.5
389.837	200.5
390.062	212.5
390.287	198.5
390.512	206.5
390.736	205.5
390.961	206.5
391.186	202.5
391.411	219.5
391.636	234.5
391.86	193.5
392.085	198.5
392.31	219.5
392.534	190.5
392.759	206.5
392.984	202.5
393.208	200.5
393.433	192.5
393.658	201.5
393.882	206.5
394.107	204.5
394.331	200.5
394.556	211.5
394.78	218.5
395.005	217.5
395.229	212.5
395.454	215.5
395.678	212.5
395.903	202.5
396.127	226.5
396.352	214.5
396.576	214.5
396.801	226.5
397.025	218.5
397.249	217.5
397.474	212.5
397.698	231.5
397.922	228.5
398.147	213.5
398.371	226.5
398.595	242.5
398.82	243.5
399.044	241.5
399.268	274.5
399.492	247.5
399.717	248.5
399.941	278.5
400.165	270.5
400.389	265.5
400.613	242.5
400.837	234.5
401.062	253.5
401.286	253.5
401.51	234.5
401.734	234.5
401.958	243.5
402.182	241.5
402.406	252.5
402.63	243.5
402.854	239.5
403.078	232.5
403.302	228.5
403.526	257.5
403.75	251.5
403.974	262.5
404.198	272.5
404.422	260.5
404.645	270.5
404.869	274.5
405.093	291.5
405.317	322.5
405.541	308.5
405.765	282.5
405.988	255.5
406.212	249.5
406.436	247.5
406.66	291.5
406.883	270.5
407.107	267.5
407.331	249.5
407.555	250.5
407.778	258.5
408.002	253.5
408.226	265.5
408.449	267.5
408.673	262.5
408.896	250.5
409.12	250.5
409.344	263.5
409.567	244.5
409.791	252.5
410.014	240.5
410.238	232.5
410.461	237.5
410.685	263.5
410.908	254.5
411.132	258.5
411.355	237.5
411.578	256.5
411.802	260.5
412.025	274.5
412.249	284.5
412.472	314.5
412.695	332.5
412.919	290.5
413.142	302.5
413.365	278.5
413.589	259.5
413.812	246.5
414.035	262.5
414.258	269.5
414.482	266.5
414.705	253.5
414.928	253.5
415.151	256.5
415.374	252.5
415.597	253.5
415.821	233.5
416.044	254.5
416.267	233.5
416.49	228.5
416.713	251.5
416.936	239.5
417.159	240.5
417.382	248.5
417.605	262.5
417.828	282.5
418.051	240.5
418.274	244.5
418.497	253.5
418.72	247.5
418.943	229.5
419.166	243.5
419.389	249.5
419.611	251.5
419.834	262.5
420.057	290.5
420.28	319.5
420.503	288.5
420.726	278.5
420.948	250.5
421.171	257.5
421.394	254.5
421.617	263.5
421.839	244.5
422.062	249.5
422.285	250.5
422.507	245.5
422.73	245.5
422.953	235.5
423.175	253.5
423.398	248.5
423.621	229.5
423.843	247.5
424.066	232.5
424.288	241.5
424.511	238.5
424.733	258.5
424.956	243.5
425.178	232.5
425.401	242.5
425.623	224.5
425.846	224.5
426.068	244.5
426.291	243.5
426.513	237.5
426.735	250.5
426.958	251.5
427.18	248.5
427.402	258.5
427.625	285.5
427.847	315.5
428.069	315.5
428.292	277.5
428.514	255.5
428.736	259.5
428.958	238.5
429.181	236.5
429.403	236.5
429.625	228.5
429.847	222.5
430.069	219.5
430.292	223.5
430.514	216.5
430.736	221.5
430.958	228.5
431.18	230.5
431.402	212.5
431.624	222.5
431.846	212.5
432.068	219.5
432.29	215.5
432.512	207.5
432.734	243.5
432.956	227.5
433.178	216.5
433.4	220.5
433.622	234.5
433.844	220.5
434.066	229.5
434.287	214.5
434.509	226.5
434.731	230.5
434.953	219.5
435.175	242.5
435.397	226.5
435.618	218.5
435.84	226.5
436.062	232.5
436.284	224.5
436.505	226.5
436.727	224.5
436.949	211.5
437.17	221.5
437.392	227.5
437.614	210.5
437.835	210.5
438.057	203.5
438.278	204.5
438.5	206.5
438.721	212.5
438.943	211.5
439.165	204.5
439.386	211.5
439.608	214.5
439.829	214.5
440.05	221.5
440.272	239.5
440.493	207.5
440.715	224.5
440.936	205.5
441.158	211.5
441.379	208.5
441.6	226.5
441.822	234.5
442.043	224.5
442.264	213.5
442.486	227.5
442.707	226.5
442.928	232.5
443.149	223.5
443.371	241.5
443.592	221.5
443.813	237.5
444.034	221.5
444.255	238.5
444.476	242.5
444.698	231.5
444.919	235.5
445.14	311.5
445.361	285.5
445.582	226.5
445.803	228.5
446.024	229.5
446.245	237.5
446.466	232.5
446.687	222.5
446.908	202.5
447.129	213.5
447.35	206.5
447.571	224.5
447.792	194.5
448.013	214.5
448.234	209.5
448.455	207.5
448.675	212.5
448.896	232.5
449.117	214.5
449.338	210.5
449.559	199.5
449.779	217.5
450	206.5
450.221	209.5
450.442	200.5
450.662	202.5
450.883	203.5
451.104	209.5
451.324	205.5
451.545	194.5
451.766	199.5
451.986	214.5
452.207	202.5
452.428	202.5
452.648	212.5
452.869	190.5
453.089	201.5
453.31	212.5
453.53	202.5
453.751	198.5
453.971	190.5
454.192	189.5
454.412	199.5
454.633	199.5
454.853	200.5
455.073	188.5
455.294	209.5
455.514	201.5
455.734	192.5
455.955	204.5
456.175	206.5
456.395	193.5
456.616	197.5
456.836	200.5
457.056	183.5
457.276	196.5
457.497	201.5
457.717	192.5
457.937	202.5
458.157	188.5
458.377	202.5
458.598	225.5
458.818	205.5
459.038	207.5
459.258	210.5
459.478	210.5
459.698	218.5
459.918	219.5
460.138	233.5
460.358	231.5
460.578	241.5
460.798	231.5
461.018	244.5
461.238	244.5
461.458	241.5
461.678	240.5
461.898	230.5
462.118	244.5
462.338	230.5
462.558	250.5
462.777	263.5
462.997	262.5
463.217	272.5
463.437	263.5
463.657	255.5
463.876	238.5
464.096	246.5
464.316	252.5
464.536	239.5
464.755	238.5
464.975	241.5
465.195	244.5
465.414	242.5
465.634	226.5
465.854	236.5
466.073	232.5
466.293	243.5
466.512	222.5
466.732	218.5
466.951	239.5
467.171	255.5
467.391	248.5
467.61	283.5
467.829	344.5
468.049	654.5
468.268	790.5
468.488	460.5
468.707	345.5
468.927	281.5
469.146	284.5
469.365	268.5
469.585	261.5
469.804	265.5
470.023	250.5
470.243	243.5
470.462	255.5
470.681	266.5
470.901	272.5
471.12	269.5
471.339	283.5
471.558	309.5
471.777	340.5
471.997	546.5
472.216	1098.5
472.435	1680.5
472.654	929.5
472.873	530.5
473.092	414.5
473.311	363.5
473.53	326.5
473.749	311.5
473.968	303.5
474.187	281.5
474.406	272.5
474.625	254.5
474.844	254.5
475.063	260.5
475.282	266.5
475.501	252.5
475.72	265.5
475.939	250.5
476.158	248.5
476.377	248.5
476.596	264.5
476.814	249.5
477.033	249.5
477.252	246.5
477.471	256.5
477.69	262.5
477.908	274.5
478.127	287.5
478.346	260.5
478.564	276.5
478.783	266.5
479.002	285.5
479.22	293.5
479.439	317.5
479.658	299.5
479.876	323.5
480.095	335.5
480.313	383.5
480.532	448.5
480.751	612.5
480.969	1174.5
481.188	2674.5
481.406	2134.5
481.624	1014.5
481.843	690.5
482.061	528.5
482.28	480.5
482.498	426.5
482.717	383.5
482.935	358.5
483.153	374.5
483.372	353.5
483.59	340.5
483.808	330.5
484.027	330.5
484.245	302.5
484.463	310.5
484.681	314.5
484.9	313.5
485.118	296.5
485.336	294.5
485.554	277.5
485.772	295.5
485.99	287.5
486.209	295.5
486.427	294.5
486.645	283.5
486.863	294.5
487.081	293.5
487.299	306.5
487.517	295.5
487.735	314.5
487.953	307.5
488.171	306.5
488.389	303.5
488.607	283.5
488.825	308.5
489.043	304.5
489.261	300.5
489.479	326.5
489.696	327.5
489.914	337.5
490.132	335.5
490.35	346.5
490.568	360.5
490.786	351.5
491.003	376.5
491.221	434.5
491.439	441.5
491.657	459.5
491.874	454.5
492.092	468.5
492.31	495.5
492.527	524.5
492.745	522.5
492.963	506.5
493.18	480.5
493.398	455.5
493.615	444.5
493.833	422.5
494.05	415.5
494.268	407.5
494.485	388.5
494.703	371.5
494.92	374.5
495.138	360.5
495.355	353.5
495.573	344.5
495.79	365.5
496.008	342.5
496.225	340.5
496.442	349.5
496.66	360.5
496.877	342.5
497.094	337.5
497.312	331.5
497.529	331.5
497.746	340.5
497.963	320.5
498.181	355.5
498.398	330.5
498.615	346.5
498.832	324.5
499.049	362.5
499.267	364.5
499.484	400.5
499.701	420.5
499.918	426.5
500.135	422.5
500.352	465.5
500.569	491.5
500.786	506.5
501.003	468.5
501.22	438.5
501.437	398.5
501.654	352.5
501.871	366.5
502.088	369.5
502.305	338.5
502.522	338.5
502.739	318.5
502.956	315.5
503.172	296.5
503.389	306.5
503.606	302.5
503.823	307.5
504.04	308.5
504.256	302.5
504.473	304.5
504.69	286.5
504.907	285.5
505.123	279.5
505.34	274.5
505.557	278.5
505.773	282.5
505.99	277.5
506.207	270.5
506.423	279.5
506.64	270.5
506.856	257.5
507.073	249.5
507.289	260.5
507.506	274.5
507.722	274.5
507.939	267.5
508.155	250.5
508.372	251.5
508.588	247.5
508.805	246.5
509.021	243.5
509.238	242.5
509.454	250.5
509.67	220.5
509.887	241.5
510.103	238.5
510.319	242.5
510.536	259.5
510.752	235.5
510.968	256.5
511.184	238.5
511.401	256.5
511.617	291.5
511.833	333.5
512.049	305.5
512.265	282.5
512.481	276.5
512.698	274.5
512.914	264.5
513.13	248.5
513.346	245.5
513.562	240.5
513.778	230.5
513.994	247.5
514.21	250.5
514.426	245.5
514.642	226.5
514.858	253.5
515.074	230.5
515.29	231.5
515.506	226.5
515.721	245.5
515.937	240.5
516.153	243.5
516.369	247.5
516.585	247.5
516.801	263.5
517.016	250.5
517.232	262.5
517.448	246.5
517.664	279.5
517.879	255.5
518.095	265.5
518.311	263.5
518.527	263.5
518.742	263.5
518.958	254.5
519.173	242.5
519.389	257.5
519.605	239.5
519.82	249.5
520.036	227.5
520.251	237.5
520.467	236.5
520.682	234.5
520.898	218.5
521.113	228.5
521.329	232.5
521.544	223.5
