Data from StdC_HRD10591_033.txt Node
Date: Fri May 16 15:28:57 EDT 2025
User: Yrep
Spectrometer: HR+D1059
Trigger mode: 1
Integration Time (sec): 1.000000E-1
Scans to average: 1
Electric dark correction enabled: true
Nonlinearity correction enabled: false
Boxcar width: 0
XAxis mode: Wavelengths
Number of Pixels in Spectrum: 2048
>>>>>Begin Spectral Data<<<<<
223.165	-25.12
223.4	-25.12
223.635	-25.12
223.869	-13.12
224.104	-25.12
224.338	-6.12
224.573	-13.12
224.808	-20.12
225.042	-7.12
225.277	-9.12
225.511	-3.12
225.746	-0.12
225.98	-2.12
226.215	1.88
226.449	27.88
226.683	40.88
226.918	24.88
227.152	28.88
227.387	29.88
227.621	38.88
227.856	45.88
228.09	46.88
228.324	42.88
228.559	50.88
228.793	54.88
229.027	65.88
229.262	65.88
229.496	75.88
229.73	72.88
229.964	79.88
230.199	86.88
230.433	76.88
230.667	72.88
230.901	78.88
231.136	95.88
231.37	80.88
231.604	87.88
231.838	80.88
232.072	67.88
232.306	94.88
232.541	92.88
232.775	87.88
233.009	96.88
233.243	86.88
233.477	72.88
233.711	96.88
233.945	92.88
234.179	82.88
234.413	81.88
234.647	83.88
234.881	76.88
235.115	109.88
235.349	98.88
235.583	94.88
235.817	97.88
236.051	82.88
236.285	82.88
236.519	98.88
236.753	78.88
236.987	91.88
237.221	86.88
237.455	94.88
237.689	73.88
237.922	78.88
238.156	93.88
238.39	85.88
238.624	92.88
238.858	92.88
239.091	80.88
239.325	86.88
239.559	98.88
239.793	95.88
240.027	92.88
240.26	83.88
240.494	91.88
240.728	95.88
240.961	90.88
241.195	96.88
241.429	98.88
241.662	90.88
241.896	83.88
242.13	105.88
242.363	95.88
242.597	89.88
242.83	98.88
243.064	88.88
243.298	98.88
243.531	94.88
243.765	90.88
243.998	97.88
244.232	94.88
244.465	98.88
244.699	84.88
244.932	95.88
245.166	94.88
245.399	96.88
245.633	124.88
245.866	89.88
246.099	74.88
246.333	97.88
246.566	98.88
246.8	101.88
247.033	102.88
247.266	106.88
247.5	96.88
247.733	102.88
247.966	108.88
248.2	119.88
248.433	114.88
248.666	109.88
248.899	111.88
249.133	108.88
249.366	119.88
249.599	120.88
249.832	114.88
250.066	139.88
250.299	173.88
250.532	212.88
250.765	176.88
250.998	157.88
251.231	139.88
251.465	135.88
251.698	140.88
251.931	122.88
252.164	114.88
252.397	122.88
252.63	124.88
252.863	122.88
253.096	112.88
253.329	126.88
253.562	111.88
253.795	128.88
254.028	118.88
254.261	123.88
254.494	125.88
254.727	133.88
254.96	122.88
255.193	129.88
255.426	149.88
255.659	182.88
255.892	257.88
256.124	306.88
256.357	268.88
256.59	219.88
256.823	166.88
257.056	154.88
257.289	164.88
257.521	154.88
257.754	160.88
257.987	137.88
258.22	141.88
258.452	128.88
258.685	123.88
258.918	128.88
259.151	134.88
259.383	130.88
259.616	146.88
259.849	131.88
260.081	123.88
260.314	133.88
260.547	118.88
260.779	136.88
261.012	119.88
261.244	147.88
261.477	128.88
261.71	126.88
261.942	122.88
262.175	128.88
262.407	132.88
262.64	138.88
262.872	137.88
263.105	127.88
263.337	122.88
263.57	123.88
263.802	126.88
264.035	137.88
264.267	125.88
264.499	120.88
264.732	116.88
264.964	136.88
265.197	129.88
265.429	126.88
265.661	132.88
265.894	136.88
266.126	132.88
266.358	131.88
266.591	127.88
266.823	138.88
267.055	136.88
267.287	131.88
267.52	125.88
267.752	139.88
267.984	136.88
268.216	143.88
268.448	138.88
268.681	130.88
268.913	125.88
269.145	132.88
269.377	154.88
269.609	147.88
269.841	148.88
270.073	127.88
270.306	129.88
270.538	136.88
270.77	144.88
271.002	148.88
271.234	142.88
271.466	149.88
271.698	152.88
271.93	123.88
272.162	139.88
272.394	143.88
272.626	132.88
272.858	144.88
273.09	153.88
273.322	136.88
273.553	149.88
273.785	158.88
274.017	141.88
274.249	132.88
274.481	162.88
274.713	168.88
274.945	166.88
275.176	148.88
275.408	158.88
275.64	163.88
275.872	167.88
276.104	181.88
276.335	162.88
276.567	197.88
276.799	183.88
277.031	212.88
277.262	220.88
277.494	212.88
277.726	193.88
277.957	195.88
278.189	168.88
278.421	176.88
278.652	169.88
278.884	173.88
279.115	187.88
279.347	194.88
279.579	212.88
279.81	234.88
280.042	253.88
280.273	279.88
280.505	252.88
280.736	210.88
280.968	190.88
281.199	180.88
281.431	191.88
281.662	175.88
281.894	160.88
282.125	192.88
282.356	156.88
282.588	158.88
282.819	170.88
283.051	172.88
283.282	174.88
283.513	169.88
283.745	164.88
283.976	156.88
284.207	169.88
284.439	154.88
284.67	146.88
284.901	168.88
285.132	151.88
285.364	159.88
285.595	155.88
285.826	159.88
286.057	144.88
286.288	160.88
286.52	162.88
286.751	167.88
286.982	162.88
287.213	158.88
287.444	168.88
287.675	154.88
287.906	163.88
288.138	158.88
288.369	170.88
288.6	160.88
288.831	149.88
289.062	160.88
289.293	151.88
289.524	171.88
289.755	140.88
289.986	175.88
290.217	164.88
290.448	171.88
290.679	153.88
290.91	157.88
291.141	155.88
291.371	143.88
291.602	163.88
291.833	162.88
292.064	154.88
292.295	155.88
292.526	149.88
292.757	172.88
292.987	154.88
293.218	170.88
293.449	158.88
293.68	148.88
293.91	165.88
294.141	154.88
294.372	159.88
294.603	151.88
294.833	137.88
295.064	150.88
295.295	145.88
295.525	162.88
295.756	162.88
295.987	173.88
296.217	156.88
296.448	167.88
296.679	157.88
296.909	152.88
297.14	168.88
297.37	166.88
297.601	166.88
297.831	174.88
298.062	167.88
298.292	160.88
298.523	162.88
298.753	156.88
298.984	172.88
299.214	167.88
299.445	170.88
299.675	176.88
299.905	153.88
300.136	176.88
300.366	154.88
300.597	162.88
300.827	172.88
301.057	164.88
301.288	160.88
301.518	182.88
301.748	167.88
301.979	189.88
302.209	183.88
302.439	162.88
302.669	168.88
302.9	166.88
303.13	193.88
303.36	175.88
303.59	187.88
303.82	199.88
304.051	207.88
304.281	182.88
304.511	178.88
304.741	172.88
304.971	177.88
305.201	178.88
305.431	163.88
305.661	170.88
305.891	171.88
306.121	162.88
306.352	160.88
306.582	175.88
306.812	188.88
307.042	213.88
307.272	238.88
307.502	223.88
307.731	211.88
307.961	212.88
308.191	168.88
308.421	177.88
308.651	170.88
308.881	175.88
309.111	167.88
309.341	180.88
309.571	166.88
309.8	168.88
310.03	181.88
310.26	157.88
310.49	182.88
310.72	183.88
310.949	172.88
311.179	169.88
311.409	160.88
311.639	178.88
311.868	190.88
312.098	162.88
312.328	174.88
312.557	182.88
312.787	170.88
313.017	180.88
313.246	178.88
313.476	188.88
313.706	187.88
313.935	186.88
314.165	178.88
314.394	170.88
314.624	171.88
314.853	182.88
315.083	168.88
315.312	183.88
315.542	167.88
315.771	180.88
316.001	174.88
316.23	180.88
316.46	174.88
316.689	166.88
316.919	178.88
317.148	179.88
317.377	168.88
317.607	176.88
317.836	176.88
318.065	189.88
318.295	195.88
318.524	180.88
318.753	182.88
318.983	192.88
319.212	172.88
319.441	177.88
319.67	170.88
319.9	178.88
320.129	179.88
320.358	198.88
320.587	186.88
320.816	183.88
321.046	180.88
321.275	190.88
321.504	174.88
321.733	204.88
321.962	195.88
322.191	209.88
322.42	218.88
322.649	191.88
322.878	190.88
323.108	215.88
323.337	215.88
323.566	198.88
323.795	208.88
324.024	208.88
324.253	221.88
324.482	212.88
324.71	214.88
324.939	223.88
325.168	227.88
325.397	228.88
325.626	244.88
325.855	253.88
326.084	247.88
326.313	251.88
326.542	247.88
326.77	259.88
326.999	266.88
327.228	309.88
327.457	341.88
327.686	440.88
327.914	557.88
328.143	719.88
328.372	753.88
328.6	565.88
328.829	388.88
329.058	370.88
329.287	426.88
329.515	505.88
329.744	687.88
329.972	950.88
330.201	1300.88
330.43	1315.88
330.658	804.88
330.887	484.88
331.115	390.88
331.344	350.88
331.572	331.88
331.801	314.88
332.03	338.88
332.258	344.88
332.486	323.88
332.715	338.88
332.943	360.88
333.172	407.88
333.4	429.88
333.629	526.88
333.857	734.88
334.085	1049.88
334.314	1468.88
334.542	1849.88
334.771	1477.88
334.999	782.88
335.227	510.88
335.455	406.88
335.684	346.88
335.912	327.88
336.14	315.88
336.369	278.88
336.597	279.88
336.825	266.88
337.053	264.88
337.281	243.88
337.51	246.88
337.738	261.88
337.966	232.88
338.194	228.88
338.422	240.88
338.65	225.88
338.878	215.88
339.106	221.88
339.334	215.88
339.562	216.88
339.79	221.88
340.018	214.88
340.246	222.88
340.474	212.88
340.702	187.88
340.93	195.88
341.158	194.88
341.386	190.88
341.614	205.88
341.842	197.88
342.07	206.88
342.298	199.88
342.526	190.88
342.754	187.88
342.981	197.88
343.209	204.88
343.437	212.88
343.665	201.88
343.893	200.88
344.12	210.88
344.348	189.88
344.576	196.88
344.804	201.88
345.031	193.88
345.259	199.88
345.487	174.88
345.714	207.88
345.942	196.88
346.17	188.88
346.397	185.88
346.625	185.88
346.853	198.88
347.08	176.88
347.308	189.88
347.535	188.88
347.763	184.88
347.99	187.88
348.218	176.88
348.445	174.88
348.673	188.88
348.9	178.88
349.128	178.88
349.355	167.88
349.583	185.88
349.81	178.88
350.037	191.88
350.265	204.88
350.492	174.88
350.72	176.88
350.947	177.88
351.174	177.88
351.402	182.88
351.629	186.88
351.856	183.88
352.083	190.88
352.311	197.88
352.538	184.88
352.765	190.88
352.992	186.88
353.22	184.88
353.447	184.88
353.674	204.88
353.901	197.88
354.128	192.88
354.355	173.88
354.583	187.88
354.81	191.88
355.037	182.88
355.264	172.88
355.491	196.88
355.718	168.88
355.945	183.88
356.172	175.88
356.399	183.88
356.626	180.88
356.853	166.88
357.08	188.88
357.307	184.88
357.534	180.88
357.761	186.88
357.988	192.88
358.215	192.88
358.441	177.88
358.668	186.88
358.895	195.88
359.122	182.88
359.349	166.88
359.576	184.88
359.802	195.88
360.029	171.88
360.256	165.88
360.483	194.88
360.709	185.88
360.936	174.88
361.163	186.88
361.39	183.88
361.616	185.88
361.843	181.88
362.07	205.88
362.296	179.88
362.523	187.88
362.749	176.88
362.976	196.88
363.203	191.88
363.429	180.88
363.656	171.88
363.882	179.88
364.109	184.88
364.335	180.88
364.562	182.88
364.788	177.88
365.015	184.88
365.241	173.88
365.468	181.88
365.694	188.88
365.92	182.88
366.147	173.88
366.373	162.88
366.599	179.88
366.826	190.88
367.052	183.88
367.278	158.88
367.505	180.88
367.731	183.88
367.957	157.88
368.184	175.88
368.41	198.88
368.636	192.88
368.862	172.88
369.089	208.88
369.315	189.88
369.541	200.88
369.767	172.88
369.993	168.88
370.219	187.88
370.445	169.88
370.672	179.88
370.898	196.88
371.124	187.88
371.35	172.88
371.576	185.88
371.802	186.88
372.028	179.88
372.254	196.88
372.48	188.88
372.706	200.88
372.932	196.88
373.158	200.88
373.384	181.88
373.61	187.88
373.835	182.88
374.061	182.88
374.287	175.88
374.513	191.88
374.739	195.88
374.965	207.88
375.191	200.88
375.416	198.88
375.642	198.88
375.868	195.88
376.094	198.88
376.319	210.88
376.545	192.88
376.771	180.88
376.997	170.88
377.222	188.88
377.448	192.88
377.674	187.88
377.899	173.88
378.125	185.88
378.35	188.88
378.576	186.88
378.802	187.88
379.027	187.88
379.253	180.88
379.478	173.88
379.704	175.88
379.929	187.88
380.155	199.88
380.38	194.88
380.606	198.88
380.831	195.88
381.057	187.88
381.282	184.88
381.507	205.88
381.733	187.88
381.958	179.88
382.184	197.88
382.409	199.88
382.634	186.88
382.86	202.88
383.085	195.88
383.31	210.88
383.535	199.88
383.761	216.88
383.986	211.88
384.211	208.88
384.436	206.88
384.662	196.88
384.887	197.88
385.112	205.88
385.337	214.88
385.562	210.88
385.787	204.88
386.013	216.88
386.238	188.88
386.463	213.88
386.688	218.88
386.913	193.88
387.138	209.88
387.363	204.88
387.588	215.88
387.813	224.88
388.038	196.88
388.263	221.88
388.488	210.88
388.713	186.88
388.938	199.88
389.163	194.88
389.387	214.88
389.612	211.88
389.837	187.88
390.062	203.88
390.287	192.88
390.512	218.88
390.736	191.88
390.961	206.88
391.186	198.88
391.411	219.88
391.636	219.88
391.86	213.88
392.085	206.88
392.31	221.88
392.534	208.88
392.759	208.88
392.984	201.88
393.208	221.88
393.433	201.88
393.658	226.88
393.882	186.88
394.107	228.88
394.331	214.88
394.556	223.88
394.78	238.88
395.005	225.88
395.229	194.88
395.454	211.88
395.678	239.88
395.903	202.88
396.127	240.88
396.352	230.88
396.576	212.88
396.801	238.88
397.025	218.88
397.249	227.88
397.474	229.88
397.698	222.88
397.922	227.88
398.147	226.88
398.371	226.88
398.595	228.88
398.82	239.88
399.044	262.88
399.268	247.88
399.492	276.88
399.717	278.88
399.941	286.88
400.165	267.88
400.389	246.88
400.613	250.88
400.837	253.88
401.062	241.88
401.286	228.88
401.51	246.88
401.734	266.88
401.958	226.88
402.182	225.88
402.406	224.88
402.63	238.88
402.854	243.88
403.078	230.88
403.302	262.88
403.526	249.88
403.75	241.88
403.974	249.88
404.198	265.88
404.422	253.88
404.645	273.88
404.869	290.88
405.093	306.88
405.317	326.88
405.541	330.88
405.765	308.88
405.988	271.88
406.212	280.88
406.436	250.88
406.66	273.88
406.883	267.88
407.107	265.88
407.331	267.88
407.555	253.88
407.778	273.88
408.002	269.88
408.226	258.88
408.449	267.88
408.673	267.88
408.896	248.88
409.12	265.88
409.344	272.88
409.567	251.88
409.791	246.88
410.014	241.88
410.238	246.88
410.461	263.88
410.685	260.88
410.908	246.88
411.132	276.88
411.355	242.88
411.578	253.88
411.802	265.88
412.025	263.88
412.249	279.88
412.472	300.88
412.695	322.88
412.919	313.88
413.142	302.88
413.365	282.88
413.589	260.88
413.812	252.88
414.035	265.88
414.258	266.88
414.482	264.88
414.705	251.88
414.928	255.88
415.151	245.88
415.374	252.88
415.597	236.88
415.821	232.88
416.044	242.88
416.267	232.88
416.49	230.88
416.713	249.88
416.936	245.88
417.159	259.88
417.382	254.88
417.605	256.88
417.828	262.88
418.051	268.88
418.274	251.88
418.497	255.88
418.72	252.88
418.943	231.88
419.166	252.88
419.389	274.88
419.611	269.88
419.834	283.88
420.057	299.88
420.28	312.88
420.503	307.88
420.726	305.88
420.948	262.88
421.171	261.88
421.394	264.88
421.617	235.88
421.839	250.88
422.062	260.88
422.285	263.88
422.507	247.88
422.73	239.88
422.953	251.88
423.175	250.88
423.398	250.88
423.621	245.88
423.843	248.88
424.066	244.88
424.288	230.88
424.511	244.88
424.733	232.88
424.956	242.88
425.178	240.88
425.401	240.88
425.623	254.88
425.846	238.88
426.068	247.88
426.291	238.88
426.513	252.88
426.735	236.88
426.958	251.88
427.18	248.88
427.402	244.88
427.625	296.88
427.847	312.88
428.069	327.88
428.292	299.88
428.514	271.88
428.736	249.88
428.958	249.88
429.181	246.88
429.403	237.88
429.625	222.88
429.847	230.88
430.069	228.88
430.292	218.88
430.514	217.88
430.736	229.88
430.958	225.88
431.18	236.88
431.402	215.88
431.624	212.88
431.846	213.88
432.068	212.88
432.29	212.88
432.512	213.88
432.734	224.88
432.956	206.88
433.178	224.88
433.4	219.88
433.622	242.88
433.844	239.88
434.066	237.88
434.287	227.88
434.509	228.88
434.731	219.88
434.953	250.88
435.175	239.88
435.397	244.88
435.618	217.88
435.84	241.88
436.062	229.88
436.284	217.88
436.505	227.88
436.727	223.88
436.949	223.88
437.17	217.88
437.392	218.88
437.614	231.88
437.835	214.88
438.057	210.88
438.278	207.88
438.5	216.88
438.721	212.88
438.943	212.88
439.165	227.88
439.386	228.88
439.608	228.88
439.829	231.88
440.05	219.88
440.272	221.88
440.493	226.88
440.715	230.88
440.936	244.88
441.158	222.88
441.379	229.88
441.6	242.88
441.822	223.88
442.043	230.88
442.264	228.88
442.486	230.88
442.707	230.88
442.928	234.88
443.149	232.88
443.371	243.88
443.592	235.88
443.813	223.88
444.034	242.88
444.255	232.88
444.476	253.88
444.698	245.88
444.919	232.88
445.14	362.88
445.361	285.88
445.582	238.88
445.803	245.88
446.024	212.88
446.245	243.88
446.466	213.88
446.687	197.88
446.908	231.88
447.129	218.88
447.35	210.88
447.571	204.88
447.792	215.88
448.013	231.88
448.234	224.88
448.455	232.88
448.675	218.88
448.896	213.88
449.117	213.88
449.338	220.88
449.559	223.88
449.779	214.88
450	214.88
450.221	208.88
450.442	214.88
450.662	222.88
450.883	216.88
451.104	205.88
451.324	197.88
451.545	203.88
451.766	199.88
451.986	205.88
452.207	210.88
452.428	227.88
452.648	224.88
452.869	212.88
453.089	200.88
453.31	207.88
453.53	182.88
453.751	205.88
453.971	213.88
454.192	214.88
454.412	195.88
454.633	210.88
454.853	201.88
455.073	207.88
455.294	208.88
455.514	214.88
455.734	208.88
455.955	198.88
456.175	206.88
456.395	213.88
456.616	222.88
456.836	192.88
457.056	211.88
457.276	214.88
457.497	207.88
457.717	204.88
457.937	217.88
458.157	207.88
458.377	207.88
458.598	195.88
458.818	211.88
459.038	215.88
459.258	215.88
459.478	219.88
459.698	222.88
459.918	219.88
460.138	232.88
460.358	242.88
460.578	238.88
460.798	243.88
461.018	264.88
461.238	239.88
461.458	229.88
461.678	245.88
461.898	240.88
462.118	243.88
462.338	251.88
462.558	262.88
462.777	264.88
462.997	276.88
463.217	264.88
463.437	280.88
463.657	249.88
463.876	259.88
464.096	251.88
464.316	258.88
464.536	244.88
464.755	248.88
464.975	250.88
465.195	242.88
465.414	244.88
465.634	238.88
465.854	243.88
466.073	236.88
466.293	228.88
466.512	229.88
466.732	240.88
466.951	246.88
467.171	250.88
467.391	256.88
467.61	291.88
467.829	387.88
468.049	658.88
468.268	807.88
468.488	498.88
468.707	350.88
468.927	311.88
469.146	281.88
469.365	280.88
469.585	265.88
469.804	277.88
470.023	277.88
470.243	251.88
470.462	274.88
470.681	255.88
470.901	277.88
471.12	285.88
471.339	302.88
471.558	319.88
471.777	383.88
471.997	536.88
472.216	1144.88
472.435	1690.88
472.654	954.88
472.873	570.88
473.092	448.88
473.311	358.88
473.53	326.88
473.749	320.88
473.968	292.88
474.187	299.88
474.406	278.88
474.625	279.88
474.844	274.88
475.063	260.88
475.282	263.88
475.501	282.88
475.72	271.88
475.939	274.88
476.158	267.88
476.377	262.88
476.596	271.88
476.814	264.88
477.033	246.88
477.252	261.88
477.471	258.88
477.69	268.88
477.908	269.88
478.127	262.88
478.346	272.88
478.564	294.88
478.783	282.88
479.002	279.88
479.22	313.88
479.439	292.88
479.658	319.88
479.876	340.88
480.095	356.88
480.313	388.88
480.532	459.88
480.751	594.88
480.969	1217.88
481.188	2671.88
481.406	2172.88
481.624	1054.88
481.843	690.88
482.061	533.88
482.28	484.88
482.498	438.88
482.717	394.88
482.935	386.88
483.153	366.88
483.372	362.88
483.59	344.88
483.808	348.88
484.027	331.88
484.245	322.88
484.463	306.88
484.681	291.88
484.9	314.88
485.118	302.88
485.336	286.88
485.554	302.88
485.772	300.88
485.99	302.88
486.209	280.88
486.427	301.88
486.645	296.88
486.863	288.88
487.081	304.88
487.299	279.88
487.517	296.88
487.735	308.88
487.953	316.88
488.171	301.88
488.389	303.88
488.607	309.88
488.825	324.88
489.043	326.88
489.261	316.88
489.479	324.88
489.696	321.88
489.914	334.88
490.132	330.88
490.35	360.88
490.568	360.88
490.786	377.88
491.003	388.88
491.221	427.88
491.439	466.88
491.657	470.88
491.874	463.88
492.092	462.88
492.31	488.88
492.527	536.88
492.745	550.88
492.963	527.88
493.18	479.88
493.398	482.88
493.615	436.88
493.833	430.88
494.05	419.88
494.268	405.88
494.485	405.88
494.703	391.88
494.92	377.88
495.138	373.88
495.355	393.88
495.573	359.88
495.79	334.88
496.008	348.88
496.225	369.88
496.442	344.88
496.66	338.88
496.877	341.88
497.094	344.88
497.312	344.88
497.529	335.88
497.746	357.88
497.963	365.88
498.181	355.88
498.398	349.88
498.615	358.88
498.832	344.88
499.049	366.88
499.267	383.88
499.484	397.88
499.701	407.88
499.918	411.88
500.135	444.88
500.352	474.88
500.569	496.88
500.786	518.88
501.003	474.88
501.22	437.88
501.437	415.88
501.654	392.88
501.871	355.88
502.088	356.88
502.305	354.88
502.522	330.88
502.739	331.88
502.956	320.88
503.172	312.88
503.389	313.88
503.606	310.88
