Data from StdC_HRD10591_062.txt Node
Date: Fri May 16 15:29:11 EDT 2025
User: Yrep
Spectrometer: HR+D1059
Trigger mode: 1
Integration Time (sec): 1.000000E-1
Scans to average: 1
Electric dark correction enabled: true
Nonlinearity correction enabled: false
Boxcar width: 0
XAxis mode: Wavelengths
Number of Pixels in Spectrum: 2048
>>>>>Begin Spectral Data<<<<<
223.165	-8.62
223.4	-8.62
223.635	-8.62
223.869	-11.62
224.104	-10.62
224.338	-18.62
224.573	-11.62
224.808	-22.62
225.042	-22.62
225.277	-3.62
225.511	-2.62
225.746	-3.62
225.98	2.38
226.215	18.38
226.449	18.38
226.683	10.38
226.918	27.38
227.152	39.38
227.387	45.38
227.621	48.38
227.856	43.38
228.09	50.38
228.324	43.38
228.559	61.38
228.793	58.38
229.027	73.38
229.262	58.38
229.496	63.38
229.73	71.38
229.964	89.38
230.199	95.38
230.433	86.38
230.667	75.38
230.901	81.38
231.136	96.38
231.37	93.38
231.604	84.38
231.838	93.38
232.072	91.38
232.306	100.38
232.541	97.38
232.775	109.38
233.009	86.38
233.243	82.38
233.477	91.38
233.711	85.38
233.945	102.38
234.179	78.38
234.413	80.38
234.647	104.38
234.881	102.38
235.115	94.38
235.349	79.38
235.583	88.38
235.817	102.38
236.051	103.38
236.285	92.38
236.519	96.38
236.753	95.38
236.987	97.38
237.221	93.38
237.455	92.38
237.689	86.38
237.922	84.38
238.156	86.38
238.39	94.38
238.624	108.38
238.858	96.38
239.091	98.38
239.325	98.38
239.559	93.38
239.793	86.38
240.027	95.38
240.26	94.38
240.494	102.38
240.728	91.38
240.961	98.38
241.195	106.38
241.429	95.38
241.662	102.38
241.896	114.38
242.13	102.38
242.363	94.38
242.597	118.38
242.83	108.38
243.064	107.38
243.298	98.38
243.531	104.38
243.765	97.38
243.998	109.38
244.232	114.38
244.465	102.38
244.699	97.38
244.932	98.38
245.166	90.38
245.399	115.38
245.633	108.38
245.866	99.38
246.099	109.38
246.333	111.38
246.566	107.38
246.8	112.38
247.033	97.38
247.266	106.38
247.5	104.38
247.733	116.38
247.966	128.38
248.2	109.38
248.433	104.38
248.666	126.38
248.899	91.38
249.133	112.38
249.366	134.38
249.599	118.38
249.832	134.38
250.066	147.38
250.299	184.38
250.532	194.38
250.765	189.38
250.998	163.38
251.231	148.38
251.465	145.38
251.698	121.38
251.931	119.38
252.164	117.38
252.397	124.38
252.63	104.38
252.863	131.38
253.096	135.38
253.329	126.38
253.562	127.38
253.795	121.38
254.028	134.38
254.261	136.38
254.494	118.38
254.727	141.38
254.96	131.38
255.193	158.38
255.426	163.38
255.659	195.38
255.892	277.38
256.124	304.38
256.357	252.38
256.59	202.38
256.823	162.38
257.056	176.38
257.289	164.38
257.521	159.38
257.754	147.38
257.987	147.38
258.22	135.38
258.452	125.38
258.685	143.38
258.918	132.38
259.151	154.38
259.383	134.38
259.616	136.38
259.849	156.38
260.081	142.38
260.314	131.38
260.547	139.38
260.779	145.38
261.012	141.38
261.244	137.38
261.477	144.38
261.71	129.38
261.942	131.38
262.175	134.38
262.407	136.38
262.64	126.38
262.872	139.38
263.105	118.38
263.337	139.38
263.57	122.38
263.802	135.38
264.035	130.38
264.267	124.38
264.499	115.38
264.732	124.38
264.964	130.38
265.197	129.38
265.429	141.38
265.661	141.38
265.894	131.38
266.126	134.38
266.358	144.38
266.591	139.38
266.823	128.38
267.055	145.38
267.287	142.38
267.52	136.38
267.752	140.38
267.984	141.38
268.216	113.38
268.448	128.38
268.681	143.38
268.913	147.38
269.145	138.38
269.377	145.38
269.609	132.38
269.841	144.38
270.073	133.38
270.306	131.38
270.538	123.38
270.77	136.38
271.002	123.38
271.234	149.38
271.466	150.38
271.698	145.38
271.93	140.38
272.162	148.38
272.394	165.38
272.626	167.38
272.858	141.38
273.09	141.38
273.322	159.38
273.553	161.38
273.785	159.38
274.017	146.38
274.249	170.38
274.481	160.38
274.713	157.38
274.945	163.38
275.176	169.38
275.408	178.38
275.64	177.38
275.872	184.38
276.104	185.38
276.335	175.38
276.567	188.38
276.799	199.38
277.031	196.38
277.262	226.38
277.494	222.38
277.726	214.38
277.957	191.38
278.189	188.38
278.421	192.38
278.652	177.38
278.884	165.38
279.115	188.38
279.347	202.38
279.579	206.38
279.81	245.38
280.042	268.38
280.273	285.38
280.505	265.38
280.736	226.38
280.968	208.38
281.199	167.38
281.431	182.38
281.662	176.38
281.894	185.38
282.125	161.38
282.356	163.38
282.588	174.38
282.819	188.38
283.051	164.38
283.282	177.38
283.513	152.38
283.745	159.38
283.976	161.38
284.207	168.38
284.439	160.38
284.67	173.38
284.901	152.38
285.132	171.38
285.364	164.38
285.595	165.38
285.826	154.38
286.057	163.38
286.288	155.38
286.52	174.38
286.751	162.38
286.982	165.38
287.213	175.38
287.444	180.38
287.675	153.38
287.906	156.38
288.138	170.38
288.369	176.38
288.6	188.38
288.831	154.38
289.062	169.38
289.293	150.38
289.524	172.38
289.755	171.38
289.986	165.38
290.217	146.38
290.448	173.38
290.679	175.38
290.91	161.38
291.141	174.38
291.371	172.38
291.602	172.38
291.833	159.38
292.064	150.38
292.295	145.38
292.526	156.38
292.757	168.38
292.987	154.38
293.218	149.38
293.449	152.38
293.68	178.38
293.91	158.38
294.141	172.38
294.372	163.38
294.603	161.38
294.833	174.38
295.064	150.38
295.295	159.38
295.525	159.38
295.756	158.38
295.987	152.38
296.217	157.38
296.448	146.38
296.679	156.38
296.909	162.38
297.14	168.38
297.37	156.38
297.601	169.38
297.831	156.38
298.062	162.38
298.292	172.38
298.523	170.38
298.753	153.38
298.984	174.38
299.214	157.38
299.445	177.38
299.675	156.38
299.905	165.38
300.136	164.38
300.366	166.38
300.597	159.38
300.827	162.38
301.057	171.38
301.288	152.38
301.518	154.38
301.748	175.38
301.979	193.38
302.209	170.38
302.439	171.38
302.669	182.38
302.9	187.38
303.13	165.38
303.36	196.38
303.59	203.38
303.82	198.38
304.051	188.38
304.281	170.38
304.511	182.38
304.741	177.38
304.971	181.38
305.201	164.38
305.431	178.38
305.661	174.38
305.891	184.38
306.121	186.38
306.352	175.38
306.582	173.38
306.812	198.38
307.042	218.38
307.272	244.38
307.502	244.38
307.731	217.38
307.961	200.38
308.191	186.38
308.421	192.38
308.651	180.38
308.881	165.38
309.111	180.38
309.341	170.38
309.571	185.38
309.8	158.38
310.03	154.38
310.26	184.38
310.49	188.38
310.72	174.38
310.949	179.38
311.179	168.38
311.409	180.38
311.639	188.38
311.868	188.38
312.098	176.38
312.328	170.38
312.557	191.38
312.787	189.38
313.017	191.38
313.246	174.38
313.476	170.38
313.706	186.38
313.935	182.38
314.165	172.38
314.394	182.38
314.624	175.38
314.853	179.38
315.083	192.38
315.312	176.38
315.542	197.38
315.771	165.38
316.001	173.38
316.23	196.38
316.46	172.38
316.689	170.38
316.919	193.38
317.148	169.38
317.377	177.38
317.607	182.38
317.836	164.38
318.065	186.38
318.295	177.38
318.524	185.38
318.753	185.38
318.983	182.38
319.212	188.38
319.441	191.38
319.67	179.38
319.9	180.38
320.129	190.38
320.358	197.38
320.587	187.38
320.816	176.38
321.046	188.38
321.275	203.38
321.504	179.38
321.733	204.38
321.962	171.38
322.191	176.38
322.42	216.38
322.649	208.38
322.878	210.38
323.108	213.38
323.337	225.38
323.566	212.38
323.795	219.38
324.024	212.38
324.253	208.38
324.482	230.38
324.71	228.38
324.939	235.38
325.168	240.38
325.397	237.38
325.626	241.38
325.855	235.38
326.084	253.38
326.313	247.38
326.542	244.38
326.77	285.38
326.999	292.38
327.228	304.38
327.457	332.38
327.686	399.38
327.914	569.38
328.143	712.38
328.372	754.38
328.6	544.38
328.829	395.38
329.058	380.38
329.287	415.38
329.515	493.38
329.744	692.38
329.972	991.38
330.201	1334.38
330.43	1378.38
330.658	803.38
330.887	493.38
331.115	389.38
331.344	356.38
331.572	331.38
331.801	323.38
332.03	318.38
332.258	332.38
332.486	336.38
332.715	345.38
332.943	366.38
333.172	414.38
333.4	459.38
333.629	545.38
333.857	740.38
334.085	1056.38
334.314	1527.38
334.542	1873.38
334.771	1508.38
334.999	798.38
335.227	529.38
335.455	436.38
335.684	353.38
335.912	328.38
336.14	301.38
336.369	285.38
336.597	264.38
336.825	271.38
337.053	253.38
337.281	239.38
337.51	250.38
337.738	238.38
337.966	200.38
338.194	223.38
338.422	229.38
338.65	226.38
338.878	222.38
339.106	230.38
339.334	236.38
339.562	230.38
339.79	215.38
340.018	200.38
340.246	201.38
340.474	205.38
340.702	215.38
340.93	205.38
341.158	220.38
341.386	199.38
341.614	203.38
341.842	214.38
342.07	208.38
342.298	194.38
342.526	197.38
342.754	198.38
342.981	202.38
343.209	198.38
343.437	202.38
343.665	192.38
343.893	216.38
344.12	221.38
344.348	210.38
344.576	212.38
344.804	196.38
345.031	198.38
345.259	195.38
345.487	205.38
345.714	176.38
345.942	200.38
346.17	195.38
346.397	196.38
346.625	198.38
346.853	182.38
347.08	203.38
347.308	185.38
347.535	206.38
347.763	173.38
347.99	194.38
348.218	184.38
348.445	195.38
348.673	190.38
348.9	186.38
349.128	192.38
349.355	190.38
349.583	196.38
349.81	206.38
350.037	206.38
350.265	193.38
350.492	174.38
350.72	204.38
350.947	192.38
351.174	197.38
351.402	196.38
351.629	201.38
351.856	196.38
352.083	185.38
352.311	206.38
352.538	170.38
352.765	195.38
352.992	200.38
353.22	189.38
353.447	182.38
353.674	203.38
353.901	173.38
354.128	181.38
354.355	196.38
354.583	193.38
354.81	184.38
355.037	190.38
355.264	198.38
355.491	193.38
355.718	175.38
355.945	186.38
356.172	186.38
356.399	183.38
356.626	178.38
356.853	184.38
357.08	180.38
357.307	186.38
357.534	197.38
357.761	202.38
357.988	190.38
358.215	172.38
358.441	181.38
358.668	165.38
358.895	184.38
359.122	181.38
359.349	173.38
359.576	188.38
359.802	192.38
360.029	177.38
360.256	176.38
360.483	201.38
360.709	163.38
360.936	192.38
361.163	191.38
361.39	186.38
361.616	194.38
361.843	205.38
362.07	191.38
362.296	191.38
362.523	176.38
362.749	168.38
362.976	184.38
363.203	173.38
363.429	164.38
363.656	183.38
363.882	165.38
364.109	184.38
364.335	185.38
364.562	166.38
364.788	184.38
365.015	186.38
365.241	193.38
365.468	192.38
365.694	181.38
365.92	194.38
366.147	180.38
366.373	184.38
366.599	174.38
366.826	154.38
367.052	204.38
367.278	186.38
367.505	169.38
367.731	171.38
367.957	188.38
368.184	182.38
368.41	187.38
368.636	197.38
368.862	194.38
369.089	202.38
369.315	185.38
369.541	187.38
369.767	191.38
369.993	195.38
370.219	190.38
370.445	181.38
370.672	200.38
370.898	168.38
371.124	195.38
371.35	174.38
371.576	190.38
371.802	171.38
372.028	193.38
372.254	180.38
372.48	177.38
372.706	182.38
372.932	180.38
373.158	192.38
373.384	174.38
373.61	191.38
373.835	194.38
374.061	194.38
374.287	191.38
374.513	202.38
374.739	186.38
374.965	185.38
375.191	189.38
375.416	185.38
375.642	185.38
375.868	194.38
376.094	186.38
376.319	188.38
376.545	199.38
376.771	184.38
376.997	193.38
377.222	177.38
377.448	182.38
377.674	185.38
377.899	181.38
378.125	202.38
378.35	193.38
378.576	188.38
378.802	185.38
379.027	178.38
379.253	186.38
379.478	187.38
379.704	188.38
379.929	180.38
380.155	195.38
380.38	197.38
380.606	200.38
380.831	184.38
381.057	206.38
381.282	195.38
381.507	199.38
381.733	206.38
381.958	204.38
382.184	201.38
382.409	199.38
382.634	187.38
382.86	190.38
383.085	221.38
383.31	198.38
383.535	214.38
383.761	198.38
383.986	202.38
384.211	195.38
384.436	192.38
384.662	222.38
384.887	206.38
385.112	188.38
385.337	204.38
385.562	208.38
385.787	212.38
386.013	192.38
386.238	200.38
386.463	199.38
386.688	223.38
386.913	198.38
387.138	198.38
387.363	211.38
387.588	205.38
387.813	208.38
388.038	211.38
388.263	204.38
388.488	205.38
388.713	221.38
388.938	201.38
389.163	216.38
389.387	201.38
389.612	213.38
389.837	208.38
390.062	218.38
390.287	221.38
390.512	196.38
390.736	214.38
390.961	220.38
391.186	211.38
391.411	230.38
391.636	228.38
391.86	224.38
392.085	224.38
392.31	223.38
392.534	217.38
392.759	200.38
392.984	216.38
393.208	220.38
393.433	221.38
393.658	218.38
393.882	215.38
394.107	218.38
394.331	212.38
394.556	212.38
394.78	213.38
395.005	219.38
395.229	202.38
395.454	241.38
395.678	224.38
395.903	220.38
396.127	223.38
396.352	218.38
396.576	224.38
396.801	229.38
397.025	221.38
397.249	208.38
397.474	218.38
397.698	236.38
397.922	224.38
398.147	209.38
398.371	227.38
398.595	242.38
398.82	238.38
399.044	254.38
399.268	268.38
399.492	280.38
399.717	282.38
399.941	269.38
400.165	264.38
400.389	266.38
400.613	270.38
400.837	246.38
401.062	237.38
401.286	236.38
401.51	244.38
401.734	237.38
401.958	250.38
402.182	253.38
402.406	240.38
402.63	250.38
402.854	237.38
403.078	247.38
403.302	246.38
403.526	251.38
403.75	256.38
403.974	265.38
404.198	257.38
404.422	270.38
404.645	252.38
404.869	279.38
405.093	297.38
405.317	328.38
405.541	322.38
405.765	305.38
405.988	273.38
406.212	268.38
406.436	280.38
406.66	256.38
406.883	263.38
407.107	270.38
407.331	289.38
407.555	275.38
407.778	275.38
408.002	280.38
408.226	269.38
408.449	263.38
408.673	259.38
408.896	245.38
409.12	262.38
409.344	254.38
409.567	258.38
409.791	253.38
410.014	254.38
410.238	252.38
410.461	261.38
410.685	249.38
410.908	262.38
411.132	250.38
411.355	256.38
411.578	254.38
411.802	256.38
412.025	274.38
412.249	275.38
412.472	317.38
412.695	336.38
412.919	309.38
413.142	292.38
413.365	280.38
413.589	282.38
413.812	277.38
414.035	291.38
414.258	266.38
414.482	266.38
414.705	257.38
414.928	256.38
415.151	248.38
415.374	250.38
415.597	261.38
415.821	259.38
416.044	257.38
416.267	252.38
416.49	257.38
416.713	258.38
416.936	250.38
417.159	256.38
417.382	252.38
417.605	281.38
417.828	262.38
418.051	261.38
418.274	251.38
418.497	242.38
418.72	232.38
418.943	252.38
419.166	268.38
419.389	276.38
419.611	283.38
419.834	289.38
420.057	296.38
420.28	326.38
420.503	287.38
420.726	279.38
420.948	256.38
421.171	272.38
421.394	265.38
421.617	254.38
421.839	262.38
422.062	254.38
422.285	248.38
422.507	258.38
422.73	265.38
422.953	240.38
423.175	239.38
423.398	246.38
423.621	251.38
423.843	256.38
424.066	250.38
424.288	239.38
424.511	244.38
424.733	235.38
424.956	247.38
425.178	246.38
425.401	254.38
425.623	246.38
425.846	232.38
426.068	220.38
426.291	252.38
426.513	244.38
426.735	245.38
426.958	244.38
427.18	269.38
427.402	273.38
427.625	287.38
427.847	355.38
428.069	354.38
428.292	298.38
428.514	268.38
428.736	245.38
428.958	243.38
429.181	234.38
429.403	222.38
429.625	238.38
429.847	242.38
430.069	254.38
430.292	243.38
430.514	224.38
430.736	227.38
430.958	228.38
431.18	232.38
431.402	224.38
431.624	237.38
431.846	229.38
432.068	224.38
432.29	222.38
432.512	226.38
432.734	207.38
432.956	220.38
433.178	232.38
433.4	226.38
433.622	211.38
433.844	237.38
434.066	227.38
434.287	236.38
434.509	210.38
434.731	236.38
434.953	218.38
435.175	235.38
435.397	225.38
435.618	243.38
435.84	222.38
436.062	240.38
436.284	239.38
436.505	220.38
436.727	245.38
436.949	207.38
437.17	214.38
437.392	219.38
437.614	217.38
437.835	213.38
438.057	222.38
438.278	215.38
438.5	210.38
438.721	217.38
438.943	228.38
439.165	218.38
439.386	206.38
439.608	230.38
439.829	223.38
440.05	220.38
440.272	232.38
440.493	228.38
440.715	218.38
440.936	221.38
441.158	224.38
441.379	238.38
441.6	244.38
441.822	254.38
442.043	233.38
442.264	216.38
442.486	237.38
442.707	218.38
442.928	230.38
443.149	230.38
443.371	244.38
443.592	232.38
443.813	238.38
444.034	234.38
444.255	245.38
444.476	244.38
444.698	243.38
444.919	260.38
445.14	326.38
445.361	274.38
445.582	250.38
445.803	239.38
446.024	233.38
446.245	228.38
446.466	229.38
446.687	224.38
446.908	238.38
447.129	226.38
447.35	215.38
447.571	219.38
447.792	210.38
448.013	222.38
448.234	222.38
448.455	204.38
448.675	220.38
448.896	213.38
449.117	218.38
449.338	205.38
449.559	229.38
449.779	213.38
450	233.38
450.221	213.38
450.442	207.38
450.662	213.38
450.883	210.38
451.104	212.38
451.324	210.38
451.545	205.38
451.766	203.38
451.986	209.38
452.207	213.38
452.428	205.38
452.648	205.38
452.869	216.38
453.089	202.38
453.31	208.38
453.53	198.38
453.751	215.38
453.971	200.38
454.192	201.38
454.412	175.38
454.633	212.38
454.853	201.38
455.073	198.38
455.294	216.38
455.514	207.38
455.734	198.38
455.955	212.38
456.175	213.38
456.395	192.38
456.616	224.38
456.836	213.38
457.056	219.38
457.276	220.38
457.497	220.38
457.717	228.38
457.937	222.38
458.157	189.38
458.377	204.38
458.598	196.38
458.818	210.38
459.038	208.38
459.258	218.38
459.478	214.38
459.698	226.38
459.918	222.38
460.138	239.38
460.358	237.38
460.578	239.38
460.798	228.38
461.018	241.38
461.238	243.38
461.458	257.38
461.678	238.38
461.898	242.38
462.118	252.38
462.338	237.38
462.558	252.38
462.777	273.38
462.997	278.38
463.217	276.38
463.437	276.38
463.657	261.38
463.876	274.38
464.096	263.38
464.316	261.38
464.536	265.38
464.755	250.38
464.975	236.38
465.195	262.38
465.414	234.38
465.634	254.38
465.854	252.38
466.073	251.38
466.293	237.38
466.512	238.38
466.732	250.38
466.951	241.38
467.171	255.38
467.391	274.38
467.61	284.38
467.829	369.38
468.049	682.38
468.268	816.38
468.488	494.38
468.707	344.38
468.927	312.38
469.146	295.38
469.365	276.38
469.585	285.38
469.804	260.38
470.023	281.38
470.243	278.38
470.462	261.38
470.681	255.38
470.901	275.38
471.12	280.38
471.339	292.38
471.558	303.38
471.777	356.38
471.997	530.38
472.216	1123.38
472.435	1762.38
472.654	976.38
472.873	569.38
473.092	462.38
473.311	383.38
473.53	364.38
473.749	310.38
473.968	303.38
474.187	302.38
474.406	273.38
474.625	284.38
474.844	269.38
475.063	271.38
475.282	261.38
475.501	242.38
475.72	272.38
475.939	258.38
476.158	260.38
476.377	269.38
476.596	273.38
476.814	265.38
477.033	258.38
477.252	266.38
477.471	264.38
477.69	276.38
477.908	272.38
478.127	285.38
478.346	285.38
478.564	281.38
478.783	307.38
479.002	273.38
479.22	302.38
479.439	304.38
479.658	305.38
479.876	320.38
480.095	349.38
480.313	394.38
480.532	482.38
480.751	623.38
480.969	1240.38
481.188	2774.38
481.406	2229.38
481.624	1057.38
481.843	697.38
482.061	570.38
482.28	494.38
482.498	442.38
482.717	390.38
482.935	383.38
483.153	367.38
483.372	347.38
483.59	338.38
483.808	317.38
484.027	303.38
484.245	319.38
484.463	318.38
484.681	304.38
484.9	302.38
485.118	321.38
485.336	290.38
485.554	294.38
485.772	301.38
485.99	316.38
486.209	287.38
486.427	276.38
486.645	312.38
486.863	304.38
487.081	301.38
487.299	305.38
487.517	282.38
487.735	293.38
487.953	323.38
488.171	291.38
488.389	314.38
488.607	314.38
488.825	324.38
489.043	287.38
489.261	324.38
489.479	325.38
489.696	321.38
489.914	334.38
490.132	351.38
490.35	341.38
490.568	363.38
490.786	394.38
491.003	400.38
491.221	435.38
491.439	454.38
491.657	472.38
491.874	468.38
492.092	464.38
492.31	470.38
492.527	537.38
492.745	542.38
492.963	528.38
493.18	499.38
493.398	457.38
493.615	448.38
493.833	418.38
494.05	412.38
494.268	404.38
494.485	395.38
494.703	400.38
494.92	391.38
495.138	385.38
495.355	379.38
495.573	374.38
495.79	373.38
496.008	376.38
496.225	362.38
496.442	348.38
496.66	368.38
496.877	346.38
497.094	350.38
497.312	330.38
497.529	325.38
497.746	340.38
497.963	333.38
498.181	362.38
498.398	358.38
498.615	358.38
498.832	362.38
499.049	368.38
499.267	388.38
499.484	405.38
499.701	411.38
499.918	414.38
500.135	465.38
500.352	459.38
500.569	524.38
500.786	511.38
501.003	477.38
501.22	447.38
501.437	418.38
501.654	412.38
501.871	373.38
502.088	366.38
502.305	369.38
502.522	348.38
502.739	347.38
502.956	342.38
503.172	313.38
503.389	309.38
