Data from StdC_HRD10591_032.txt Node
Date: Fri May 16 15:28:56 EDT 2025
User: Yrep
Spectrometer: HR+D1059
Trigger mode: 1
Integration Time (sec): 1.000000E-1
Scans to average: 1
Electric dark correction enabled: true
Nonlinearity correction enabled: false
Boxcar width: 0
XAxis mode: Wavelengths
Number of Pixels in Spectrum: 2048
>>>>>Begin Spectral Data<<<<<
223.165	-16.31
223.4	-16.31
223.635	-16.31
223.869	-14.31
224.104	-23.31
224.338	-20.31
224.573	-20.31
224.808	-24.31
225.042	-2.31
225.277	-16.31
225.511	5.69
225.746	13.69
225.98	5.69
226.215	3.69
226.449	17.69
226.683	22.69
226.918	33.69
227.152	34.69
227.387	33.69
227.621	30.69
227.856	34.69
228.09	45.69
228.324	50.69
228.559	49.69
228.793	44.69
229.027	66.69
229.262	72.69
229.496	64.69
229.73	66.69
229.964	79.69
230.199	78.69
230.433	89.69
230.667	72.69
230.901	83.69
231.136	84.69
231.37	89.69
231.604	88.69
231.838	88.69
232.072	91.69
232.306	86.69
232.541	82.69
232.775	79.69
233.009	89.69
233.243	85.69
233.477	93.69
233.711	90.69
233.945	92.69
234.179	97.69
234.413	84.69
234.647	94.69
234.881	86.69
235.115	97.69
235.349	84.69
235.583	93.69
235.817	90.69
236.051	89.69
236.285	100.69
236.519	77.69
236.753	86.69
236.987	104.69
237.221	92.69
237.455	84.69
237.689	101.69
237.922	86.69
238.156	100.69
238.39	84.69
238.624	90.69
238.858	81.69
239.091	97.69
239.325	92.69
239.559	87.69
239.793	83.69
240.027	87.69
240.26	88.69
240.494	97.69
240.728	87.69
240.961	85.69
241.195	102.69
241.429	82.69
241.662	92.69
241.896	102.69
242.13	88.69
242.363	96.69
242.597	88.69
242.83	107.69
243.064	104.69
243.298	92.69
243.531	119.69
243.765	109.69
243.998	96.69
244.232	104.69
244.465	88.69
244.699	105.69
244.932	98.69
245.166	104.69
245.399	100.69
245.633	87.69
245.866	106.69
246.099	102.69
246.333	97.69
246.566	108.69
246.8	98.69
247.033	93.69
247.266	116.69
247.5	110.69
247.733	101.69
247.966	105.69
248.2	134.69
248.433	109.69
248.666	95.69
248.899	104.69
249.133	107.69
249.366	112.69
249.599	100.69
249.832	126.69
250.066	148.69
250.299	160.69
250.532	202.69
250.765	182.69
250.998	152.69
251.231	124.69
251.465	112.69
251.698	117.69
251.931	128.69
252.164	139.69
252.397	121.69
252.63	115.69
252.863	117.69
253.096	125.69
253.329	113.69
253.562	114.69
253.795	129.69
254.028	119.69
254.261	132.69
254.494	129.69
254.727	132.69
254.96	147.69
255.193	150.69
255.426	149.69
255.659	190.69
255.892	246.69
256.124	314.69
256.357	252.69
256.59	202.69
256.823	168.69
257.056	161.69
257.289	144.69
257.521	132.69
257.754	141.69
257.987	146.69
258.22	153.69
258.452	147.69
258.685	135.69
258.918	140.69
259.151	129.69
259.383	129.69
259.616	114.69
259.849	116.69
260.081	131.69
260.314	130.69
260.547	131.69
260.779	128.69
261.012	138.69
261.244	128.69
261.477	132.69
261.71	118.69
261.942	117.69
262.175	137.69
262.407	125.69
262.64	128.69
262.872	129.69
263.105	137.69
263.337	131.69
263.57	128.69
263.802	118.69
264.035	127.69
264.267	133.69
264.499	124.69
264.732	132.69
264.964	112.69
265.197	130.69
265.429	127.69
265.661	135.69
265.894	141.69
266.126	148.69
266.358	120.69
266.591	123.69
266.823	128.69
267.055	117.69
267.287	119.69
267.52	119.69
267.752	135.69
267.984	127.69
268.216	122.69
268.448	139.69
268.681	143.69
268.913	129.69
269.145	127.69
269.377	133.69
269.609	144.69
269.841	129.69
270.073	129.69
270.306	122.69
270.538	145.69
270.77	127.69
271.002	123.69
271.234	127.69
271.466	157.69
271.698	142.69
271.93	135.69
272.162	129.69
272.394	126.69
272.626	143.69
272.858	132.69
273.09	156.69
273.322	145.69
273.553	153.69
273.785	153.69
274.017	150.69
274.249	135.69
274.481	144.69
274.713	145.69
274.945	160.69
275.176	170.69
275.408	158.69
275.64	164.69
275.872	167.69
276.104	185.69
276.335	168.69
276.567	168.69
276.799	186.69
277.031	208.69
277.262	216.69
277.494	226.69
277.726	186.69
277.957	183.69
278.189	179.69
278.421	176.69
278.652	173.69
278.884	167.69
279.115	178.69
279.347	182.69
279.579	192.69
279.81	222.69
280.042	246.69
280.273	271.69
280.505	236.69
280.736	219.69
280.968	181.69
281.199	188.69
281.431	179.69
281.662	155.69
281.894	180.69
282.125	152.69
282.356	156.69
282.588	147.69
282.819	151.69
283.051	142.69
283.282	152.69
283.513	144.69
283.745	157.69
283.976	157.69
284.207	136.69
284.439	150.69
284.67	175.69
284.901	158.69
285.132	168.69
285.364	149.69
285.595	157.69
285.826	176.69
286.057	173.69
286.288	170.69
286.52	150.69
286.751	150.69
286.982	153.69
287.213	146.69
287.444	146.69
287.675	136.69
287.906	160.69
288.138	155.69
288.369	168.69
288.6	162.69
288.831	168.69
289.062	162.69
289.293	161.69
289.524	148.69
289.755	150.69
289.986	157.69
290.217	150.69
290.448	156.69
290.679	167.69
290.91	173.69
291.141	165.69
291.371	151.69
291.602	147.69
291.833	145.69
292.064	155.69
292.295	151.69
292.526	151.69
292.757	160.69
292.987	160.69
293.218	153.69
293.449	158.69
293.68	143.69
293.91	149.69
294.141	173.69
294.372	169.69
294.603	156.69
294.833	155.69
295.064	140.69
295.295	166.69
295.525	152.69
295.756	152.69
295.987	156.69
296.217	154.69
296.448	146.69
296.679	160.69
296.909	164.69
297.14	141.69
297.37	152.69
297.601	172.69
297.831	159.69
298.062	148.69
298.292	161.69
298.523	150.69
298.753	147.69
298.984	156.69
299.214	164.69
299.445	142.69
299.675	169.69
299.905	166.69
300.136	149.69
300.366	158.69
300.597	165.69
300.827	161.69
301.057	168.69
301.288	162.69
301.518	156.69
301.748	182.69
301.979	200.69
302.209	189.69
302.439	157.69
302.669	179.69
302.9	147.69
303.13	165.69
303.36	186.69
303.59	197.69
303.82	207.69
304.051	182.69
304.281	174.69
304.511	180.69
304.741	171.69
304.971	156.69
305.201	166.69
305.431	167.69
305.661	169.69
305.891	183.69
306.121	168.69
306.352	179.69
306.582	161.69
306.812	180.69
307.042	180.69
307.272	231.69
307.502	221.69
307.731	192.69
307.961	181.69
308.191	173.69
308.421	171.69
308.651	179.69
308.881	160.69
309.111	161.69
309.341	165.69
309.571	168.69
309.8	170.69
310.03	157.69
310.26	166.69
310.49	182.69
310.72	179.69
310.949	163.69
311.179	154.69
311.409	172.69
311.639	176.69
311.868	166.69
312.098	177.69
312.328	167.69
312.557	179.69
312.787	190.69
313.017	170.69
313.246	168.69
313.476	160.69
313.706	177.69
313.935	166.69
314.165	176.69
314.394	167.69
314.624	172.69
314.853	171.69
315.083	167.69
315.312	173.69
315.542	182.69
315.771	161.69
316.001	170.69
316.23	193.69
316.46	168.69
316.689	162.69
316.919	169.69
317.148	181.69
317.377	180.69
317.607	179.69
317.836	195.69
318.065	193.69
318.295	184.69
318.524	186.69
318.753	181.69
318.983	179.69
319.212	172.69
319.441	168.69
319.67	193.69
319.9	172.69
320.129	186.69
320.358	193.69
320.587	186.69
320.816	179.69
321.046	167.69
321.275	190.69
321.504	185.69
321.733	197.69
321.962	208.69
322.191	197.69
322.42	190.69
322.649	199.69
322.878	184.69
323.108	200.69
323.337	200.69
323.566	201.69
323.795	192.69
324.024	226.69
324.253	221.69
324.482	208.69
324.71	209.69
324.939	214.69
325.168	236.69
325.397	226.69
325.626	243.69
325.855	260.69
326.084	233.69
326.313	255.69
326.542	237.69
326.77	241.69
326.999	277.69
327.228	302.69
327.457	326.69
327.686	420.69
327.914	536.69
328.143	672.69
328.372	729.69
328.6	533.69
328.829	404.69
329.058	387.69
329.287	415.69
329.515	494.69
329.744	682.69
329.972	959.69
330.201	1265.69
330.43	1316.69
330.658	774.69
330.887	482.69
331.115	380.69
331.344	328.69
331.572	321.69
331.801	308.69
332.03	328.69
332.258	304.69
332.486	341.69
332.715	347.69
332.943	351.69
333.172	383.69
333.4	436.69
333.629	523.69
333.857	680.69
334.085	1022.69
334.314	1506.69
334.542	1845.69
334.771	1468.69
334.999	756.69
335.227	497.69
335.455	411.69
335.684	355.69
335.912	302.69
336.14	279.69
336.369	278.69
336.597	263.69
336.825	258.69
337.053	268.69
337.281	252.69
337.51	231.69
337.738	231.69
337.966	212.69
338.194	244.69
338.422	225.69
338.65	219.69
338.878	215.69
339.106	221.69
339.334	222.69
339.562	199.69
339.79	216.69
340.018	210.69
340.246	213.69
340.474	211.69
340.702	196.69
340.93	199.69
341.158	204.69
341.386	195.69
341.614	186.69
341.842	198.69
342.07	204.69
342.298	195.69
342.526	198.69
342.754	201.69
342.981	211.69
343.209	206.69
343.437	209.69
343.665	193.69
343.893	200.69
344.12	199.69
344.348	202.69
344.576	194.69
344.804	194.69
345.031	179.69
345.259	187.69
345.487	191.69
345.714	169.69
345.942	195.69
346.17	206.69
346.397	188.69
346.625	185.69
346.853	191.69
347.08	184.69
347.308	180.69
347.535	184.69
347.763	189.69
347.99	196.69
348.218	190.69
348.445	184.69
348.673	200.69
348.9	182.69
349.128	181.69
349.355	174.69
349.583	186.69
349.81	171.69
350.037	178.69
350.265	175.69
350.492	183.69
350.72	188.69
350.947	192.69
351.174	177.69
351.402	180.69
351.629	190.69
351.856	202.69
352.083	192.69
352.311	184.69
352.538	180.69
352.765	176.69
352.992	190.69
353.22	171.69
353.447	186.69
353.674	188.69
353.901	167.69
354.128	165.69
354.355	173.69
354.583	184.69
354.81	187.69
355.037	196.69
355.264	180.69
355.491	191.69
355.718	176.69
355.945	189.69
356.172	181.69
356.399	164.69
356.626	181.69
356.853	174.69
357.08	176.69
357.307	180.69
357.534	180.69
357.761	178.69
357.988	180.69
358.215	157.69
358.441	179.69
358.668	172.69
358.895	170.69
359.122	182.69
359.349	169.69
359.576	184.69
359.802	173.69
360.029	184.69
360.256	182.69
360.483	170.69
360.709	172.69
360.936	172.69
361.163	186.69
361.39	182.69
361.616	185.69
361.843	182.69
362.07	178.69
362.296	176.69
362.523	151.69
362.749	184.69
362.976	174.69
363.203	181.69
363.429	177.69
363.656	186.69
363.882	183.69
364.109	189.69
364.335	198.69
364.562	177.69
364.788	174.69
365.015	183.69
365.241	173.69
365.468	182.69
365.694	185.69
365.92	183.69
366.147	169.69
366.373	180.69
366.599	182.69
366.826	177.69
367.052	168.69
367.278	186.69
367.505	190.69
367.731	183.69
367.957	190.69
368.184	171.69
368.41	199.69
368.636	188.69
368.862	178.69
369.089	186.69
369.315	188.69
369.541	174.69
369.767	177.69
369.993	172.69
370.219	176.69
370.445	184.69
370.672	174.69
370.898	185.69
371.124	182.69
371.35	198.69
371.576	187.69
371.802	176.69
372.028	186.69
372.254	181.69
372.48	185.69
372.706	187.69
372.932	197.69
373.158	186.69
373.384	186.69
373.61	184.69
373.835	195.69
374.061	205.69
374.287	180.69
374.513	194.69
374.739	188.69
374.965	170.69
375.191	188.69
375.416	196.69
375.642	194.69
375.868	177.69
376.094	186.69
376.319	171.69
376.545	180.69
376.771	182.69
376.997	179.69
377.222	185.69
377.448	189.69
377.674	176.69
377.899	172.69
378.125	161.69
378.35	175.69
378.576	179.69
378.802	189.69
379.027	181.69
379.253	162.69
379.478	186.69
379.704	204.69
379.929	171.69
380.155	177.69
380.38	185.69
380.606	181.69
380.831	190.69
381.057	191.69
381.282	186.69
381.507	190.69
381.733	193.69
381.958	198.69
382.184	206.69
382.409	200.69
382.634	193.69
382.86	187.69
383.085	194.69
383.31	212.69
383.535	205.69
383.761	210.69
383.986	196.69
384.211	209.69
384.436	193.69
384.662	200.69
384.887	203.69
385.112	189.69
385.337	190.69
385.562	189.69
385.787	204.69
386.013	207.69
386.238	202.69
386.463	201.69
386.688	205.69
386.913	208.69
387.138	200.69
387.363	206.69
387.588	198.69
387.813	202.69
388.038	193.69
388.263	228.69
388.488	201.69
388.713	213.69
388.938	211.69
389.163	200.69
389.387	196.69
389.612	185.69
389.837	213.69
390.062	211.69
390.287	204.69
390.512	212.69
390.736	203.69
390.961	216.69
391.186	202.69
391.411	204.69
391.636	198.69
391.86	206.69
392.085	217.69
392.31	210.69
392.534	202.69
392.759	225.69
392.984	224.69
393.208	202.69
393.433	197.69
393.658	198.69
393.882	219.69
394.107	208.69
394.331	210.69
394.556	201.69
394.78	215.69
395.005	223.69
395.229	219.69
395.454	234.69
395.678	208.69
395.903	213.69
396.127	220.69
396.352	224.69
396.576	224.69
396.801	222.69
397.025	217.69
397.249	214.69
397.474	226.69
397.698	223.69
397.922	224.69
398.147	223.69
398.371	225.69
398.595	225.69
398.82	240.69
399.044	237.69
399.268	244.69
399.492	277.69
399.717	284.69
399.941	271.69
400.165	249.69
400.389	245.69
400.613	252.69
400.837	244.69
401.062	235.69
401.286	248.69
401.51	237.69
401.734	235.69
401.958	219.69
402.182	259.69
402.406	235.69
402.63	248.69
402.854	225.69
403.078	234.69
403.302	242.69
403.526	252.69
403.75	254.69
403.974	249.69
404.198	241.69
404.422	261.69
404.645	271.69
404.869	278.69
405.093	299.69
405.317	334.69
405.541	313.69
405.765	285.69
405.988	266.69
406.212	248.69
406.436	259.69
406.66	267.69
406.883	262.69
407.107	270.69
407.331	258.69
407.555	256.69
407.778	270.69
408.002	265.69
408.226	254.69
408.449	250.69
408.673	246.69
408.896	253.69
409.12	256.69
409.344	257.69
409.567	237.69
409.791	239.69
410.014	253.69
410.238	239.69
410.461	250.69
410.685	248.69
410.908	240.69
411.132	242.69
411.355	257.69
411.578	269.69
411.802	255.69
412.025	252.69
412.249	303.69
412.472	320.69
412.695	316.69
412.919	327.69
413.142	293.69
413.365	287.69
413.589	270.69
413.812	269.69
414.035	261.69
414.258	276.69
414.482	248.69
414.705	251.69
414.928	225.69
415.151	238.69
415.374	247.69
415.597	241.69
415.821	220.69
416.044	252.69
416.267	249.69
416.49	225.69
416.713	254.69
416.936	250.69
417.159	240.69
417.382	257.69
417.605	274.69
417.828	273.69
418.051	244.69
418.274	256.69
418.497	238.69
418.72	242.69
418.943	234.69
419.166	234.69
419.389	255.69
419.611	258.69
419.834	267.69
420.057	271.69
420.28	283.69
420.503	296.69
420.726	286.69
420.948	257.69
421.171	262.69
421.394	255.69
421.617	240.69
421.839	253.69
422.062	243.69
422.285	228.69
422.507	249.69
422.73	243.69
422.953	217.69
423.175	251.69
423.398	238.69
423.621	242.69
423.843	250.69
424.066	222.69
424.288	237.69
424.511	231.69
424.733	255.69
424.956	251.69
425.178	232.69
425.401	226.69
425.623	232.69
425.846	240.69
426.068	226.69
426.291	246.69
426.513	231.69
426.735	254.69
426.958	250.69
427.18	258.69
427.402	253.69
427.625	285.69
427.847	322.69
428.069	325.69
428.292	294.69
428.514	262.69
428.736	236.69
428.958	223.69
429.181	239.69
429.403	238.69
429.625	223.69
429.847	232.69
430.069	234.69
430.292	225.69
430.514	217.69
430.736	213.69
430.958	214.69
431.18	229.69
431.402	221.69
431.624	218.69
431.846	200.69
432.068	220.69
432.29	202.69
432.512	212.69
432.734	232.69
432.956	227.69
433.178	204.69
433.4	229.69
433.622	219.69
433.844	200.69
434.066	215.69
434.287	214.69
434.509	224.69
434.731	234.69
434.953	233.69
435.175	239.69
435.397	230.69
435.618	213.69
435.84	217.69
436.062	211.69
436.284	223.69
436.505	219.69
436.727	215.69
436.949	217.69
437.17	206.69
437.392	219.69
437.614	209.69
437.835	185.69
438.057	223.69
438.278	206.69
438.5	207.69
438.721	217.69
438.943	224.69
439.165	209.69
439.386	206.69
439.608	220.69
439.829	212.69
440.05	218.69
440.272	210.69
440.493	218.69
440.715	213.69
440.936	235.69
441.158	228.69
441.379	222.69
441.6	240.69
441.822	226.69
442.043	216.69
442.264	231.69
442.486	221.69
442.707	215.69
442.928	233.69
443.149	222.69
443.371	224.69
443.592	216.69
443.813	227.69
444.034	234.69
444.255	237.69
444.476	235.69
444.698	248.69
444.919	248.69
445.14	332.69
445.361	283.69
445.582	230.69
445.803	226.69
446.024	220.69
446.245	219.69
446.466	221.69
446.687	209.69
446.908	226.69
447.129	225.69
447.35	215.69
447.571	214.69
447.792	212.69
448.013	203.69
448.234	223.69
448.455	200.69
448.675	216.69
448.896	226.69
449.117	222.69
449.338	201.69
449.559	214.69
449.779	201.69
450	200.69
450.221	193.69
450.442	198.69
450.662	204.69
450.883	201.69
451.104	212.69
451.324	221.69
451.545	197.69
451.766	198.69
451.986	211.69
452.207	193.69
452.428	230.69
452.648	205.69
452.869	204.69
453.089	187.69
453.31	202.69
453.53	198.69
453.751	185.69
453.971	193.69
454.192	201.69
454.412	194.69
454.633	218.69
454.853	205.69
455.073	204.69
455.294	186.69
455.514	203.69
455.734	189.69
455.955	197.69
456.175	215.69
456.395	203.69
456.616	194.69
456.836	200.69
457.056	192.69
457.276	202.69
457.497	211.69
457.717	201.69
457.937	195.69
458.157	212.69
458.377	197.69
458.598	209.69
458.818	221.69
459.038	208.69
459.258	213.69
459.478	209.69
459.698	214.69
459.918	228.69
460.138	232.69
460.358	217.69
460.578	236.69
460.798	215.69
461.018	224.69
461.238	221.69
461.458	225.69
461.678	220.69
461.898	245.69
462.118	244.69
462.338	230.69
462.558	251.69
462.777	249.69
462.997	261.69
463.217	271.69
463.437	274.69
463.657	248.69
463.876	261.69
464.096	242.69
464.316	255.69
464.536	252.69
464.755	239.69
464.975	234.69
465.195	225.69
465.414	231.69
465.634	231.69
465.854	220.69
466.073	232.69
466.293	231.69
466.512	245.69
466.732	240.69
466.951	246.69
467.171	249.69
467.391	270.69
467.61	261.69
467.829	352.69
468.049	643.69
468.268	776.69
468.488	471.69
468.707	340.69
468.927	294.69
469.146	276.69
469.365	265.69
469.585	261.69
469.804	262.69
470.023	262.69
470.243	265.69
470.462	255.69
470.681	267.69
470.901	264.69
471.12	268.69
471.339	272.69
471.558	305.69
471.777	360.69
471.997	518.69
472.216	1128.69
472.435	1686.69
472.654	926.69
472.873	557.69
473.092	410.69
473.311	372.69
473.53	339.69
473.749	314.69
473.968	303.69
474.187	272.69
474.406	264.69
474.625	290.69
474.844	271.69
475.063	256.69
475.282	239.69
475.501	246.69
475.72	239.69
475.939	252.69
476.158	271.69
476.377	260.69
476.596	259.69
476.814	249.69
477.033	249.69
477.252	275.69
477.471	269.69
477.69	263.69
477.908	265.69
478.127	277.69
478.346	280.69
478.564	272.69
478.783	283.69
479.002	281.69
479.22	295.69
479.439	296.69
479.658	289.69
479.876	333.69
480.095	338.69
480.313	375.69
480.532	465.69
480.751	639.69
480.969	1197.69
481.188	2648.69
481.406	2154.69
481.624	1008.69
481.843	687.69
482.061	552.69
482.28	473.69
482.498	437.69
482.717	415.69
482.935	383.69
483.153	352.69
483.372	340.69
483.59	330.69
483.808	331.69
484.027	332.69
484.245	315.69
484.463	325.69
484.681	305.69
484.9	297.69
485.118	285.69
485.336	317.69
485.554	298.69
485.772	285.69
485.99	286.69
486.209	279.69
486.427	310.69
486.645	288.69
486.863	314.69
487.081	278.69
487.299	296.69
487.517	289.69
487.735	290.69
487.953	310.69
488.171	305.69
488.389	301.69
488.607	295.69
488.825	299.69
489.043	299.69
489.261	315.69
489.479	305.69
489.696	303.69
489.914	315.69
490.132	350.69
490.35	338.69
490.568	343.69
490.786	371.69
491.003	387.69
491.221	446.69
491.439	470.69
491.657	447.69
491.874	448.69
492.092	453.69
492.31	476.69
492.527	513.69
492.745	547.69
492.963	508.69
493.18	485.69
493.398	450.69
493.615	423.69
493.833	417.69
494.05	408.69
494.268	400.69
494.485	391.69
494.703	378.69
494.92	382.69
495.138	374.69
495.355	375.69
495.573	364.69
495.79	350.69
496.008	351.69
496.225	341.69
496.442	337.69
496.66	346.69
496.877	338.69
497.094	345.69
497.312	345.69
497.529	348.69
497.746	330.69
497.963	338.69
498.181	348.69
498.398	344.69
498.615	350.69
498.832	363.69
499.049	378.69
499.267	372.69
499.484	385.69
499.701	424.69
499.918	420.69
500.135	442.69
500.352	482.69
500.569	492.69
500.786	519.69
501.003	477.69
501.22	442.69
501.437	395.69
501.654	386.69
501.871	372.69
502.088	352.69
502.305	338.69
502.522	333.69
502.739	337.69
502.956	304.69
503.172	314.69
503.389	310.69
