Data from Uncirc_1993_H10_HRD10591_00064.txt Node
Date: Wed Jan 03 11:43:05 EST 2024
User: Yrep
Spectrometer: HR+D1059
Trigger mode: 1
Integration Time (sec): 1.000000E-1
Scans to average: 1
Electric dark correction enabled: true
Nonlinearity correction enabled: false
Boxcar width: 0
XAxis mode: Wavelengths
Number of Pixels in Spectrum: 2048
>>>>>Begin Spectral Data<<<<<
223.165	-13.06
223.4	-13.06
223.635	-13.06
223.869	-24.06
224.104	-15.06
224.338	-15.06
224.573	-13.06
224.808	-15.06
225.042	-13.06
225.277	2.94
225.511	-12.06
225.746	16.94
225.98	13.94
226.215	7.94
226.449	15.94
226.683	11.94
226.918	26.94
227.152	23.94
227.387	29.94
227.621	18.94
227.856	39.94
228.09	51.94
228.324	54.94
228.559	55.94
228.793	50.94
229.027	55.94
229.262	62.94
229.496	69.94
229.73	74.94
229.964	93.94
230.199	71.94
230.433	76.94
230.667	67.94
230.901	65.94
231.136	80.94
231.37	84.94
231.604	85.94
231.838	71.94
232.072	87.94
232.306	82.94
232.541	84.94
232.775	69.94
233.009	79.94
233.243	92.94
233.477	75.94
233.711	80.94
233.945	78.94
234.179	77.94
234.413	90.94
234.647	82.94
234.881	70.94
235.115	83.94
235.349	78.94
235.583	88.94
235.817	81.94
236.051	73.94
236.285	83.94
236.519	83.94
236.753	83.94
236.987	83.94
237.221	73.94
237.455	79.94
237.689	81.94
237.922	75.94
238.156	52.94
238.39	68.94
238.624	74.94
238.858	84.94
239.091	60.94
239.325	77.94
239.559	73.94
239.793	78.94
240.027	68.94
240.26	80.94
240.494	74.94
240.728	77.94
240.961	64.94
241.195	79.94
241.429	73.94
241.662	67.94
241.896	75.94
242.13	74.94
242.363	67.94
242.597	74.94
242.83	66.94
243.064	75.94
243.298	85.94
243.531	82.94
243.765	70.94
243.998	81.94
244.232	87.94
244.465	93.94
244.699	73.94
244.932	85.94
245.166	90.94
245.399	68.94
245.633	76.94
245.866	85.94
246.099	92.94
246.333	83.94
246.566	91.94
246.8	73.94
247.033	79.94
247.266	79.94
247.5	66.94
247.733	69.94
247.966	85.94
248.2	73.94
248.433	80.94
248.666	66.94
248.899	71.94
249.133	82.94
249.366	107.94
249.599	106.94
249.832	83.94
250.066	76.94
250.299	74.94
250.532	71.94
250.765	68.94
250.998	73.94
251.231	71.94
251.465	79.94
251.698	83.94
251.931	85.94
252.164	74.94
252.397	84.94
252.63	83.94
252.863	81.94
253.096	74.94
253.329	79.94
253.562	71.94
253.795	78.94
254.028	67.94
254.261	77.94
254.494	82.94
254.727	91.94
254.96	74.94
255.193	69.94
255.426	79.94
255.659	84.94
255.892	64.94
256.124	72.94
256.357	76.94
256.59	77.94
256.823	73.94
257.056	76.94
257.289	86.94
257.521	89.94
257.754	78.94
257.987	75.94
258.22	72.94
258.452	85.94
258.685	75.94
258.918	72.94
259.151	75.94
259.383	83.94
259.616	105.94
259.849	83.94
260.081	73.94
260.314	61.94
260.547	86.94
260.779	89.94
261.012	75.94
261.244	84.94
261.477	91.94
261.71	90.94
261.942	95.94
262.175	100.94
262.407	91.94
262.64	83.94
262.872	79.94
263.105	89.94
263.337	85.94
263.57	98.94
263.802	89.94
264.035	89.94
264.267	68.94
264.499	65.94
264.732	107.94
264.964	75.94
265.197	79.94
265.429	68.94
265.661	85.94
265.894	75.94
266.126	88.94
266.358	71.94
266.591	74.94
266.823	75.94
267.055	76.94
267.287	72.94
267.52	89.94
267.752	81.94
267.984	94.94
268.216	81.94
268.448	80.94
268.681	87.94
268.913	82.94
269.145	74.94
269.377	81.94
269.609	81.94
269.841	95.94
270.073	64.94
270.306	81.94
270.538	83.94
270.77	76.94
271.002	80.94
271.234	96.94
271.466	98.94
271.698	84.94
271.93	89.94
272.162	79.94
272.394	91.94
272.626	85.94
272.858	79.94
273.09	75.94
273.322	75.94
273.553	74.94
273.785	76.94
274.017	93.94
274.249	106.94
274.481	74.94
274.713	80.94
274.945	67.94
275.176	85.94
275.408	90.94
275.64	80.94
275.872	83.94
276.104	92.94
276.335	88.94
276.567	95.94
276.799	99.94
277.031	90.94
277.262	99.94
277.494	88.94
277.726	90.94
277.957	92.94
278.189	84.94
278.421	93.94
278.652	79.94
278.884	81.94
279.115	83.94
279.347	75.94
279.579	78.94
279.81	84.94
280.042	81.94
280.273	72.94
280.505	82.94
280.736	93.94
280.968	92.94
281.199	92.94
281.431	72.94
281.662	85.94
281.894	91.94
282.125	92.94
282.356	106.94
282.588	114.94
282.819	89.94
283.051	95.94
283.282	64.94
283.513	67.94
283.745	89.94
283.976	87.94
284.207	79.94
284.439	83.94
284.67	80.94
284.901	88.94
285.132	88.94
285.364	94.94
285.595	99.94
285.826	85.94
286.057	78.94
286.288	90.94
286.52	71.94
286.751	94.94
286.982	88.94
287.213	70.94
287.444	83.94
287.675	92.94
287.906	85.94
288.138	82.94
288.369	72.94
288.6	85.94
288.831	71.94
289.062	77.94
289.293	82.94
289.524	93.94
289.755	89.94
289.986	88.94
290.217	77.94
290.448	97.94
290.679	92.94
290.91	99.94
291.141	78.94
291.371	81.94
291.602	84.94
291.833	84.94
292.064	77.94
292.295	87.94
292.526	75.94
292.757	88.94
292.987	73.94
293.218	67.94
293.449	89.94
293.68	85.94
293.91	82.94
294.141	88.94
294.372	91.94
294.603	87.94
294.833	80.94
295.064	79.94
295.295	87.94
295.525	98.94
295.756	105.94
295.987	93.94
296.217	115.94
296.448	112.94
296.679	87.94
296.909	84.94
297.14	83.94
297.37	83.94
297.601	95.94
297.831	81.94
298.062	85.94
298.292	83.94
298.523	84.94
298.753	95.94
298.984	90.94
299.214	95.94
299.445	86.94
299.675	95.94
299.905	95.94
300.136	88.94
300.366	89.94
300.597	81.94
300.827	101.94
301.057	81.94
301.288	98.94
301.518	88.94
301.748	83.94
301.979	101.94
302.209	85.94
302.439	81.94
302.669	95.94
302.9	92.94
303.13	100.94
303.36	85.94
303.59	103.94
303.82	92.94
304.051	77.94
304.281	95.94
304.511	92.94
304.741	89.94
304.971	88.94
305.201	81.94
305.431	78.94
305.661	93.94
305.891	88.94
306.121	92.94
306.352	100.94
306.582	95.94
306.812	79.94
307.042	92.94
307.272	87.94
307.502	91.94
307.731	98.94
307.961	86.94
308.191	91.94
308.421	99.94
308.651	92.94
308.881	92.94
309.111	101.94
309.341	108.94
309.571	105.94
309.8	108.94
310.03	97.94
310.26	84.94
310.49	87.94
310.72	96.94
310.949	92.94
311.179	83.94
311.409	98.94
311.639	83.94
311.868	95.94
312.098	78.94
312.328	85.94
312.557	117.94
312.787	99.94
313.017	91.94
313.246	96.94
313.476	79.94
313.706	83.94
313.935	96.94
314.165	100.94
314.394	88.94
314.624	94.94
314.853	104.94
315.083	91.94
315.312	84.94
315.542	83.94
315.771	85.94
316.001	96.94
316.23	82.94
316.46	84.94
316.689	93.94
316.919	106.94
317.148	100.94
317.377	91.94
317.607	89.94
317.836	88.94
318.065	79.94
318.295	89.94
318.524	94.94
318.753	102.94
318.983	91.94
319.212	83.94
319.441	102.94
319.67	93.94
319.9	83.94
320.129	96.94
320.358	93.94
320.587	92.94
320.816	87.94
321.046	89.94
321.275	85.94
321.504	93.94
321.733	87.94
321.962	90.94
322.191	93.94
322.42	105.94
322.649	101.94
322.878	95.94
323.108	113.94
323.337	108.94
323.566	109.94
323.795	138.94
324.024	168.94
324.253	325.94
324.482	620.94
324.71	1251.94
324.939	1600.94
325.168	595.94
325.397	193.94
325.626	116.94
325.855	117.94
326.084	102.94
326.313	115.94
326.542	151.94
326.77	173.94
326.999	337.94
327.228	691.94
327.457	1263.94
327.686	990.94
327.914	271.94
328.143	153.94
328.372	131.94
328.6	115.94
328.829	90.94
329.058	111.94
329.287	112.94
329.515	94.94
329.744	108.94
329.972	106.94
330.201	95.94
330.43	95.94
330.658	110.94
330.887	103.94
331.115	102.94
331.344	83.94
331.572	102.94
331.801	84.94
332.03	94.94
332.258	90.94
332.486	96.94
332.715	89.94
332.943	91.94
333.172	79.94
333.4	98.94
333.629	111.94
333.857	106.94
334.085	95.94
334.314	107.94
334.542	115.94
334.771	89.94
334.999	100.94
335.227	100.94
335.455	101.94
335.684	100.94
335.912	94.94
336.14	93.94
336.369	115.94
336.597	91.94
336.825	95.94
337.053	84.94
337.281	81.94
337.51	83.94
337.738	90.94
337.966	78.94
338.194	103.94
338.422	92.94
338.65	87.94
338.878	83.94
339.106	92.94
339.334	92.94
339.562	96.94
339.79	95.94
340.018	82.94
340.246	87.94
340.474	99.94
340.702	81.94
340.93	93.94
341.158	95.94
341.386	96.94
341.614	86.94
341.842	80.94
342.07	91.94
342.298	89.94
342.526	78.94
342.754	87.94
342.981	88.94
343.209	86.94
343.437	104.94
343.665	97.94
343.893	90.94
344.12	97.94
344.348	93.94
344.576	88.94
344.804	99.94
345.031	92.94
345.259	95.94
345.487	81.94
345.714	103.94
345.942	82.94
346.17	91.94
346.397	80.94
346.625	96.94
346.853	91.94
347.08	67.94
347.308	96.94
347.535	105.94
347.763	92.94
347.99	96.94
348.218	90.94
348.445	104.94
348.673	95.94
348.9	106.94
349.128	101.94
349.355	81.94
349.583	104.94
349.81	96.94
350.037	83.94
350.265	97.94
350.492	100.94
350.72	72.94
350.947	86.94
351.174	92.94
351.402	125.94
351.629	94.94
351.856	89.94
352.083	78.94
352.311	103.94
352.538	106.94
352.765	102.94
352.992	106.94
353.22	88.94
353.447	97.94
353.674	105.94
353.901	110.94
354.128	98.94
354.355	93.94
354.583	93.94
354.81	101.94
355.037	82.94
355.264	82.94
355.491	85.94
355.718	89.94
355.945	99.94
356.172	96.94
356.399	102.94
356.626	95.94
356.853	100.94
357.08	99.94
357.307	79.94
357.534	79.94
357.761	84.94
357.988	107.94
358.215	104.94
358.441	78.94
358.668	85.94
358.895	87.94
359.122	96.94
359.349	87.94
359.576	96.94
359.802	95.94
360.029	109.94
360.256	95.94
360.483	89.94
360.709	91.94
360.936	94.94
361.163	87.94
361.39	91.94
361.616	87.94
361.843	103.94
362.07	105.94
362.296	96.94
362.523	97.94
362.749	82.94
362.976	75.94
363.203	88.94
363.429	91.94
363.656	88.94
363.882	89.94
364.109	96.94
364.335	92.94
364.562	89.94
364.788	90.94
365.015	95.94
365.241	97.94
365.468	113.94
365.694	115.94
365.92	96.94
366.147	96.94
366.373	96.94
366.599	88.94
366.826	91.94
367.052	82.94
367.278	81.94
367.505	75.94
367.731	80.94
367.957	69.94
368.184	88.94
368.41	94.94
368.636	104.94
368.862	128.94
369.089	83.94
369.315	81.94
369.541	90.94
369.767	92.94
369.993	94.94
370.219	103.94
370.445	84.94
370.672	91.94
370.898	86.94
371.124	93.94
371.35	87.94
371.576	96.94
371.802	99.94
372.028	83.94
372.254	92.94
372.48	84.94
372.706	91.94
372.932	95.94
373.158	79.94
373.384	98.94
373.61	95.94
373.835	95.94
374.061	88.94
374.287	96.94
374.513	83.94
374.739	81.94
374.965	86.94
375.191	91.94
375.416	93.94
375.642	83.94
375.868	83.94
376.094	86.94
376.319	82.94
376.545	94.94
376.771	83.94
376.997	80.94
377.222	81.94
377.448	101.94
377.674	97.94
377.899	72.94
378.125	99.94
378.35	83.94
378.576	101.94
378.802	91.94
379.027	93.94
379.253	89.94
379.478	84.94
379.704	83.94
379.929	94.94
380.155	97.94
380.38	91.94
380.606	97.94
380.831	100.94
381.057	101.94
381.282	89.94
381.507	90.94
381.733	93.94
381.958	109.94
382.184	101.94
382.409	93.94
382.634	95.94
382.86	99.94
383.085	88.94
383.31	100.94
383.535	100.94
383.761	92.94
383.986	82.94
384.211	101.94
384.436	108.94
384.662	87.94
384.887	99.94
385.112	101.94
385.337	98.94
385.562	115.94
385.787	92.94
386.013	106.94
386.238	98.94
386.463	97.94
386.688	109.94
386.913	106.94
387.138	101.94
387.363	91.94
387.588	103.94
387.813	103.94
388.038	98.94
388.263	106.94
388.488	115.94
388.713	108.94
388.938	95.94
389.163	93.94
389.387	89.94
389.612	77.94
389.837	102.94
390.062	101.94
390.287	83.94
390.512	92.94
390.736	84.94
390.961	91.94
391.186	82.94
391.411	96.94
391.636	82.94
391.86	101.94
392.085	83.94
392.31	83.94
392.534	76.94
392.759	91.94
392.984	81.94
393.208	103.94
393.433	96.94
393.658	93.94
393.882	81.94
394.107	88.94
394.331	84.94
394.556	88.94
394.78	94.94
395.005	87.94
395.229	78.94
395.454	94.94
395.678	87.94
395.903	80.94
396.127	99.94
396.352	87.94
396.576	74.94
396.801	88.94
397.025	87.94
397.249	93.94
397.474	79.94
397.698	83.94
397.922	79.94
398.147	81.94
398.371	90.94
398.595	86.94
398.82	82.94
399.044	80.94
399.268	72.94
399.492	90.94
399.717	114.94
399.941	91.94
400.165	86.94
400.389	98.94
400.613	84.94
400.837	91.94
401.062	82.94
401.286	89.94
401.51	77.94
401.734	79.94
401.958	98.94
402.182	115.94
402.406	141.94
402.63	107.94
402.854	67.94
403.078	75.94
403.302	94.94
403.526	87.94
403.75	78.94
403.974	81.94
404.198	92.94
404.422	84.94
404.645	78.94
404.869	94.94
405.093	100.94
405.317	92.94
405.541	94.94
405.765	99.94
405.988	111.94
406.212	136.94
406.436	176.94
406.66	121.94
406.883	95.94
407.107	88.94
407.331	84.94
407.555	96.94
407.778	95.94
408.002	94.94
408.226	89.94
408.449	88.94
408.673	85.94
408.896	90.94
409.12	91.94
409.344	107.94
409.567	85.94
409.791	81.94
410.014	93.94
410.238	84.94
410.461	86.94
410.685	101.94
410.908	91.94
411.132	89.94
411.355	98.94
411.578	87.94
411.802	86.94
412.025	81.94
412.249	74.94
412.472	85.94
412.695	89.94
412.919	72.94
413.142	104.94
413.365	78.94
413.589	94.94
413.812	89.94
414.035	87.94
414.258	73.94
414.482	89.94
414.705	66.94
414.928	88.94
415.151	99.94
415.374	106.94
415.597	85.94
415.821	96.94
416.044	84.94
416.267	76.94
416.49	84.94
416.713	105.94
416.936	76.94
417.159	98.94
417.382	83.94
417.605	98.94
417.828	97.94
418.051	93.94
418.274	73.94
418.497	83.94
418.72	89.94
418.943	101.94
419.166	105.94
419.389	94.94
419.611	75.94
419.834	93.94
420.057	85.94
420.28	79.94
420.503	90.94
420.726	91.94
420.948	92.94
421.171	76.94
421.394	85.94
421.617	74.94
421.839	87.94
422.062	100.94
422.285	86.94
422.507	84.94
422.73	99.94
422.953	87.94
423.175	92.94
423.398	83.94
423.621	83.94
423.843	89.94
424.066	76.94
424.288	80.94
424.511	95.94
424.733	95.94
424.956	104.94
425.178	101.94
425.401	99.94
425.623	100.94
425.846	88.94
426.068	85.94
426.291	81.94
426.513	92.94
426.735	79.94
426.958	95.94
427.18	105.94
427.402	106.94
427.625	105.94
427.847	91.94
428.069	89.94
428.292	75.94
428.514	84.94
428.736	76.94
428.958	90.94
429.181	83.94
429.403	106.94
429.625	88.94
429.847	100.94
430.069	87.94
430.292	87.94
430.514	67.94
430.736	93.94
430.958	80.94
431.18	99.94
431.402	92.94
431.624	87.94
431.846	66.94
432.068	99.94
432.29	77.94
432.512	76.94
432.734	91.94
432.956	85.94
433.178	84.94
433.4	93.94
433.622	88.94
433.844	82.94
434.066	88.94
434.287	89.94
434.509	89.94
434.731	105.94
434.953	78.94
435.175	80.94
435.397	82.94
435.618	88.94
435.84	96.94
436.062	112.94
436.284	109.94
436.505	102.94
436.727	96.94
436.949	78.94
437.17	100.94
437.392	90.94
437.614	91.94
437.835	101.94
438.057	104.94
438.278	100.94
438.5	84.94
438.721	105.94
438.943	106.94
439.165	90.94
439.386	77.94
439.608	87.94
439.829	92.94
440.05	111.94
440.272	123.94
440.493	93.94
440.715	91.94
440.936	89.94
441.158	96.94
441.379	84.94
441.6	85.94
441.822	82.94
442.043	91.94
442.264	96.94
442.486	89.94
442.707	96.94
442.928	95.94
443.149	109.94
443.371	120.94
443.592	104.94
443.813	99.94
444.034	98.94
444.255	98.94
444.476	92.94
444.698	78.94
444.919	88.94
445.14	128.94
445.361	120.94
445.582	111.94
445.803	115.94
446.024	133.94
446.245	112.94
446.466	99.94
446.687	88.94
446.908	80.94
447.129	89.94
447.35	96.94
447.571	117.94
447.792	90.94
448.013	98.94
448.234	101.94
448.455	88.94
448.675	115.94
448.896	109.94
449.117	94.94
449.338	85.94
449.559	116.94
449.779	110.94
450	74.94
450.221	77.94
450.442	103.94
450.662	83.94
450.883	97.94
451.104	103.94
451.324	80.94
451.545	86.94
451.766	91.94
451.986	85.94
452.207	87.94
452.428	79.94
452.648	89.94
452.869	99.94
453.089	97.94
453.31	102.94
453.53	74.94
453.751	87.94
453.971	103.94
454.192	108.94
454.412	92.94
454.633	84.94
454.853	90.94
455.073	84.94
455.294	90.94
455.514	106.94
455.734	98.94
455.955	87.94
456.175	76.94
456.395	84.94
456.616	72.94
456.836	79.94
457.056	84.94
457.276	82.94
457.497	79.94
457.717	77.94
457.937	81.94
458.157	89.94
458.377	90.94
458.598	94.94
458.818	123.94
459.038	126.94
459.258	101.94
459.478	96.94
459.698	78.94
459.918	69.94
460.138	80.94
460.358	82.94
460.578	95.94
460.798	101.94
461.018	80.94
461.238	68.94
461.458	71.94
461.678	76.94
461.898	84.94
462.118	89.94
462.338	109.94
462.558	76.94
462.777	96.94
462.997	78.94
463.217	77.94
463.437	88.94
463.657	81.94
463.876	77.94
464.096	79.94
464.316	92.94
464.536	89.94
464.755	94.94
464.975	94.94
465.195	140.94
465.414	112.94
465.634	92.94
465.854	83.94
466.073	80.94
466.293	98.94
466.512	84.94
466.732	86.94
466.951	88.94
467.171	80.94
467.391	75.94
467.61	96.94
467.829	96.94
468.049	74.94
468.268	92.94
468.488	84.94
468.707	91.94
468.927	83.94
469.146	83.94
469.365	76.94
469.585	96.94
469.804	101.94
470.023	85.94
470.243	95.94
470.462	98.94
470.681	97.94
470.901	90.94
471.12	95.94
471.339	78.94
471.558	98.94
471.777	95.94
471.997	91.94
472.216	103.94
472.435	99.94
472.654	79.94
472.873	76.94
473.092	85.94
473.311	83.94
473.53	84.94
473.749	88.94
473.968	88.94
474.187	99.94
474.406	95.94
474.625	99.94
474.844	84.94
475.063	97.94
475.282	84.94
475.501	92.94
475.72	101.94
475.939	80.94
476.158	82.94
476.377	82.94
476.596	87.94
476.814	89.94
477.033	84.94
477.252	83.94
477.471	78.94
477.69	91.94
477.908	89.94
478.127	89.94
478.346	89.94
478.564	95.94
478.783	84.94
479.002	77.94
479.22	100.94
479.439	91.94
479.658	92.94
479.876	91.94
480.095	71.94
480.313	84.94
480.532	93.94
480.751	91.94
480.969	80.94
481.188	93.94
481.406	93.94
481.624	81.94
481.843	70.94
482.061	80.94
482.28	95.94
482.498	87.94
482.717	100.94
482.935	99.94
483.153	83.94
483.372	88.94
483.59	83.94
483.808	83.94
484.027	84.94
484.245	97.94
484.463	94.94
484.681	90.94
484.9	97.94
485.118	99.94
485.336	84.94
485.554	92.94
485.772	83.94
485.99	94.94
486.209	98.94
486.427	100.94
486.645	107.94
486.863	108.94
487.081	111.94
487.299	87.94
487.517	86.94
487.735	96.94
487.953	94.94
488.171	93.94
488.389	82.94
488.607	89.94
488.825	92.94
489.043	91.94
489.261	93.94
489.479	83.94
489.696	88.94
489.914	85.94
490.132	94.94
490.35	95.94
490.568	79.94
490.786	98.94
491.003	98.94
491.221	93.94
491.439	79.94
491.657	104.94
491.874	76.94
492.092	77.94
492.31	119.94
492.527	93.94
492.745	82.94
492.963	89.94
493.18	75.94
493.398	93.94
493.615	69.94
493.833	101.94
494.05	93.94
494.268	104.94
494.485	104.94
494.703	82.94
494.92	100.94
495.138	99.94
495.355	97.94
495.573	94.94
495.79	80.94
496.008	92.94
496.225	92.94
496.442	88.94
496.66	87.94
496.877	86.94
497.094	80.94
497.312	83.94
497.529	92.94
497.746	80.94
497.963	87.94
498.181	83.94
498.398	88.94
498.615	106.94
498.832	97.94
499.049	86.94
499.267	73.94
499.484	91.94
499.701	76.94
499.918	100.94
500.135	80.94
500.352	103.94
500.569	98.94
500.786	92.94
501.003	83.94
501.22	79.94
501.437	88.94
501.654	90.94
501.871	97.94
502.088	83.94
502.305	97.94
502.522	87.94
502.739	67.94
502.956	83.94
503.172	79.94
503.389	81.94
503.606	84.94
503.823	81.94
504.04	95.94
504.256	84.94
504.473	76.94
504.69	83.94
504.907	93.94
505.123	111.94
505.34	79.94
505.557	107.94
505.773	83.94
505.99	89.94
506.207	87.94
506.423	102.94
506.64	87.94
506.856	93.94
507.073	100.94
507.289	93.94
507.506	80.94
507.722	104.94
507.939	101.94
508.155	98.94
508.372	87.94
508.588	89.94
508.805	83.94
509.021	86.94
509.238	97.94
509.454	107.94
509.67	99.94
509.887	109.94
510.103	134.94
510.319	195.94
510.536	627.94
510.752	1901.94
510.968	523.94
511.184	131.94
511.401	118.94
511.617	108.94
511.833	84.94
512.049	91.94
512.265	98.94
512.481	101.94
512.698	105.94
512.914	91.94
513.13	87.94
513.346	81.94
513.562	103.94
513.778	95.94
513.994	95.94
514.21	86.94
514.426	113.94
514.642	124.94
514.858	101.94
515.074	154.94
515.29	371.94
515.506	1105.94
515.721	402.94
515.937	133.94
516.153	97.94
516.369	91.94
516.585	82.94
516.801	85.94
