Data from Uncirc_1993_H10_HRD10591_00005.txt Node
Date: Wed Jan 03 11:42:53 EST 2024
User: Yrep
Spectrometer: HR+D1059
Trigger mode: 1
Integration Time (sec): 1.000000E-1
Scans to average: 1
Electric dark correction enabled: true
Nonlinearity correction enabled: false
Boxcar width: 0
XAxis mode: Wavelengths
Number of Pixels in Spectrum: 2048
>>>>>Begin Spectral Data<<<<<
223.165	-23.75
223.4	-23.75
223.635	-23.75
223.869	-19.75
224.104	-14.75
224.338	-23.75
224.573	-3.75
224.808	-14.75
225.042	-10.75
225.277	-9.75
225.511	-0.75
225.746	7.25
225.98	15.25
226.215	9.25
226.449	16.25
226.683	22.25
226.918	20.25
227.152	31.25
227.387	38.25
227.621	42.25
227.856	39.25
228.09	35.25
228.324	56.25
228.559	49.25
228.793	68.25
229.027	63.25
229.262	68.25
229.496	81.25
229.73	78.25
229.964	81.25
230.199	64.25
230.433	75.25
230.667	70.25
230.901	75.25
231.136	67.25
231.37	73.25
231.604	65.25
231.838	78.25
232.072	84.25
232.306	80.25
232.541	89.25
232.775	69.25
233.009	82.25
233.243	87.25
233.477	89.25
233.711	74.25
233.945	76.25
234.179	85.25
234.413	63.25
234.647	76.25
234.881	75.25
235.115	68.25
235.349	78.25
235.583	68.25
235.817	69.25
236.051	89.25
236.285	87.25
236.519	87.25
236.753	86.25
236.987	78.25
237.221	83.25
237.455	85.25
237.689	74.25
237.922	63.25
238.156	74.25
238.39	69.25
238.624	77.25
238.858	84.25
239.091	79.25
239.325	68.25
239.559	82.25
239.793	83.25
240.027	78.25
240.26	81.25
240.494	79.25
240.728	69.25
240.961	79.25
241.195	83.25
241.429	66.25
241.662	83.25
241.896	70.25
242.13	73.25
242.363	82.25
242.597	74.25
242.83	81.25
243.064	79.25
243.298	79.25
243.531	85.25
243.765	74.25
243.998	78.25
244.232	81.25
244.465	86.25
244.699	69.25
244.932	85.25
245.166	98.25
245.399	75.25
245.633	86.25
245.866	78.25
246.099	69.25
246.333	70.25
246.566	77.25
246.8	76.25
247.033	82.25
247.266	87.25
247.5	85.25
247.733	79.25
247.966	87.25
248.2	81.25
248.433	74.25
248.666	65.25
248.899	81.25
249.133	94.25
249.366	97.25
249.599	97.25
249.832	85.25
250.066	86.25
250.299	75.25
250.532	75.25
250.765	79.25
250.998	78.25
251.231	88.25
251.465	76.25
251.698	68.25
251.931	78.25
252.164	95.25
252.397	80.25
252.63	89.25
252.863	82.25
253.096	84.25
253.329	87.25
253.562	77.25
253.795	67.25
254.028	73.25
254.261	91.25
254.494	86.25
254.727	89.25
254.96	73.25
255.193	89.25
255.426	62.25
255.659	73.25
255.892	83.25
256.124	82.25
256.357	78.25
256.59	81.25
256.823	65.25
257.056	88.25
257.289	85.25
257.521	89.25
257.754	86.25
257.987	86.25
258.22	74.25
258.452	77.25
258.685	77.25
258.918	96.25
259.151	82.25
259.383	75.25
259.616	74.25
259.849	75.25
260.081	87.25
260.314	84.25
260.547	87.25
260.779	83.25
261.012	97.25
261.244	88.25
261.477	91.25
261.71	88.25
261.942	99.25
262.175	111.25
262.407	82.25
262.64	82.25
262.872	86.25
263.105	81.25
263.337	71.25
263.57	95.25
263.802	83.25
264.035	73.25
264.267	81.25
264.499	80.25
264.732	93.25
264.964	82.25
265.197	82.25
265.429	79.25
265.661	73.25
265.894	86.25
266.126	88.25
266.358	85.25
266.591	84.25
266.823	80.25
267.055	78.25
267.287	83.25
267.52	86.25
267.752	87.25
267.984	86.25
268.216	76.25
268.448	70.25
268.681	87.25
268.913	94.25
269.145	81.25
269.377	95.25
269.609	88.25
269.841	74.25
270.073	88.25
270.306	93.25
270.538	81.25
270.77	96.25
271.002	87.25
271.234	81.25
271.466	82.25
271.698	90.25
271.93	91.25
272.162	86.25
272.394	80.25
272.626	96.25
272.858	73.25
273.09	90.25
273.322	81.25
273.553	96.25
273.785	82.25
274.017	70.25
274.249	76.25
274.481	73.25
274.713	89.25
274.945	97.25
275.176	81.25
275.408	85.25
275.64	93.25
275.872	89.25
276.104	85.25
276.335	87.25
276.567	77.25
276.799	114.25
277.031	95.25
277.262	94.25
277.494	88.25
277.726	91.25
277.957	70.25
278.189	93.25
278.421	91.25
278.652	78.25
278.884	81.25
279.115	82.25
279.347	92.25
279.579	87.25
279.81	84.25
280.042	86.25
280.273	90.25
280.505	87.25
280.736	93.25
280.968	94.25
281.199	92.25
281.431	87.25
281.662	75.25
281.894	90.25
282.125	91.25
282.356	98.25
282.588	119.25
282.819	108.25
283.051	98.25
283.282	102.25
283.513	92.25
283.745	92.25
283.976	86.25
284.207	78.25
284.439	88.25
284.67	93.25
284.901	83.25
285.132	82.25
285.364	80.25
285.595	104.25
285.826	90.25
286.057	95.25
286.288	89.25
286.52	90.25
286.751	82.25
286.982	81.25
287.213	86.25
287.444	84.25
287.675	97.25
287.906	105.25
288.138	96.25
288.369	98.25
288.6	80.25
288.831	76.25
289.062	93.25
289.293	91.25
289.524	69.25
289.755	95.25
289.986	79.25
290.217	104.25
290.448	82.25
290.679	93.25
290.91	90.25
291.141	96.25
291.371	93.25
291.602	78.25
291.833	113.25
292.064	81.25
292.295	93.25
292.526	86.25
292.757	86.25
292.987	79.25
293.218	82.25
293.449	93.25
293.68	87.25
293.91	75.25
294.141	95.25
294.372	98.25
294.603	91.25
294.833	90.25
295.064	89.25
295.295	84.25
295.525	84.25
295.756	100.25
295.987	106.25
296.217	115.25
296.448	118.25
296.679	95.25
296.909	92.25
297.14	85.25
297.37	93.25
297.601	92.25
297.831	83.25
298.062	80.25
298.292	81.25
298.523	77.25
298.753	77.25
298.984	82.25
299.214	83.25
299.445	83.25
299.675	97.25
299.905	94.25
300.136	84.25
300.366	73.25
300.597	86.25
300.827	94.25
301.057	96.25
301.288	108.25
301.518	80.25
301.748	89.25
301.979	86.25
302.209	89.25
302.439	79.25
302.669	88.25
302.9	83.25
303.13	92.25
303.36	88.25
303.59	70.25
303.82	95.25
304.051	102.25
304.281	103.25
304.511	89.25
304.741	89.25
304.971	97.25
305.201	84.25
305.431	94.25
305.661	100.25
305.891	88.25
306.121	102.25
306.352	103.25
306.582	94.25
306.812	89.25
307.042	87.25
307.272	82.25
307.502	102.25
307.731	97.25
307.961	89.25
308.191	98.25
308.421	89.25
308.651	100.25
308.881	85.25
309.111	100.25
309.341	91.25
309.571	97.25
309.8	90.25
310.03	106.25
310.26	99.25
310.49	86.25
310.72	102.25
310.949	102.25
311.179	86.25
311.409	102.25
311.639	100.25
311.868	97.25
312.098	95.25
312.328	100.25
312.557	89.25
312.787	99.25
313.017	101.25
313.246	90.25
313.476	92.25
313.706	94.25
313.935	89.25
314.165	97.25
314.394	97.25
314.624	79.25
314.853	104.25
315.083	95.25
315.312	106.25
315.542	91.25
315.771	101.25
316.001	89.25
316.23	85.25
316.46	94.25
316.689	93.25
316.919	92.25
317.148	90.25
317.377	94.25
317.607	85.25
317.836	88.25
318.065	94.25
318.295	98.25
318.524	86.25
318.753	91.25
318.983	108.25
319.212	106.25
319.441	87.25
319.67	108.25
319.9	106.25
320.129	91.25
320.358	88.25
320.587	91.25
320.816	101.25
321.046	85.25
321.275	94.25
321.504	89.25
321.733	94.25
321.962	78.25
322.191	114.25
322.42	95.25
322.649	113.25
322.878	107.25
323.108	112.25
323.337	127.25
323.566	127.25
323.795	135.25
324.024	185.25
324.253	302.25
324.482	652.25
324.71	1306.25
324.939	1671.25
325.168	615.25
325.397	210.25
325.626	127.25
325.855	116.25
326.084	113.25
326.313	131.25
326.542	140.25
326.77	193.25
326.999	385.25
327.228	741.25
327.457	1307.25
327.686	1023.25
327.914	306.25
328.143	173.25
328.372	141.25
328.6	124.25
328.829	114.25
329.058	121.25
329.287	115.25
329.515	114.25
329.744	93.25
329.972	88.25
330.201	99.25
330.43	105.25
330.658	109.25
330.887	130.25
331.115	109.25
331.344	109.25
331.572	99.25
331.801	107.25
332.03	98.25
332.258	93.25
332.486	103.25
332.715	102.25
332.943	108.25
333.172	97.25
333.4	99.25
333.629	109.25
333.857	109.25
334.085	95.25
334.314	95.25
334.542	100.25
334.771	94.25
334.999	74.25
335.227	95.25
335.455	97.25
335.684	87.25
335.912	98.25
336.14	103.25
336.369	97.25
336.597	85.25
336.825	116.25
337.053	102.25
337.281	105.25
337.51	84.25
337.738	87.25
337.966	111.25
338.194	114.25
338.422	101.25
338.65	95.25
338.878	90.25
339.106	88.25
339.334	99.25
339.562	106.25
339.79	91.25
340.018	95.25
340.246	96.25
340.474	107.25
340.702	94.25
340.93	86.25
341.158	84.25
341.386	81.25
341.614	98.25
341.842	98.25
342.07	76.25
342.298	91.25
342.526	95.25
342.754	90.25
342.981	92.25
343.209	95.25
343.437	112.25
343.665	106.25
343.893	79.25
344.12	99.25
344.348	90.25
344.576	108.25
344.804	97.25
345.031	105.25
345.259	98.25
345.487	96.25
345.714	86.25
345.942	79.25
346.17	95.25
346.397	88.25
346.625	78.25
346.853	90.25
347.08	100.25
347.308	95.25
347.535	95.25
347.763	98.25
347.99	113.25
348.218	101.25
348.445	107.25
348.673	108.25
348.9	100.25
349.128	97.25
349.355	111.25
349.583	89.25
349.81	94.25
350.037	101.25
350.265	89.25
350.492	108.25
350.72	89.25
350.947	105.25
351.174	104.25
351.402	106.25
351.629	112.25
351.856	101.25
352.083	105.25
352.311	88.25
352.538	109.25
352.765	117.25
352.992	108.25
353.22	98.25
353.447	99.25
353.674	101.25
353.901	91.25
354.128	109.25
354.355	90.25
354.583	92.25
354.81	98.25
355.037	104.25
355.264	106.25
355.491	109.25
355.718	89.25
355.945	89.25
356.172	96.25
356.399	97.25
356.626	83.25
356.853	82.25
357.08	84.25
357.307	92.25
357.534	95.25
357.761	92.25
357.988	101.25
358.215	109.25
358.441	92.25
358.668	78.25
358.895	97.25
359.122	94.25
359.349	97.25
359.576	100.25
359.802	89.25
360.029	110.25
360.256	116.25
360.483	93.25
360.709	76.25
360.936	97.25
361.163	89.25
361.39	91.25
361.616	95.25
361.843	98.25
362.07	101.25
362.296	89.25
362.523	101.25
362.749	91.25
362.976	102.25
363.203	96.25
363.429	92.25
363.656	94.25
363.882	96.25
364.109	90.25
364.335	98.25
364.562	90.25
364.788	95.25
365.015	91.25
365.241	93.25
365.468	107.25
365.694	104.25
365.92	82.25
366.147	80.25
366.373	83.25
366.599	92.25
366.826	81.25
367.052	88.25
367.278	100.25
367.505	92.25
367.731	82.25
367.957	87.25
368.184	100.25
368.41	110.25
368.636	107.25
368.862	97.25
369.089	84.25
369.315	85.25
369.541	97.25
369.767	96.25
369.993	101.25
370.219	84.25
370.445	78.25
370.672	89.25
370.898	93.25
371.124	97.25
371.35	86.25
371.576	99.25
371.802	91.25
372.028	94.25
372.254	99.25
372.48	98.25
372.706	94.25
372.932	107.25
373.158	89.25
373.384	83.25
373.61	101.25
373.835	102.25
374.061	95.25
374.287	81.25
374.513	81.25
374.739	86.25
374.965	86.25
375.191	97.25
375.416	98.25
375.642	90.25
375.868	89.25
376.094	90.25
376.319	81.25
376.545	93.25
376.771	71.25
376.997	84.25
377.222	94.25
377.448	92.25
377.674	101.25
377.899	101.25
378.125	82.25
378.35	91.25
378.576	79.25
378.802	109.25
379.027	80.25
379.253	101.25
379.478	94.25
379.704	97.25
379.929	97.25
380.155	97.25
380.38	82.25
380.606	95.25
380.831	114.25
381.057	97.25
381.282	98.25
381.507	111.25
381.733	98.25
381.958	90.25
382.184	101.25
382.409	103.25
382.634	116.25
382.86	86.25
383.085	96.25
383.31	101.25
383.535	100.25
383.761	112.25
383.986	95.25
384.211	93.25
384.436	102.25
384.662	110.25
384.887	103.25
385.112	115.25
385.337	114.25
385.562	106.25
385.787	101.25
386.013	105.25
386.238	124.25
386.463	106.25
386.688	102.25
386.913	105.25
387.138	104.25
387.363	98.25
387.588	116.25
387.813	96.25
388.038	112.25
388.263	113.25
388.488	93.25
388.713	101.25
388.938	95.25
389.163	98.25
389.387	86.25
389.612	100.25
389.837	90.25
390.062	95.25
390.287	98.25
390.512	90.25
390.736	82.25
390.961	102.25
391.186	101.25
391.411	99.25
391.636	101.25
391.86	83.25
392.085	81.25
392.31	90.25
392.534	85.25
392.759	96.25
392.984	82.25
393.208	93.25
393.433	90.25
393.658	94.25
393.882	96.25
394.107	97.25
394.331	71.25
394.556	89.25
394.78	102.25
395.005	94.25
395.229	84.25
395.454	90.25
395.678	90.25
395.903	95.25
396.127	74.25
396.352	79.25
396.576	86.25
396.801	85.25
397.025	89.25
397.249	89.25
397.474	88.25
397.698	99.25
397.922	73.25
398.147	70.25
398.371	91.25
398.595	84.25
398.82	98.25
399.044	94.25
399.268	89.25
399.492	81.25
399.717	87.25
399.941	90.25
400.165	105.25
400.389	98.25
400.613	85.25
400.837	90.25
401.062	96.25
401.286	80.25
401.51	91.25
401.734	83.25
401.958	94.25
402.182	120.25
402.406	150.25
402.63	109.25
402.854	93.25
403.078	87.25
403.302	77.25
403.526	86.25
403.75	87.25
403.974	102.25
404.198	100.25
404.422	91.25
404.645	99.25
404.869	98.25
405.093	97.25
405.317	108.25
405.541	87.25
405.765	87.25
405.988	111.25
406.212	161.25
406.436	197.25
406.66	132.25
406.883	97.25
407.107	82.25
407.331	102.25
407.555	98.25
407.778	84.25
408.002	96.25
408.226	95.25
408.449	86.25
408.673	83.25
408.896	108.25
409.12	97.25
409.344	90.25
409.567	95.25
409.791	98.25
410.014	87.25
410.238	93.25
410.461	91.25
410.685	110.25
410.908	121.25
411.132	99.25
411.355	89.25
411.578	88.25
411.802	74.25
412.025	80.25
412.249	103.25
412.472	91.25
412.695	75.25
412.919	95.25
413.142	97.25
413.365	105.25
413.589	89.25
413.812	85.25
414.035	93.25
414.258	74.25
414.482	95.25
414.705	86.25
414.928	81.25
415.151	96.25
415.374	87.25
415.597	99.25
415.821	79.25
416.044	78.25
416.267	90.25
416.49	88.25
416.713	87.25
416.936	96.25
417.159	90.25
417.382	82.25
417.605	92.25
417.828	93.25
418.051	99.25
418.274	92.25
418.497	87.25
418.72	85.25
418.943	85.25
419.166	102.25
419.389	93.25
419.611	86.25
419.834	82.25
420.057	84.25
420.28	96.25
420.503	97.25
420.726	90.25
420.948	80.25
421.171	86.25
421.394	98.25
421.617	93.25
421.839	79.25
422.062	96.25
422.285	91.25
422.507	98.25
422.73	107.25
422.953	87.25
423.175	83.25
423.398	88.25
423.621	89.25
423.843	98.25
424.066	93.25
424.288	98.25
424.511	83.25
424.733	88.25
424.956	101.25
425.178	95.25
425.401	94.25
425.623	96.25
425.846	99.25
426.068	103.25
426.291	85.25
426.513	97.25
426.735	115.25
426.958	91.25
427.18	101.25
427.402	114.25
427.625	153.25
427.847	110.25
428.069	124.25
428.292	114.25
428.514	92.25
428.736	75.25
428.958	87.25
429.181	92.25
429.403	84.25
429.625	83.25
429.847	88.25
430.069	102.25
430.292	99.25
430.514	78.25
430.736	80.25
430.958	87.25
431.18	95.25
431.402	94.25
431.624	102.25
431.846	95.25
432.068	86.25
432.29	80.25
432.512	81.25
432.734	81.25
432.956	78.25
433.178	109.25
433.4	99.25
433.622	95.25
433.844	97.25
434.066	106.25
434.287	85.25
434.509	100.25
434.731	92.25
434.953	100.25
435.175	87.25
435.397	96.25
435.618	80.25
435.84	109.25
436.062	112.25
436.284	116.25
436.505	84.25
436.727	103.25
436.949	88.25
437.17	90.25
437.392	94.25
437.614	111.25
437.835	101.25
438.057	106.25
438.278	87.25
438.5	109.25
438.721	109.25
438.943	111.25
439.165	92.25
439.386	84.25
439.608	98.25
439.829	96.25
440.05	114.25
440.272	126.25
440.493	93.25
440.715	91.25
440.936	89.25
441.158	93.25
441.379	94.25
441.6	103.25
441.822	82.25
442.043	100.25
442.264	102.25
442.486	103.25
442.707	94.25
442.928	100.25
443.149	115.25
443.371	128.25
443.592	116.25
443.813	101.25
444.034	102.25
444.255	97.25
444.476	85.25
444.698	91.25
444.919	103.25
445.14	146.25
445.361	125.25
445.582	124.25
445.803	133.25
446.024	128.25
446.245	115.25
446.466	106.25
446.687	105.25
446.908	88.25
447.129	86.25
447.35	95.25
447.571	73.25
447.792	86.25
448.013	105.25
448.234	92.25
448.455	100.25
448.675	117.25
448.896	93.25
449.117	96.25
449.338	102.25
449.559	121.25
449.779	122.25
450	86.25
450.221	85.25
450.442	86.25
450.662	90.25
450.883	97.25
451.104	101.25
451.324	94.25
451.545	93.25
451.766	93.25
451.986	78.25
452.207	79.25
452.428	94.25
452.648	100.25
452.869	100.25
453.089	115.25
453.31	121.25
453.53	84.25
453.751	88.25
453.971	119.25
454.192	107.25
454.412	75.25
454.633	86.25
454.853	93.25
455.073	78.25
455.294	101.25
455.514	90.25
455.734	90.25
455.955	95.25
456.175	92.25
456.395	87.25
456.616	82.25
456.836	87.25
457.056	95.25
457.276	83.25
457.497	85.25
457.717	86.25
457.937	92.25
458.157	78.25
458.377	94.25
458.598	104.25
458.818	142.25
459.038	136.25
459.258	96.25
459.478	86.25
459.698	81.25
459.918	91.25
460.138	89.25
460.358	78.25
460.578	85.25
460.798	103.25
461.018	93.25
461.238	82.25
461.458	84.25
461.678	92.25
461.898	79.25
462.118	84.25
462.338	96.25
462.558	91.25
462.777	95.25
462.997	85.25
463.217	94.25
463.437	95.25
463.657	90.25
463.876	93.25
464.096	75.25
464.316	89.25
464.536	89.25
464.755	98.25
464.975	90.25
465.195	145.25
465.414	138.25
465.634	88.25
465.854	93.25
466.073	109.25
466.293	83.25
466.512	85.25
466.732	82.25
466.951	85.25
467.171	93.25
467.391	93.25
467.61	98.25
467.829	87.25
468.049	77.25
468.268	89.25
468.488	89.25
468.707	83.25
468.927	82.25
469.146	95.25
469.365	93.25
469.585	90.25
469.804	98.25
470.023	82.25
470.243	82.25
470.462	97.25
470.681	101.25
470.901	97.25
471.12	94.25
471.339	93.25
471.558	78.25
471.777	67.25
471.997	77.25
472.216	96.25
472.435	92.25
472.654	80.25
472.873	94.25
473.092	84.25
473.311	69.25
473.53	87.25
473.749	93.25
473.968	98.25
474.187	104.25
474.406	107.25
474.625	84.25
474.844	89.25
475.063	105.25
475.282	95.25
475.501	87.25
475.72	83.25
475.939	85.25
476.158	81.25
476.377	75.25
476.596	82.25
476.814	97.25
477.033	101.25
477.252	103.25
477.471	89.25
477.69	76.25
477.908	89.25
478.127	97.25
478.346	85.25
478.564	93.25
478.783	102.25
479.002	95.25
479.22	86.25
479.439	96.25
479.658	100.25
479.876	103.25
480.095	94.25
480.313	108.25
480.532	84.25
480.751	96.25
480.969	79.25
481.188	115.25
481.406	91.25
481.624	80.25
481.843	77.25
482.061	86.25
482.28	94.25
482.498	92.25
482.717	96.25
482.935	78.25
483.153	96.25
483.372	92.25
483.59	79.25
483.808	89.25
484.027	111.25
484.245	91.25
484.463	95.25
484.681	93.25
484.9	94.25
485.118	94.25
485.336	94.25
485.554	99.25
485.772	106.25
485.99	106.25
486.209	108.25
486.427	99.25
486.645	97.25
486.863	109.25
487.081	105.25
487.299	85.25
487.517	99.25
487.735	101.25
487.953	91.25
488.171	87.25
488.389	109.25
488.607	110.25
488.825	85.25
489.043	86.25
489.261	100.25
489.479	95.25
489.696	87.25
489.914	83.25
490.132	85.25
490.35	91.25
490.568	98.25
490.786	94.25
491.003	99.25
491.221	81.25
491.439	97.25
491.657	108.25
491.874	91.25
492.092	98.25
492.31	101.25
492.527	82.25
492.745	100.25
492.963	93.25
493.18	88.25
493.398	95.25
493.615	111.25
493.833	101.25
494.05	106.25
494.268	97.25
494.485	95.25
494.703	97.25
494.92	93.25
495.138	84.25
495.355	88.25
495.573	90.25
495.79	91.25
496.008	87.25
496.225	84.25
496.442	81.25
496.66	91.25
496.877	89.25
497.094	102.25
497.312	88.25
497.529	108.25
497.746	101.25
497.963	87.25
498.181	97.25
498.398	91.25
498.615	109.25
498.832	103.25
499.049	96.25
499.267	101.25
499.484	82.25
499.701	85.25
499.918	95.25
500.135	93.25
500.352	93.25
500.569	95.25
500.786	89.25
501.003	90.25
501.22	110.25
501.437	102.25
501.654	93.25
501.871	107.25
502.088	103.25
502.305	97.25
502.522	89.25
502.739	84.25
502.956	92.25
503.172	97.25
503.389	92.25
503.606	90.25
503.823	87.25
504.04	103.25
504.256	91.25
504.473	101.25
504.69	88.25
504.907	81.25
505.123	85.25
505.34	83.25
505.557	88.25
505.773	86.25
505.99	91.25
506.207	99.25
506.423	85.25
506.64	89.25
506.856	84.25
507.073	95.25
507.289	96.25
507.506	93.25
507.722	128.25
507.939	116.25
508.155	100.25
508.372	82.25
508.588	95.25
508.805	93.25
509.021	108.25
509.238	98.25
509.454	85.25
509.67	89.25
509.887	114.25
510.103	130.25
510.319	198.25
510.536	677.25
510.752	2057.25
510.968	553.25
511.184	145.25
511.401	113.25
511.617	95.25
511.833	102.25
512.049	85.25
512.265	92.25
512.481	93.25
512.698	104.25
512.914	82.25
513.13	99.25
513.346	77.25
513.562	99.25
513.778	94.25
513.994	102.25
514.21	121.25
514.426	128.25
514.642	129.25
514.858	129.25
515.074	143.25
515.29	381.25
515.506	1205.25
