Data from Uncirc_1993_H10_HRD10591_00092.txt Node
Date: Wed Jan 03 11:43:10 EST 2024
User: Yrep
Spectrometer: HR+D1059
Trigger mode: 1
Integration Time (sec): 1.000000E-1
Scans to average: 1
Electric dark correction enabled: true
Nonlinearity correction enabled: false
Boxcar width: 0
XAxis mode: Wavelengths
Number of Pixels in Spectrum: 2048
>>>>>Begin Spectral Data<<<<<
223.165	-22.75
223.4	-22.75
223.635	-22.75
223.869	-10.75
224.104	-15.75
224.338	-8.75
224.573	-16.75
224.808	-21.75
225.042	-12.75
225.277	-1.75
225.511	-16.75
225.746	-3.75
225.98	7.25
226.215	21.25
226.449	23.25
226.683	22.25
226.918	27.25
227.152	30.25
227.387	36.25
227.621	39.25
227.856	47.25
228.09	53.25
228.324	49.25
228.559	69.25
228.793	61.25
229.027	48.25
229.262	69.25
229.496	75.25
229.73	79.25
229.964	73.25
230.199	84.25
230.433	82.25
230.667	88.25
230.901	71.25
231.136	76.25
231.37	79.25
231.604	76.25
231.838	71.25
232.072	87.25
232.306	94.25
232.541	85.25
232.775	81.25
233.009	72.25
233.243	87.25
233.477	78.25
233.711	84.25
233.945	75.25
234.179	80.25
234.413	80.25
234.647	95.25
234.881	91.25
235.115	82.25
235.349	92.25
235.583	89.25
235.817	69.25
236.051	82.25
236.285	93.25
236.519	101.25
236.753	85.25
236.987	81.25
237.221	83.25
237.455	82.25
237.689	68.25
237.922	76.25
238.156	89.25
238.39	73.25
238.624	85.25
238.858	100.25
239.091	89.25
239.325	81.25
239.559	96.25
239.793	85.25
240.027	83.25
240.26	89.25
240.494	90.25
240.728	77.25
240.961	85.25
241.195	87.25
241.429	86.25
241.662	78.25
241.896	69.25
242.13	80.25
242.363	67.25
242.597	79.25
242.83	82.25
243.064	81.25
243.298	85.25
243.531	70.25
243.765	87.25
243.998	86.25
244.232	85.25
244.465	96.25
244.699	89.25
244.932	69.25
245.166	86.25
245.399	79.25
245.633	96.25
245.866	75.25
246.099	80.25
246.333	78.25
246.566	79.25
246.8	82.25
247.033	78.25
247.266	77.25
247.5	72.25
247.733	93.25
247.966	87.25
248.2	80.25
248.433	68.25
248.666	75.25
248.899	91.25
249.133	83.25
249.366	92.25
249.599	102.25
249.832	83.25
250.066	72.25
250.299	89.25
250.532	85.25
250.765	86.25
250.998	88.25
251.231	76.25
251.465	71.25
251.698	68.25
251.931	79.25
252.164	72.25
252.397	90.25
252.63	86.25
252.863	65.25
253.096	76.25
253.329	85.25
253.562	90.25
253.795	88.25
254.028	87.25
254.261	79.25
254.494	87.25
254.727	72.25
254.96	83.25
255.193	76.25
255.426	81.25
255.659	64.25
255.892	87.25
256.124	84.25
256.357	85.25
256.59	80.25
256.823	81.25
257.056	66.25
257.289	87.25
257.521	79.25
257.754	77.25
257.987	82.25
258.22	92.25
258.452	77.25
258.685	88.25
258.918	80.25
259.151	85.25
259.383	78.25
259.616	83.25
259.849	81.25
260.081	79.25
260.314	85.25
260.547	88.25
260.779	81.25
261.012	81.25
261.244	97.25
261.477	81.25
261.71	101.25
261.942	102.25
262.175	116.25
262.407	92.25
262.64	88.25
262.872	95.25
263.105	86.25
263.337	79.25
263.57	81.25
263.802	100.25
264.035	84.25
264.267	82.25
264.499	77.25
264.732	88.25
264.964	85.25
265.197	70.25
265.429	82.25
265.661	79.25
265.894	95.25
266.126	95.25
266.358	87.25
266.591	87.25
266.823	76.25
267.055	88.25
267.287	96.25
267.52	87.25
267.752	94.25
267.984	79.25
268.216	92.25
268.448	82.25
268.681	83.25
268.913	86.25
269.145	81.25
269.377	89.25
269.609	84.25
269.841	75.25
270.073	81.25
270.306	88.25
270.538	85.25
270.77	86.25
271.002	85.25
271.234	92.25
271.466	90.25
271.698	88.25
271.93	84.25
272.162	89.25
272.394	91.25
272.626	79.25
272.858	61.25
273.09	82.25
273.322	85.25
273.553	79.25
273.785	96.25
274.017	76.25
274.249	84.25
274.481	84.25
274.713	81.25
274.945	91.25
275.176	85.25
275.408	82.25
275.64	98.25
275.872	87.25
276.104	81.25
276.335	89.25
276.567	93.25
276.799	102.25
277.031	109.25
277.262	96.25
277.494	100.25
277.726	95.25
277.957	80.25
278.189	91.25
278.421	95.25
278.652	78.25
278.884	91.25
279.115	82.25
279.347	81.25
279.579	92.25
279.81	86.25
280.042	87.25
280.273	87.25
280.505	78.25
280.736	83.25
280.968	82.25
281.199	92.25
281.431	92.25
281.662	94.25
281.894	108.25
282.125	108.25
282.356	105.25
282.588	156.25
282.819	108.25
283.051	87.25
283.282	81.25
283.513	98.25
283.745	85.25
283.976	83.25
284.207	100.25
284.439	86.25
284.67	81.25
284.901	88.25
285.132	102.25
285.364	87.25
285.595	87.25
285.826	86.25
286.057	95.25
286.288	102.25
286.52	97.25
286.751	105.25
286.982	102.25
287.213	92.25
287.444	89.25
287.675	87.25
287.906	103.25
288.138	88.25
288.369	110.25
288.6	103.25
288.831	98.25
289.062	94.25
289.293	95.25
289.524	84.25
289.755	79.25
289.986	70.25
290.217	81.25
290.448	95.25
290.679	89.25
290.91	92.25
291.141	83.25
291.371	97.25
291.602	97.25
291.833	70.25
292.064	92.25
292.295	75.25
292.526	83.25
292.757	96.25
292.987	102.25
293.218	86.25
293.449	94.25
293.68	89.25
293.91	86.25
294.141	90.25
294.372	87.25
294.603	92.25
294.833	92.25
295.064	103.25
295.295	91.25
295.525	84.25
295.756	107.25
295.987	105.25
296.217	153.25
296.448	121.25
296.679	87.25
296.909	97.25
297.14	99.25
297.37	104.25
297.601	96.25
297.831	94.25
298.062	92.25
298.292	89.25
298.523	79.25
298.753	83.25
298.984	87.25
299.214	96.25
299.445	102.25
299.675	94.25
299.905	88.25
300.136	94.25
300.366	105.25
300.597	101.25
300.827	95.25
301.057	103.25
301.288	111.25
301.518	80.25
301.748	107.25
301.979	89.25
302.209	82.25
302.439	85.25
302.669	92.25
302.9	92.25
303.13	86.25
303.36	97.25
303.59	93.25
303.82	108.25
304.051	104.25
304.281	99.25
304.511	95.25
304.741	89.25
304.971	91.25
305.201	103.25
305.431	94.25
305.661	99.25
305.891	87.25
306.121	99.25
306.352	104.25
306.582	117.25
306.812	105.25
307.042	96.25
307.272	94.25
307.502	111.25
307.731	96.25
307.961	82.25
308.191	92.25
308.421	84.25
308.651	98.25
308.881	85.25
309.111	86.25
309.341	102.25
309.571	86.25
309.8	104.25
310.03	104.25
310.26	98.25
310.49	91.25
310.72	108.25
310.949	114.25
311.179	100.25
311.409	91.25
311.639	92.25
311.868	71.25
312.098	102.25
312.328	99.25
312.557	103.25
312.787	118.25
313.017	108.25
313.246	90.25
313.476	93.25
313.706	87.25
313.935	92.25
314.165	91.25
314.394	110.25
314.624	109.25
314.853	85.25
315.083	91.25
315.312	96.25
315.542	100.25
315.771	107.25
316.001	85.25
316.23	100.25
316.46	95.25
316.689	95.25
316.919	100.25
317.148	83.25
317.377	93.25
317.607	93.25
317.836	96.25
318.065	96.25
318.295	83.25
318.524	94.25
318.753	102.25
318.983	94.25
319.212	94.25
319.441	113.25
319.67	107.25
319.9	104.25
320.129	116.25
320.358	101.25
320.587	92.25
320.816	92.25
321.046	97.25
321.275	97.25
321.504	91.25
321.733	97.25
321.962	105.25
322.191	119.25
322.42	102.25
322.649	95.25
322.878	113.25
323.108	120.25
323.337	125.25
323.566	124.25
323.795	135.25
324.024	206.25
324.253	385.25
324.482	758.25
324.71	1591.25
324.939	2067.25
325.168	772.25
325.397	242.25
325.626	149.25
325.855	128.25
326.084	122.25
326.313	118.25
326.542	145.25
326.77	214.25
326.999	420.25
327.228	869.25
327.457	1561.25
327.686	1241.25
327.914	373.25
328.143	191.25
328.372	142.25
328.6	115.25
328.829	121.25
329.058	128.25
329.287	130.25
329.515	106.25
329.744	100.25
329.972	107.25
330.201	112.25
330.43	114.25
330.658	119.25
330.887	136.25
331.115	124.25
331.344	88.25
331.572	109.25
331.801	103.25
332.03	96.25
332.258	101.25
332.486	113.25
332.715	96.25
332.943	93.25
333.172	96.25
333.4	98.25
333.629	109.25
333.857	120.25
334.085	123.25
334.314	98.25
334.542	103.25
334.771	95.25
334.999	106.25
335.227	98.25
335.455	106.25
335.684	99.25
335.912	97.25
336.14	96.25
336.369	99.25
336.597	104.25
336.825	92.25
337.053	99.25
337.281	99.25
337.51	97.25
337.738	108.25
337.966	106.25
338.194	95.25
338.422	101.25
338.65	101.25
338.878	89.25
339.106	101.25
339.334	86.25
339.562	85.25
339.79	101.25
340.018	98.25
340.246	94.25
340.474	97.25
340.702	86.25
340.93	83.25
341.158	81.25
341.386	113.25
341.614	100.25
341.842	83.25
342.07	85.25
342.298	86.25
342.526	79.25
342.754	95.25
342.981	88.25
343.209	96.25
343.437	90.25
343.665	99.25
343.893	88.25
344.12	92.25
344.348	100.25
344.576	97.25
344.804	87.25
345.031	104.25
345.259	102.25
345.487	94.25
345.714	97.25
345.942	99.25
346.17	94.25
346.397	98.25
346.625	103.25
346.853	97.25
347.08	99.25
347.308	103.25
347.535	95.25
347.763	94.25
347.99	79.25
348.218	96.25
348.445	106.25
348.673	109.25
348.9	106.25
349.128	96.25
349.355	104.25
349.583	91.25
349.81	101.25
350.037	95.25
350.265	95.25
350.492	94.25
350.72	113.25
350.947	105.25
351.174	101.25
351.402	130.25
351.629	110.25
351.856	92.25
352.083	103.25
352.311	106.25
352.538	116.25
352.765	104.25
352.992	130.25
353.22	108.25
353.447	108.25
353.674	96.25
353.901	111.25
354.128	104.25
354.355	85.25
354.583	101.25
354.81	113.25
355.037	101.25
355.264	96.25
355.491	101.25
355.718	93.25
355.945	94.25
356.172	88.25
356.399	93.25
356.626	92.25
356.853	84.25
357.08	93.25
357.307	105.25
357.534	95.25
357.761	83.25
357.988	99.25
358.215	103.25
358.441	87.25
358.668	86.25
358.895	89.25
359.122	93.25
359.349	93.25
359.576	96.25
359.802	108.25
360.029	105.25
360.256	107.25
360.483	75.25
360.709	91.25
360.936	100.25
361.163	94.25
361.39	104.25
361.616	97.25
361.843	94.25
362.07	96.25
362.296	96.25
362.523	99.25
362.749	101.25
362.976	86.25
363.203	89.25
363.429	105.25
363.656	102.25
363.882	84.25
364.109	86.25
364.335	103.25
364.562	80.25
364.788	94.25
365.015	99.25
365.241	100.25
365.468	115.25
365.694	111.25
365.92	94.25
366.147	99.25
366.373	100.25
366.599	78.25
366.826	96.25
367.052	89.25
367.278	89.25
367.505	90.25
367.731	92.25
367.957	92.25
368.184	89.25
368.41	111.25
368.636	111.25
368.862	109.25
369.089	96.25
369.315	89.25
369.541	94.25
369.767	80.25
369.993	97.25
370.219	102.25
370.445	99.25
370.672	99.25
370.898	79.25
371.124	98.25
371.35	98.25
371.576	99.25
371.802	96.25
372.028	86.25
372.254	88.25
372.48	89.25
372.706	82.25
372.932	103.25
373.158	115.25
373.384	102.25
373.61	91.25
373.835	96.25
374.061	115.25
374.287	82.25
374.513	98.25
374.739	91.25
374.965	102.25
375.191	94.25
375.416	88.25
375.642	99.25
375.868	95.25
376.094	95.25
376.319	101.25
376.545	93.25
376.771	110.25
376.997	102.25
377.222	86.25
377.448	85.25
377.674	80.25
377.899	98.25
378.125	87.25
378.35	88.25
378.576	96.25
378.802	97.25
379.027	84.25
379.253	97.25
379.478	97.25
379.704	77.25
379.929	99.25
380.155	99.25
380.38	93.25
380.606	97.25
380.831	101.25
381.057	92.25
381.282	95.25
381.507	91.25
381.733	94.25
381.958	97.25
382.184	99.25
382.409	102.25
382.634	103.25
382.86	112.25
383.085	97.25
383.31	88.25
383.535	95.25
383.761	108.25
383.986	91.25
384.211	93.25
384.436	108.25
384.662	88.25
384.887	93.25
385.112	110.25
385.337	104.25
385.562	91.25
385.787	112.25
386.013	105.25
386.238	105.25
386.463	118.25
386.688	120.25
386.913	102.25
387.138	100.25
387.363	107.25
387.588	109.25
387.813	95.25
388.038	98.25
388.263	102.25
388.488	106.25
388.713	91.25
388.938	120.25
389.163	99.25
389.387	94.25
389.612	94.25
389.837	85.25
390.062	99.25
390.287	85.25
390.512	84.25
390.736	105.25
390.961	103.25
391.186	94.25
391.411	83.25
391.636	99.25
391.86	91.25
392.085	83.25
392.31	73.25
392.534	79.25
392.759	89.25
392.984	101.25
393.208	99.25
393.433	88.25
393.658	80.25
393.882	79.25
394.107	81.25
394.331	88.25
394.556	89.25
394.78	95.25
395.005	95.25
395.229	91.25
395.454	95.25
395.678	82.25
395.903	79.25
396.127	80.25
396.352	92.25
396.576	87.25
396.801	92.25
397.025	91.25
397.249	95.25
397.474	87.25
397.698	86.25
397.922	95.25
398.147	92.25
398.371	85.25
398.595	95.25
398.82	66.25
399.044	78.25
399.268	82.25
399.492	79.25
399.717	85.25
399.941	97.25
400.165	94.25
400.389	95.25
400.613	100.25
400.837	88.25
401.062	100.25
401.286	104.25
401.51	104.25
401.734	97.25
401.958	97.25
402.182	120.25
402.406	159.25
402.63	121.25
402.854	101.25
403.078	95.25
403.302	87.25
403.526	85.25
403.75	87.25
403.974	94.25
404.198	79.25
404.422	96.25
404.645	97.25
404.869	87.25
405.093	91.25
405.317	93.25
405.541	107.25
405.765	104.25
405.988	118.25
406.212	174.25
406.436	230.25
406.66	143.25
406.883	106.25
407.107	100.25
407.331	99.25
407.555	87.25
407.778	109.25
408.002	92.25
408.226	101.25
408.449	92.25
408.673	89.25
408.896	99.25
409.12	97.25
409.344	93.25
409.567	105.25
409.791	101.25
410.014	87.25
410.238	95.25
410.461	97.25
410.685	95.25
410.908	96.25
411.132	96.25
411.355	90.25
411.578	96.25
411.802	105.25
412.025	105.25
412.249	97.25
412.472	92.25
412.695	84.25
412.919	82.25
413.142	92.25
413.365	97.25
413.589	91.25
413.812	81.25
414.035	89.25
414.258	79.25
414.482	89.25
414.705	86.25
414.928	100.25
415.151	90.25
415.374	95.25
415.597	105.25
415.821	95.25
416.044	95.25
416.267	94.25
416.49	93.25
416.713	87.25
416.936	95.25
417.159	97.25
417.382	99.25
417.605	95.25
417.828	96.25
418.051	110.25
418.274	88.25
418.497	85.25
418.72	99.25
418.943	96.25
419.166	95.25
419.389	91.25
419.611	103.25
419.834	97.25
420.057	91.25
420.28	84.25
420.503	101.25
420.726	87.25
420.948	98.25
421.171	96.25
421.394	87.25
421.617	93.25
421.839	84.25
422.062	86.25
422.285	99.25
422.507	96.25
422.73	105.25
422.953	93.25
423.175	83.25
423.398	92.25
423.621	87.25
423.843	100.25
424.066	84.25
424.288	75.25
424.511	95.25
424.733	103.25
424.956	111.25
425.178	105.25
425.401	107.25
425.623	115.25
425.846	90.25
426.068	93.25
426.291	89.25
426.513	99.25
426.735	100.25
426.958	89.25
427.18	104.25
427.402	124.25
427.625	157.25
427.847	146.25
428.069	114.25
428.292	99.25
428.514	94.25
428.736	88.25
428.958	85.25
429.181	90.25
429.403	98.25
429.625	85.25
429.847	91.25
430.069	107.25
430.292	96.25
430.514	86.25
430.736	87.25
430.958	95.25
431.18	78.25
431.402	88.25
431.624	83.25
431.846	83.25
432.068	77.25
432.29	101.25
432.512	95.25
432.734	94.25
432.956	97.25
433.178	103.25
433.4	90.25
433.622	88.25
433.844	102.25
434.066	89.25
434.287	102.25
434.509	91.25
434.731	97.25
434.953	103.25
435.175	88.25
435.397	91.25
435.618	90.25
435.84	93.25
436.062	113.25
436.284	117.25
436.505	120.25
436.727	110.25
436.949	104.25
437.17	87.25
437.392	88.25
437.614	105.25
437.835	113.25
438.057	102.25
438.278	98.25
438.5	113.25
438.721	112.25
438.943	100.25
439.165	87.25
439.386	104.25
439.608	89.25
439.829	114.25
440.05	130.25
440.272	128.25
440.493	103.25
440.715	89.25
440.936	88.25
441.158	93.25
441.379	81.25
441.6	83.25
441.822	93.25
442.043	96.25
442.264	96.25
442.486	92.25
442.707	92.25
442.928	115.25
443.149	126.25
443.371	147.25
443.592	105.25
443.813	94.25
444.034	105.25
444.255	83.25
444.476	76.25
444.698	91.25
444.919	86.25
445.14	124.25
445.361	119.25
445.582	109.25
445.803	139.25
446.024	135.25
446.245	121.25
446.466	109.25
446.687	99.25
446.908	91.25
447.129	91.25
447.35	109.25
447.571	107.25
447.792	99.25
448.013	104.25
448.234	112.25
448.455	99.25
448.675	105.25
448.896	129.25
449.117	99.25
449.338	102.25
449.559	125.25
449.779	139.25
450	88.25
450.221	99.25
450.442	95.25
450.662	96.25
450.883	108.25
451.104	121.25
451.324	95.25
451.545	83.25
451.766	82.25
451.986	88.25
452.207	95.25
452.428	97.25
452.648	95.25
452.869	109.25
453.089	118.25
453.31	118.25
453.53	94.25
453.751	92.25
453.971	113.25
454.192	113.25
454.412	94.25
454.633	94.25
454.853	88.25
455.073	84.25
455.294	100.25
455.514	105.25
455.734	89.25
455.955	89.25
456.175	95.25
456.395	82.25
456.616	88.25
456.836	82.25
457.056	92.25
457.276	85.25
457.497	96.25
457.717	94.25
457.937	80.25
458.157	87.25
458.377	101.25
458.598	94.25
458.818	180.25
459.038	171.25
459.258	103.25
459.478	94.25
459.698	88.25
459.918	99.25
460.138	91.25
460.358	68.25
460.578	93.25
460.798	83.25
461.018	88.25
461.238	88.25
461.458	90.25
461.678	93.25
461.898	98.25
462.118	99.25
462.338	93.25
462.558	80.25
462.777	77.25
462.997	90.25
463.217	78.25
463.437	89.25
463.657	84.25
463.876	94.25
464.096	101.25
464.316	100.25
464.536	106.25
464.755	103.25
464.975	113.25
465.195	158.25
465.414	165.25
465.634	99.25
465.854	100.25
466.073	99.25
466.293	91.25
466.512	81.25
466.732	82.25
466.951	88.25
467.171	102.25
467.391	94.25
467.61	84.25
467.829	101.25
468.049	74.25
468.268	84.25
468.488	96.25
468.707	87.25
468.927	80.25
469.146	80.25
469.365	91.25
469.585	87.25
469.804	100.25
470.023	81.25
470.243	73.25
470.462	103.25
470.681	103.25
470.901	91.25
471.12	84.25
471.339	98.25
471.558	91.25
471.777	95.25
471.997	78.25
472.216	105.25
472.435	100.25
472.654	95.25
472.873	99.25
473.092	81.25
473.311	99.25
473.53	95.25
473.749	83.25
473.968	92.25
474.187	92.25
474.406	90.25
474.625	87.25
474.844	93.25
475.063	108.25
475.282	86.25
475.501	98.25
475.72	85.25
475.939	87.25
476.158	85.25
476.377	101.25
476.596	93.25
476.814	107.25
477.033	92.25
477.252	108.25
477.471	79.25
477.69	96.25
477.908	97.25
478.127	98.25
478.346	87.25
478.564	92.25
478.783	90.25
479.002	94.25
479.22	112.25
479.439	104.25
479.658	105.25
479.876	82.25
480.095	89.25
480.313	99.25
480.532	96.25
480.751	96.25
480.969	106.25
481.188	108.25
481.406	111.25
481.624	97.25
481.843	96.25
482.061	100.25
482.28	89.25
482.498	88.25
482.717	84.25
482.935	87.25
483.153	90.25
483.372	91.25
483.59	78.25
483.808	83.25
484.027	96.25
484.245	98.25
484.463	102.25
484.681	122.25
484.9	96.25
485.118	96.25
485.336	86.25
485.554	90.25
485.772	106.25
485.99	96.25
486.209	91.25
486.427	95.25
486.645	111.25
486.863	112.25
487.081	115.25
487.299	99.25
487.517	105.25
487.735	95.25
487.953	92.25
488.171	103.25
488.389	98.25
488.607	100.25
488.825	92.25
489.043	81.25
489.261	93.25
489.479	91.25
489.696	83.25
489.914	89.25
490.132	81.25
490.35	93.25
490.568	84.25
490.786	93.25
491.003	83.25
491.221	95.25
491.439	96.25
491.657	87.25
491.874	94.25
492.092	95.25
492.31	111.25
492.527	75.25
492.745	99.25
492.963	94.25
493.18	112.25
493.398	104.25
493.615	107.25
493.833	102.25
494.05	96.25
494.268	101.25
494.485	95.25
494.703	88.25
494.92	85.25
495.138	94.25
495.355	94.25
495.573	96.25
495.79	92.25
496.008	103.25
496.225	98.25
496.442	84.25
496.66	99.25
496.877	94.25
497.094	99.25
497.312	102.25
497.529	100.25
497.746	95.25
497.963	97.25
498.181	87.25
498.398	92.25
498.615	111.25
498.832	97.25
499.049	87.25
499.267	102.25
499.484	88.25
499.701	89.25
499.918	98.25
500.135	91.25
500.352	95.25
500.569	79.25
500.786	86.25
501.003	81.25
501.22	91.25
501.437	95.25
501.654	102.25
501.871	103.25
502.088	98.25
502.305	88.25
502.522	101.25
502.739	95.25
502.956	99.25
503.172	89.25
503.389	101.25
503.606	107.25
503.823	102.25
504.04	98.25
504.256	99.25
504.473	91.25
504.69	83.25
504.907	96.25
505.123	104.25
505.34	94.25
505.557	84.25
505.773	90.25
505.99	72.25
506.207	85.25
506.423	90.25
506.64	98.25
506.856	108.25
507.073	102.25
507.289	87.25
507.506	86.25
507.722	123.25
507.939	112.25
508.155	95.25
508.372	100.25
508.588	97.25
508.805	101.25
509.021	111.25
509.238	102.25
509.454	107.25
509.67	111.25
509.887	108.25
510.103	145.25
510.319	236.25
510.536	784.25
510.752	2491.25
510.968	675.25
511.184	154.25
511.401	117.25
511.617	96.25
511.833	96.25
512.049	87.25
512.265	84.25
512.481	95.25
512.698	94.25
512.914	89.25
513.13	100.25
513.346	89.25
513.562	106.25
513.778	88.25
513.994	101.25
514.21	97.25
514.426	111.25
514.642	148.25
