Data from Uncirc_1993_H10_HRD10591_00045.txt Node
Date: Wed Jan 03 11:43:01 EST 2024
User: Yrep
Spectrometer: HR+D1059
Trigger mode: 1
Integration Time (sec): 1.000000E-1
Scans to average: 1
Electric dark correction enabled: true
Nonlinearity correction enabled: false
Boxcar width: 0
XAxis mode: Wavelengths
Number of Pixels in Spectrum: 2048
>>>>>Begin Spectral Data<<<<<
223.165	-9.38
223.4	-9.38
223.635	-9.38
223.869	-5.38
224.104	-8.38
224.338	-14.38
224.573	-2.38
224.808	-16.38
225.042	-5.38
225.277	-18.38
225.511	-17.38
225.746	14.62
225.98	1.62
226.215	6.62
226.449	12.62
226.683	6.62
226.918	18.62
227.152	36.62
227.387	47.62
227.621	24.62
227.856	59.62
228.09	48.62
228.324	65.62
228.559	58.62
228.793	70.62
229.027	56.62
229.262	61.62
229.496	68.62
229.73	78.62
229.964	82.62
230.199	69.62
230.433	74.62
230.667	74.62
230.901	75.62
231.136	78.62
231.37	82.62
231.604	87.62
231.838	70.62
232.072	74.62
232.306	83.62
232.541	87.62
232.775	91.62
233.009	70.62
233.243	78.62
233.477	80.62
233.711	86.62
233.945	84.62
234.179	71.62
234.413	81.62
234.647	94.62
234.881	76.62
235.115	87.62
235.349	86.62
235.583	84.62
235.817	77.62
236.051	70.62
236.285	68.62
236.519	80.62
236.753	74.62
236.987	96.62
237.221	87.62
237.455	82.62
237.689	90.62
237.922	80.62
238.156	70.62
238.39	83.62
238.624	83.62
238.858	66.62
239.091	67.62
239.325	83.62
239.559	82.62
239.793	67.62
240.027	72.62
240.26	72.62
240.494	88.62
240.728	88.62
240.961	87.62
241.195	90.62
241.429	91.62
241.662	69.62
241.896	75.62
242.13	85.62
242.363	65.62
242.597	86.62
242.83	92.62
243.064	70.62
243.298	85.62
243.531	90.62
243.765	62.62
243.998	84.62
244.232	82.62
244.465	86.62
244.699	74.62
244.932	76.62
245.166	78.62
245.399	80.62
245.633	71.62
245.866	85.62
246.099	81.62
246.333	86.62
246.566	85.62
246.8	79.62
247.033	97.62
247.266	78.62
247.5	85.62
247.733	74.62
247.966	69.62
248.2	69.62
248.433	69.62
248.666	79.62
248.899	79.62
249.133	86.62
249.366	104.62
249.599	74.62
249.832	71.62
250.066	79.62
250.299	87.62
250.532	96.62
250.765	74.62
250.998	80.62
251.231	78.62
251.465	83.62
251.698	76.62
251.931	84.62
252.164	81.62
252.397	95.62
252.63	87.62
252.863	88.62
253.096	85.62
253.329	87.62
253.562	74.62
253.795	83.62
254.028	78.62
254.261	84.62
254.494	85.62
254.727	76.62
254.96	94.62
255.193	82.62
255.426	85.62
255.659	93.62
255.892	83.62
256.124	71.62
256.357	87.62
256.59	72.62
256.823	107.62
257.056	68.62
257.289	80.62
257.521	72.62
257.754	103.62
257.987	69.62
258.22	80.62
258.452	88.62
258.685	87.62
258.918	90.62
259.151	85.62
259.383	78.62
259.616	78.62
259.849	87.62
260.081	88.62
260.314	81.62
260.547	93.62
260.779	85.62
261.012	76.62
261.244	88.62
261.477	85.62
261.71	88.62
261.942	102.62
262.175	110.62
262.407	99.62
262.64	70.62
262.872	89.62
263.105	87.62
263.337	90.62
263.57	85.62
263.802	80.62
264.035	89.62
264.267	80.62
264.499	82.62
264.732	77.62
264.964	79.62
265.197	70.62
265.429	83.62
265.661	82.62
265.894	84.62
266.126	80.62
266.358	80.62
266.591	80.62
266.823	93.62
267.055	87.62
267.287	90.62
267.52	93.62
267.752	85.62
267.984	80.62
268.216	87.62
268.448	83.62
268.681	80.62
268.913	80.62
269.145	83.62
269.377	76.62
269.609	102.62
269.841	83.62
270.073	80.62
270.306	91.62
270.538	84.62
270.77	78.62
271.002	77.62
271.234	84.62
271.466	90.62
271.698	94.62
271.93	86.62
272.162	85.62
272.394	84.62
272.626	86.62
272.858	75.62
273.09	88.62
273.322	64.62
273.553	84.62
273.785	89.62
274.017	85.62
274.249	83.62
274.481	69.62
274.713	79.62
274.945	89.62
275.176	68.62
275.408	86.62
275.64	79.62
275.872	83.62
276.104	102.62
276.335	87.62
276.567	103.62
276.799	104.62
277.031	95.62
277.262	95.62
277.494	102.62
277.726	78.62
277.957	100.62
278.189	91.62
278.421	99.62
278.652	88.62
278.884	94.62
279.115	90.62
279.347	80.62
279.579	92.62
279.81	85.62
280.042	75.62
280.273	98.62
280.505	83.62
280.736	102.62
280.968	72.62
281.199	110.62
281.431	92.62
281.662	89.62
281.894	86.62
282.125	86.62
282.356	107.62
282.588	129.62
282.819	104.62
283.051	94.62
283.282	81.62
283.513	91.62
283.745	83.62
283.976	78.62
284.207	84.62
284.439	82.62
284.67	77.62
284.901	71.62
285.132	82.62
285.364	86.62
285.595	87.62
285.826	89.62
286.057	80.62
286.288	64.62
286.52	82.62
286.751	91.62
286.982	90.62
287.213	89.62
287.444	95.62
287.675	84.62
287.906	96.62
288.138	100.62
288.369	94.62
288.6	104.62
288.831	87.62
289.062	90.62
289.293	95.62
289.524	99.62
289.755	96.62
289.986	86.62
290.217	93.62
290.448	90.62
290.679	86.62
290.91	98.62
291.141	71.62
291.371	91.62
291.602	91.62
291.833	80.62
292.064	97.62
292.295	87.62
292.526	86.62
292.757	94.62
292.987	106.62
293.218	104.62
293.449	80.62
293.68	90.62
293.91	76.62
294.141	91.62
294.372	87.62
294.603	90.62
294.833	86.62
295.064	81.62
295.295	86.62
295.525	103.62
295.756	100.62
295.987	104.62
296.217	131.62
296.448	99.62
296.679	79.62
296.909	92.62
297.14	68.62
297.37	89.62
297.601	89.62
297.831	97.62
298.062	100.62
298.292	91.62
298.523	92.62
298.753	80.62
298.984	93.62
299.214	96.62
299.445	85.62
299.675	89.62
299.905	99.62
300.136	95.62
300.366	89.62
300.597	91.62
300.827	96.62
301.057	88.62
301.288	95.62
301.518	97.62
301.748	94.62
301.979	116.62
302.209	98.62
302.439	90.62
302.669	100.62
302.9	92.62
303.13	100.62
303.36	89.62
303.59	110.62
303.82	111.62
304.051	97.62
304.281	93.62
304.511	82.62
304.741	87.62
304.971	90.62
305.201	78.62
305.431	95.62
305.661	94.62
305.891	93.62
306.121	82.62
306.352	109.62
306.582	102.62
306.812	105.62
307.042	98.62
307.272	89.62
307.502	94.62
307.731	86.62
307.961	98.62
308.191	79.62
308.421	88.62
308.651	75.62
308.881	85.62
309.111	84.62
309.341	103.62
309.571	97.62
309.8	98.62
310.03	102.62
310.26	95.62
310.49	94.62
310.72	80.62
310.949	102.62
311.179	91.62
311.409	80.62
311.639	89.62
311.868	95.62
312.098	84.62
312.328	90.62
312.557	114.62
312.787	105.62
313.017	103.62
313.246	101.62
313.476	98.62
313.706	88.62
313.935	78.62
314.165	99.62
314.394	93.62
314.624	88.62
314.853	82.62
315.083	95.62
315.312	80.62
315.542	95.62
315.771	95.62
316.001	97.62
316.23	100.62
316.46	84.62
316.689	92.62
316.919	92.62
317.148	100.62
317.377	102.62
317.607	84.62
317.836	100.62
318.065	102.62
318.295	96.62
318.524	79.62
318.753	92.62
318.983	84.62
319.212	111.62
319.441	94.62
319.67	116.62
319.9	90.62
320.129	96.62
320.358	104.62
320.587	98.62
320.816	98.62
321.046	102.62
321.275	108.62
321.504	102.62
321.733	99.62
321.962	99.62
322.191	108.62
322.42	99.62
322.649	95.62
322.878	98.62
323.108	108.62
323.337	106.62
323.566	123.62
323.795	137.62
324.024	184.62
324.253	302.62
324.482	633.62
324.71	1197.62
324.939	1571.62
325.168	625.62
325.397	208.62
325.626	138.62
325.855	124.62
326.084	130.62
326.313	138.62
326.542	126.62
326.77	207.62
326.999	363.62
327.228	711.62
327.457	1198.62
327.686	971.62
327.914	285.62
328.143	165.62
328.372	132.62
328.6	117.62
328.829	108.62
329.058	113.62
329.287	131.62
329.515	110.62
329.744	112.62
329.972	98.62
330.201	106.62
330.43	107.62
330.658	112.62
330.887	118.62
331.115	107.62
331.344	105.62
331.572	85.62
331.801	97.62
332.03	97.62
332.258	99.62
332.486	98.62
332.715	105.62
332.943	109.62
333.172	98.62
333.4	99.62
333.629	112.62
333.857	105.62
334.085	112.62
334.314	102.62
334.542	94.62
334.771	97.62
334.999	104.62
335.227	104.62
335.455	93.62
335.684	94.62
335.912	102.62
336.14	87.62
336.369	102.62
336.597	98.62
336.825	96.62
337.053	99.62
337.281	90.62
337.51	94.62
337.738	89.62
337.966	85.62
338.194	95.62
338.422	98.62
338.65	94.62
338.878	94.62
339.106	95.62
339.334	96.62
339.562	91.62
339.79	103.62
340.018	90.62
340.246	91.62
340.474	85.62
340.702	93.62
340.93	102.62
341.158	105.62
341.386	88.62
341.614	87.62
341.842	95.62
342.07	92.62
342.298	100.62
342.526	78.62
342.754	82.62
342.981	93.62
343.209	72.62
343.437	96.62
343.665	92.62
343.893	95.62
344.12	103.62
344.348	99.62
344.576	84.62
344.804	83.62
345.031	98.62
345.259	104.62
345.487	100.62
345.714	93.62
345.942	84.62
346.17	90.62
346.397	101.62
346.625	82.62
346.853	88.62
347.08	91.62
347.308	98.62
347.535	99.62
347.763	100.62
347.99	115.62
348.218	101.62
348.445	113.62
348.673	95.62
348.9	99.62
349.128	92.62
349.355	101.62
349.583	85.62
349.81	95.62
350.037	86.62
350.265	84.62
350.492	94.62
350.72	93.62
350.947	94.62
351.174	108.62
351.402	108.62
351.629	104.62
351.856	103.62
352.083	85.62
352.311	84.62
352.538	91.62
352.765	103.62
352.992	116.62
353.22	101.62
353.447	104.62
353.674	97.62
353.901	99.62
354.128	102.62
354.355	95.62
354.583	95.62
354.81	102.62
355.037	99.62
355.264	82.62
355.491	86.62
355.718	97.62
355.945	92.62
356.172	93.62
356.399	93.62
356.626	87.62
356.853	83.62
357.08	109.62
357.307	105.62
357.534	101.62
357.761	96.62
357.988	84.62
358.215	99.62
358.441	106.62
358.668	99.62
358.895	92.62
359.122	79.62
359.349	100.62
359.576	76.62
359.802	88.62
360.029	98.62
360.256	104.62
360.483	98.62
360.709	82.62
360.936	114.62
361.163	102.62
361.39	85.62
361.616	79.62
361.843	87.62
362.07	88.62
362.296	100.62
362.523	98.62
362.749	85.62
362.976	102.62
363.203	94.62
363.429	95.62
363.656	98.62
363.882	96.62
364.109	100.62
364.335	94.62
364.562	76.62
364.788	83.62
365.015	97.62
365.241	92.62
365.468	104.62
365.694	102.62
365.92	101.62
366.147	78.62
366.373	94.62
366.599	96.62
366.826	87.62
367.052	93.62
367.278	85.62
367.505	99.62
367.731	98.62
367.957	88.62
368.184	99.62
368.41	103.62
368.636	111.62
368.862	118.62
369.089	105.62
369.315	101.62
369.541	104.62
369.767	93.62
369.993	100.62
370.219	90.62
370.445	79.62
370.672	90.62
370.898	90.62
371.124	89.62
371.35	78.62
371.576	96.62
371.802	85.62
372.028	84.62
372.254	85.62
372.48	80.62
372.706	98.62
372.932	83.62
373.158	85.62
373.384	86.62
373.61	85.62
373.835	90.62
374.061	83.62
374.287	82.62
374.513	94.62
374.739	85.62
374.965	90.62
375.191	94.62
375.416	84.62
375.642	110.62
375.868	102.62
376.094	90.62
376.319	86.62
376.545	97.62
376.771	87.62
376.997	100.62
377.222	95.62
377.448	99.62
377.674	104.62
377.899	94.62
378.125	92.62
378.35	105.62
378.576	103.62
378.802	96.62
379.027	93.62
379.253	103.62
379.478	97.62
379.704	101.62
379.929	87.62
380.155	93.62
380.38	100.62
380.606	99.62
380.831	92.62
381.057	106.62
381.282	88.62
381.507	105.62
381.733	100.62
381.958	101.62
382.184	101.62
382.409	106.62
382.634	97.62
382.86	98.62
383.085	96.62
383.31	92.62
383.535	82.62
383.761	97.62
383.986	94.62
384.211	101.62
384.436	99.62
384.662	96.62
384.887	104.62
385.112	110.62
385.337	90.62
385.562	92.62
385.787	106.62
386.013	122.62
386.238	106.62
386.463	95.62
386.688	102.62
386.913	104.62
387.138	118.62
387.363	100.62
387.588	84.62
387.813	103.62
388.038	100.62
388.263	105.62
388.488	107.62
388.713	99.62
388.938	101.62
389.163	99.62
389.387	95.62
389.612	99.62
389.837	99.62
390.062	103.62
390.287	95.62
390.512	99.62
390.736	80.62
390.961	105.62
391.186	82.62
391.411	86.62
391.636	78.62
391.86	78.62
392.085	87.62
392.31	74.62
392.534	81.62
392.759	74.62
392.984	101.62
393.208	91.62
393.433	102.62
393.658	78.62
393.882	93.62
394.107	90.62
394.331	84.62
394.556	83.62
394.78	95.62
395.005	91.62
395.229	94.62
395.454	90.62
395.678	83.62
395.903	88.62
396.127	94.62
396.352	90.62
396.576	78.62
396.801	86.62
397.025	90.62
397.249	102.62
397.474	82.62
397.698	94.62
397.922	91.62
398.147	91.62
398.371	91.62
398.595	92.62
398.82	83.62
399.044	84.62
399.268	107.62
399.492	93.62
399.717	92.62
399.941	93.62
400.165	96.62
400.389	99.62
400.613	93.62
400.837	101.62
401.062	89.62
401.286	90.62
401.51	101.62
401.734	82.62
401.958	85.62
402.182	106.62
402.406	132.62
402.63	107.62
402.854	105.62
403.078	86.62
403.302	92.62
403.526	100.62
403.75	82.62
403.974	93.62
404.198	93.62
404.422	79.62
404.645	102.62
404.869	84.62
405.093	90.62
405.317	96.62
405.541	118.62
405.765	90.62
405.988	104.62
406.212	143.62
406.436	193.62
406.66	126.62
406.883	91.62
407.107	107.62
407.331	112.62
407.555	93.62
407.778	96.62
408.002	95.62
408.226	78.62
408.449	81.62
408.673	80.62
408.896	100.62
409.12	92.62
409.344	85.62
409.567	84.62
409.791	95.62
410.014	98.62
410.238	109.62
410.461	85.62
410.685	98.62
410.908	86.62
411.132	101.62
411.355	96.62
411.578	98.62
411.802	102.62
412.025	90.62
412.249	94.62
412.472	95.62
412.695	112.62
412.919	91.62
413.142	94.62
413.365	86.62
413.589	76.62
413.812	88.62
414.035	86.62
414.258	91.62
414.482	96.62
414.705	82.62
414.928	98.62
415.151	81.62
415.374	84.62
415.597	91.62
415.821	99.62
416.044	88.62
416.267	99.62
416.49	90.62
416.713	83.62
416.936	93.62
417.159	93.62
417.382	90.62
417.605	75.62
417.828	91.62
418.051	100.62
418.274	86.62
418.497	78.62
418.72	79.62
418.943	91.62
419.166	92.62
419.389	98.62
419.611	88.62
419.834	82.62
420.057	93.62
420.28	74.62
420.503	89.62
420.726	103.62
420.948	104.62
421.171	92.62
421.394	95.62
421.617	73.62
421.839	99.62
422.062	98.62
422.285	88.62
422.507	101.62
422.73	100.62
422.953	90.62
423.175	97.62
423.398	84.62
423.621	102.62
423.843	98.62
424.066	82.62
424.288	86.62
424.511	97.62
424.733	96.62
424.956	103.62
425.178	100.62
425.401	102.62
425.623	93.62
425.846	89.62
426.068	75.62
426.291	99.62
426.513	75.62
426.735	83.62
426.958	99.62
427.18	95.62
427.402	140.62
427.625	158.62
427.847	101.62
428.069	96.62
428.292	93.62
428.514	85.62
428.736	82.62
428.958	90.62
429.181	77.62
429.403	87.62
429.625	71.62
429.847	86.62
430.069	88.62
430.292	88.62
430.514	102.62
430.736	93.62
430.958	92.62
431.18	93.62
431.402	89.62
431.624	81.62
431.846	70.62
432.068	99.62
432.29	99.62
432.512	83.62
432.734	79.62
432.956	82.62
433.178	85.62
433.4	107.62
433.622	87.62
433.844	92.62
434.066	106.62
434.287	92.62
434.509	72.62
434.731	94.62
434.953	79.62
435.175	92.62
435.397	84.62
435.618	86.62
435.84	96.62
436.062	121.62
436.284	89.62
436.505	93.62
436.727	97.62
436.949	95.62
437.17	101.62
437.392	100.62
437.614	88.62
437.835	100.62
438.057	109.62
438.278	101.62
438.5	99.62
438.721	123.62
438.943	94.62
439.165	83.62
439.386	84.62
439.608	99.62
439.829	88.62
440.05	108.62
440.272	117.62
440.493	73.62
440.715	88.62
440.936	78.62
441.158	90.62
441.379	98.62
441.6	95.62
441.822	94.62
442.043	92.62
442.264	82.62
442.486	102.62
442.707	74.62
442.928	116.62
443.149	119.62
443.371	98.62
443.592	103.62
443.813	109.62
444.034	106.62
444.255	95.62
444.476	90.62
444.698	79.62
444.919	108.62
445.14	128.62
445.361	111.62
445.582	115.62
445.803	109.62
446.024	115.62
446.245	123.62
446.466	109.62
446.687	86.62
446.908	96.62
447.129	95.62
447.35	87.62
447.571	93.62
447.792	99.62
448.013	94.62
448.234	107.62
448.455	78.62
448.675	119.62
448.896	90.62
449.117	98.62
449.338	89.62
449.559	110.62
449.779	120.62
450	83.62
450.221	84.62
450.442	92.62
450.662	99.62
450.883	102.62
451.104	109.62
451.324	91.62
451.545	101.62
451.766	98.62
451.986	67.62
452.207	88.62
452.428	92.62
452.648	92.62
452.869	119.62
453.089	101.62
453.31	97.62
453.53	87.62
453.751	90.62
453.971	91.62
454.192	105.62
454.412	101.62
454.633	86.62
454.853	93.62
455.073	90.62
455.294	87.62
455.514	84.62
455.734	96.62
455.955	96.62
456.175	93.62
456.395	101.62
456.616	92.62
456.836	88.62
457.056	84.62
457.276	90.62
457.497	84.62
457.717	87.62
457.937	90.62
458.157	93.62
458.377	83.62
458.598	117.62
458.818	126.62
459.038	133.62
459.258	102.62
459.478	100.62
459.698	86.62
459.918	90.62
460.138	81.62
460.358	86.62
460.578	80.62
460.798	100.62
461.018	89.62
461.238	92.62
461.458	93.62
461.678	83.62
461.898	63.62
462.118	85.62
462.338	87.62
462.558	85.62
462.777	89.62
462.997	82.62
463.217	77.62
463.437	99.62
463.657	91.62
463.876	90.62
464.096	97.62
464.316	81.62
464.536	80.62
464.755	99.62
464.975	121.62
465.195	131.62
465.414	134.62
465.634	101.62
465.854	89.62
466.073	92.62
466.293	78.62
466.512	70.62
466.732	103.62
466.951	94.62
467.171	89.62
467.391	93.62
467.61	94.62
467.829	95.62
468.049	86.62
468.268	99.62
468.488	86.62
468.707	76.62
468.927	86.62
469.146	91.62
469.365	82.62
469.585	93.62
469.804	86.62
470.023	87.62
470.243	87.62
470.462	100.62
470.681	96.62
470.901	111.62
471.12	92.62
471.339	96.62
471.558	93.62
471.777	92.62
471.997	92.62
472.216	78.62
472.435	94.62
472.654	90.62
472.873	83.62
473.092	81.62
473.311	92.62
473.53	90.62
473.749	95.62
473.968	96.62
474.187	108.62
474.406	95.62
474.625	93.62
474.844	92.62
475.063	100.62
475.282	94.62
475.501	77.62
475.72	91.62
475.939	90.62
476.158	79.62
476.377	80.62
476.596	90.62
476.814	102.62
477.033	87.62
477.252	96.62
477.471	89.62
477.69	95.62
477.908	96.62
478.127	93.62
478.346	75.62
478.564	72.62
478.783	78.62
479.002	93.62
479.22	80.62
479.439	88.62
479.658	105.62
479.876	82.62
480.095	99.62
480.313	102.62
480.532	82.62
480.751	84.62
480.969	91.62
481.188	108.62
481.406	103.62
481.624	98.62
481.843	80.62
482.061	82.62
482.28	80.62
482.498	99.62
482.717	88.62
482.935	80.62
483.153	83.62
483.372	91.62
483.59	90.62
483.808	84.62
484.027	77.62
484.245	101.62
484.463	92.62
484.681	103.62
484.9	85.62
485.118	94.62
485.336	110.62
485.554	108.62
485.772	106.62
485.99	102.62
486.209	108.62
486.427	99.62
486.645	105.62
486.863	97.62
487.081	76.62
487.299	91.62
487.517	103.62
487.735	94.62
487.953	78.62
488.171	92.62
488.389	92.62
488.607	95.62
488.825	79.62
489.043	97.62
489.261	100.62
489.479	92.62
489.696	85.62
489.914	101.62
490.132	85.62
490.35	90.62
490.568	85.62
490.786	87.62
491.003	84.62
491.221	108.62
491.439	104.62
491.657	93.62
491.874	90.62
492.092	102.62
492.31	101.62
492.527	94.62
492.745	84.62
492.963	100.62
493.18	83.62
493.398	92.62
493.615	91.62
493.833	109.62
494.05	86.62
494.268	75.62
494.485	96.62
494.703	95.62
494.92	93.62
495.138	101.62
495.355	100.62
495.573	93.62
495.79	85.62
496.008	103.62
496.225	83.62
496.442	95.62
496.66	84.62
496.877	90.62
497.094	86.62
497.312	103.62
497.529	91.62
497.746	91.62
497.963	111.62
498.181	104.62
498.398	114.62
498.615	118.62
498.832	89.62
499.049	90.62
499.267	95.62
499.484	88.62
499.701	88.62
499.918	99.62
500.135	90.62
500.352	92.62
500.569	82.62
500.786	105.62
501.003	79.62
501.22	83.62
501.437	87.62
501.654	101.62
501.871	107.62
502.088	101.62
502.305	101.62
502.522	98.62
502.739	93.62
502.956	96.62
503.172	103.62
503.389	90.62
503.606	99.62
503.823	111.62
504.04	90.62
504.256	89.62
504.473	76.62
504.69	78.62
504.907	89.62
505.123	97.62
505.34	94.62
505.557	107.62
505.773	100.62
505.99	84.62
506.207	84.62
506.423	90.62
506.64	99.62
506.856	89.62
507.073	90.62
507.289	98.62
507.506	100.62
507.722	112.62
507.939	99.62
508.155	102.62
508.372	95.62
508.588	87.62
508.805	99.62
509.021	95.62
509.238	94.62
509.454	97.62
509.67	105.62
509.887	110.62
510.103	127.62
510.319	176.62
510.536	633.62
510.752	1910.62
510.968	535.62
511.184	145.62
511.401	95.62
511.617	106.62
511.833	102.62
512.049	93.62
512.265	99.62
512.481	97.62
512.698	95.62
512.914	94.62
513.13	90.62
513.346	80.62
513.562	97.62
513.778	86.62
513.994	82.62
514.21	106.62
514.426	102.62
514.642	131.62
514.858	114.62
515.074	142.62
515.29	360.62
515.506	1117.62
