Data from Uncirc_1993_H10_HRD10591_00012.txt Node
Date: Wed Jan 03 11:42:54 EST 2024
User: Yrep
Spectrometer: HR+D1059
Trigger mode: 1
Integration Time (sec): 1.000000E-1
Scans to average: 1
Electric dark correction enabled: true
Nonlinearity correction enabled: false
Boxcar width: 0
XAxis mode: Wavelengths
Number of Pixels in Spectrum: 2048
>>>>>Begin Spectral Data<<<<<
223.165	-24.12
223.4	-24.12
223.635	-24.12
223.869	-20.12
224.104	-32.12
224.338	-21.12
224.573	-23.12
224.808	-16.12
225.042	-5.12
225.277	3.88
225.511	-5.12
225.746	16.88
225.98	18.88
226.215	16.88
226.449	15.88
226.683	14.88
226.918	30.88
227.152	28.88
227.387	36.88
227.621	33.88
227.856	47.88
228.09	55.88
228.324	60.88
228.559	60.88
228.793	52.88
229.027	62.88
229.262	67.88
229.496	64.88
229.73	72.88
229.964	85.88
230.199	78.88
230.433	68.88
230.667	86.88
230.901	61.88
231.136	76.88
231.37	79.88
231.604	81.88
231.838	88.88
232.072	99.88
232.306	82.88
232.541	82.88
232.775	64.88
233.009	87.88
233.243	81.88
233.477	66.88
233.711	101.88
233.945	90.88
234.179	78.88
234.413	77.88
234.647	88.88
234.881	77.88
235.115	75.88
235.349	93.88
235.583	89.88
235.817	79.88
236.051	71.88
236.285	78.88
236.519	71.88
236.753	71.88
236.987	81.88
237.221	89.88
237.455	77.88
237.689	80.88
237.922	73.88
238.156	67.88
238.39	63.88
238.624	87.88
238.858	81.88
239.091	90.88
239.325	80.88
239.559	77.88
239.793	77.88
240.027	69.88
240.26	91.88
240.494	76.88
240.728	78.88
240.961	69.88
241.195	81.88
241.429	72.88
241.662	76.88
241.896	90.88
242.13	68.88
242.363	90.88
242.597	80.88
242.83	88.88
243.064	82.88
243.298	79.88
243.531	69.88
243.765	87.88
243.998	87.88
244.232	63.88
244.465	71.88
244.699	91.88
244.932	99.88
245.166	86.88
245.399	82.88
245.633	77.88
245.866	83.88
246.099	65.88
246.333	86.88
246.566	78.88
246.8	83.88
247.033	90.88
247.266	86.88
247.5	75.88
247.733	83.88
247.966	91.88
248.2	72.88
248.433	80.88
248.666	68.88
248.899	71.88
249.133	84.88
249.366	97.88
249.599	99.88
249.832	79.88
250.066	95.88
250.299	76.88
250.532	88.88
250.765	78.88
250.998	79.88
251.231	92.88
251.465	80.88
251.698	83.88
251.931	88.88
252.164	88.88
252.397	83.88
252.63	89.88
252.863	76.88
253.096	86.88
253.329	90.88
253.562	88.88
253.795	92.88
254.028	84.88
254.261	82.88
254.494	80.88
254.727	68.88
254.96	78.88
255.193	73.88
255.426	103.88
255.659	81.88
255.892	90.88
256.124	88.88
256.357	85.88
256.59	75.88
256.823	74.88
257.056	80.88
257.289	85.88
257.521	82.88
257.754	79.88
257.987	88.88
258.22	86.88
258.452	88.88
258.685	87.88
258.918	87.88
259.151	78.88
259.383	90.88
259.616	72.88
259.849	92.88
260.081	71.88
260.314	85.88
260.547	87.88
260.779	76.88
261.012	80.88
261.244	83.88
261.477	95.88
261.71	77.88
261.942	106.88
262.175	105.88
262.407	97.88
262.64	81.88
262.872	82.88
263.105	84.88
263.337	81.88
263.57	71.88
263.802	91.88
264.035	92.88
264.267	80.88
264.499	91.88
264.732	79.88
264.964	85.88
265.197	89.88
265.429	82.88
265.661	96.88
265.894	85.88
266.126	79.88
266.358	85.88
266.591	88.88
266.823	92.88
267.055	97.88
267.287	95.88
267.52	86.88
267.752	76.88
267.984	87.88
268.216	85.88
268.448	90.88
268.681	85.88
268.913	84.88
269.145	86.88
269.377	95.88
269.609	88.88
269.841	82.88
270.073	88.88
270.306	81.88
270.538	90.88
270.77	78.88
271.002	84.88
271.234	77.88
271.466	80.88
271.698	82.88
271.93	70.88
272.162	91.88
272.394	84.88
272.626	107.88
272.858	86.88
273.09	105.88
273.322	79.88
273.553	90.88
273.785	87.88
274.017	82.88
274.249	74.88
274.481	78.88
274.713	75.88
274.945	85.88
275.176	81.88
275.408	96.88
275.64	84.88
275.872	78.88
276.104	96.88
276.335	91.88
276.567	75.88
276.799	91.88
277.031	101.88
277.262	90.88
277.494	79.88
277.726	90.88
277.957	87.88
278.189	88.88
278.421	94.88
278.652	69.88
278.884	83.88
279.115	93.88
279.347	100.88
279.579	94.88
279.81	92.88
280.042	77.88
280.273	82.88
280.505	87.88
280.736	88.88
280.968	97.88
281.199	80.88
281.431	80.88
281.662	92.88
281.894	98.88
282.125	100.88
282.356	105.88
282.588	119.88
282.819	101.88
283.051	88.88
283.282	83.88
283.513	88.88
283.745	87.88
283.976	96.88
284.207	83.88
284.439	94.88
284.67	93.88
284.901	88.88
285.132	85.88
285.364	74.88
285.595	69.88
285.826	84.88
286.057	101.88
286.288	97.88
286.52	99.88
286.751	98.88
286.982	87.88
287.213	83.88
287.444	77.88
287.675	96.88
287.906	92.88
288.138	87.88
288.369	94.88
288.6	99.88
288.831	78.88
289.062	89.88
289.293	94.88
289.524	88.88
289.755	86.88
289.986	95.88
290.217	97.88
290.448	92.88
290.679	93.88
290.91	85.88
291.141	84.88
291.371	93.88
291.602	80.88
291.833	87.88
292.064	84.88
292.295	89.88
292.526	100.88
292.757	84.88
292.987	91.88
293.218	89.88
293.449	93.88
293.68	80.88
293.91	93.88
294.141	87.88
294.372	104.88
294.603	95.88
294.833	95.88
295.064	96.88
295.295	81.88
295.525	91.88
295.756	90.88
295.987	117.88
296.217	124.88
296.448	113.88
296.679	99.88
296.909	102.88
297.14	91.88
297.37	88.88
297.601	91.88
297.831	88.88
298.062	79.88
298.292	84.88
298.523	102.88
298.753	92.88
298.984	90.88
299.214	82.88
299.445	94.88
299.675	106.88
299.905	96.88
300.136	98.88
300.366	79.88
300.597	87.88
300.827	99.88
301.057	94.88
301.288	101.88
301.518	95.88
301.748	106.88
301.979	109.88
302.209	99.88
302.439	97.88
302.669	88.88
302.9	90.88
303.13	93.88
303.36	104.88
303.59	90.88
303.82	95.88
304.051	99.88
304.281	90.88
304.511	103.88
304.741	99.88
304.971	98.88
305.201	89.88
305.431	92.88
305.661	103.88
305.891	95.88
306.121	95.88
306.352	95.88
306.582	100.88
306.812	98.88
307.042	102.88
307.272	87.88
307.502	99.88
307.731	97.88
307.961	99.88
308.191	102.88
308.421	99.88
308.651	102.88
308.881	97.88
309.111	95.88
309.341	86.88
309.571	106.88
309.8	99.88
310.03	92.88
310.26	108.88
310.49	93.88
310.72	99.88
310.949	107.88
311.179	99.88
311.409	91.88
311.639	104.88
311.868	99.88
312.098	106.88
312.328	99.88
312.557	110.88
312.787	99.88
313.017	93.88
313.246	101.88
313.476	100.88
313.706	90.88
313.935	82.88
314.165	98.88
314.394	103.88
314.624	90.88
314.853	91.88
315.083	101.88
315.312	92.88
315.542	85.88
315.771	84.88
316.001	93.88
316.23	88.88
316.46	96.88
316.689	93.88
316.919	78.88
317.148	84.88
317.377	106.88
317.607	114.88
317.836	91.88
318.065	81.88
318.295	85.88
318.524	89.88
318.753	83.88
318.983	93.88
319.212	103.88
319.441	102.88
319.67	86.88
319.9	95.88
320.129	90.88
320.358	78.88
320.587	84.88
320.816	104.88
321.046	113.88
321.275	110.88
321.504	87.88
321.733	98.88
321.962	94.88
322.191	92.88
322.42	102.88
322.649	116.88
322.878	104.88
323.108	127.88
323.337	115.88
323.566	113.88
323.795	134.88
324.024	179.88
324.253	303.88
324.482	630.88
324.71	1246.88
324.939	1650.88
325.168	629.88
325.397	195.88
325.626	144.88
325.855	122.88
326.084	116.88
326.313	114.88
326.542	161.88
326.77	196.88
326.999	371.88
327.228	712.88
327.457	1280.88
327.686	1005.88
327.914	288.88
328.143	156.88
328.372	114.88
328.6	111.88
328.829	112.88
329.058	103.88
329.287	119.88
329.515	115.88
329.744	101.88
329.972	101.88
330.201	110.88
330.43	88.88
330.658	130.88
330.887	127.88
331.115	114.88
331.344	103.88
331.572	90.88
331.801	99.88
332.03	105.88
332.258	87.88
332.486	94.88
332.715	92.88
332.943	107.88
333.172	94.88
333.4	115.88
333.629	117.88
333.857	100.88
334.085	102.88
334.314	101.88
334.542	93.88
334.771	99.88
334.999	96.88
335.227	86.88
335.455	83.88
335.684	104.88
335.912	93.88
336.14	96.88
336.369	111.88
336.597	107.88
336.825	88.88
337.053	90.88
337.281	97.88
337.51	84.88
337.738	105.88
337.966	102.88
338.194	87.88
338.422	94.88
338.65	86.88
338.878	93.88
339.106	98.88
339.334	105.88
339.562	79.88
339.79	84.88
340.018	95.88
340.246	101.88
340.474	106.88
340.702	92.88
340.93	92.88
341.158	99.88
341.386	87.88
341.614	95.88
341.842	85.88
342.07	103.88
342.298	88.88
342.526	85.88
342.754	91.88
342.981	101.88
343.209	86.88
343.437	101.88
343.665	93.88
343.893	95.88
344.12	93.88
344.348	83.88
344.576	97.88
344.804	94.88
345.031	107.88
345.259	103.88
345.487	90.88
345.714	94.88
345.942	99.88
346.17	98.88
346.397	94.88
346.625	96.88
346.853	102.88
347.08	99.88
347.308	91.88
347.535	95.88
347.763	97.88
347.99	97.88
348.218	93.88
348.445	86.88
348.673	105.88
348.9	91.88
349.128	86.88
349.355	95.88
349.583	97.88
349.81	97.88
350.037	98.88
350.265	92.88
350.492	88.88
350.72	95.88
350.947	109.88
351.174	95.88
351.402	102.88
351.629	95.88
351.856	109.88
352.083	111.88
352.311	99.88
352.538	102.88
352.765	103.88
352.992	106.88
353.22	104.88
353.447	101.88
353.674	103.88
353.901	99.88
354.128	90.88
354.355	103.88
354.583	99.88
354.81	100.88
355.037	104.88
355.264	102.88
355.491	103.88
355.718	100.88
355.945	95.88
356.172	96.88
356.399	101.88
356.626	90.88
356.853	87.88
357.08	90.88
357.307	88.88
357.534	92.88
357.761	98.88
357.988	102.88
358.215	111.88
358.441	98.88
358.668	94.88
358.895	90.88
359.122	98.88
359.349	91.88
359.576	86.88
359.802	107.88
360.029	107.88
360.256	107.88
360.483	101.88
360.709	81.88
360.936	96.88
361.163	93.88
361.39	109.88
361.616	90.88
361.843	93.88
362.07	107.88
362.296	90.88
362.523	95.88
362.749	87.88
362.976	94.88
363.203	106.88
363.429	92.88
363.656	99.88
363.882	86.88
364.109	87.88
364.335	98.88
364.562	92.88
364.788	97.88
365.015	89.88
365.241	95.88
365.468	101.88
365.694	91.88
365.92	82.88
366.147	99.88
366.373	90.88
366.599	104.88
366.826	90.88
367.052	91.88
367.278	86.88
367.505	97.88
367.731	99.88
367.957	89.88
368.184	108.88
368.41	112.88
368.636	98.88
368.862	109.88
369.089	93.88
369.315	90.88
369.541	85.88
369.767	89.88
369.993	97.88
370.219	93.88
370.445	84.88
370.672	88.88
370.898	82.88
371.124	84.88
371.35	83.88
371.576	85.88
371.802	90.88
372.028	92.88
372.254	98.88
372.48	95.88
372.706	100.88
372.932	85.88
373.158	100.88
373.384	86.88
373.61	86.88
373.835	88.88
374.061	85.88
374.287	83.88
374.513	82.88
374.739	86.88
374.965	98.88
375.191	95.88
375.416	93.88
375.642	82.88
375.868	97.88
376.094	87.88
376.319	82.88
376.545	88.88
376.771	98.88
376.997	88.88
377.222	85.88
377.448	97.88
377.674	101.88
377.899	111.88
378.125	86.88
378.35	94.88
378.576	90.88
378.802	97.88
379.027	96.88
379.253	110.88
379.478	87.88
379.704	92.88
379.929	93.88
380.155	87.88
380.38	104.88
380.606	98.88
380.831	103.88
381.057	95.88
381.282	85.88
381.507	87.88
381.733	83.88
381.958	100.88
382.184	99.88
382.409	92.88
382.634	95.88
382.86	93.88
383.085	96.88
383.31	98.88
383.535	109.88
383.761	93.88
383.986	91.88
384.211	94.88
384.436	101.88
384.662	96.88
384.887	99.88
385.112	101.88
385.337	115.88
385.562	102.88
385.787	110.88
386.013	111.88
386.238	101.88
386.463	104.88
386.688	111.88
386.913	122.88
387.138	98.88
387.363	101.88
387.588	97.88
387.813	98.88
388.038	98.88
388.263	112.88
388.488	102.88
388.713	104.88
388.938	99.88
389.163	100.88
389.387	98.88
389.612	106.88
389.837	102.88
390.062	108.88
390.287	96.88
390.512	97.88
390.736	85.88
390.961	94.88
391.186	94.88
391.411	90.88
391.636	83.88
391.86	96.88
392.085	94.88
392.31	94.88
392.534	91.88
392.759	90.88
392.984	80.88
393.208	87.88
393.433	86.88
393.658	93.88
393.882	68.88
394.107	86.88
394.331	95.88
394.556	96.88
394.78	88.88
395.005	93.88
395.229	92.88
395.454	93.88
395.678	83.88
395.903	95.88
396.127	83.88
396.352	81.88
396.576	111.88
396.801	91.88
397.025	80.88
397.249	88.88
397.474	86.88
397.698	86.88
397.922	59.88
398.147	90.88
398.371	90.88
398.595	96.88
398.82	89.88
399.044	99.88
399.268	84.88
399.492	83.88
399.717	87.88
399.941	76.88
400.165	89.88
400.389	94.88
400.613	103.88
400.837	93.88
401.062	84.88
401.286	81.88
401.51	93.88
401.734	84.88
401.958	95.88
402.182	115.88
402.406	130.88
402.63	101.88
402.854	99.88
403.078	95.88
403.302	100.88
403.526	86.88
403.75	83.88
403.974	84.88
404.198	97.88
404.422	76.88
404.645	97.88
404.869	91.88
405.093	101.88
405.317	91.88
405.541	100.88
405.765	107.88
405.988	116.88
406.212	166.88
406.436	184.88
406.66	128.88
406.883	93.88
407.107	91.88
407.331	88.88
407.555	109.88
407.778	100.88
408.002	99.88
408.226	93.88
408.449	87.88
408.673	71.88
408.896	84.88
409.12	78.88
409.344	91.88
409.567	89.88
409.791	97.88
410.014	90.88
410.238	101.88
410.461	81.88
410.685	101.88
410.908	114.88
411.132	110.88
411.355	95.88
411.578	97.88
411.802	98.88
412.025	97.88
412.249	83.88
412.472	98.88
412.695	67.88
412.919	84.88
413.142	80.88
413.365	108.88
413.589	95.88
413.812	87.88
414.035	95.88
414.258	92.88
414.482	98.88
414.705	76.88
414.928	94.88
415.151	97.88
415.374	90.88
415.597	96.88
415.821	94.88
416.044	91.88
416.267	79.88
416.49	99.88
416.713	92.88
416.936	92.88
417.159	82.88
417.382	75.88
417.605	101.88
417.828	97.88
418.051	91.88
418.274	84.88
418.497	90.88
418.72	80.88
418.943	95.88
419.166	87.88
419.389	99.88
419.611	98.88
419.834	93.88
420.057	88.88
420.28	96.88
420.503	91.88
420.726	90.88
420.948	90.88
421.171	97.88
421.394	100.88
421.617	87.88
421.839	96.88
422.062	78.88
422.285	89.88
422.507	97.88
422.73	99.88
422.953	91.88
423.175	83.88
423.398	83.88
423.621	94.88
423.843	79.88
424.066	96.88
424.288	96.88
424.511	79.88
424.733	88.88
424.956	96.88
425.178	98.88
425.401	94.88
425.623	101.88
425.846	99.88
426.068	70.88
426.291	90.88
426.513	81.88
426.735	94.88
426.958	101.88
427.18	99.88
427.402	119.88
427.625	133.88
427.847	117.88
428.069	96.88
428.292	93.88
428.514	89.88
428.736	103.88
428.958	92.88
429.181	80.88
429.403	90.88
429.625	86.88
429.847	90.88
430.069	101.88
430.292	76.88
430.514	87.88
430.736	82.88
430.958	107.88
431.18	96.88
431.402	99.88
431.624	71.88
431.846	84.88
432.068	77.88
432.29	80.88
432.512	84.88
432.734	95.88
432.956	87.88
433.178	101.88
433.4	88.88
433.622	92.88
433.844	102.88
434.066	98.88
434.287	86.88
434.509	87.88
434.731	87.88
434.953	96.88
435.175	92.88
435.397	95.88
435.618	86.88
435.84	89.88
436.062	112.88
436.284	96.88
436.505	114.88
436.727	108.88
436.949	91.88
437.17	82.88
437.392	84.88
437.614	85.88
437.835	98.88
438.057	110.88
438.278	94.88
438.5	95.88
438.721	108.88
438.943	101.88
439.165	93.88
439.386	92.88
439.608	71.88
439.829	84.88
440.05	119.88
440.272	124.88
440.493	89.88
440.715	86.88
440.936	81.88
441.158	92.88
441.379	95.88
441.6	83.88
441.822	79.88
442.043	80.88
442.264	98.88
442.486	88.88
442.707	100.88
442.928	97.88
443.149	114.88
443.371	103.88
443.592	108.88
443.813	96.88
444.034	91.88
444.255	80.88
444.476	83.88
444.698	97.88
444.919	80.88
445.14	122.88
445.361	113.88
445.582	108.88
445.803	115.88
446.024	136.88
446.245	111.88
446.466	104.88
446.687	80.88
446.908	78.88
447.129	85.88
447.35	83.88
447.571	82.88
447.792	92.88
448.013	94.88
448.234	78.88
448.455	96.88
448.675	105.88
448.896	112.88
449.117	99.88
449.338	96.88
449.559	120.88
449.779	118.88
450	92.88
450.221	90.88
450.442	85.88
450.662	87.88
450.883	98.88
451.104	94.88
451.324	95.88
451.545	87.88
451.766	97.88
451.986	81.88
452.207	81.88
452.428	82.88
452.648	99.88
452.869	107.88
453.089	111.88
453.31	98.88
453.53	79.88
453.751	83.88
453.971	100.88
454.192	104.88
454.412	104.88
454.633	88.88
454.853	82.88
455.073	90.88
455.294	91.88
455.514	85.88
455.734	87.88
455.955	93.88
456.175	87.88
456.395	91.88
456.616	96.88
456.836	71.88
457.056	85.88
457.276	78.88
457.497	96.88
457.717	90.88
457.937	85.88
458.157	93.88
458.377	86.88
458.598	97.88
458.818	122.88
459.038	144.88
459.258	124.88
459.478	97.88
459.698	93.88
459.918	89.88
460.138	95.88
460.358	102.88
460.578	108.88
460.798	100.88
461.018	103.88
461.238	84.88
461.458	91.88
461.678	85.88
461.898	91.88
462.118	86.88
462.338	77.88
462.558	82.88
462.777	80.88
462.997	77.88
463.217	88.88
463.437	81.88
463.657	82.88
463.876	81.88
464.096	85.88
464.316	95.88
464.536	96.88
464.755	95.88
464.975	100.88
465.195	153.88
465.414	136.88
465.634	84.88
465.854	103.88
466.073	91.88
466.293	103.88
466.512	101.88
466.732	77.88
466.951	82.88
467.171	80.88
467.391	86.88
467.61	100.88
467.829	96.88
468.049	97.88
468.268	85.88
468.488	79.88
468.707	89.88
468.927	100.88
469.146	96.88
469.365	83.88
469.585	100.88
469.804	106.88
470.023	95.88
470.243	90.88
470.462	90.88
470.681	101.88
470.901	90.88
471.12	91.88
471.339	93.88
471.558	87.88
471.777	94.88
471.997	88.88
472.216	97.88
472.435	102.88
472.654	87.88
472.873	96.88
473.092	104.88
473.311	96.88
473.53	91.88
473.749	92.88
473.968	86.88
474.187	103.88
474.406	94.88
474.625	83.88
474.844	80.88
475.063	86.88
475.282	104.88
475.501	93.88
475.72	84.88
475.939	98.88
476.158	78.88
476.377	85.88
476.596	80.88
476.814	99.88
477.033	93.88
477.252	84.88
477.471	85.88
477.69	79.88
477.908	94.88
478.127	94.88
478.346	83.88
478.564	93.88
478.783	97.88
479.002	96.88
479.22	99.88
479.439	91.88
479.658	109.88
479.876	89.88
480.095	87.88
480.313	79.88
480.532	92.88
480.751	89.88
480.969	95.88
481.188	105.88
481.406	98.88
481.624	101.88
481.843	75.88
482.061	85.88
482.28	85.88
482.498	87.88
482.717	100.88
482.935	101.88
483.153	102.88
483.372	92.88
483.59	90.88
483.808	87.88
484.027	114.88
484.245	101.88
484.463	81.88
484.681	101.88
484.9	78.88
485.118	96.88
485.336	92.88
485.554	110.88
485.772	106.88
485.99	108.88
486.209	117.88
486.427	105.88
486.645	95.88
486.863	105.88
487.081	112.88
487.299	91.88
487.517	94.88
487.735	91.88
487.953	96.88
488.171	92.88
488.389	88.88
488.607	93.88
488.825	94.88
489.043	93.88
489.261	94.88
489.479	78.88
489.696	90.88
489.914	84.88
490.132	83.88
490.35	78.88
490.568	84.88
490.786	88.88
491.003	94.88
491.221	92.88
491.439	95.88
491.657	89.88
491.874	90.88
492.092	84.88
492.31	84.88
492.527	91.88
492.745	93.88
492.963	85.88
493.18	78.88
493.398	92.88
493.615	106.88
493.833	96.88
494.05	78.88
494.268	106.88
494.485	94.88
494.703	90.88
494.92	82.88
495.138	83.88
495.355	87.88
495.573	106.88
495.79	76.88
496.008	89.88
496.225	84.88
496.442	88.88
496.66	94.88
496.877	110.88
497.094	78.88
497.312	105.88
497.529	90.88
497.746	106.88
497.963	103.88
498.181	103.88
498.398	104.88
498.615	107.88
498.832	92.88
499.049	99.88
499.267	92.88
499.484	96.88
499.701	75.88
499.918	101.88
500.135	86.88
500.352	97.88
500.569	90.88
500.786	105.88
501.003	83.88
501.22	95.88
501.437	91.88
501.654	91.88
501.871	122.88
502.088	97.88
502.305	106.88
502.522	88.88
502.739	97.88
502.956	95.88
503.172	93.88
503.389	98.88
503.606	97.88
503.823	87.88
504.04	89.88
504.256	83.88
504.473	78.88
504.69	92.88
504.907	90.88
505.123	102.88
505.34	95.88
505.557	78.88
505.773	97.88
505.99	90.88
506.207	90.88
506.423	86.88
506.64	102.88
506.856	92.88
507.073	92.88
507.289	98.88
507.506	98.88
507.722	92.88
507.939	96.88
508.155	109.88
508.372	92.88
508.588	93.88
508.805	95.88
509.021	94.88
509.238	102.88
509.454	104.88
509.67	107.88
509.887	88.88
510.103	126.88
510.319	199.88
510.536	613.88
510.752	1841.88
510.968	514.88
511.184	134.88
511.401	102.88
511.617	95.88
511.833	84.88
512.049	91.88
512.265	90.88
512.481	90.88
512.698	99.88
512.914	99.88
513.13	100.88
513.346	90.88
513.562	109.88
513.778	88.88
513.994	92.88
514.21	101.88
514.426	125.88
514.642	109.88
514.858	117.88
515.074	153.88
515.29	382.88
515.506	1116.88
515.721	407.88
