Data from Uncirc_1993_H10_HRD10591_00077.txt Node
Date: Wed Jan 03 11:43:07 EST 2024
User: Yrep
Spectrometer: HR+D1059
Trigger mode: 1
Integration Time (sec): 1.000000E-1
Scans to average: 1
Electric dark correction enabled: true
Nonlinearity correction enabled: false
Boxcar width: 0
XAxis mode: Wavelengths
Number of Pixels in Spectrum: 2048
>>>>>Begin Spectral Data<<<<<
223.165	-1.81
223.4	-1.81
223.635	-1.81
223.869	-16.81
224.104	-30.81
224.338	-16.81
224.573	-18.81
224.808	-10.81
225.042	-13.81
225.277	-9.81
225.511	8.19
225.746	1.19
225.98	16.19
226.215	4.19
226.449	15.19
226.683	20.19
226.918	18.19
227.152	36.19
227.387	46.19
227.621	47.19
227.856	46.19
228.09	47.19
228.324	54.19
228.559	62.19
228.793	53.19
229.027	56.19
229.262	76.19
229.496	63.19
229.73	81.19
229.964	85.19
230.199	79.19
230.433	72.19
230.667	90.19
230.901	85.19
231.136	90.19
231.37	83.19
231.604	79.19
231.838	71.19
232.072	82.19
232.306	83.19
232.541	89.19
232.775	76.19
233.009	90.19
233.243	83.19
233.477	73.19
233.711	59.19
233.945	69.19
234.179	87.19
234.413	85.19
234.647	76.19
234.881	70.19
235.115	81.19
235.349	83.19
235.583	96.19
235.817	93.19
236.051	70.19
236.285	53.19
236.519	73.19
236.753	82.19
236.987	61.19
237.221	81.19
237.455	88.19
237.689	80.19
237.922	72.19
238.156	69.19
238.39	82.19
238.624	67.19
238.858	76.19
239.091	60.19
239.325	79.19
239.559	89.19
239.793	84.19
240.027	82.19
240.26	76.19
240.494	70.19
240.728	70.19
240.961	70.19
241.195	79.19
241.429	78.19
241.662	68.19
241.896	83.19
242.13	64.19
242.363	80.19
242.597	89.19
242.83	81.19
243.064	78.19
243.298	79.19
243.531	93.19
243.765	79.19
243.998	79.19
244.232	86.19
244.465	95.19
244.699	72.19
244.932	63.19
245.166	66.19
245.399	70.19
245.633	77.19
245.866	87.19
246.099	68.19
246.333	86.19
246.566	73.19
246.8	72.19
247.033	78.19
247.266	72.19
247.5	86.19
247.733	87.19
247.966	83.19
248.2	79.19
248.433	102.19
248.666	73.19
248.899	91.19
249.133	79.19
249.366	102.19
249.599	88.19
249.832	79.19
250.066	88.19
250.299	81.19
250.532	83.19
250.765	92.19
250.998	79.19
251.231	68.19
251.465	81.19
251.698	86.19
251.931	80.19
252.164	87.19
252.397	63.19
252.63	81.19
252.863	68.19
253.096	63.19
253.329	63.19
253.562	91.19
253.795	73.19
254.028	87.19
254.261	86.19
254.494	79.19
254.727	86.19
254.96	86.19
255.193	79.19
255.426	72.19
255.659	88.19
255.892	93.19
256.124	84.19
256.357	79.19
256.59	91.19
256.823	81.19
257.056	84.19
257.289	76.19
257.521	77.19
257.754	80.19
257.987	83.19
258.22	96.19
258.452	79.19
258.685	83.19
258.918	82.19
259.151	85.19
259.383	96.19
259.616	79.19
259.849	67.19
260.081	85.19
260.314	80.19
260.547	86.19
260.779	81.19
261.012	86.19
261.244	95.19
261.477	81.19
261.71	91.19
261.942	111.19
262.175	105.19
262.407	88.19
262.64	81.19
262.872	88.19
263.105	83.19
263.337	89.19
263.57	87.19
263.802	66.19
264.035	82.19
264.267	75.19
264.499	88.19
264.732	93.19
264.964	85.19
265.197	77.19
265.429	95.19
265.661	77.19
265.894	75.19
266.126	91.19
266.358	87.19
266.591	92.19
266.823	83.19
267.055	92.19
267.287	74.19
267.52	93.19
267.752	75.19
267.984	92.19
268.216	79.19
268.448	79.19
268.681	93.19
268.913	82.19
269.145	81.19
269.377	74.19
269.609	93.19
269.841	75.19
270.073	78.19
270.306	85.19
270.538	89.19
270.77	95.19
271.002	103.19
271.234	98.19
271.466	90.19
271.698	82.19
271.93	79.19
272.162	78.19
272.394	87.19
272.626	95.19
272.858	93.19
273.09	91.19
273.322	86.19
273.553	91.19
273.785	73.19
274.017	96.19
274.249	83.19
274.481	103.19
274.713	85.19
274.945	90.19
275.176	76.19
275.408	91.19
275.64	89.19
275.872	76.19
276.104	95.19
276.335	95.19
276.567	108.19
276.799	96.19
277.031	107.19
277.262	86.19
277.494	86.19
277.726	87.19
277.957	80.19
278.189	93.19
278.421	104.19
278.652	68.19
278.884	92.19
279.115	100.19
279.347	88.19
279.579	92.19
279.81	97.19
280.042	87.19
280.273	83.19
280.505	82.19
280.736	74.19
280.968	93.19
281.199	92.19
281.431	99.19
281.662	91.19
281.894	86.19
282.125	89.19
282.356	122.19
282.588	140.19
282.819	102.19
283.051	85.19
283.282	101.19
283.513	91.19
283.745	79.19
283.976	73.19
284.207	82.19
284.439	75.19
284.67	98.19
284.901	76.19
285.132	93.19
285.364	88.19
285.595	72.19
285.826	92.19
286.057	83.19
286.288	97.19
286.52	88.19
286.751	101.19
286.982	88.19
287.213	70.19
287.444	85.19
287.675	71.19
287.906	71.19
288.138	92.19
288.369	82.19
288.6	85.19
288.831	82.19
289.062	89.19
289.293	72.19
289.524	91.19
289.755	83.19
289.986	79.19
290.217	90.19
290.448	87.19
290.679	94.19
290.91	94.19
291.141	91.19
291.371	102.19
291.602	85.19
291.833	86.19
292.064	91.19
292.295	96.19
292.526	97.19
292.757	95.19
292.987	73.19
293.218	93.19
293.449	86.19
293.68	97.19
293.91	86.19
294.141	92.19
294.372	96.19
294.603	96.19
294.833	80.19
295.064	86.19
295.295	96.19
295.525	112.19
295.756	105.19
295.987	127.19
296.217	134.19
296.448	115.19
296.679	108.19
296.909	91.19
297.14	89.19
297.37	90.19
297.601	92.19
297.831	82.19
298.062	87.19
298.292	78.19
298.523	84.19
298.753	93.19
298.984	90.19
299.214	93.19
299.445	91.19
299.675	69.19
299.905	100.19
300.136	98.19
300.366	87.19
300.597	101.19
300.827	104.19
301.057	82.19
301.288	110.19
301.518	92.19
301.748	79.19
301.979	89.19
302.209	87.19
302.439	92.19
302.669	97.19
302.9	99.19
303.13	97.19
303.36	100.19
303.59	103.19
303.82	84.19
304.051	98.19
304.281	92.19
304.511	90.19
304.741	88.19
304.971	88.19
305.201	98.19
305.431	103.19
305.661	94.19
305.891	99.19
306.121	104.19
306.352	89.19
306.582	100.19
306.812	90.19
307.042	96.19
307.272	99.19
307.502	94.19
307.731	93.19
307.961	102.19
308.191	86.19
308.421	86.19
308.651	101.19
308.881	82.19
309.111	86.19
309.341	87.19
309.571	92.19
309.8	94.19
310.03	88.19
310.26	103.19
310.49	104.19
310.72	97.19
310.949	104.19
311.179	102.19
311.409	86.19
311.639	92.19
311.868	89.19
312.098	99.19
312.328	87.19
312.557	101.19
312.787	107.19
313.017	91.19
313.246	103.19
313.476	115.19
313.706	96.19
313.935	103.19
314.165	93.19
314.394	103.19
314.624	105.19
314.853	113.19
315.083	92.19
315.312	88.19
315.542	101.19
315.771	100.19
316.001	88.19
316.23	90.19
316.46	109.19
316.689	93.19
316.919	97.19
317.148	107.19
317.377	87.19
317.607	97.19
317.836	75.19
318.065	91.19
318.295	98.19
318.524	96.19
318.753	91.19
318.983	87.19
319.212	100.19
319.441	97.19
319.67	111.19
319.9	82.19
320.129	97.19
320.358	96.19
320.587	93.19
320.816	91.19
321.046	101.19
321.275	112.19
321.504	75.19
321.733	105.19
321.962	98.19
322.191	87.19
322.42	115.19
322.649	97.19
322.878	124.19
323.108	124.19
323.337	131.19
323.566	137.19
323.795	143.19
324.024	185.19
324.253	337.19
324.482	661.19
324.71	1311.19
324.939	1683.19
325.168	639.19
325.397	203.19
325.626	149.19
325.855	131.19
326.084	132.19
326.313	112.19
326.542	133.19
326.77	192.19
326.999	361.19
327.228	735.19
327.457	1305.19
327.686	1045.19
327.914	303.19
328.143	167.19
328.372	130.19
328.6	123.19
328.829	116.19
329.058	112.19
329.287	134.19
329.515	105.19
329.744	112.19
329.972	94.19
330.201	100.19
330.43	108.19
330.658	106.19
330.887	116.19
331.115	126.19
331.344	108.19
331.572	91.19
331.801	104.19
332.03	102.19
332.258	95.19
332.486	97.19
332.715	86.19
332.943	101.19
333.172	109.19
333.4	102.19
333.629	102.19
333.857	116.19
334.085	93.19
334.314	101.19
334.542	106.19
334.771	103.19
334.999	100.19
335.227	97.19
335.455	103.19
335.684	102.19
335.912	115.19
336.14	88.19
336.369	99.19
336.597	103.19
336.825	93.19
337.053	88.19
337.281	95.19
337.51	94.19
337.738	99.19
337.966	104.19
338.194	76.19
338.422	87.19
338.65	107.19
338.878	89.19
339.106	97.19
339.334	99.19
339.562	87.19
339.79	88.19
340.018	96.19
340.246	95.19
340.474	106.19
340.702	100.19
340.93	100.19
341.158	91.19
341.386	103.19
341.614	96.19
341.842	114.19
342.07	99.19
342.298	84.19
342.526	103.19
342.754	99.19
342.981	86.19
343.209	85.19
343.437	109.19
343.665	85.19
343.893	96.19
344.12	95.19
344.348	94.19
344.576	104.19
344.804	92.19
345.031	96.19
345.259	114.19
345.487	93.19
345.714	90.19
345.942	94.19
346.17	89.19
346.397	88.19
346.625	88.19
346.853	101.19
347.08	77.19
347.308	78.19
347.535	101.19
347.763	112.19
347.99	96.19
348.218	113.19
348.445	99.19
348.673	98.19
348.9	100.19
349.128	102.19
349.355	99.19
349.583	99.19
349.81	103.19
350.037	100.19
350.265	105.19
350.492	89.19
350.72	102.19
350.947	112.19
351.174	113.19
351.402	104.19
351.629	115.19
351.856	101.19
352.083	85.19
352.311	110.19
352.538	102.19
352.765	103.19
352.992	118.19
353.22	107.19
353.447	106.19
353.674	106.19
353.901	102.19
354.128	90.19
354.355	102.19
354.583	105.19
354.81	100.19
355.037	103.19
355.264	91.19
355.491	95.19
355.718	107.19
355.945	112.19
356.172	91.19
356.399	87.19
356.626	102.19
356.853	88.19
357.08	97.19
357.307	100.19
357.534	94.19
357.761	93.19
357.988	95.19
358.215	96.19
358.441	108.19
358.668	104.19
358.895	88.19
359.122	105.19
359.349	96.19
359.576	98.19
359.802	104.19
360.029	97.19
360.256	100.19
360.483	98.19
360.709	98.19
360.936	106.19
361.163	101.19
361.39	89.19
361.616	94.19
361.843	113.19
362.07	95.19
362.296	100.19
362.523	99.19
362.749	104.19
362.976	106.19
363.203	95.19
363.429	109.19
363.656	85.19
363.882	92.19
364.109	92.19
364.335	93.19
364.562	90.19
364.788	85.19
365.015	80.19
365.241	90.19
365.468	106.19
365.694	101.19
365.92	94.19
366.147	87.19
366.373	92.19
366.599	94.19
366.826	91.19
367.052	97.19
367.278	101.19
367.505	97.19
367.731	93.19
367.957	94.19
368.184	91.19
368.41	97.19
368.636	118.19
368.862	105.19
369.089	123.19
369.315	84.19
369.541	100.19
369.767	109.19
369.993	89.19
370.219	92.19
370.445	81.19
370.672	94.19
370.898	98.19
371.124	87.19
371.35	85.19
371.576	102.19
371.802	76.19
372.028	75.19
372.254	102.19
372.48	94.19
372.706	90.19
372.932	91.19
373.158	96.19
373.384	88.19
373.61	101.19
373.835	99.19
374.061	76.19
374.287	99.19
374.513	92.19
374.739	87.19
374.965	96.19
375.191	96.19
375.416	90.19
375.642	105.19
375.868	106.19
376.094	91.19
376.319	87.19
376.545	91.19
376.771	87.19
376.997	85.19
377.222	97.19
377.448	78.19
377.674	100.19
377.899	81.19
378.125	94.19
378.35	87.19
378.576	94.19
378.802	95.19
379.027	92.19
379.253	89.19
379.478	103.19
379.704	80.19
379.929	108.19
380.155	95.19
380.38	95.19
380.606	101.19
380.831	102.19
381.057	104.19
381.282	85.19
381.507	105.19
381.733	97.19
381.958	84.19
382.184	105.19
382.409	93.19
382.634	104.19
382.86	102.19
383.085	103.19
383.31	106.19
383.535	121.19
383.761	92.19
383.986	89.19
384.211	101.19
384.436	105.19
384.662	95.19
384.887	113.19
385.112	120.19
385.337	95.19
385.562	109.19
385.787	91.19
386.013	111.19
386.238	113.19
386.463	96.19
386.688	100.19
386.913	106.19
387.138	107.19
387.363	99.19
387.588	104.19
387.813	86.19
388.038	103.19
388.263	106.19
388.488	90.19
388.713	95.19
388.938	100.19
389.163	96.19
389.387	94.19
389.612	110.19
389.837	91.19
390.062	104.19
390.287	96.19
390.512	97.19
390.736	90.19
390.961	107.19
391.186	102.19
391.411	103.19
391.636	107.19
391.86	95.19
392.085	100.19
392.31	85.19
392.534	86.19
392.759	94.19
392.984	98.19
393.208	104.19
393.433	79.19
393.658	82.19
393.882	75.19
394.107	94.19
394.331	91.19
394.556	73.19
394.78	101.19
395.005	100.19
395.229	87.19
395.454	97.19
395.678	94.19
395.903	92.19
396.127	95.19
396.352	87.19
396.576	88.19
396.801	110.19
397.025	96.19
397.249	94.19
397.474	95.19
397.698	89.19
397.922	82.19
398.147	93.19
398.371	101.19
398.595	87.19
398.82	96.19
399.044	104.19
399.268	90.19
399.492	83.19
399.717	85.19
399.941	98.19
400.165	93.19
400.389	109.19
400.613	102.19
400.837	81.19
401.062	95.19
401.286	78.19
401.51	98.19
401.734	96.19
401.958	94.19
402.182	115.19
402.406	163.19
402.63	122.19
402.854	79.19
403.078	84.19
403.302	89.19
403.526	87.19
403.75	93.19
403.974	94.19
404.198	95.19
404.422	94.19
404.645	89.19
404.869	83.19
405.093	98.19
405.317	98.19
405.541	91.19
405.765	91.19
405.988	115.19
406.212	176.19
406.436	195.19
406.66	141.19
406.883	111.19
407.107	87.19
407.331	101.19
407.555	108.19
407.778	109.19
408.002	80.19
408.226	97.19
408.449	91.19
408.673	84.19
408.896	96.19
409.12	90.19
409.344	101.19
409.567	105.19
409.791	100.19
410.014	94.19
410.238	86.19
410.461	87.19
410.685	101.19
410.908	93.19
411.132	111.19
411.355	114.19
411.578	76.19
411.802	104.19
412.025	102.19
412.249	86.19
412.472	89.19
412.695	93.19
412.919	91.19
413.142	102.19
413.365	93.19
413.589	92.19
413.812	96.19
414.035	91.19
414.258	88.19
414.482	95.19
414.705	97.19
414.928	89.19
415.151	101.19
415.374	84.19
415.597	101.19
415.821	93.19
416.044	94.19
416.267	109.19
416.49	109.19
416.713	84.19
416.936	99.19
417.159	83.19
417.382	83.19
417.605	88.19
417.828	88.19
418.051	84.19
418.274	95.19
418.497	96.19
418.72	99.19
418.943	93.19
419.166	89.19
419.389	83.19
419.611	92.19
419.834	88.19
420.057	92.19
420.28	81.19
420.503	99.19
420.726	87.19
420.948	91.19
421.171	97.19
421.394	94.19
421.617	88.19
421.839	99.19
422.062	95.19
422.285	91.19
422.507	98.19
422.73	104.19
422.953	91.19
423.175	80.19
423.398	75.19
423.621	88.19
423.843	88.19
424.066	80.19
424.288	82.19
424.511	98.19
424.733	105.19
424.956	112.19
425.178	86.19
425.401	92.19
425.623	111.19
425.846	91.19
426.068	103.19
426.291	99.19
426.513	109.19
426.735	84.19
426.958	99.19
427.18	98.19
427.402	117.19
427.625	153.19
427.847	131.19
428.069	96.19
428.292	93.19
428.514	88.19
428.736	98.19
428.958	82.19
429.181	83.19
429.403	83.19
429.625	107.19
429.847	96.19
430.069	97.19
430.292	94.19
430.514	91.19
430.736	86.19
430.958	88.19
431.18	92.19
431.402	87.19
431.624	79.19
431.846	82.19
432.068	83.19
432.29	96.19
432.512	86.19
432.734	100.19
432.956	90.19
433.178	81.19
433.4	106.19
433.622	85.19
433.844	95.19
434.066	87.19
434.287	100.19
434.509	99.19
434.731	82.19
434.953	87.19
435.175	75.19
435.397	85.19
435.618	103.19
435.84	98.19
436.062	102.19
436.284	100.19
436.505	103.19
436.727	98.19
436.949	102.19
437.17	87.19
437.392	99.19
437.614	79.19
437.835	106.19
438.057	101.19
438.278	102.19
438.5	104.19
438.721	113.19
438.943	98.19
439.165	88.19
439.386	73.19
439.608	95.19
439.829	105.19
440.05	103.19
440.272	135.19
440.493	95.19
440.715	88.19
440.936	97.19
441.158	95.19
441.379	100.19
441.6	94.19
441.822	90.19
442.043	98.19
442.264	89.19
442.486	99.19
442.707	72.19
442.928	95.19
443.149	119.19
443.371	119.19
443.592	115.19
443.813	102.19
444.034	110.19
444.255	75.19
444.476	98.19
444.698	89.19
444.919	89.19
445.14	126.19
445.361	114.19
445.582	121.19
445.803	111.19
446.024	128.19
446.245	122.19
446.466	96.19
446.687	92.19
446.908	92.19
447.129	89.19
447.35	72.19
447.571	89.19
447.792	105.19
448.013	99.19
448.234	96.19
448.455	98.19
448.675	114.19
448.896	115.19
449.117	88.19
449.338	95.19
449.559	109.19
449.779	120.19
450	92.19
450.221	77.19
450.442	96.19
450.662	84.19
450.883	104.19
451.104	102.19
451.324	89.19
451.545	84.19
451.766	72.19
451.986	90.19
452.207	82.19
452.428	87.19
452.648	106.19
452.869	99.19
453.089	106.19
453.31	115.19
453.53	90.19
453.751	92.19
453.971	106.19
454.192	101.19
454.412	91.19
454.633	92.19
454.853	100.19
455.073	85.19
455.294	92.19
455.514	96.19
455.734	101.19
455.955	97.19
456.175	92.19
456.395	95.19
456.616	84.19
456.836	93.19
457.056	97.19
457.276	79.19
457.497	80.19
457.717	82.19
457.937	101.19
458.157	83.19
458.377	91.19
458.598	97.19
458.818	145.19
459.038	148.19
459.258	104.19
459.478	79.19
459.698	96.19
459.918	100.19
460.138	79.19
460.358	88.19
460.578	91.19
460.798	86.19
461.018	83.19
461.238	80.19
461.458	82.19
461.678	95.19
461.898	89.19
462.118	88.19
462.338	96.19
462.558	77.19
462.777	89.19
462.997	100.19
463.217	81.19
463.437	89.19
463.657	87.19
463.876	83.19
464.096	93.19
464.316	92.19
464.536	91.19
464.755	92.19
464.975	116.19
465.195	150.19
465.414	132.19
465.634	83.19
465.854	86.19
466.073	82.19
466.293	88.19
466.512	83.19
466.732	95.19
466.951	91.19
467.171	84.19
467.391	101.19
467.61	103.19
467.829	91.19
468.049	98.19
468.268	93.19
468.488	91.19
468.707	87.19
468.927	89.19
469.146	78.19
469.365	101.19
469.585	82.19
469.804	91.19
470.023	93.19
470.243	95.19
470.462	97.19
470.681	121.19
470.901	91.19
471.12	87.19
471.339	96.19
471.558	83.19
471.777	89.19
471.997	89.19
472.216	98.19
472.435	103.19
472.654	91.19
472.873	89.19
473.092	109.19
473.311	95.19
473.53	85.19
473.749	82.19
473.968	84.19
474.187	105.19
474.406	100.19
474.625	104.19
474.844	65.19
475.063	87.19
475.282	93.19
475.501	80.19
475.72	100.19
475.939	94.19
476.158	102.19
476.377	87.19
476.596	93.19
476.814	89.19
477.033	109.19
477.252	97.19
477.471	84.19
477.69	69.19
477.908	100.19
478.127	104.19
478.346	87.19
478.564	111.19
478.783	96.19
479.002	92.19
479.22	89.19
479.439	97.19
479.658	100.19
479.876	94.19
480.095	102.19
480.313	91.19
480.532	110.19
480.751	85.19
480.969	91.19
481.188	91.19
481.406	93.19
481.624	77.19
481.843	96.19
482.061	91.19
482.28	98.19
482.498	95.19
482.717	88.19
482.935	83.19
483.153	76.19
483.372	86.19
483.59	96.19
483.808	104.19
484.027	99.19
484.245	87.19
484.463	111.19
484.681	101.19
484.9	92.19
485.118	83.19
485.336	85.19
485.554	99.19
485.772	115.19
485.99	112.19
486.209	112.19
486.427	107.19
486.645	99.19
486.863	105.19
487.081	107.19
487.299	86.19
487.517	102.19
487.735	108.19
487.953	91.19
488.171	85.19
488.389	92.19
488.607	108.19
488.825	93.19
489.043	104.19
489.261	79.19
489.479	93.19
489.696	100.19
489.914	83.19
490.132	76.19
490.35	91.19
490.568	96.19
490.786	77.19
491.003	77.19
491.221	87.19
491.439	87.19
491.657	94.19
491.874	109.19
492.092	89.19
492.31	91.19
492.527	87.19
492.745	92.19
492.963	87.19
493.18	93.19
493.398	100.19
493.615	96.19
493.833	89.19
494.05	86.19
494.268	109.19
494.485	85.19
494.703	84.19
494.92	93.19
495.138	94.19
495.355	86.19
495.573	95.19
495.79	83.19
496.008	89.19
496.225	85.19
496.442	78.19
496.66	87.19
496.877	105.19
497.094	98.19
497.312	83.19
497.529	83.19
497.746	89.19
497.963	90.19
498.181	100.19
498.398	100.19
498.615	101.19
498.832	94.19
499.049	96.19
499.267	111.19
499.484	109.19
499.701	86.19
499.918	90.19
500.135	81.19
500.352	84.19
500.569	87.19
500.786	101.19
501.003	91.19
501.22	75.19
501.437	85.19
501.654	88.19
501.871	99.19
502.088	84.19
502.305	106.19
502.522	95.19
502.739	105.19
502.956	91.19
503.172	98.19
503.389	104.19
503.606	111.19
503.823	113.19
504.04	97.19
504.256	87.19
504.473	93.19
504.69	91.19
504.907	88.19
505.123	103.19
505.34	83.19
505.557	105.19
505.773	97.19
505.99	93.19
506.207	95.19
506.423	91.19
506.64	95.19
506.856	79.19
507.073	85.19
507.289	101.19
507.506	93.19
507.722	116.19
507.939	100.19
508.155	78.19
508.372	95.19
508.588	107.19
508.805	96.19
509.021	92.19
509.238	107.19
509.454	103.19
509.67	115.19
509.887	112.19
510.103	125.19
510.319	199.19
510.536	672.19
510.752	2061.19
510.968	569.19
511.184	134.19
511.401	114.19
511.617	100.19
511.833	82.19
512.049	102.19
512.265	88.19
512.481	94.19
512.698	84.19
512.914	87.19
513.13	88.19
513.346	85.19
513.562	103.19
513.778	102.19
513.994	103.19
514.21	96.19
514.426	125.19
514.642	113.19
514.858	110.19
