Data from Uncirc_1993_H10_HRD10591_00073.txt Node
Date: Wed Jan 03 11:43:06 EST 2024
User: Yrep
Spectrometer: HR+D1059
Trigger mode: 1
Integration Time (sec): 1.000000E-1
Scans to average: 1
Electric dark correction enabled: true
Nonlinearity correction enabled: false
Boxcar width: 0
XAxis mode: Wavelengths
Number of Pixels in Spectrum: 2048
>>>>>Begin Spectral Data<<<<<
223.165	-14.62
223.4	-14.62
223.635	-14.62
223.869	-22.62
224.104	-20.62
224.338	-16.62
224.573	-11.62
224.808	-14.62
225.042	-3.62
225.277	-10.62
225.511	6.38
225.746	2.38
225.98	17.38
226.215	13.38
226.449	10.38
226.683	14.38
226.918	26.38
227.152	24.38
227.387	42.38
227.621	44.38
227.856	52.38
228.09	56.38
228.324	51.38
228.559	55.38
228.793	65.38
229.027	67.38
229.262	66.38
229.496	70.38
229.73	80.38
229.964	76.38
230.199	67.38
230.433	73.38
230.667	87.38
230.901	86.38
231.136	78.38
231.37	69.38
231.604	67.38
231.838	88.38
232.072	81.38
232.306	83.38
232.541	74.38
232.775	87.38
233.009	73.38
233.243	88.38
233.477	86.38
233.711	91.38
233.945	83.38
234.179	87.38
234.413	84.38
234.647	85.38
234.881	70.38
235.115	73.38
235.349	79.38
235.583	87.38
235.817	87.38
236.051	89.38
236.285	72.38
236.519	67.38
236.753	90.38
236.987	89.38
237.221	93.38
237.455	64.38
237.689	84.38
237.922	81.38
238.156	76.38
238.39	80.38
238.624	75.38
238.858	85.38
239.091	74.38
239.325	67.38
239.559	78.38
239.793	81.38
240.027	97.38
240.26	68.38
240.494	85.38
240.728	65.38
240.961	79.38
241.195	80.38
241.429	80.38
241.662	80.38
241.896	77.38
242.13	68.38
242.363	88.38
242.597	78.38
242.83	77.38
243.064	75.38
243.298	73.38
243.531	70.38
243.765	62.38
243.998	74.38
244.232	85.38
244.465	94.38
244.699	77.38
244.932	84.38
245.166	72.38
245.399	73.38
245.633	75.38
245.866	77.38
246.099	79.38
246.333	85.38
246.566	80.38
246.8	77.38
247.033	73.38
247.266	73.38
247.5	83.38
247.733	83.38
247.966	89.38
248.2	78.38
248.433	71.38
248.666	88.38
248.899	71.38
249.133	88.38
249.366	94.38
249.599	99.38
249.832	82.38
250.066	87.38
250.299	85.38
250.532	73.38
250.765	91.38
250.998	76.38
251.231	82.38
251.465	81.38
251.698	62.38
251.931	68.38
252.164	89.38
252.397	90.38
252.63	75.38
252.863	78.38
253.096	81.38
253.329	80.38
253.562	94.38
253.795	77.38
254.028	81.38
254.261	75.38
254.494	73.38
254.727	81.38
254.96	82.38
255.193	83.38
255.426	83.38
255.659	85.38
255.892	78.38
256.124	71.38
256.357	79.38
256.59	67.38
256.823	81.38
257.056	93.38
257.289	83.38
257.521	91.38
257.754	81.38
257.987	82.38
258.22	64.38
258.452	75.38
258.685	74.38
258.918	83.38
259.151	85.38
259.383	79.38
259.616	94.38
259.849	89.38
260.081	79.38
260.314	78.38
260.547	80.38
260.779	83.38
261.012	72.38
261.244	97.38
261.477	97.38
261.71	84.38
261.942	101.38
262.175	112.38
262.407	92.38
262.64	78.38
262.872	80.38
263.105	83.38
263.337	94.38
263.57	79.38
263.802	84.38
264.035	78.38
264.267	84.38
264.499	78.38
264.732	83.38
264.964	94.38
265.197	91.38
265.429	76.38
265.661	90.38
265.894	90.38
266.126	81.38
266.358	73.38
266.591	88.38
266.823	85.38
267.055	95.38
267.287	88.38
267.52	75.38
267.752	87.38
267.984	90.38
268.216	88.38
268.448	89.38
268.681	78.38
268.913	92.38
269.145	97.38
269.377	83.38
269.609	92.38
269.841	92.38
270.073	68.38
270.306	75.38
270.538	82.38
270.77	83.38
271.002	92.38
271.234	85.38
271.466	91.38
271.698	83.38
271.93	77.38
272.162	79.38
272.394	85.38
272.626	94.38
272.858	87.38
273.09	81.38
273.322	89.38
273.553	78.38
273.785	75.38
274.017	93.38
274.249	90.38
274.481	106.38
274.713	86.38
274.945	93.38
275.176	87.38
275.408	90.38
275.64	86.38
275.872	75.38
276.104	87.38
276.335	107.38
276.567	92.38
276.799	107.38
277.031	93.38
277.262	89.38
277.494	88.38
277.726	83.38
277.957	75.38
278.189	83.38
278.421	91.38
278.652	92.38
278.884	79.38
279.115	97.38
279.347	93.38
279.579	87.38
279.81	96.38
280.042	102.38
280.273	82.38
280.505	86.38
280.736	89.38
280.968	76.38
281.199	98.38
281.431	91.38
281.662	97.38
281.894	92.38
282.125	113.38
282.356	102.38
282.588	125.38
282.819	109.38
283.051	85.38
283.282	81.38
283.513	85.38
283.745	90.38
283.976	86.38
284.207	72.38
284.439	73.38
284.67	78.38
284.901	95.38
285.132	99.38
285.364	78.38
285.595	84.38
285.826	91.38
286.057	82.38
286.288	89.38
286.52	97.38
286.751	79.38
286.982	81.38
287.213	77.38
287.444	100.38
287.675	76.38
287.906	79.38
288.138	95.38
288.369	93.38
288.6	87.38
288.831	79.38
289.062	73.38
289.293	93.38
289.524	94.38
289.755	87.38
289.986	80.38
290.217	89.38
290.448	79.38
290.679	89.38
290.91	90.38
291.141	83.38
291.371	97.38
291.602	89.38
291.833	89.38
292.064	99.38
292.295	91.38
292.526	89.38
292.757	85.38
292.987	93.38
293.218	92.38
293.449	97.38
293.68	91.38
293.91	102.38
294.141	87.38
294.372	92.38
294.603	84.38
294.833	92.38
295.064	82.38
295.295	91.38
295.525	87.38
295.756	98.38
295.987	110.38
296.217	130.38
296.448	128.38
296.679	89.38
296.909	92.38
297.14	96.38
297.37	90.38
297.601	87.38
297.831	92.38
298.062	83.38
298.292	81.38
298.523	90.38
298.753	83.38
298.984	81.38
299.214	85.38
299.445	70.38
299.675	78.38
299.905	99.38
300.136	82.38
300.366	82.38
300.597	86.38
300.827	108.38
301.057	107.38
301.288	108.38
301.518	93.38
301.748	93.38
301.979	98.38
302.209	77.38
302.439	98.38
302.669	105.38
302.9	91.38
303.13	100.38
303.36	95.38
303.59	93.38
303.82	107.38
304.051	87.38
304.281	95.38
304.511	89.38
304.741	101.38
304.971	90.38
305.201	85.38
305.431	92.38
305.661	96.38
305.891	103.38
306.121	111.38
306.352	80.38
306.582	89.38
306.812	94.38
307.042	102.38
307.272	98.38
307.502	94.38
307.731	105.38
307.961	104.38
308.191	80.38
308.421	98.38
308.651	108.38
308.881	90.38
309.111	80.38
309.341	98.38
309.571	92.38
309.8	93.38
310.03	86.38
310.26	89.38
310.49	103.38
310.72	87.38
310.949	102.38
311.179	98.38
311.409	86.38
311.639	86.38
311.868	101.38
312.098	94.38
312.328	86.38
312.557	92.38
312.787	94.38
313.017	99.38
313.246	99.38
313.476	82.38
313.706	87.38
313.935	102.38
314.165	95.38
314.394	105.38
314.624	91.38
314.853	93.38
315.083	85.38
315.312	78.38
315.542	84.38
315.771	99.38
316.001	89.38
316.23	85.38
316.46	98.38
316.689	83.38
316.919	95.38
317.148	97.38
317.377	95.38
317.607	98.38
317.836	88.38
318.065	94.38
318.295	98.38
318.524	88.38
318.753	89.38
318.983	101.38
319.212	91.38
319.441	110.38
319.67	117.38
319.9	88.38
320.129	96.38
320.358	96.38
320.587	93.38
320.816	98.38
321.046	109.38
321.275	98.38
321.504	103.38
321.733	106.38
321.962	109.38
322.191	115.38
322.42	105.38
322.649	98.38
322.878	105.38
323.108	109.38
323.337	126.38
323.566	122.38
323.795	155.38
324.024	199.38
324.253	343.38
324.482	679.38
324.71	1340.38
324.939	1750.38
325.168	662.38
325.397	213.38
325.626	139.38
325.855	122.38
326.084	112.38
326.313	114.38
326.542	147.38
326.77	208.38
326.999	396.38
327.228	771.38
327.457	1364.38
327.686	1079.38
327.914	316.38
328.143	167.38
328.372	131.38
328.6	125.38
328.829	109.38
329.058	125.38
329.287	135.38
329.515	125.38
329.744	108.38
329.972	102.38
330.201	109.38
330.43	109.38
330.658	118.38
330.887	133.38
331.115	114.38
331.344	103.38
331.572	101.38
331.801	105.38
332.03	93.38
332.258	113.38
332.486	82.38
332.715	103.38
332.943	98.38
333.172	96.38
333.4	91.38
333.629	111.38
333.857	108.38
334.085	93.38
334.314	98.38
334.542	105.38
334.771	100.38
334.999	86.38
335.227	102.38
335.455	91.38
335.684	101.38
335.912	87.38
336.14	99.38
336.369	91.38
336.597	107.38
336.825	101.38
337.053	84.38
337.281	103.38
337.51	98.38
337.738	85.38
337.966	97.38
338.194	86.38
338.422	107.38
338.65	90.38
338.878	105.38
339.106	81.38
339.334	93.38
339.562	84.38
339.79	85.38
340.018	85.38
340.246	97.38
340.474	89.38
340.702	87.38
340.93	93.38
341.158	97.38
341.386	93.38
341.614	91.38
341.842	88.38
342.07	92.38
342.298	103.38
342.526	86.38
342.754	91.38
342.981	85.38
343.209	94.38
343.437	111.38
343.665	99.38
343.893	90.38
344.12	89.38
344.348	86.38
344.576	103.38
344.804	94.38
345.031	101.38
345.259	98.38
345.487	106.38
345.714	101.38
345.942	91.38
346.17	90.38
346.397	81.38
346.625	82.38
346.853	101.38
347.08	83.38
347.308	101.38
347.535	97.38
347.763	98.38
347.99	108.38
348.218	99.38
348.445	96.38
348.673	91.38
348.9	95.38
349.128	107.38
349.355	87.38
349.583	110.38
349.81	84.38
350.037	102.38
350.265	94.38
350.492	103.38
350.72	107.38
350.947	101.38
351.174	114.38
351.402	102.38
351.629	103.38
351.856	90.38
352.083	93.38
352.311	98.38
352.538	106.38
352.765	109.38
352.992	111.38
353.22	110.38
353.447	100.38
353.674	100.38
353.901	89.38
354.128	99.38
354.355	104.38
354.583	92.38
354.81	107.38
355.037	86.38
355.264	96.38
355.491	89.38
355.718	99.38
355.945	90.38
356.172	96.38
356.399	104.38
356.626	84.38
356.853	98.38
357.08	95.38
357.307	92.38
357.534	80.38
357.761	89.38
357.988	88.38
358.215	88.38
358.441	94.38
358.668	92.38
358.895	97.38
359.122	108.38
359.349	98.38
359.576	87.38
359.802	97.38
360.029	104.38
360.256	109.38
360.483	114.38
360.709	86.38
360.936	78.38
361.163	99.38
361.39	98.38
361.616	106.38
361.843	96.38
362.07	90.38
362.296	78.38
362.523	97.38
362.749	94.38
362.976	101.38
363.203	103.38
363.429	91.38
363.656	88.38
363.882	93.38
364.109	103.38
364.335	97.38
364.562	93.38
364.788	92.38
365.015	91.38
365.241	107.38
365.468	109.38
365.694	107.38
365.92	102.38
366.147	87.38
366.373	76.38
366.599	92.38
366.826	89.38
367.052	88.38
367.278	102.38
367.505	90.38
367.731	94.38
367.957	90.38
368.184	96.38
368.41	85.38
368.636	114.38
368.862	110.38
369.089	97.38
369.315	81.38
369.541	107.38
369.767	93.38
369.993	95.38
370.219	87.38
370.445	82.38
370.672	90.38
370.898	95.38
371.124	89.38
371.35	97.38
371.576	97.38
371.802	85.38
372.028	89.38
372.254	89.38
372.48	93.38
372.706	71.38
372.932	93.38
373.158	89.38
373.384	89.38
373.61	85.38
373.835	86.38
374.061	96.38
374.287	98.38
374.513	102.38
374.739	83.38
374.965	82.38
375.191	87.38
375.416	94.38
375.642	101.38
375.868	83.38
376.094	96.38
376.319	95.38
376.545	92.38
376.771	99.38
376.997	92.38
377.222	84.38
377.448	78.38
377.674	83.38
377.899	87.38
378.125	94.38
378.35	79.38
378.576	91.38
378.802	84.38
379.027	95.38
379.253	94.38
379.478	108.38
379.704	94.38
379.929	87.38
380.155	91.38
380.38	106.38
380.606	83.38
380.831	87.38
381.057	101.38
381.282	99.38
381.507	96.38
381.733	85.38
381.958	94.38
382.184	82.38
382.409	99.38
382.634	101.38
382.86	116.38
383.085	92.38
383.31	93.38
383.535	100.38
383.761	106.38
383.986	103.38
384.211	87.38
384.436	100.38
384.662	91.38
384.887	89.38
385.112	94.38
385.337	88.38
385.562	103.38
385.787	107.38
386.013	94.38
386.238	108.38
386.463	115.38
386.688	103.38
386.913	96.38
387.138	93.38
387.363	109.38
387.588	108.38
387.813	107.38
388.038	113.38
388.263	100.38
388.488	100.38
388.713	85.38
388.938	102.38
389.163	106.38
389.387	97.38
389.612	88.38
389.837	86.38
390.062	107.38
390.287	92.38
390.512	88.38
390.736	101.38
390.961	86.38
391.186	102.38
391.411	111.38
391.636	93.38
391.86	95.38
392.085	85.38
392.31	102.38
392.534	95.38
392.759	103.38
392.984	91.38
393.208	88.38
393.433	86.38
393.658	98.38
393.882	84.38
394.107	84.38
394.331	84.38
394.556	86.38
394.78	82.38
395.005	95.38
395.229	101.38
395.454	95.38
395.678	83.38
395.903	81.38
396.127	106.38
396.352	89.38
396.576	94.38
396.801	80.38
397.025	103.38
397.249	86.38
397.474	83.38
397.698	92.38
397.922	81.38
398.147	81.38
398.371	81.38
398.595	115.38
398.82	93.38
399.044	108.38
399.268	93.38
399.492	97.38
399.717	91.38
399.941	78.38
400.165	84.38
400.389	66.38
400.613	82.38
400.837	90.38
401.062	91.38
401.286	85.38
401.51	87.38
401.734	98.38
401.958	77.38
402.182	112.38
402.406	142.38
402.63	115.38
402.854	90.38
403.078	91.38
403.302	78.38
403.526	85.38
403.75	95.38
403.974	86.38
404.198	97.38
404.422	89.38
404.645	84.38
404.869	80.38
405.093	93.38
405.317	109.38
405.541	93.38
405.765	105.38
405.988	107.38
406.212	163.38
406.436	217.38
406.66	135.38
406.883	103.38
407.107	97.38
407.331	95.38
407.555	78.38
407.778	94.38
408.002	90.38
408.226	107.38
408.449	94.38
408.673	95.38
408.896	87.38
409.12	95.38
409.344	93.38
409.567	97.38
409.791	94.38
410.014	96.38
410.238	102.38
410.461	110.38
410.685	93.38
410.908	108.38
411.132	111.38
411.355	113.38
411.578	102.38
411.802	91.38
412.025	82.38
412.249	89.38
412.472	82.38
412.695	100.38
412.919	94.38
413.142	81.38
413.365	91.38
413.589	93.38
413.812	95.38
414.035	80.38
414.258	89.38
414.482	98.38
414.705	107.38
414.928	92.38
415.151	93.38
415.374	100.38
415.597	95.38
415.821	97.38
416.044	102.38
416.267	86.38
416.49	100.38
416.713	82.38
416.936	92.38
417.159	84.38
417.382	94.38
417.605	90.38
417.828	80.38
418.051	86.38
418.274	91.38
418.497	93.38
418.72	87.38
418.943	95.38
419.166	76.38
419.389	96.38
419.611	80.38
419.834	104.38
420.057	77.38
420.28	85.38
420.503	85.38
420.726	99.38
420.948	77.38
421.171	82.38
421.394	91.38
421.617	91.38
421.839	95.38
422.062	90.38
422.285	99.38
422.507	82.38
422.73	87.38
422.953	83.38
423.175	87.38
423.398	90.38
423.621	85.38
423.843	83.38
424.066	89.38
424.288	93.38
424.511	83.38
424.733	103.38
424.956	99.38
425.178	85.38
425.401	93.38
425.623	85.38
425.846	96.38
426.068	93.38
426.291	97.38
426.513	88.38
426.735	84.38
426.958	93.38
427.18	103.38
427.402	139.38
427.625	144.38
427.847	115.38
428.069	90.38
428.292	91.38
428.514	85.38
428.736	86.38
428.958	101.38
429.181	72.38
429.403	87.38
429.625	86.38
429.847	79.38
430.069	87.38
430.292	91.38
430.514	77.38
430.736	74.38
430.958	92.38
431.18	68.38
431.402	102.38
431.624	87.38
431.846	77.38
432.068	77.38
432.29	86.38
432.512	93.38
432.734	78.38
432.956	83.38
433.178	101.38
433.4	106.38
433.622	85.38
433.844	83.38
434.066	77.38
434.287	96.38
434.509	86.38
434.731	93.38
434.953	91.38
435.175	84.38
435.397	93.38
435.618	93.38
435.84	103.38
436.062	99.38
436.284	101.38
436.505	98.38
436.727	89.38
436.949	85.38
437.17	75.38
437.392	69.38
437.614	92.38
437.835	111.38
438.057	105.38
438.278	99.38
438.5	87.38
438.721	114.38
438.943	99.38
439.165	103.38
439.386	87.38
439.608	103.38
439.829	99.38
440.05	115.38
440.272	123.38
440.493	93.38
440.715	82.38
440.936	91.38
441.158	91.38
441.379	70.38
441.6	88.38
441.822	95.38
442.043	95.38
442.264	93.38
442.486	98.38
442.707	73.38
442.928	96.38
443.149	120.38
443.371	118.38
443.592	110.38
443.813	119.38
444.034	103.38
444.255	101.38
444.476	89.38
444.698	59.38
444.919	83.38
445.14	115.38
445.361	107.38
445.582	120.38
445.803	126.38
446.024	121.38
446.245	125.38
446.466	110.38
446.687	91.38
446.908	85.38
447.129	99.38
447.35	77.38
447.571	99.38
447.792	101.38
448.013	79.38
448.234	94.38
448.455	95.38
448.675	102.38
448.896	112.38
449.117	91.38
449.338	96.38
449.559	141.38
449.779	132.38
450	81.38
450.221	74.38
450.442	92.38
450.662	88.38
450.883	91.38
451.104	83.38
451.324	81.38
451.545	105.38
451.766	81.38
451.986	81.38
452.207	88.38
452.428	91.38
452.648	78.38
452.869	87.38
453.089	103.38
453.31	113.38
453.53	79.38
453.751	82.38
453.971	102.38
454.192	118.38
454.412	86.38
454.633	77.38
454.853	91.38
455.073	92.38
455.294	88.38
455.514	96.38
455.734	89.38
455.955	92.38
456.175	85.38
456.395	89.38
456.616	97.38
456.836	68.38
457.056	73.38
457.276	97.38
457.497	85.38
457.717	71.38
457.937	92.38
458.157	77.38
458.377	87.38
458.598	99.38
458.818	134.38
459.038	142.38
459.258	112.38
459.478	87.38
459.698	96.38
459.918	98.38
460.138	81.38
460.358	73.38
460.578	87.38
460.798	89.38
461.018	88.38
461.238	84.38
461.458	92.38
461.678	83.38
461.898	80.38
462.118	81.38
462.338	79.38
462.558	92.38
462.777	87.38
462.997	80.38
463.217	90.38
463.437	95.38
463.657	94.38
463.876	101.38
464.096	84.38
464.316	95.38
464.536	93.38
464.755	97.38
464.975	102.38
465.195	139.38
465.414	141.38
465.634	102.38
465.854	91.38
466.073	89.38
466.293	92.38
466.512	75.38
466.732	79.38
466.951	87.38
467.171	102.38
467.391	95.38
467.61	98.38
467.829	88.38
468.049	92.38
468.268	92.38
468.488	90.38
468.707	87.38
468.927	103.38
469.146	84.38
469.365	83.38
469.585	93.38
469.804	98.38
470.023	83.38
470.243	93.38
470.462	97.38
470.681	101.38
470.901	78.38
471.12	89.38
471.339	78.38
471.558	80.38
471.777	85.38
471.997	87.38
472.216	92.38
472.435	84.38
472.654	99.38
472.873	92.38
473.092	94.38
473.311	83.38
473.53	78.38
473.749	83.38
473.968	73.38
474.187	86.38
474.406	98.38
474.625	99.38
474.844	79.38
475.063	91.38
475.282	73.38
475.501	86.38
475.72	96.38
475.939	96.38
476.158	92.38
476.377	87.38
476.596	83.38
476.814	85.38
477.033	90.38
477.252	92.38
477.471	83.38
477.69	81.38
477.908	101.38
478.127	102.38
478.346	98.38
478.564	92.38
478.783	105.38
479.002	77.38
479.22	88.38
479.439	80.38
479.658	98.38
479.876	85.38
480.095	89.38
480.313	84.38
480.532	87.38
480.751	96.38
480.969	81.38
481.188	90.38
481.406	98.38
481.624	91.38
481.843	87.38
482.061	92.38
482.28	98.38
482.498	81.38
482.717	81.38
482.935	86.38
483.153	96.38
483.372	96.38
483.59	98.38
483.808	93.38
484.027	97.38
484.245	91.38
484.463	103.38
484.681	102.38
484.9	96.38
485.118	95.38
485.336	86.38
485.554	92.38
485.772	82.38
485.99	96.38
486.209	99.38
486.427	102.38
486.645	109.38
486.863	91.38
487.081	100.38
487.299	100.38
487.517	90.38
487.735	77.38
487.953	85.38
488.171	90.38
488.389	106.38
488.607	92.38
488.825	85.38
489.043	75.38
489.261	105.38
489.479	93.38
489.696	95.38
489.914	98.38
490.132	83.38
490.35	87.38
490.568	82.38
490.786	81.38
491.003	93.38
491.221	95.38
491.439	101.38
491.657	104.38
491.874	89.38
492.092	79.38
492.31	80.38
492.527	89.38
492.745	96.38
492.963	88.38
493.18	104.38
493.398	85.38
493.615	102.38
493.833	104.38
494.05	99.38
494.268	93.38
494.485	84.38
494.703	83.38
494.92	94.38
495.138	91.38
495.355	98.38
495.573	80.38
495.79	81.38
496.008	98.38
496.225	83.38
496.442	94.38
496.66	89.38
496.877	85.38
497.094	89.38
497.312	90.38
497.529	77.38
497.746	95.38
497.963	68.38
498.181	78.38
498.398	99.38
498.615	86.38
498.832	100.38
499.049	84.38
499.267	101.38
499.484	90.38
499.701	86.38
499.918	94.38
500.135	70.38
500.352	84.38
500.569	83.38
500.786	79.38
501.003	91.38
501.22	78.38
501.437	96.38
501.654	100.38
501.871	98.38
502.088	78.38
502.305	102.38
502.522	89.38
502.739	91.38
502.956	98.38
503.172	79.38
503.389	105.38
503.606	100.38
503.823	102.38
504.04	86.38
504.256	99.38
504.473	92.38
504.69	93.38
504.907	89.38
505.123	81.38
505.34	80.38
505.557	98.38
505.773	87.38
505.99	98.38
506.207	87.38
506.423	91.38
506.64	98.38
506.856	94.38
507.073	97.38
507.289	93.38
507.506	99.38
507.722	102.38
507.939	90.38
508.155	83.38
508.372	95.38
508.588	100.38
508.805	94.38
509.021	83.38
509.238	92.38
509.454	101.38
509.67	97.38
509.887	108.38
510.103	120.38
510.319	194.38
510.536	678.38
510.752	2123.38
510.968	596.38
511.184	153.38
511.401	94.38
511.617	97.38
511.833	85.38
512.049	88.38
512.265	81.38
512.481	93.38
512.698	91.38
512.914	93.38
513.13	90.38
513.346	89.38
513.562	87.38
513.778	95.38
513.994	100.38
514.21	95.38
514.426	121.38
514.642	126.38
514.858	118.38
515.074	149.38
515.29	396.38
515.506	1286.38
515.721	459.38
515.937	140.38
