Data from Uncirc_1993_H10_HRD10591_00053.txt Node
Date: Wed Jan 03 11:43:02 EST 2024
User: Yrep
Spectrometer: HR+D1059
Trigger mode: 1
Integration Time (sec): 1.000000E-1
Scans to average: 1
Electric dark correction enabled: true
Nonlinearity correction enabled: false
Boxcar width: 0
XAxis mode: Wavelengths
Number of Pixels in Spectrum: 2048
>>>>>Begin Spectral Data<<<<<
223.165	-21.12
223.4	-21.12
223.635	-21.12
223.869	-24.12
224.104	-18.12
224.338	-15.12
224.573	-6.12
224.808	-6.12
225.042	-9.12
225.277	-24.12
225.511	-9.12
225.746	4.88
225.98	11.88
226.215	5.88
226.449	21.88
226.683	18.88
226.918	31.88
227.152	37.88
227.387	13.88
227.621	23.88
227.856	56.88
228.09	51.88
228.324	45.88
228.559	51.88
228.793	62.88
229.027	53.88
229.262	69.88
229.496	58.88
229.73	76.88
229.964	76.88
230.199	91.88
230.433	76.88
230.667	69.88
230.901	94.88
231.136	86.88
231.37	98.88
231.604	78.88
231.838	85.88
232.072	82.88
232.306	76.88
232.541	73.88
232.775	83.88
233.009	75.88
233.243	79.88
233.477	80.88
233.711	72.88
233.945	73.88
234.179	74.88
234.413	89.88
234.647	74.88
234.881	81.88
235.115	76.88
235.349	81.88
235.583	80.88
235.817	71.88
236.051	76.88
236.285	84.88
236.519	89.88
236.753	65.88
236.987	79.88
237.221	85.88
237.455	86.88
237.689	63.88
237.922	68.88
238.156	73.88
238.39	80.88
238.624	69.88
238.858	74.88
239.091	76.88
239.325	69.88
239.559	85.88
239.793	73.88
240.027	77.88
240.26	87.88
240.494	90.88
240.728	80.88
240.961	65.88
241.195	82.88
241.429	73.88
241.662	77.88
241.896	65.88
242.13	72.88
242.363	82.88
242.597	88.88
242.83	66.88
243.064	69.88
243.298	76.88
243.531	85.88
243.765	70.88
243.998	72.88
244.232	84.88
244.465	78.88
244.699	69.88
244.932	77.88
245.166	79.88
245.399	80.88
245.633	73.88
245.866	78.88
246.099	80.88
246.333	73.88
246.566	86.88
246.8	81.88
247.033	91.88
247.266	65.88
247.5	79.88
247.733	89.88
247.966	80.88
248.2	72.88
248.433	82.88
248.666	79.88
248.899	81.88
249.133	80.88
249.366	90.88
249.599	88.88
249.832	83.88
250.066	85.88
250.299	75.88
250.532	78.88
250.765	92.88
250.998	66.88
251.231	64.88
251.465	69.88
251.698	78.88
251.931	68.88
252.164	76.88
252.397	69.88
252.63	86.88
252.863	78.88
253.096	73.88
253.329	81.88
253.562	94.88
253.795	80.88
254.028	85.88
254.261	83.88
254.494	80.88
254.727	75.88
254.96	87.88
255.193	84.88
255.426	98.88
255.659	94.88
255.892	95.88
256.124	67.88
256.357	79.88
256.59	61.88
256.823	85.88
257.056	94.88
257.289	85.88
257.521	77.88
257.754	83.88
257.987	81.88
258.22	101.88
258.452	68.88
258.685	74.88
258.918	79.88
259.151	78.88
259.383	88.88
259.616	83.88
259.849	86.88
260.081	69.88
260.314	87.88
260.547	78.88
260.779	90.88
261.012	86.88
261.244	88.88
261.477	82.88
261.71	96.88
261.942	88.88
262.175	110.88
262.407	98.88
262.64	82.88
262.872	86.88
263.105	86.88
263.337	92.88
263.57	92.88
263.802	78.88
264.035	78.88
264.267	73.88
264.499	88.88
264.732	95.88
264.964	72.88
265.197	80.88
265.429	76.88
265.661	90.88
265.894	72.88
266.126	87.88
266.358	81.88
266.591	75.88
266.823	79.88
267.055	86.88
267.287	91.88
267.52	90.88
267.752	86.88
267.984	78.88
268.216	83.88
268.448	84.88
268.681	81.88
268.913	70.88
269.145	84.88
269.377	77.88
269.609	80.88
269.841	86.88
270.073	76.88
270.306	96.88
270.538	85.88
270.77	89.88
271.002	87.88
271.234	93.88
271.466	101.88
271.698	92.88
271.93	80.88
272.162	73.88
272.394	89.88
272.626	92.88
272.858	76.88
273.09	86.88
273.322	80.88
273.553	93.88
273.785	79.88
274.017	93.88
274.249	80.88
274.481	86.88
274.713	91.88
274.945	75.88
275.176	83.88
275.408	95.88
275.64	86.88
275.872	97.88
276.104	91.88
276.335	86.88
276.567	96.88
276.799	95.88
277.031	93.88
277.262	94.88
277.494	107.88
277.726	93.88
277.957	84.88
278.189	78.88
278.421	81.88
278.652	93.88
278.884	92.88
279.115	94.88
279.347	74.88
279.579	100.88
279.81	93.88
280.042	88.88
280.273	73.88
280.505	94.88
280.736	72.88
280.968	93.88
281.199	99.88
281.431	97.88
281.662	103.88
281.894	93.88
282.125	89.88
282.356	105.88
282.588	139.88
282.819	100.88
283.051	98.88
283.282	91.88
283.513	92.88
283.745	105.88
283.976	83.88
284.207	97.88
284.439	80.88
284.67	73.88
284.901	88.88
285.132	77.88
285.364	94.88
285.595	75.88
285.826	89.88
286.057	86.88
286.288	92.88
286.52	83.88
286.751	79.88
286.982	83.88
287.213	89.88
287.444	101.88
287.675	75.88
287.906	89.88
288.138	92.88
288.369	87.88
288.6	91.88
288.831	101.88
289.062	104.88
289.293	92.88
289.524	85.88
289.755	83.88
289.986	87.88
290.217	83.88
290.448	66.88
290.679	79.88
290.91	99.88
291.141	91.88
291.371	77.88
291.602	97.88
291.833	92.88
292.064	101.88
292.295	86.88
292.526	90.88
292.757	90.88
292.987	81.88
293.218	84.88
293.449	86.88
293.68	76.88
293.91	82.88
294.141	79.88
294.372	83.88
294.603	86.88
294.833	99.88
295.064	87.88
295.295	89.88
295.525	101.88
295.756	100.88
295.987	114.88
296.217	128.88
296.448	114.88
296.679	94.88
296.909	93.88
297.14	86.88
297.37	93.88
297.601	85.88
297.831	89.88
298.062	95.88
298.292	91.88
298.523	73.88
298.753	86.88
298.984	89.88
299.214	89.88
299.445	95.88
299.675	90.88
299.905	93.88
300.136	86.88
300.366	83.88
300.597	96.88
300.827	96.88
301.057	80.88
301.288	102.88
301.518	104.88
301.748	89.88
301.979	94.88
302.209	88.88
302.439	91.88
302.669	90.88
302.9	73.88
303.13	97.88
303.36	97.88
303.59	111.88
303.82	102.88
304.051	95.88
304.281	90.88
304.511	82.88
304.741	87.88
304.971	79.88
305.201	78.88
305.431	96.88
305.661	75.88
305.891	96.88
306.121	102.88
306.352	97.88
306.582	91.88
306.812	91.88
307.042	95.88
307.272	98.88
307.502	90.88
307.731	102.88
307.961	74.88
308.191	94.88
308.421	92.88
308.651	91.88
308.881	93.88
309.111	76.88
309.341	86.88
309.571	85.88
309.8	97.88
310.03	81.88
310.26	101.88
310.49	98.88
310.72	90.88
310.949	94.88
311.179	96.88
311.409	78.88
311.639	101.88
311.868	105.88
312.098	92.88
312.328	85.88
312.557	99.88
312.787	99.88
313.017	86.88
313.246	92.88
313.476	83.88
313.706	85.88
313.935	101.88
314.165	104.88
314.394	94.88
314.624	106.88
314.853	101.88
315.083	101.88
315.312	94.88
315.542	78.88
315.771	82.88
316.001	88.88
316.23	101.88
316.46	101.88
316.689	100.88
316.919	83.88
317.148	99.88
317.377	106.88
317.607	92.88
317.836	100.88
318.065	89.88
318.295	98.88
318.524	73.88
318.753	83.88
318.983	92.88
319.212	92.88
319.441	102.88
319.67	102.88
319.9	99.88
320.129	84.88
320.358	101.88
320.587	91.88
320.816	89.88
321.046	98.88
321.275	105.88
321.504	96.88
321.733	100.88
321.962	96.88
322.191	105.88
322.42	98.88
322.649	100.88
322.878	106.88
323.108	111.88
323.337	117.88
323.566	117.88
323.795	141.88
324.024	171.88
324.253	309.88
324.482	645.88
324.71	1277.88
324.939	1632.88
325.168	634.88
325.397	202.88
325.626	130.88
325.855	127.88
326.084	113.88
326.313	117.88
326.542	144.88
326.77	190.88
326.999	365.88
327.228	704.88
327.457	1266.88
327.686	1037.88
327.914	306.88
328.143	156.88
328.372	137.88
328.6	108.88
328.829	113.88
329.058	117.88
329.287	105.88
329.515	112.88
329.744	96.88
329.972	101.88
330.201	99.88
330.43	93.88
330.658	107.88
330.887	127.88
331.115	112.88
331.344	98.88
331.572	92.88
331.801	121.88
332.03	80.88
332.258	93.88
332.486	96.88
332.715	95.88
332.943	94.88
333.172	102.88
333.4	96.88
333.629	94.88
333.857	111.88
334.085	109.88
334.314	104.88
334.542	101.88
334.771	104.88
334.999	98.88
335.227	111.88
335.455	80.88
335.684	95.88
335.912	110.88
336.14	94.88
336.369	102.88
336.597	90.88
336.825	110.88
337.053	101.88
337.281	92.88
337.51	95.88
337.738	90.88
337.966	91.88
338.194	90.88
338.422	98.88
338.65	92.88
338.878	97.88
339.106	87.88
339.334	92.88
339.562	89.88
339.79	85.88
340.018	91.88
340.246	106.88
340.474	104.88
340.702	97.88
340.93	90.88
341.158	90.88
341.386	103.88
341.614	90.88
341.842	88.88
342.07	93.88
342.298	88.88
342.526	87.88
342.754	83.88
342.981	98.88
343.209	80.88
343.437	88.88
343.665	85.88
343.893	100.88
344.12	103.88
344.348	88.88
344.576	89.88
344.804	85.88
345.031	101.88
345.259	96.88
345.487	86.88
345.714	92.88
345.942	111.88
346.17	87.88
346.397	80.88
346.625	91.88
346.853	88.88
347.08	98.88
347.308	104.88
347.535	108.88
347.763	76.88
347.99	102.88
348.218	101.88
348.445	103.88
348.673	108.88
348.9	84.88
349.128	90.88
349.355	94.88
349.583	106.88
349.81	95.88
350.037	100.88
350.265	94.88
350.492	96.88
350.72	98.88
350.947	100.88
351.174	107.88
351.402	108.88
351.629	106.88
351.856	108.88
352.083	108.88
352.311	102.88
352.538	107.88
352.765	117.88
352.992	121.88
353.22	115.88
353.447	94.88
353.674	87.88
353.901	102.88
354.128	99.88
354.355	92.88
354.583	86.88
354.81	107.88
355.037	96.88
355.264	106.88
355.491	96.88
355.718	93.88
355.945	89.88
356.172	109.88
356.399	113.88
356.626	85.88
356.853	92.88
357.08	90.88
357.307	107.88
357.534	93.88
357.761	96.88
357.988	97.88
358.215	82.88
358.441	92.88
358.668	87.88
358.895	86.88
359.122	86.88
359.349	102.88
359.576	92.88
359.802	94.88
360.029	105.88
360.256	100.88
360.483	84.88
360.709	88.88
360.936	93.88
361.163	118.88
361.39	92.88
361.616	90.88
361.843	88.88
362.07	83.88
362.296	82.88
362.523	102.88
362.749	91.88
362.976	106.88
363.203	93.88
363.429	95.88
363.656	115.88
363.882	102.88
364.109	86.88
364.335	84.88
364.562	89.88
364.788	79.88
365.015	98.88
365.241	99.88
365.468	103.88
365.694	97.88
365.92	89.88
366.147	89.88
366.373	93.88
366.599	92.88
366.826	100.88
367.052	97.88
367.278	97.88
367.505	95.88
367.731	94.88
367.957	93.88
368.184	109.88
368.41	107.88
368.636	105.88
368.862	112.88
369.089	110.88
369.315	112.88
369.541	97.88
369.767	85.88
369.993	93.88
370.219	82.88
370.445	91.88
370.672	72.88
370.898	101.88
371.124	92.88
371.35	76.88
371.576	96.88
371.802	93.88
372.028	90.88
372.254	90.88
372.48	84.88
372.706	90.88
372.932	80.88
373.158	97.88
373.384	97.88
373.61	89.88
373.835	70.88
374.061	80.88
374.287	98.88
374.513	97.88
374.739	94.88
374.965	79.88
375.191	88.88
375.416	82.88
375.642	90.88
375.868	85.88
376.094	80.88
376.319	89.88
376.545	88.88
376.771	84.88
376.997	94.88
377.222	88.88
377.448	96.88
377.674	82.88
377.899	86.88
378.125	83.88
378.35	85.88
378.576	83.88
378.802	105.88
379.027	94.88
379.253	85.88
379.478	93.88
379.704	91.88
379.929	92.88
380.155	87.88
380.38	89.88
380.606	91.88
380.831	101.88
381.057	94.88
381.282	99.88
381.507	103.88
381.733	90.88
381.958	102.88
382.184	92.88
382.409	92.88
382.634	91.88
382.86	97.88
383.085	87.88
383.31	96.88
383.535	96.88
383.761	112.88
383.986	95.88
384.211	88.88
384.436	107.88
384.662	87.88
384.887	92.88
385.112	96.88
385.337	109.88
385.562	100.88
385.787	115.88
386.013	118.88
386.238	92.88
386.463	91.88
386.688	108.88
386.913	96.88
387.138	108.88
387.363	85.88
387.588	89.88
387.813	96.88
388.038	107.88
388.263	106.88
388.488	92.88
388.713	93.88
388.938	113.88
389.163	86.88
389.387	102.88
389.612	102.88
389.837	89.88
390.062	99.88
390.287	91.88
390.512	87.88
390.736	89.88
390.961	110.88
391.186	94.88
391.411	99.88
391.636	82.88
391.86	85.88
392.085	94.88
392.31	88.88
392.534	73.88
392.759	78.88
392.984	91.88
393.208	110.88
393.433	82.88
393.658	84.88
393.882	84.88
394.107	85.88
394.331	72.88
394.556	84.88
394.78	73.88
395.005	84.88
395.229	76.88
395.454	83.88
395.678	85.88
395.903	85.88
396.127	97.88
396.352	88.88
396.576	91.88
396.801	83.88
397.025	82.88
397.249	94.88
397.474	89.88
397.698	95.88
397.922	102.88
398.147	86.88
398.371	86.88
398.595	88.88
398.82	89.88
399.044	73.88
399.268	82.88
399.492	81.88
399.717	78.88
399.941	85.88
400.165	102.88
400.389	90.88
400.613	88.88
400.837	81.88
401.062	86.88
401.286	94.88
401.51	92.88
401.734	81.88
401.958	94.88
402.182	125.88
402.406	121.88
402.63	110.88
402.854	100.88
403.078	90.88
403.302	95.88
403.526	84.88
403.75	88.88
403.974	73.88
404.198	94.88
404.422	91.88
404.645	91.88
404.869	87.88
405.093	98.88
405.317	79.88
405.541	94.88
405.765	104.88
405.988	114.88
406.212	162.88
406.436	190.88
406.66	118.88
406.883	89.88
407.107	97.88
407.331	91.88
407.555	88.88
407.778	85.88
408.002	95.88
408.226	90.88
408.449	78.88
408.673	94.88
408.896	102.88
409.12	102.88
409.344	75.88
409.567	86.88
409.791	90.88
410.014	93.88
410.238	93.88
410.461	95.88
410.685	90.88
410.908	109.88
411.132	93.88
411.355	81.88
411.578	75.88
411.802	85.88
412.025	74.88
412.249	84.88
412.472	80.88
412.695	93.88
412.919	97.88
413.142	99.88
413.365	81.88
413.589	91.88
413.812	81.88
414.035	94.88
414.258	80.88
414.482	85.88
414.705	89.88
414.928	80.88
415.151	80.88
415.374	111.88
415.597	94.88
415.821	88.88
416.044	83.88
416.267	76.88
416.49	86.88
416.713	79.88
416.936	85.88
417.159	83.88
417.382	75.88
417.605	93.88
417.828	85.88
418.051	89.88
418.274	102.88
418.497	92.88
418.72	88.88
418.943	83.88
419.166	77.88
419.389	83.88
419.611	80.88
419.834	86.88
420.057	87.88
420.28	87.88
420.503	85.88
420.726	75.88
420.948	89.88
421.171	81.88
421.394	98.88
421.617	70.88
421.839	73.88
422.062	81.88
422.285	85.88
422.507	97.88
422.73	109.88
422.953	82.88
423.175	82.88
423.398	81.88
423.621	91.88
423.843	96.88
424.066	100.88
424.288	82.88
424.511	73.88
424.733	81.88
424.956	93.88
425.178	85.88
425.401	93.88
425.623	88.88
425.846	98.88
426.068	100.88
426.291	90.88
426.513	93.88
426.735	96.88
426.958	105.88
427.18	108.88
427.402	120.88
427.625	148.88
427.847	123.88
428.069	112.88
428.292	87.88
428.514	74.88
428.736	81.88
428.958	86.88
429.181	77.88
429.403	83.88
429.625	90.88
429.847	78.88
430.069	99.88
430.292	78.88
430.514	80.88
430.736	77.88
430.958	72.88
431.18	76.88
431.402	89.88
431.624	85.88
431.846	93.88
432.068	85.88
432.29	80.88
432.512	88.88
432.734	80.88
432.956	78.88
433.178	95.88
433.4	101.88
433.622	92.88
433.844	96.88
434.066	100.88
434.287	99.88
434.509	89.88
434.731	89.88
434.953	93.88
435.175	75.88
435.397	85.88
435.618	88.88
435.84	92.88
436.062	112.88
436.284	109.88
436.505	95.88
436.727	102.88
436.949	96.88
437.17	80.88
437.392	91.88
437.614	94.88
437.835	89.88
438.057	121.88
438.278	100.88
438.5	95.88
438.721	116.88
438.943	100.88
439.165	85.88
439.386	99.88
439.608	86.88
439.829	94.88
440.05	116.88
440.272	131.88
440.493	95.88
440.715	86.88
440.936	93.88
441.158	80.88
441.379	72.88
441.6	100.88
441.822	96.88
442.043	86.88
442.264	96.88
442.486	108.88
442.707	89.88
442.928	102.88
443.149	120.88
443.371	125.88
443.592	94.88
443.813	113.88
444.034	98.88
444.255	77.88
444.476	77.88
444.698	92.88
444.919	78.88
445.14	125.88
445.361	114.88
445.582	114.88
445.803	115.88
446.024	109.88
446.245	113.88
446.466	95.88
446.687	86.88
446.908	86.88
447.129	79.88
447.35	89.88
447.571	90.88
447.792	78.88
448.013	101.88
448.234	93.88
448.455	82.88
448.675	101.88
448.896	105.88
449.117	85.88
449.338	103.88
449.559	128.88
449.779	119.88
450	77.88
450.221	88.88
450.442	80.88
450.662	89.88
450.883	97.88
451.104	106.88
451.324	88.88
451.545	82.88
451.766	84.88
451.986	77.88
452.207	94.88
452.428	82.88
452.648	82.88
452.869	89.88
453.089	96.88
453.31	97.88
453.53	91.88
453.751	90.88
453.971	95.88
454.192	113.88
454.412	94.88
454.633	74.88
454.853	80.88
455.073	95.88
455.294	101.88
455.514	76.88
455.734	82.88
455.955	91.88
456.175	81.88
456.395	79.88
456.616	91.88
456.836	75.88
457.056	78.88
457.276	90.88
457.497	94.88
457.717	89.88
457.937	78.88
458.157	85.88
458.377	95.88
458.598	94.88
458.818	133.88
459.038	127.88
459.258	95.88
459.478	93.88
459.698	86.88
459.918	98.88
460.138	89.88
460.358	89.88
460.578	80.88
460.798	88.88
461.018	73.88
461.238	83.88
461.458	93.88
461.678	90.88
461.898	91.88
462.118	74.88
462.338	81.88
462.558	80.88
462.777	70.88
462.997	80.88
463.217	86.88
463.437	86.88
463.657	99.88
463.876	93.88
464.096	92.88
464.316	76.88
464.536	104.88
464.755	74.88
464.975	111.88
465.195	136.88
465.414	132.88
465.634	86.88
465.854	88.88
466.073	83.88
466.293	94.88
466.512	78.88
466.732	85.88
466.951	96.88
467.171	86.88
467.391	94.88
467.61	97.88
467.829	92.88
468.049	95.88
468.268	85.88
468.488	67.88
468.707	91.88
468.927	80.88
469.146	87.88
469.365	79.88
469.585	82.88
469.804	89.88
470.023	80.88
470.243	89.88
470.462	92.88
470.681	102.88
470.901	89.88
471.12	80.88
471.339	79.88
471.558	92.88
471.777	95.88
471.997	88.88
472.216	91.88
472.435	97.88
472.654	78.88
472.873	84.88
473.092	83.88
473.311	89.88
473.53	105.88
473.749	83.88
473.968	89.88
474.187	108.88
474.406	95.88
474.625	82.88
474.844	79.88
475.063	96.88
475.282	94.88
475.501	82.88
475.72	77.88
475.939	86.88
476.158	76.88
476.377	83.88
476.596	86.88
476.814	84.88
477.033	84.88
477.252	81.88
477.471	88.88
477.69	80.88
477.908	69.88
478.127	87.88
478.346	93.88
478.564	98.88
478.783	80.88
479.002	85.88
479.22	86.88
479.439	82.88
479.658	101.88
479.876	81.88
480.095	88.88
480.313	81.88
480.532	88.88
480.751	96.88
480.969	88.88
481.188	99.88
481.406	102.88
481.624	91.88
481.843	89.88
482.061	82.88
482.28	96.88
482.498	100.88
482.717	89.88
482.935	99.88
483.153	99.88
483.372	75.88
483.59	78.88
483.808	90.88
484.027	94.88
484.245	90.88
484.463	87.88
484.681	92.88
484.9	81.88
485.118	93.88
485.336	96.88
485.554	94.88
485.772	99.88
485.99	108.88
486.209	105.88
486.427	116.88
486.645	108.88
486.863	113.88
487.081	125.88
487.299	97.88
487.517	87.88
487.735	96.88
487.953	82.88
488.171	110.88
488.389	90.88
488.607	95.88
488.825	89.88
489.043	100.88
489.261	91.88
489.479	101.88
489.696	95.88
489.914	73.88
490.132	92.88
490.35	92.88
490.568	93.88
490.786	90.88
491.003	91.88
491.221	82.88
491.439	78.88
491.657	101.88
491.874	90.88
492.092	88.88
492.31	81.88
492.527	72.88
492.745	84.88
492.963	88.88
493.18	78.88
493.398	94.88
493.615	105.88
493.833	94.88
494.05	82.88
494.268	102.88
494.485	88.88
494.703	100.88
494.92	83.88
495.138	92.88
495.355	88.88
495.573	83.88
495.79	90.88
496.008	91.88
496.225	90.88
496.442	67.88
496.66	87.88
496.877	85.88
497.094	96.88
497.312	95.88
497.529	95.88
497.746	92.88
497.963	88.88
498.181	97.88
498.398	100.88
498.615	89.88
498.832	92.88
499.049	80.88
499.267	78.88
499.484	102.88
499.701	104.88
499.918	92.88
500.135	80.88
500.352	85.88
500.569	72.88
500.786	93.88
501.003	93.88
501.22	95.88
501.437	89.88
501.654	93.88
501.871	95.88
502.088	86.88
502.305	89.88
502.522	79.88
502.739	83.88
502.956	93.88
503.172	91.88
503.389	95.88
503.606	110.88
503.823	80.88
504.04	89.88
504.256	102.88
504.473	74.88
504.69	98.88
504.907	94.88
505.123	88.88
505.34	97.88
505.557	85.88
505.773	96.88
505.99	89.88
506.207	99.88
506.423	95.88
506.64	100.88
506.856	90.88
507.073	76.88
507.289	74.88
507.506	94.88
507.722	112.88
507.939	105.88
508.155	97.88
508.372	88.88
508.588	84.88
508.805	85.88
509.021	89.88
509.238	95.88
509.454	97.88
509.67	85.88
509.887	107.88
510.103	107.88
510.319	191.88
510.536	627.88
510.752	1902.88
510.968	552.88
511.184	148.88
511.401	116.88
511.617	89.88
511.833	100.88
512.049	86.88
512.265	100.88
512.481	83.88
512.698	104.88
512.914	85.88
513.13	94.88
513.346	85.88
513.562	88.88
513.778	101.88
513.994	97.88
514.21	109.88
514.426	124.88
514.642	125.88
514.858	110.88
515.074	146.88
515.29	360.88
515.506	1136.88
515.721	425.88
515.937	128.88
516.153	103.88
