Data from Uncirc_1993_H10_HRD10591_00060.txt Node
Date: Wed Jan 03 11:43:04 EST 2024
User: Yrep
Spectrometer: HR+D1059
Trigger mode: 1
Integration Time (sec): 1.000000E-1
Scans to average: 1
Electric dark correction enabled: true
Nonlinearity correction enabled: false
Boxcar width: 0
XAxis mode: Wavelengths
Number of Pixels in Spectrum: 2048
>>>>>Begin Spectral Data<<<<<
223.165	-25.19
223.4	-25.19
223.635	-25.19
223.869	-13.19
224.104	-20.19
224.338	3.81
224.573	-14.19
224.808	-12.19
225.042	-12.19
225.277	-3.19
225.511	-10.19
225.746	-5.19
225.98	-0.19
226.215	0.81
226.449	17.81
226.683	33.81
226.918	40.81
227.152	18.81
227.387	34.81
227.621	33.81
227.856	23.81
228.09	37.81
228.324	48.81
228.559	56.81
228.793	60.81
229.027	67.81
229.262	56.81
229.496	64.81
229.73	89.81
229.964	76.81
230.199	72.81
230.433	68.81
230.667	72.81
230.901	61.81
231.136	75.81
231.37	92.81
231.604	82.81
231.838	77.81
232.072	80.81
232.306	93.81
232.541	74.81
232.775	72.81
233.009	74.81
233.243	76.81
233.477	93.81
233.711	67.81
233.945	71.81
234.179	80.81
234.413	69.81
234.647	74.81
234.881	78.81
235.115	72.81
235.349	79.81
235.583	83.81
235.817	72.81
236.051	77.81
236.285	77.81
236.519	74.81
236.753	75.81
236.987	82.81
237.221	86.81
237.455	88.81
237.689	67.81
237.922	82.81
238.156	66.81
238.39	67.81
238.624	76.81
238.858	73.81
239.091	75.81
239.325	64.81
239.559	76.81
239.793	58.81
240.027	79.81
240.26	85.81
240.494	80.81
240.728	82.81
240.961	69.81
241.195	76.81
241.429	82.81
241.662	70.81
241.896	91.81
242.13	74.81
242.363	78.81
242.597	84.81
242.83	82.81
243.064	72.81
243.298	70.81
243.531	88.81
243.765	85.81
243.998	67.81
244.232	74.81
244.465	82.81
244.699	91.81
244.932	72.81
245.166	74.81
245.399	78.81
245.633	85.81
245.866	81.81
246.099	74.81
246.333	83.81
246.566	72.81
246.8	89.81
247.033	64.81
247.266	70.81
247.5	73.81
247.733	90.81
247.966	85.81
248.2	83.81
248.433	89.81
248.666	74.81
248.899	62.81
249.133	81.81
249.366	95.81
249.599	103.81
249.832	91.81
250.066	76.81
250.299	66.81
250.532	80.81
250.765	76.81
250.998	90.81
251.231	78.81
251.465	91.81
251.698	64.81
251.931	89.81
252.164	66.81
252.397	76.81
252.63	93.81
252.863	91.81
253.096	92.81
253.329	78.81
253.562	75.81
253.795	97.81
254.028	87.81
254.261	84.81
254.494	67.81
254.727	84.81
254.96	64.81
255.193	64.81
255.426	88.81
255.659	80.81
255.892	92.81
256.124	86.81
256.357	84.81
256.59	64.81
256.823	90.81
257.056	88.81
257.289	87.81
257.521	94.81
257.754	68.81
257.987	86.81
258.22	75.81
258.452	77.81
258.685	77.81
258.918	89.81
259.151	77.81
259.383	78.81
259.616	98.81
259.849	89.81
260.081	85.81
260.314	92.81
260.547	95.81
260.779	84.81
261.012	74.81
261.244	86.81
261.477	93.81
261.71	96.81
261.942	105.81
262.175	119.81
262.407	95.81
262.64	80.81
262.872	87.81
263.105	92.81
263.337	89.81
263.57	71.81
263.802	84.81
264.035	69.81
264.267	73.81
264.499	73.81
264.732	93.81
264.964	85.81
265.197	66.81
265.429	80.81
265.661	76.81
265.894	87.81
266.126	90.81
266.358	80.81
266.591	78.81
266.823	76.81
267.055	90.81
267.287	89.81
267.52	76.81
267.752	65.81
267.984	81.81
268.216	68.81
268.448	80.81
268.681	84.81
268.913	96.81
269.145	88.81
269.377	93.81
269.609	83.81
269.841	85.81
270.073	85.81
270.306	84.81
270.538	83.81
270.77	68.81
271.002	77.81
271.234	81.81
271.466	82.81
271.698	72.81
271.93	91.81
272.162	83.81
272.394	91.81
272.626	81.81
272.858	94.81
273.09	96.81
273.322	86.81
273.553	95.81
273.785	111.81
274.017	89.81
274.249	82.81
274.481	80.81
274.713	79.81
274.945	73.81
275.176	85.81
275.408	86.81
275.64	81.81
275.872	89.81
276.104	78.81
276.335	86.81
276.567	99.81
276.799	102.81
277.031	90.81
277.262	83.81
277.494	96.81
277.726	83.81
277.957	81.81
278.189	90.81
278.421	94.81
278.652	92.81
278.884	81.81
279.115	68.81
279.347	83.81
279.579	82.81
279.81	84.81
280.042	94.81
280.273	90.81
280.505	68.81
280.736	96.81
280.968	90.81
281.199	95.81
281.431	86.81
281.662	68.81
281.894	89.81
282.125	92.81
282.356	114.81
282.588	122.81
282.819	109.81
283.051	101.81
283.282	78.81
283.513	79.81
283.745	94.81
283.976	91.81
284.207	94.81
284.439	96.81
284.67	91.81
284.901	82.81
285.132	75.81
285.364	100.81
285.595	83.81
285.826	86.81
286.057	92.81
286.288	88.81
286.52	96.81
286.751	88.81
286.982	80.81
287.213	83.81
287.444	79.81
287.675	83.81
287.906	96.81
288.138	80.81
288.369	88.81
288.6	92.81
288.831	90.81
289.062	83.81
289.293	89.81
289.524	95.81
289.755	78.81
289.986	85.81
290.217	92.81
290.448	80.81
290.679	88.81
290.91	86.81
291.141	92.81
291.371	87.81
291.602	95.81
291.833	88.81
292.064	75.81
292.295	93.81
292.526	81.81
292.757	82.81
292.987	74.81
293.218	86.81
293.449	95.81
293.68	79.81
293.91	75.81
294.141	90.81
294.372	90.81
294.603	86.81
294.833	88.81
295.064	91.81
295.295	88.81
295.525	81.81
295.756	97.81
295.987	112.81
296.217	146.81
296.448	119.81
296.679	96.81
296.909	86.81
297.14	97.81
297.37	75.81
297.601	78.81
297.831	85.81
298.062	96.81
298.292	90.81
298.523	76.81
298.753	97.81
298.984	82.81
299.214	85.81
299.445	92.81
299.675	105.81
299.905	90.81
300.136	82.81
300.366	81.81
300.597	84.81
300.827	96.81
301.057	115.81
301.288	113.81
301.518	96.81
301.748	92.81
301.979	104.81
302.209	86.81
302.439	99.81
302.669	93.81
302.9	98.81
303.13	98.81
303.36	105.81
303.59	95.81
303.82	109.81
304.051	89.81
304.281	74.81
304.511	88.81
304.741	92.81
304.971	79.81
305.201	96.81
305.431	87.81
305.661	88.81
305.891	86.81
306.121	94.81
306.352	101.81
306.582	108.81
306.812	93.81
307.042	98.81
307.272	93.81
307.502	88.81
307.731	101.81
307.961	80.81
308.191	85.81
308.421	92.81
308.651	86.81
308.881	89.81
309.111	100.81
309.341	82.81
309.571	100.81
309.8	92.81
310.03	98.81
310.26	102.81
310.49	100.81
310.72	91.81
310.949	115.81
311.179	101.81
311.409	97.81
311.639	102.81
311.868	94.81
312.098	82.81
312.328	92.81
312.557	95.81
312.787	94.81
313.017	108.81
313.246	102.81
313.476	99.81
313.706	88.81
313.935	86.81
314.165	92.81
314.394	101.81
314.624	97.81
314.853	106.81
315.083	86.81
315.312	91.81
315.542	86.81
315.771	96.81
316.001	96.81
316.23	82.81
316.46	75.81
316.689	93.81
316.919	90.81
317.148	88.81
317.377	92.81
317.607	96.81
317.836	78.81
318.065	93.81
318.295	93.81
318.524	101.81
318.753	96.81
318.983	93.81
319.212	90.81
319.441	109.81
319.67	98.81
319.9	97.81
320.129	95.81
320.358	82.81
320.587	95.81
320.816	88.81
321.046	88.81
321.275	105.81
321.504	97.81
321.733	97.81
321.962	91.81
322.191	103.81
322.42	102.81
322.649	104.81
322.878	86.81
323.108	111.81
323.337	114.81
323.566	122.81
323.795	150.81
324.024	216.81
324.253	357.81
324.482	731.81
324.71	1418.81
324.939	1864.81
325.168	713.81
325.397	217.81
325.626	138.81
325.855	118.81
326.084	119.81
326.313	119.81
326.542	142.81
326.77	226.81
326.999	416.81
327.228	830.81
327.457	1446.81
327.686	1155.81
327.914	332.81
328.143	182.81
328.372	132.81
328.6	129.81
328.829	113.81
329.058	126.81
329.287	129.81
329.515	93.81
329.744	96.81
329.972	95.81
330.201	112.81
330.43	116.81
330.658	110.81
330.887	121.81
331.115	107.81
331.344	105.81
331.572	89.81
331.801	100.81
332.03	120.81
332.258	99.81
332.486	98.81
332.715	94.81
332.943	102.81
333.172	105.81
333.4	92.81
333.629	92.81
333.857	93.81
334.085	112.81
334.314	82.81
334.542	101.81
334.771	96.81
334.999	84.81
335.227	93.81
335.455	98.81
335.684	102.81
335.912	94.81
336.14	98.81
336.369	112.81
336.597	109.81
336.825	88.81
337.053	83.81
337.281	102.81
337.51	107.81
337.738	94.81
337.966	81.81
338.194	94.81
338.422	104.81
338.65	90.81
338.878	99.81
339.106	95.81
339.334	105.81
339.562	84.81
339.79	101.81
340.018	89.81
340.246	99.81
340.474	89.81
340.702	96.81
340.93	92.81
341.158	89.81
341.386	93.81
341.614	93.81
341.842	97.81
342.07	95.81
342.298	90.81
342.526	94.81
342.754	82.81
342.981	91.81
343.209	92.81
343.437	85.81
343.665	98.81
343.893	89.81
344.12	88.81
344.348	83.81
344.576	89.81
344.804	95.81
345.031	106.81
345.259	82.81
345.487	107.81
345.714	100.81
345.942	95.81
346.17	87.81
346.397	77.81
346.625	84.81
346.853	82.81
347.08	88.81
347.308	93.81
347.535	97.81
347.763	95.81
347.99	96.81
348.218	97.81
348.445	98.81
348.673	97.81
348.9	100.81
349.128	84.81
349.355	88.81
349.583	93.81
349.81	82.81
350.037	106.81
350.265	88.81
350.492	91.81
350.72	86.81
350.947	101.81
351.174	104.81
351.402	98.81
351.629	92.81
351.856	97.81
352.083	102.81
352.311	84.81
352.538	107.81
352.765	97.81
352.992	112.81
353.22	105.81
353.447	107.81
353.674	93.81
353.901	90.81
354.128	94.81
354.355	94.81
354.583	103.81
354.81	108.81
355.037	108.81
355.264	90.81
355.491	92.81
355.718	99.81
355.945	106.81
356.172	92.81
356.399	89.81
356.626	104.81
356.853	95.81
357.08	85.81
357.307	97.81
357.534	84.81
357.761	94.81
357.988	86.81
358.215	97.81
358.441	90.81
358.668	90.81
358.895	84.81
359.122	86.81
359.349	92.81
359.576	97.81
359.802	85.81
360.029	107.81
360.256	98.81
360.483	84.81
360.709	97.81
360.936	90.81
361.163	88.81
361.39	94.81
361.616	93.81
361.843	102.81
362.07	91.81
362.296	95.81
362.523	93.81
362.749	97.81
362.976	95.81
363.203	98.81
363.429	89.81
363.656	89.81
363.882	94.81
364.109	96.81
364.335	96.81
364.562	87.81
364.788	79.81
365.015	94.81
365.241	105.81
365.468	92.81
365.694	110.81
365.92	99.81
366.147	72.81
366.373	87.81
366.599	84.81
366.826	91.81
367.052	83.81
367.278	74.81
367.505	89.81
367.731	90.81
367.957	92.81
368.184	93.81
368.41	90.81
368.636	113.81
368.862	107.81
369.089	106.81
369.315	98.81
369.541	85.81
369.767	83.81
369.993	94.81
370.219	73.81
370.445	85.81
370.672	89.81
370.898	84.81
371.124	105.81
371.35	90.81
371.576	84.81
371.802	77.81
372.028	82.81
372.254	83.81
372.48	80.81
372.706	73.81
372.932	86.81
373.158	93.81
373.384	98.81
373.61	96.81
373.835	85.81
374.061	85.81
374.287	80.81
374.513	88.81
374.739	92.81
374.965	85.81
375.191	76.81
375.416	84.81
375.642	86.81
375.868	86.81
376.094	92.81
376.319	83.81
376.545	88.81
376.771	91.81
376.997	100.81
377.222	102.81
377.448	92.81
377.674	91.81
377.899	99.81
378.125	84.81
378.35	86.81
378.576	88.81
378.802	99.81
379.027	95.81
379.253	104.81
379.478	88.81
379.704	86.81
379.929	94.81
380.155	90.81
380.38	100.81
380.606	97.81
380.831	97.81
381.057	105.81
381.282	96.81
381.507	108.81
381.733	96.81
381.958	82.81
382.184	103.81
382.409	98.81
382.634	101.81
382.86	97.81
383.085	102.81
383.31	93.81
383.535	101.81
383.761	90.81
383.986	91.81
384.211	83.81
384.436	82.81
384.662	81.81
384.887	97.81
385.112	93.81
385.337	105.81
385.562	110.81
385.787	98.81
386.013	101.81
386.238	110.81
386.463	87.81
386.688	89.81
386.913	98.81
387.138	94.81
387.363	95.81
387.588	100.81
387.813	92.81
388.038	101.81
388.263	100.81
388.488	100.81
388.713	92.81
388.938	101.81
389.163	95.81
389.387	88.81
389.612	92.81
389.837	93.81
390.062	83.81
390.287	83.81
390.512	80.81
390.736	79.81
390.961	78.81
391.186	105.81
391.411	97.81
391.636	98.81
391.86	102.81
392.085	91.81
392.31	75.81
392.534	75.81
392.759	98.81
392.984	81.81
393.208	83.81
393.433	87.81
393.658	86.81
393.882	78.81
394.107	86.81
394.331	103.81
394.556	93.81
394.78	86.81
395.005	96.81
395.229	75.81
395.454	88.81
395.678	67.81
395.903	82.81
396.127	88.81
396.352	85.81
396.576	94.81
396.801	82.81
397.025	82.81
397.249	94.81
397.474	87.81
397.698	82.81
397.922	99.81
398.147	92.81
398.371	86.81
398.595	102.81
398.82	83.81
399.044	91.81
399.268	74.81
399.492	72.81
399.717	78.81
399.941	102.81
400.165	101.81
400.389	79.81
400.613	97.81
400.837	86.81
401.062	99.81
401.286	93.81
401.51	85.81
401.734	92.81
401.958	100.81
402.182	117.81
402.406	153.81
402.63	115.81
402.854	94.81
403.078	99.81
403.302	87.81
403.526	89.81
403.75	102.81
403.974	81.81
404.198	86.81
404.422	90.81
404.645	91.81
404.869	86.81
405.093	90.81
405.317	98.81
405.541	93.81
405.765	101.81
405.988	120.81
406.212	169.81
406.436	220.81
406.66	132.81
406.883	99.81
407.107	86.81
407.331	107.81
407.555	91.81
407.778	97.81
408.002	103.81
408.226	97.81
408.449	80.81
408.673	90.81
408.896	89.81
409.12	96.81
409.344	83.81
409.567	86.81
409.791	82.81
410.014	95.81
410.238	86.81
410.461	96.81
410.685	84.81
410.908	95.81
411.132	111.81
411.355	101.81
411.578	88.81
411.802	102.81
412.025	107.81
412.249	90.81
412.472	96.81
412.695	95.81
412.919	76.81
413.142	100.81
413.365	87.81
413.589	72.81
413.812	96.81
414.035	94.81
414.258	78.81
414.482	80.81
414.705	86.81
414.928	89.81
415.151	91.81
415.374	96.81
415.597	80.81
415.821	86.81
416.044	79.81
416.267	84.81
416.49	81.81
416.713	99.81
416.936	89.81
417.159	93.81
417.382	77.81
417.605	75.81
417.828	77.81
418.051	105.81
418.274	91.81
418.497	81.81
418.72	97.81
418.943	92.81
419.166	94.81
419.389	95.81
419.611	93.81
419.834	80.81
420.057	90.81
420.28	85.81
420.503	87.81
420.726	86.81
420.948	86.81
421.171	90.81
421.394	77.81
421.617	90.81
421.839	87.81
422.062	94.81
422.285	88.81
422.507	111.81
422.73	100.81
422.953	77.81
423.175	99.81
423.398	90.81
423.621	86.81
423.843	93.81
424.066	85.81
424.288	75.81
424.511	89.81
424.733	97.81
424.956	109.81
425.178	105.81
425.401	97.81
425.623	105.81
425.846	94.81
426.068	89.81
426.291	98.81
426.513	95.81
426.735	83.81
426.958	107.81
427.18	95.81
427.402	141.81
427.625	142.81
427.847	116.81
428.069	126.81
428.292	101.81
428.514	82.81
428.736	90.81
428.958	89.81
429.181	96.81
429.403	89.81
429.625	90.81
429.847	90.81
430.069	99.81
430.292	95.81
430.514	102.81
430.736	90.81
430.958	73.81
431.18	80.81
431.402	83.81
431.624	83.81
431.846	81.81
432.068	86.81
432.29	83.81
432.512	82.81
432.734	100.81
432.956	94.81
433.178	101.81
433.4	97.81
433.622	86.81
433.844	86.81
434.066	106.81
434.287	98.81
434.509	86.81
434.731	89.81
434.953	88.81
435.175	97.81
435.397	95.81
435.618	93.81
435.84	92.81
436.062	110.81
436.284	107.81
436.505	92.81
436.727	101.81
436.949	82.81
437.17	74.81
437.392	102.81
437.614	83.81
437.835	99.81
438.057	101.81
438.278	112.81
438.5	77.81
438.721	109.81
438.943	99.81
439.165	84.81
439.386	101.81
439.608	94.81
439.829	103.81
440.05	121.81
440.272	125.81
440.493	87.81
440.715	91.81
440.936	90.81
441.158	84.81
441.379	67.81
441.6	89.81
441.822	81.81
442.043	86.81
442.264	104.81
442.486	94.81
442.707	94.81
442.928	90.81
443.149	118.81
443.371	131.81
443.592	96.81
443.813	100.81
444.034	102.81
444.255	97.81
444.476	65.81
444.698	97.81
444.919	78.81
445.14	122.81
445.361	115.81
445.582	119.81
445.803	132.81
446.024	127.81
446.245	100.81
446.466	105.81
446.687	83.81
446.908	88.81
447.129	80.81
447.35	85.81
447.571	98.81
447.792	76.81
448.013	96.81
448.234	101.81
448.455	97.81
448.675	93.81
448.896	102.81
449.117	98.81
449.338	98.81
449.559	129.81
449.779	116.81
450	86.81
450.221	87.81
450.442	76.81
450.662	87.81
450.883	98.81
451.104	103.81
451.324	84.81
451.545	78.81
451.766	84.81
451.986	96.81
452.207	82.81
452.428	96.81
452.648	106.81
452.869	89.81
453.089	117.81
453.31	120.81
453.53	106.81
453.751	95.81
453.971	100.81
454.192	104.81
454.412	104.81
454.633	88.81
454.853	85.81
455.073	90.81
455.294	86.81
455.514	98.81
455.734	89.81
455.955	94.81
456.175	89.81
456.395	83.81
456.616	101.81
456.836	91.81
457.056	90.81
457.276	92.81
457.497	97.81
457.717	92.81
457.937	69.81
458.157	89.81
458.377	84.81
458.598	105.81
458.818	138.81
459.038	155.81
459.258	109.81
459.478	93.81
459.698	90.81
459.918	84.81
460.138	85.81
460.358	82.81
460.578	82.81
460.798	85.81
461.018	93.81
461.238	92.81
461.458	80.81
461.678	82.81
461.898	83.81
462.118	83.81
462.338	84.81
462.558	83.81
462.777	73.81
462.997	81.81
463.217	94.81
463.437	74.81
463.657	77.81
463.876	75.81
464.096	77.81
464.316	81.81
464.536	95.81
464.755	101.81
464.975	100.81
465.195	156.81
465.414	154.81
465.634	100.81
465.854	88.81
466.073	84.81
466.293	82.81
466.512	82.81
466.732	92.81
466.951	93.81
467.171	79.81
467.391	86.81
467.61	103.81
467.829	77.81
468.049	89.81
468.268	94.81
468.488	78.81
468.707	83.81
468.927	83.81
469.146	92.81
469.365	88.81
469.585	89.81
469.804	96.81
470.023	96.81
470.243	101.81
470.462	106.81
470.681	112.81
470.901	88.81
471.12	83.81
471.339	81.81
471.558	80.81
471.777	86.81
471.997	84.81
472.216	90.81
472.435	90.81
472.654	85.81
472.873	109.81
473.092	81.81
473.311	94.81
473.53	92.81
473.749	84.81
473.968	97.81
474.187	103.81
474.406	90.81
474.625	92.81
474.844	71.81
475.063	84.81
475.282	86.81
475.501	76.81
475.72	89.81
475.939	84.81
476.158	93.81
476.377	92.81
476.596	73.81
476.814	88.81
477.033	102.81
477.252	79.81
477.471	82.81
477.69	108.81
477.908	74.81
478.127	86.81
478.346	81.81
478.564	81.81
478.783	90.81
479.002	91.81
479.22	87.81
479.439	80.81
479.658	107.81
479.876	93.81
480.095	96.81
480.313	95.81
480.532	88.81
480.751	83.81
480.969	93.81
481.188	117.81
481.406	94.81
481.624	101.81
481.843	88.81
482.061	90.81
482.28	106.81
482.498	89.81
482.717	98.81
482.935	85.81
483.153	82.81
483.372	88.81
483.59	102.81
483.808	98.81
484.027	79.81
484.245	92.81
484.463	88.81
484.681	98.81
484.9	91.81
485.118	89.81
485.336	104.81
485.554	98.81
485.772	95.81
485.99	99.81
486.209	96.81
486.427	111.81
486.645	100.81
486.863	106.81
487.081	88.81
487.299	89.81
487.517	104.81
487.735	93.81
487.953	106.81
488.171	96.81
488.389	94.81
488.607	96.81
488.825	77.81
489.043	81.81
489.261	90.81
489.479	93.81
489.696	94.81
489.914	99.81
490.132	100.81
490.35	87.81
490.568	96.81
490.786	85.81
491.003	83.81
491.221	89.81
491.439	77.81
491.657	94.81
491.874	89.81
492.092	86.81
492.31	101.81
492.527	80.81
492.745	88.81
492.963	82.81
493.18	112.81
493.398	96.81
493.615	118.81
493.833	89.81
494.05	87.81
494.268	78.81
494.485	91.81
494.703	98.81
494.92	95.81
495.138	87.81
495.355	95.81
495.573	96.81
495.79	93.81
496.008	76.81
496.225	90.81
496.442	89.81
496.66	73.81
496.877	90.81
497.094	89.81
497.312	89.81
497.529	97.81
497.746	74.81
497.963	90.81
498.181	94.81
498.398	93.81
498.615	103.81
498.832	96.81
499.049	86.81
499.267	89.81
499.484	93.81
499.701	85.81
499.918	82.81
500.135	76.81
500.352	82.81
500.569	76.81
500.786	89.81
501.003	64.81
501.22	85.81
501.437	96.81
501.654	80.81
501.871	107.81
502.088	83.81
502.305	89.81
502.522	88.81
502.739	92.81
502.956	81.81
503.172	96.81
503.389	96.81
503.606	98.81
503.823	95.81
504.04	96.81
504.256	92.81
504.473	77.81
504.69	106.81
504.907	85.81
505.123	85.81
505.34	77.81
505.557	101.81
505.773	102.81
505.99	82.81
506.207	87.81
506.423	88.81
506.64	94.81
506.856	85.81
507.073	83.81
507.289	88.81
507.506	103.81
507.722	117.81
507.939	104.81
508.155	99.81
508.372	91.81
508.588	97.81
508.805	94.81
509.021	97.81
509.238	93.81
509.454	88.81
509.67	85.81
509.887	109.81
510.103	129.81
510.319	218.81
510.536	764.81
510.752	2380.81
510.968	638.81
511.184	141.81
511.401	108.81
511.617	100.81
511.833	89.81
512.049	83.81
512.265	87.81
512.481	92.81
512.698	95.81
512.914	87.81
513.13	81.81
513.346	85.81
513.562	88.81
513.778	95.81
513.994	101.81
514.21	96.81
514.426	108.81
514.642	131.81
514.858	137.81
515.074	156.81
515.29	458.81
515.506	1488.81
515.721	516.81
515.937	147.81
516.153	115.81
