Data from Uncirc_1993_H10_HRD10591_00020.txt Node
Date: Wed Jan 03 11:42:56 EST 2024
User: Yrep
Spectrometer: HR+D1059
Trigger mode: 1
Integration Time (sec): 1.000000E-1
Scans to average: 1
Electric dark correction enabled: true
Nonlinearity correction enabled: false
Boxcar width: 0
XAxis mode: Wavelengths
Number of Pixels in Spectrum: 2048
>>>>>Begin Spectral Data<<<<<
223.165	-17.94
223.4	-17.94
223.635	-17.94
223.869	-13.94
224.104	-22.94
224.338	-10.94
224.573	-6.94
224.808	-13.94
225.042	-8.94
225.277	-17.94
225.511	4.06
225.746	-5.94
225.98	19.06
226.215	17.06
226.449	11.06
226.683	20.06
226.918	18.06
227.152	30.06
227.387	30.06
227.621	35.06
227.856	46.06
228.09	49.06
228.324	50.06
228.559	68.06
228.793	67.06
229.027	54.06
229.262	77.06
229.496	70.06
229.73	69.06
229.964	81.06
230.199	78.06
230.433	88.06
230.667	74.06
230.901	79.06
231.136	75.06
231.37	85.06
231.604	69.06
231.838	81.06
232.072	68.06
232.306	76.06
232.541	85.06
232.775	81.06
233.009	66.06
233.243	76.06
233.477	68.06
233.711	77.06
233.945	73.06
234.179	83.06
234.413	85.06
234.647	90.06
234.881	75.06
235.115	73.06
235.349	74.06
235.583	69.06
235.817	75.06
236.051	79.06
236.285	86.06
236.519	77.06
236.753	81.06
236.987	67.06
237.221	62.06
237.455	91.06
237.689	87.06
237.922	73.06
238.156	84.06
238.39	70.06
238.624	78.06
238.858	79.06
239.091	73.06
239.325	87.06
239.559	65.06
239.793	75.06
240.027	75.06
240.26	76.06
240.494	80.06
240.728	73.06
240.961	86.06
241.195	78.06
241.429	68.06
241.662	62.06
241.896	69.06
242.13	76.06
242.363	83.06
242.597	81.06
242.83	85.06
243.064	86.06
243.298	90.06
243.531	69.06
243.765	82.06
243.998	80.06
244.232	77.06
244.465	81.06
244.699	86.06
244.932	81.06
245.166	78.06
245.399	76.06
245.633	72.06
245.866	77.06
246.099	59.06
246.333	89.06
246.566	85.06
246.8	84.06
247.033	67.06
247.266	93.06
247.5	81.06
247.733	89.06
247.966	87.06
248.2	81.06
248.433	86.06
248.666	86.06
248.899	70.06
249.133	78.06
249.366	96.06
249.599	102.06
249.832	76.06
250.066	81.06
250.299	78.06
250.532	87.06
250.765	82.06
250.998	89.06
251.231	82.06
251.465	88.06
251.698	78.06
251.931	66.06
252.164	78.06
252.397	70.06
252.63	92.06
252.863	81.06
253.096	91.06
253.329	70.06
253.562	73.06
253.795	72.06
254.028	74.06
254.261	92.06
254.494	70.06
254.727	85.06
254.96	87.06
255.193	72.06
255.426	85.06
255.659	73.06
255.892	74.06
256.124	87.06
256.357	71.06
256.59	90.06
256.823	73.06
257.056	80.06
257.289	77.06
257.521	81.06
257.754	71.06
257.987	78.06
258.22	79.06
258.452	62.06
258.685	70.06
258.918	86.06
259.151	79.06
259.383	93.06
259.616	86.06
259.849	72.06
260.081	102.06
260.314	74.06
260.547	91.06
260.779	93.06
261.012	77.06
261.244	87.06
261.477	87.06
261.71	94.06
261.942	86.06
262.175	106.06
262.407	82.06
262.64	91.06
262.872	87.06
263.105	87.06
263.337	78.06
263.57	85.06
263.802	66.06
264.035	74.06
264.267	81.06
264.499	90.06
264.732	101.06
264.964	81.06
265.197	77.06
265.429	80.06
265.661	89.06
265.894	84.06
266.126	84.06
266.358	76.06
266.591	86.06
266.823	91.06
267.055	91.06
267.287	89.06
267.52	79.06
267.752	91.06
267.984	88.06
268.216	70.06
268.448	96.06
268.681	90.06
268.913	73.06
269.145	77.06
269.377	80.06
269.609	86.06
269.841	88.06
270.073	74.06
270.306	82.06
270.538	84.06
270.77	83.06
271.002	75.06
271.234	83.06
271.466	93.06
271.698	102.06
271.93	87.06
272.162	78.06
272.394	93.06
272.626	91.06
272.858	85.06
273.09	77.06
273.322	87.06
273.553	74.06
273.785	90.06
274.017	84.06
274.249	71.06
274.481	76.06
274.713	87.06
274.945	89.06
275.176	90.06
275.408	78.06
275.64	95.06
275.872	85.06
276.104	92.06
276.335	83.06
276.567	89.06
276.799	98.06
277.031	84.06
277.262	83.06
277.494	90.06
277.726	78.06
277.957	99.06
278.189	85.06
278.421	80.06
278.652	79.06
278.884	91.06
279.115	94.06
279.347	78.06
279.579	91.06
279.81	94.06
280.042	73.06
280.273	80.06
280.505	91.06
280.736	85.06
280.968	86.06
281.199	95.06
281.431	93.06
281.662	90.06
281.894	110.06
282.125	85.06
282.356	99.06
282.588	121.06
282.819	105.06
283.051	85.06
283.282	71.06
283.513	81.06
283.745	91.06
283.976	93.06
284.207	79.06
284.439	83.06
284.67	90.06
284.901	85.06
285.132	73.06
285.364	91.06
285.595	90.06
285.826	87.06
286.057	90.06
286.288	97.06
286.52	86.06
286.751	90.06
286.982	87.06
287.213	87.06
287.444	93.06
287.675	87.06
287.906	88.06
288.138	89.06
288.369	98.06
288.6	86.06
288.831	85.06
289.062	98.06
289.293	95.06
289.524	77.06
289.755	85.06
289.986	87.06
290.217	97.06
290.448	98.06
290.679	93.06
290.91	98.06
291.141	85.06
291.371	90.06
291.602	94.06
291.833	86.06
292.064	89.06
292.295	89.06
292.526	85.06
292.757	83.06
292.987	93.06
293.218	84.06
293.449	83.06
293.68	76.06
293.91	101.06
294.141	94.06
294.372	82.06
294.603	81.06
294.833	93.06
295.064	69.06
295.295	97.06
295.525	79.06
295.756	114.06
295.987	110.06
296.217	115.06
296.448	100.06
296.679	87.06
296.909	92.06
297.14	87.06
297.37	95.06
297.601	99.06
297.831	84.06
298.062	84.06
298.292	82.06
298.523	100.06
298.753	79.06
298.984	78.06
299.214	83.06
299.445	102.06
299.675	99.06
299.905	86.06
300.136	87.06
300.366	85.06
300.597	83.06
300.827	91.06
301.057	88.06
301.288	94.06
301.518	95.06
301.748	100.06
301.979	102.06
302.209	82.06
302.439	96.06
302.669	86.06
302.9	84.06
303.13	87.06
303.36	63.06
303.59	91.06
303.82	114.06
304.051	96.06
304.281	93.06
304.511	96.06
304.741	91.06
304.971	92.06
305.201	93.06
305.431	101.06
305.661	90.06
305.891	96.06
306.121	86.06
306.352	94.06
306.582	108.06
306.812	94.06
307.042	94.06
307.272	100.06
307.502	94.06
307.731	81.06
307.961	99.06
308.191	82.06
308.421	94.06
308.651	92.06
308.881	84.06
309.111	91.06
309.341	101.06
309.571	97.06
309.8	81.06
310.03	97.06
310.26	100.06
310.49	99.06
310.72	100.06
310.949	99.06
311.179	95.06
311.409	83.06
311.639	95.06
311.868	97.06
312.098	94.06
312.328	109.06
312.557	107.06
312.787	106.06
313.017	91.06
313.246	95.06
313.476	80.06
313.706	75.06
313.935	101.06
314.165	79.06
314.394	98.06
314.624	96.06
314.853	94.06
315.083	83.06
315.312	113.06
315.542	92.06
315.771	102.06
316.001	83.06
316.23	81.06
316.46	113.06
316.689	87.06
316.919	85.06
317.148	103.06
317.377	95.06
317.607	89.06
317.836	93.06
318.065	86.06
318.295	90.06
318.524	104.06
318.753	90.06
318.983	92.06
319.212	94.06
319.441	108.06
319.67	112.06
319.9	94.06
320.129	101.06
320.358	87.06
320.587	95.06
320.816	103.06
321.046	108.06
321.275	99.06
321.504	88.06
321.733	87.06
321.962	94.06
322.191	92.06
322.42	106.06
322.649	105.06
322.878	107.06
323.108	100.06
323.337	110.06
323.566	123.06
323.795	139.06
324.024	179.06
324.253	300.06
324.482	627.06
324.71	1272.06
324.939	1654.06
325.168	640.06
325.397	211.06
325.626	133.06
325.855	116.06
326.084	129.06
326.313	127.06
326.542	126.06
326.77	203.06
326.999	358.06
327.228	736.06
327.457	1295.06
327.686	1019.06
327.914	297.06
328.143	163.06
328.372	123.06
328.6	102.06
328.829	98.06
329.058	137.06
329.287	118.06
329.515	102.06
329.744	96.06
329.972	102.06
330.201	97.06
330.43	101.06
330.658	107.06
330.887	134.06
331.115	102.06
331.344	88.06
331.572	86.06
331.801	101.06
332.03	113.06
332.258	94.06
332.486	111.06
332.715	81.06
332.943	92.06
333.172	105.06
333.4	90.06
333.629	107.06
333.857	109.06
334.085	100.06
334.314	91.06
334.542	103.06
334.771	85.06
334.999	84.06
335.227	99.06
335.455	103.06
335.684	100.06
335.912	99.06
336.14	85.06
336.369	105.06
336.597	78.06
336.825	99.06
337.053	86.06
337.281	89.06
337.51	100.06
337.738	76.06
337.966	82.06
338.194	98.06
338.422	87.06
338.65	96.06
338.878	90.06
339.106	99.06
339.334	89.06
339.562	85.06
339.79	95.06
340.018	97.06
340.246	98.06
340.474	93.06
340.702	100.06
340.93	95.06
341.158	85.06
341.386	95.06
341.614	85.06
341.842	102.06
342.07	87.06
342.298	100.06
342.526	84.06
342.754	99.06
342.981	80.06
343.209	86.06
343.437	104.06
343.665	103.06
343.893	87.06
344.12	93.06
344.348	102.06
344.576	82.06
344.804	84.06
345.031	98.06
345.259	106.06
345.487	105.06
345.714	97.06
345.942	96.06
346.17	99.06
346.397	91.06
346.625	101.06
346.853	101.06
347.08	109.06
347.308	92.06
347.535	97.06
347.763	89.06
347.99	94.06
348.218	102.06
348.445	102.06
348.673	110.06
348.9	93.06
349.128	101.06
349.355	88.06
349.583	94.06
349.81	80.06
350.037	103.06
350.265	94.06
350.492	95.06
350.72	97.06
350.947	81.06
351.174	93.06
351.402	119.06
351.629	101.06
351.856	108.06
352.083	100.06
352.311	97.06
352.538	101.06
352.765	104.06
352.992	117.06
353.22	106.06
353.447	103.06
353.674	98.06
353.901	105.06
354.128	99.06
354.355	102.06
354.583	102.06
354.81	95.06
355.037	99.06
355.264	111.06
355.491	84.06
355.718	100.06
355.945	105.06
356.172	95.06
356.399	91.06
356.626	92.06
356.853	97.06
357.08	95.06
357.307	87.06
357.534	102.06
357.761	102.06
357.988	99.06
358.215	105.06
358.441	106.06
358.668	100.06
358.895	81.06
359.122	78.06
359.349	96.06
359.576	99.06
359.802	99.06
360.029	97.06
360.256	105.06
360.483	90.06
360.709	93.06
360.936	100.06
361.163	98.06
361.39	101.06
361.616	94.06
361.843	88.06
362.07	93.06
362.296	95.06
362.523	80.06
362.749	92.06
362.976	84.06
363.203	98.06
363.429	77.06
363.656	99.06
363.882	89.06
364.109	108.06
364.335	99.06
364.562	93.06
364.788	97.06
365.015	92.06
365.241	90.06
365.468	98.06
365.694	95.06
365.92	80.06
366.147	91.06
366.373	87.06
366.599	93.06
366.826	105.06
367.052	96.06
367.278	97.06
367.505	91.06
367.731	98.06
367.957	107.06
368.184	97.06
368.41	96.06
368.636	109.06
368.862	121.06
369.089	99.06
369.315	95.06
369.541	78.06
369.767	94.06
369.993	87.06
370.219	78.06
370.445	98.06
370.672	88.06
370.898	80.06
371.124	90.06
371.35	88.06
371.576	95.06
371.802	92.06
372.028	102.06
372.254	112.06
372.48	93.06
372.706	83.06
372.932	94.06
373.158	86.06
373.384	93.06
373.61	89.06
373.835	93.06
374.061	90.06
374.287	94.06
374.513	77.06
374.739	90.06
374.965	80.06
375.191	84.06
375.416	94.06
375.642	85.06
375.868	91.06
376.094	89.06
376.319	89.06
376.545	84.06
376.771	84.06
376.997	86.06
377.222	101.06
377.448	93.06
377.674	93.06
377.899	97.06
378.125	86.06
378.35	97.06
378.576	94.06
378.802	86.06
379.027	99.06
379.253	108.06
379.478	75.06
379.704	98.06
379.929	87.06
380.155	103.06
380.38	93.06
380.606	91.06
380.831	93.06
381.057	108.06
381.282	100.06
381.507	95.06
381.733	91.06
381.958	85.06
382.184	111.06
382.409	104.06
382.634	98.06
382.86	88.06
383.085	93.06
383.31	100.06
383.535	99.06
383.761	101.06
383.986	106.06
384.211	99.06
384.436	93.06
384.662	97.06
384.887	102.06
385.112	97.06
385.337	104.06
385.562	117.06
385.787	109.06
386.013	110.06
386.238	112.06
386.463	105.06
386.688	89.06
386.913	96.06
387.138	105.06
387.363	102.06
387.588	103.06
387.813	98.06
388.038	85.06
388.263	105.06
388.488	107.06
388.713	98.06
388.938	96.06
389.163	94.06
389.387	105.06
389.612	96.06
389.837	90.06
390.062	101.06
390.287	99.06
390.512	115.06
390.736	93.06
390.961	92.06
391.186	87.06
391.411	103.06
391.636	104.06
391.86	79.06
392.085	83.06
392.31	85.06
392.534	82.06
392.759	90.06
392.984	81.06
393.208	85.06
393.433	93.06
393.658	78.06
393.882	93.06
394.107	73.06
394.331	81.06
394.556	109.06
394.78	74.06
395.005	95.06
395.229	89.06
395.454	96.06
395.678	91.06
395.903	85.06
396.127	85.06
396.352	96.06
396.576	78.06
396.801	87.06
397.025	103.06
397.249	91.06
397.474	95.06
397.698	79.06
397.922	98.06
398.147	87.06
398.371	75.06
398.595	83.06
398.82	86.06
399.044	95.06
399.268	81.06
399.492	80.06
399.717	93.06
399.941	85.06
400.165	95.06
400.389	82.06
400.613	94.06
400.837	85.06
401.062	96.06
401.286	98.06
401.51	86.06
401.734	104.06
401.958	105.06
402.182	111.06
402.406	124.06
402.63	100.06
402.854	88.06
403.078	90.06
403.302	75.06
403.526	90.06
403.75	84.06
403.974	83.06
404.198	89.06
404.422	92.06
404.645	88.06
404.869	95.06
405.093	92.06
405.317	103.06
405.541	96.06
405.765	89.06
405.988	117.06
406.212	161.06
406.436	198.06
406.66	131.06
406.883	102.06
407.107	95.06
407.331	96.06
407.555	96.06
407.778	90.06
408.002	98.06
408.226	85.06
408.449	82.06
408.673	94.06
408.896	82.06
409.12	91.06
409.344	92.06
409.567	98.06
409.791	91.06
410.014	79.06
410.238	91.06
410.461	92.06
410.685	100.06
410.908	90.06
411.132	103.06
411.355	102.06
411.578	100.06
411.802	83.06
412.025	82.06
412.249	79.06
412.472	78.06
412.695	78.06
412.919	91.06
413.142	88.06
413.365	80.06
413.589	84.06
413.812	77.06
414.035	91.06
414.258	91.06
414.482	88.06
414.705	84.06
414.928	84.06
415.151	106.06
415.374	103.06
415.597	79.06
415.821	92.06
416.044	84.06
416.267	86.06
416.49	83.06
416.713	100.06
416.936	84.06
417.159	87.06
417.382	96.06
417.605	79.06
417.828	86.06
418.051	79.06
418.274	85.06
418.497	96.06
418.72	89.06
418.943	69.06
419.166	95.06
419.389	84.06
419.611	91.06
419.834	89.06
420.057	87.06
420.28	87.06
420.503	94.06
420.726	76.06
420.948	84.06
421.171	81.06
421.394	85.06
421.617	84.06
421.839	86.06
422.062	78.06
422.285	93.06
422.507	99.06
422.73	103.06
422.953	95.06
423.175	98.06
423.398	82.06
423.621	91.06
423.843	97.06
424.066	83.06
424.288	79.06
424.511	80.06
424.733	90.06
424.956	99.06
425.178	100.06
425.401	84.06
425.623	102.06
425.846	95.06
426.068	91.06
426.291	94.06
426.513	88.06
426.735	90.06
426.958	89.06
427.18	108.06
427.402	122.06
427.625	132.06
427.847	118.06
428.069	114.06
428.292	84.06
428.514	83.06
428.736	89.06
428.958	85.06
429.181	74.06
429.403	84.06
429.625	83.06
429.847	84.06
430.069	86.06
430.292	97.06
430.514	103.06
430.736	85.06
430.958	86.06
431.18	86.06
431.402	92.06
431.624	79.06
431.846	91.06
432.068	87.06
432.29	96.06
432.512	83.06
432.734	76.06
432.956	89.06
433.178	91.06
433.4	95.06
433.622	91.06
433.844	90.06
434.066	103.06
434.287	89.06
434.509	81.06
434.731	88.06
434.953	89.06
435.175	87.06
435.397	82.06
435.618	97.06
435.84	109.06
436.062	108.06
436.284	93.06
436.505	93.06
436.727	97.06
436.949	91.06
437.17	100.06
437.392	103.06
437.614	89.06
437.835	99.06
438.057	108.06
438.278	93.06
438.5	110.06
438.721	103.06
438.943	109.06
439.165	99.06
439.386	103.06
439.608	78.06
439.829	96.06
440.05	106.06
440.272	122.06
440.493	101.06
440.715	91.06
440.936	88.06
441.158	95.06
441.379	92.06
441.6	100.06
441.822	84.06
442.043	111.06
442.264	89.06
442.486	104.06
442.707	91.06
442.928	94.06
443.149	115.06
443.371	122.06
443.592	108.06
443.813	98.06
444.034	98.06
444.255	102.06
444.476	98.06
444.698	94.06
444.919	87.06
445.14	130.06
445.361	114.06
445.582	92.06
445.803	115.06
446.024	115.06
446.245	116.06
446.466	106.06
446.687	86.06
446.908	81.06
447.129	92.06
447.35	103.06
447.571	92.06
447.792	90.06
448.013	93.06
448.234	102.06
448.455	100.06
448.675	103.06
448.896	99.06
449.117	82.06
449.338	99.06
449.559	132.06
449.779	110.06
450	96.06
450.221	80.06
450.442	88.06
450.662	79.06
450.883	87.06
451.104	101.06
451.324	92.06
451.545	90.06
451.766	80.06
451.986	82.06
452.207	89.06
452.428	90.06
452.648	111.06
452.869	103.06
453.089	107.06
453.31	126.06
453.53	92.06
453.751	89.06
453.971	98.06
454.192	92.06
454.412	82.06
454.633	70.06
454.853	94.06
455.073	77.06
455.294	86.06
455.514	105.06
455.734	93.06
455.955	86.06
456.175	78.06
456.395	85.06
456.616	90.06
456.836	79.06
457.056	102.06
457.276	80.06
457.497	85.06
457.717	81.06
457.937	85.06
458.157	93.06
458.377	93.06
458.598	104.06
458.818	120.06
459.038	140.06
459.258	105.06
459.478	89.06
459.698	87.06
459.918	83.06
460.138	81.06
460.358	78.06
460.578	89.06
460.798	95.06
461.018	83.06
461.238	92.06
461.458	88.06
461.678	74.06
461.898	74.06
462.118	100.06
462.338	80.06
462.558	83.06
462.777	82.06
462.997	95.06
463.217	93.06
463.437	81.06
463.657	87.06
463.876	94.06
464.096	81.06
464.316	93.06
464.536	89.06
464.755	90.06
464.975	101.06
465.195	136.06
465.414	151.06
465.634	94.06
465.854	86.06
466.073	82.06
466.293	80.06
466.512	89.06
466.732	92.06
466.951	94.06
467.171	97.06
467.391	92.06
467.61	102.06
467.829	97.06
468.049	96.06
468.268	89.06
468.488	86.06
468.707	94.06
468.927	89.06
469.146	83.06
469.365	84.06
469.585	98.06
469.804	92.06
470.023	85.06
470.243	89.06
470.462	94.06
470.681	98.06
470.901	75.06
471.12	93.06
471.339	92.06
471.558	86.06
471.777	90.06
471.997	94.06
472.216	95.06
472.435	99.06
472.654	85.06
472.873	86.06
473.092	83.06
473.311	83.06
473.53	79.06
473.749	80.06
473.968	98.06
474.187	95.06
474.406	100.06
474.625	97.06
474.844	89.06
475.063	67.06
475.282	87.06
475.501	97.06
475.72	87.06
475.939	81.06
476.158	89.06
476.377	92.06
476.596	79.06
476.814	93.06
477.033	81.06
477.252	81.06
477.471	81.06
477.69	93.06
477.908	97.06
478.127	77.06
478.346	80.06
478.564	93.06
478.783	99.06
479.002	71.06
479.22	81.06
479.439	98.06
479.658	93.06
479.876	83.06
480.095	81.06
480.313	84.06
480.532	89.06
480.751	99.06
480.969	87.06
481.188	110.06
481.406	109.06
481.624	75.06
481.843	84.06
482.061	81.06
482.28	87.06
482.498	83.06
482.717	91.06
482.935	86.06
483.153	83.06
483.372	91.06
483.59	81.06
483.808	96.06
484.027	103.06
484.245	92.06
484.463	91.06
484.681	95.06
484.9	93.06
485.118	85.06
485.336	100.06
485.554	109.06
485.772	95.06
485.99	97.06
486.209	103.06
486.427	94.06
486.645	107.06
486.863	111.06
487.081	101.06
487.299	95.06
487.517	102.06
487.735	78.06
487.953	81.06
488.171	86.06
488.389	93.06
488.607	95.06
488.825	87.06
489.043	102.06
489.261	88.06
489.479	92.06
489.696	87.06
489.914	84.06
490.132	98.06
490.35	102.06
490.568	101.06
490.786	90.06
491.003	79.06
491.221	85.06
491.439	100.06
491.657	91.06
491.874	97.06
492.092	90.06
492.31	81.06
492.527	82.06
492.745	84.06
492.963	82.06
493.18	88.06
493.398	93.06
493.615	86.06
493.833	95.06
494.05	94.06
494.268	94.06
494.485	85.06
494.703	84.06
494.92	79.06
495.138	110.06
495.355	99.06
495.573	100.06
495.79	89.06
496.008	107.06
496.225	108.06
496.442	73.06
496.66	77.06
496.877	93.06
497.094	80.06
497.312	101.06
497.529	86.06
497.746	93.06
497.963	93.06
498.181	82.06
498.398	91.06
498.615	94.06
498.832	110.06
499.049	87.06
499.267	92.06
499.484	84.06
499.701	93.06
499.918	92.06
500.135	86.06
500.352	84.06
500.569	90.06
500.786	82.06
501.003	103.06
501.22	99.06
501.437	89.06
501.654	78.06
501.871	94.06
502.088	102.06
502.305	87.06
502.522	94.06
502.739	76.06
502.956	92.06
503.172	104.06
503.389	91.06
503.606	97.06
503.823	100.06
504.04	85.06
504.256	83.06
504.473	85.06
504.69	85.06
504.907	97.06
505.123	88.06
505.34	98.06
505.557	90.06
505.773	91.06
505.99	97.06
506.207	73.06
506.423	95.06
506.64	85.06
506.856	88.06
507.073	97.06
507.289	103.06
507.506	81.06
507.722	104.06
507.939	111.06
508.155	90.06
508.372	93.06
508.588	99.06
508.805	100.06
509.021	95.06
509.238	101.06
509.454	97.06
509.67	107.06
509.887	98.06
510.103	122.06
510.319	181.06
510.536	644.06
510.752	1875.06
510.968	524.06
511.184	143.06
511.401	106.06
511.617	98.06
511.833	88.06
512.049	90.06
512.265	94.06
512.481	82.06
512.698	93.06
512.914	83.06
513.13	89.06
513.346	83.06
513.562	84.06
513.778	95.06
513.994	87.06
514.21	96.06
514.426	100.06
514.642	127.06
514.858	132.06
515.074	166.06
515.29	362.06
515.506	1154.06
515.721	434.06
515.937	130.06
