Data from Uncirc_1993_H10_HRD10591_00032.txt Node
Date: Wed Jan 03 11:42:58 EST 2024
User: Yrep
Spectrometer: HR+D1059
Trigger mode: 1
Integration Time (sec): 1.000000E-1
Scans to average: 1
Electric dark correction enabled: true
Nonlinearity correction enabled: false
Boxcar width: 0
XAxis mode: Wavelengths
Number of Pixels in Spectrum: 2048
>>>>>Begin Spectral Data<<<<<
223.165	-16.75
223.4	-16.75
223.635	-16.75
223.869	-22.75
224.104	-16.75
224.338	-16.75
224.573	-15.75
224.808	-9.75
225.042	-7.75
225.277	-0.75
225.511	-0.75
225.746	0.25
225.98	10.25
226.215	12.25
226.449	13.25
226.683	15.25
226.918	38.25
227.152	18.25
227.387	29.25
227.621	54.25
227.856	51.25
228.09	61.25
228.324	51.25
228.559	48.25
228.793	55.25
229.027	65.25
229.262	71.25
229.496	61.25
229.73	86.25
229.964	92.25
230.199	82.25
230.433	87.25
230.667	76.25
230.901	72.25
231.136	83.25
231.37	83.25
231.604	79.25
231.838	76.25
232.072	83.25
232.306	89.25
232.541	72.25
232.775	78.25
233.009	83.25
233.243	91.25
233.477	85.25
233.711	89.25
233.945	86.25
234.179	84.25
234.413	75.25
234.647	95.25
234.881	92.25
235.115	77.25
235.349	81.25
235.583	88.25
235.817	85.25
236.051	96.25
236.285	76.25
236.519	74.25
236.753	72.25
236.987	78.25
237.221	82.25
237.455	92.25
237.689	84.25
237.922	78.25
238.156	71.25
238.39	86.25
238.624	81.25
238.858	63.25
239.091	80.25
239.325	82.25
239.559	75.25
239.793	91.25
240.027	82.25
240.26	68.25
240.494	75.25
240.728	79.25
240.961	78.25
241.195	83.25
241.429	82.25
241.662	85.25
241.896	88.25
242.13	78.25
242.363	68.25
242.597	75.25
242.83	85.25
243.064	84.25
243.298	69.25
243.531	87.25
243.765	67.25
243.998	74.25
244.232	77.25
244.465	75.25
244.699	73.25
244.932	77.25
245.166	72.25
245.399	69.25
245.633	70.25
245.866	83.25
246.099	76.25
246.333	87.25
246.566	77.25
246.8	79.25
247.033	89.25
247.266	73.25
247.5	74.25
247.733	81.25
247.966	85.25
248.2	78.25
248.433	71.25
248.666	67.25
248.899	90.25
249.133	92.25
249.366	98.25
249.599	89.25
249.832	79.25
250.066	94.25
250.299	103.25
250.532	88.25
250.765	83.25
250.998	68.25
251.231	81.25
251.465	74.25
251.698	69.25
251.931	78.25
252.164	78.25
252.397	72.25
252.63	82.25
252.863	93.25
253.096	80.25
253.329	94.25
253.562	81.25
253.795	88.25
254.028	90.25
254.261	92.25
254.494	87.25
254.727	100.25
254.96	95.25
255.193	79.25
255.426	71.25
255.659	91.25
255.892	80.25
256.124	97.25
256.357	100.25
256.59	89.25
256.823	78.25
257.056	90.25
257.289	99.25
257.521	81.25
257.754	81.25
257.987	72.25
258.22	91.25
258.452	79.25
258.685	86.25
258.918	77.25
259.151	75.25
259.383	81.25
259.616	83.25
259.849	95.25
260.081	85.25
260.314	93.25
260.547	85.25
260.779	65.25
261.012	75.25
261.244	91.25
261.477	98.25
261.71	88.25
261.942	95.25
262.175	118.25
262.407	98.25
262.64	84.25
262.872	86.25
263.105	89.25
263.337	96.25
263.57	81.25
263.802	77.25
264.035	89.25
264.267	92.25
264.499	84.25
264.732	88.25
264.964	90.25
265.197	87.25
265.429	76.25
265.661	68.25
265.894	93.25
266.126	85.25
266.358	82.25
266.591	94.25
266.823	88.25
267.055	93.25
267.287	100.25
267.52	78.25
267.752	94.25
267.984	92.25
268.216	98.25
268.448	80.25
268.681	81.25
268.913	84.25
269.145	86.25
269.377	70.25
269.609	77.25
269.841	86.25
270.073	84.25
270.306	78.25
270.538	76.25
270.77	80.25
271.002	94.25
271.234	88.25
271.466	88.25
271.698	86.25
271.93	81.25
272.162	76.25
272.394	78.25
272.626	92.25
272.858	89.25
273.09	101.25
273.322	77.25
273.553	70.25
273.785	71.25
274.017	95.25
274.249	83.25
274.481	88.25
274.713	84.25
274.945	89.25
275.176	93.25
275.408	89.25
275.64	90.25
275.872	87.25
276.104	94.25
276.335	87.25
276.567	83.25
276.799	97.25
277.031	76.25
277.262	94.25
277.494	98.25
277.726	98.25
277.957	81.25
278.189	89.25
278.421	89.25
278.652	101.25
278.884	90.25
279.115	102.25
279.347	92.25
279.579	88.25
279.81	89.25
280.042	93.25
280.273	84.25
280.505	89.25
280.736	79.25
280.968	82.25
281.199	88.25
281.431	77.25
281.662	90.25
281.894	96.25
282.125	105.25
282.356	115.25
282.588	139.25
282.819	122.25
283.051	95.25
283.282	88.25
283.513	104.25
283.745	88.25
283.976	87.25
284.207	90.25
284.439	85.25
284.67	91.25
284.901	75.25
285.132	89.25
285.364	86.25
285.595	97.25
285.826	96.25
286.057	95.25
286.288	91.25
286.52	88.25
286.751	78.25
286.982	81.25
287.213	93.25
287.444	98.25
287.675	90.25
287.906	89.25
288.138	86.25
288.369	93.25
288.6	99.25
288.831	77.25
289.062	87.25
289.293	101.25
289.524	95.25
289.755	97.25
289.986	87.25
290.217	87.25
290.448	91.25
290.679	89.25
290.91	112.25
291.141	93.25
291.371	86.25
291.602	86.25
291.833	72.25
292.064	89.25
292.295	89.25
292.526	83.25
292.757	96.25
292.987	95.25
293.218	83.25
293.449	95.25
293.68	83.25
293.91	68.25
294.141	96.25
294.372	91.25
294.603	88.25
294.833	96.25
295.064	95.25
295.295	81.25
295.525	90.25
295.756	98.25
295.987	108.25
296.217	136.25
296.448	114.25
296.679	82.25
296.909	88.25
297.14	88.25
297.37	91.25
297.601	83.25
297.831	92.25
298.062	99.25
298.292	96.25
298.523	94.25
298.753	86.25
298.984	94.25
299.214	93.25
299.445	101.25
299.675	86.25
299.905	110.25
300.136	96.25
300.366	95.25
300.597	101.25
300.827	85.25
301.057	104.25
301.288	110.25
301.518	87.25
301.748	100.25
301.979	107.25
302.209	95.25
302.439	101.25
302.669	103.25
302.9	96.25
303.13	88.25
303.36	114.25
303.59	97.25
303.82	100.25
304.051	95.25
304.281	91.25
304.511	78.25
304.741	84.25
304.971	93.25
305.201	103.25
305.431	88.25
305.661	76.25
305.891	88.25
306.121	95.25
306.352	104.25
306.582	117.25
306.812	95.25
307.042	100.25
307.272	77.25
307.502	96.25
307.731	101.25
307.961	79.25
308.191	87.25
308.421	98.25
308.651	70.25
308.881	96.25
309.111	80.25
309.341	95.25
309.571	103.25
309.8	97.25
310.03	96.25
310.26	99.25
310.49	84.25
310.72	109.25
310.949	87.25
311.179	104.25
311.409	95.25
311.639	91.25
311.868	99.25
312.098	100.25
312.328	96.25
312.557	108.25
312.787	109.25
313.017	105.25
313.246	100.25
313.476	97.25
313.706	86.25
313.935	103.25
314.165	104.25
314.394	112.25
314.624	109.25
314.853	102.25
315.083	105.25
315.312	93.25
315.542	104.25
315.771	91.25
316.001	80.25
316.23	89.25
316.46	98.25
316.689	95.25
316.919	104.25
317.148	108.25
317.377	96.25
317.607	89.25
317.836	87.25
318.065	88.25
318.295	95.25
318.524	85.25
318.753	96.25
318.983	100.25
319.212	97.25
319.441	95.25
319.67	105.25
319.9	96.25
320.129	99.25
320.358	91.25
320.587	110.25
320.816	93.25
321.046	99.25
321.275	91.25
321.504	93.25
321.733	109.25
321.962	91.25
322.191	87.25
322.42	107.25
322.649	109.25
322.878	112.25
323.108	115.25
323.337	116.25
323.566	115.25
323.795	130.25
324.024	173.25
324.253	329.25
324.482	669.25
324.71	1303.25
324.939	1670.25
325.168	620.25
325.397	212.25
325.626	131.25
325.855	125.25
326.084	123.25
326.313	116.25
326.542	145.25
326.77	201.25
326.999	360.25
327.228	729.25
327.457	1341.25
327.686	1043.25
327.914	297.25
328.143	187.25
328.372	120.25
328.6	115.25
328.829	106.25
329.058	119.25
329.287	122.25
329.515	103.25
329.744	104.25
329.972	113.25
330.201	105.25
330.43	100.25
330.658	125.25
330.887	133.25
331.115	116.25
331.344	110.25
331.572	94.25
331.801	100.25
332.03	114.25
332.258	91.25
332.486	90.25
332.715	100.25
332.943	108.25
333.172	102.25
333.4	108.25
333.629	114.25
333.857	103.25
334.085	108.25
334.314	100.25
334.542	102.25
334.771	108.25
334.999	110.25
335.227	92.25
335.455	84.25
335.684	81.25
335.912	96.25
336.14	95.25
336.369	102.25
336.597	108.25
336.825	93.25
337.053	105.25
337.281	95.25
337.51	79.25
337.738	91.25
337.966	79.25
338.194	106.25
338.422	103.25
338.65	95.25
338.878	105.25
339.106	94.25
339.334	83.25
339.562	86.25
339.79	103.25
340.018	85.25
340.246	101.25
340.474	78.25
340.702	83.25
340.93	98.25
341.158	85.25
341.386	91.25
341.614	97.25
341.842	90.25
342.07	94.25
342.298	84.25
342.526	97.25
342.754	98.25
342.981	102.25
343.209	98.25
343.437	87.25
343.665	95.25
343.893	102.25
344.12	96.25
344.348	93.25
344.576	94.25
344.804	97.25
345.031	101.25
345.259	103.25
345.487	95.25
345.714	97.25
345.942	95.25
346.17	87.25
346.397	97.25
346.625	99.25
346.853	101.25
347.08	94.25
347.308	91.25
347.535	96.25
347.763	101.25
347.99	103.25
348.218	102.25
348.445	97.25
348.673	97.25
348.9	100.25
349.128	102.25
349.355	116.25
349.583	89.25
349.81	89.25
350.037	92.25
350.265	107.25
350.492	96.25
350.72	106.25
350.947	95.25
351.174	112.25
351.402	100.25
351.629	108.25
351.856	88.25
352.083	99.25
352.311	119.25
352.538	111.25
352.765	114.25
352.992	113.25
353.22	109.25
353.447	104.25
353.674	111.25
353.901	107.25
354.128	106.25
354.355	92.25
354.583	108.25
354.81	108.25
355.037	98.25
355.264	91.25
355.491	103.25
355.718	93.25
355.945	97.25
356.172	101.25
356.399	101.25
356.626	98.25
356.853	95.25
357.08	93.25
357.307	105.25
357.534	81.25
357.761	98.25
357.988	91.25
358.215	92.25
358.441	96.25
358.668	100.25
358.895	87.25
359.122	88.25
359.349	105.25
359.576	110.25
359.802	94.25
360.029	102.25
360.256	103.25
360.483	113.25
360.709	93.25
360.936	97.25
361.163	86.25
361.39	104.25
361.616	102.25
361.843	97.25
362.07	96.25
362.296	101.25
362.523	101.25
362.749	98.25
362.976	91.25
363.203	100.25
363.429	92.25
363.656	101.25
363.882	83.25
364.109	102.25
364.335	97.25
364.562	95.25
364.788	92.25
365.015	106.25
365.241	103.25
365.468	104.25
365.694	104.25
365.92	105.25
366.147	93.25
366.373	91.25
366.599	93.25
366.826	102.25
367.052	91.25
367.278	82.25
367.505	90.25
367.731	83.25
367.957	98.25
368.184	94.25
368.41	107.25
368.636	104.25
368.862	104.25
369.089	111.25
369.315	95.25
369.541	96.25
369.767	85.25
369.993	86.25
370.219	98.25
370.445	92.25
370.672	85.25
370.898	84.25
371.124	97.25
371.35	75.25
371.576	100.25
371.802	86.25
372.028	74.25
372.254	87.25
372.48	99.25
372.706	92.25
372.932	99.25
373.158	105.25
373.384	109.25
373.61	89.25
373.835	103.25
374.061	104.25
374.287	85.25
374.513	82.25
374.739	92.25
374.965	96.25
375.191	77.25
375.416	80.25
375.642	95.25
375.868	88.25
376.094	104.25
376.319	89.25
376.545	83.25
376.771	79.25
376.997	106.25
377.222	88.25
377.448	93.25
377.674	82.25
377.899	93.25
378.125	88.25
378.35	97.25
378.576	93.25
378.802	98.25
379.027	94.25
379.253	92.25
379.478	102.25
379.704	97.25
379.929	99.25
380.155	101.25
380.38	90.25
380.606	89.25
380.831	96.25
381.057	117.25
381.282	97.25
381.507	93.25
381.733	102.25
381.958	97.25
382.184	102.25
382.409	95.25
382.634	99.25
382.86	108.25
383.085	111.25
383.31	95.25
383.535	108.25
383.761	95.25
383.986	88.25
384.211	95.25
384.436	91.25
384.662	99.25
384.887	99.25
385.112	96.25
385.337	86.25
385.562	112.25
385.787	100.25
386.013	94.25
386.238	111.25
386.463	98.25
386.688	109.25
386.913	104.25
387.138	103.25
387.363	105.25
387.588	91.25
387.813	97.25
388.038	111.25
388.263	116.25
388.488	114.25
388.713	108.25
388.938	104.25
389.163	103.25
389.387	92.25
389.612	92.25
389.837	101.25
390.062	96.25
390.287	100.25
390.512	93.25
390.736	92.25
390.961	88.25
391.186	85.25
391.411	98.25
391.636	93.25
391.86	86.25
392.085	100.25
392.31	97.25
392.534	85.25
392.759	91.25
392.984	91.25
393.208	79.25
393.433	95.25
393.658	88.25
393.882	84.25
394.107	89.25
394.331	93.25
394.556	85.25
394.78	92.25
395.005	87.25
395.229	95.25
395.454	86.25
395.678	78.25
395.903	85.25
396.127	93.25
396.352	84.25
396.576	91.25
396.801	78.25
397.025	78.25
397.249	96.25
397.474	87.25
397.698	86.25
397.922	87.25
398.147	94.25
398.371	79.25
398.595	92.25
398.82	84.25
399.044	99.25
399.268	98.25
399.492	102.25
399.717	96.25
399.941	97.25
400.165	95.25
400.389	109.25
400.613	95.25
400.837	97.25
401.062	87.25
401.286	80.25
401.51	90.25
401.734	99.25
401.958	96.25
402.182	118.25
402.406	144.25
402.63	105.25
402.854	99.25
403.078	89.25
403.302	68.25
403.526	93.25
403.75	92.25
403.974	78.25
404.198	90.25
404.422	85.25
404.645	94.25
404.869	98.25
405.093	89.25
405.317	99.25
405.541	84.25
405.765	106.25
405.988	134.25
406.212	171.25
406.436	213.25
406.66	147.25
406.883	109.25
407.107	102.25
407.331	89.25
407.555	102.25
407.778	115.25
408.002	80.25
408.226	104.25
408.449	102.25
408.673	84.25
408.896	87.25
409.12	104.25
409.344	110.25
409.567	91.25
409.791	92.25
410.014	103.25
410.238	102.25
410.461	88.25
410.685	97.25
410.908	86.25
411.132	100.25
411.355	104.25
411.578	87.25
411.802	70.25
412.025	94.25
412.249	84.25
412.472	95.25
412.695	91.25
412.919	102.25
413.142	92.25
413.365	87.25
413.589	81.25
413.812	86.25
414.035	92.25
414.258	92.25
414.482	81.25
414.705	87.25
414.928	99.25
415.151	97.25
415.374	104.25
415.597	90.25
415.821	94.25
416.044	89.25
416.267	114.25
416.49	101.25
416.713	92.25
416.936	91.25
417.159	104.25
417.382	91.25
417.605	81.25
417.828	89.25
418.051	99.25
418.274	88.25
418.497	94.25
418.72	86.25
418.943	81.25
419.166	80.25
419.389	80.25
419.611	98.25
419.834	81.25
420.057	96.25
420.28	95.25
420.503	93.25
420.726	100.25
420.948	93.25
421.171	101.25
421.394	87.25
421.617	91.25
421.839	96.25
422.062	107.25
422.285	97.25
422.507	107.25
422.73	92.25
422.953	79.25
423.175	89.25
423.398	92.25
423.621	77.25
423.843	91.25
424.066	79.25
424.288	84.25
424.511	92.25
424.733	96.25
424.956	103.25
425.178	107.25
425.401	93.25
425.623	105.25
425.846	87.25
426.068	106.25
426.291	91.25
426.513	98.25
426.735	92.25
426.958	85.25
427.18	100.25
427.402	117.25
427.625	166.25
427.847	118.25
428.069	100.25
428.292	105.25
428.514	84.25
428.736	81.25
428.958	81.25
429.181	96.25
429.403	87.25
429.625	89.25
429.847	81.25
430.069	103.25
430.292	106.25
430.514	97.25
430.736	88.25
430.958	101.25
431.18	79.25
431.402	87.25
431.624	91.25
431.846	92.25
432.068	93.25
432.29	87.25
432.512	74.25
432.734	87.25
432.956	93.25
433.178	102.25
433.4	109.25
433.622	100.25
433.844	87.25
434.066	103.25
434.287	102.25
434.509	94.25
434.731	101.25
434.953	79.25
435.175	92.25
435.397	89.25
435.618	103.25
435.84	87.25
436.062	95.25
436.284	110.25
436.505	99.25
436.727	100.25
436.949	105.25
437.17	102.25
437.392	103.25
437.614	90.25
437.835	92.25
438.057	110.25
438.278	99.25
438.5	102.25
438.721	117.25
438.943	95.25
439.165	96.25
439.386	77.25
439.608	105.25
439.829	106.25
440.05	119.25
440.272	111.25
440.493	104.25
440.715	89.25
440.936	94.25
441.158	83.25
441.379	87.25
441.6	102.25
441.822	87.25
442.043	99.25
442.264	102.25
442.486	100.25
442.707	96.25
442.928	112.25
443.149	108.25
443.371	125.25
443.592	116.25
443.813	116.25
444.034	109.25
444.255	103.25
444.476	83.25
444.698	79.25
444.919	95.25
445.14	149.25
445.361	118.25
445.582	108.25
445.803	128.25
446.024	115.25
446.245	131.25
446.466	106.25
446.687	77.25
446.908	95.25
447.129	103.25
447.35	94.25
447.571	93.25
447.792	99.25
448.013	88.25
448.234	111.25
448.455	104.25
448.675	115.25
448.896	128.25
449.117	107.25
449.338	105.25
449.559	118.25
449.779	122.25
450	97.25
450.221	107.25
450.442	92.25
450.662	95.25
450.883	116.25
451.104	107.25
451.324	93.25
451.545	88.25
451.766	83.25
451.986	99.25
452.207	91.25
452.428	96.25
452.648	100.25
452.869	109.25
453.089	123.25
453.31	102.25
453.53	96.25
453.751	95.25
453.971	110.25
454.192	109.25
454.412	97.25
454.633	84.25
454.853	98.25
455.073	92.25
455.294	75.25
455.514	94.25
455.734	92.25
455.955	66.25
456.175	89.25
456.395	87.25
456.616	92.25
456.836	81.25
457.056	95.25
457.276	97.25
457.497	85.25
457.717	94.25
457.937	89.25
458.157	102.25
458.377	85.25
458.598	95.25
458.818	142.25
459.038	135.25
459.258	105.25
459.478	103.25
459.698	90.25
459.918	82.25
460.138	104.25
460.358	104.25
460.578	100.25
460.798	87.25
461.018	98.25
461.238	78.25
461.458	88.25
461.678	97.25
461.898	87.25
462.118	95.25
462.338	92.25
462.558	99.25
462.777	86.25
462.997	91.25
463.217	87.25
463.437	93.25
463.657	83.25
463.876	88.25
464.096	95.25
464.316	102.25
464.536	86.25
464.755	82.25
464.975	103.25
465.195	153.25
465.414	143.25
465.634	86.25
465.854	94.25
466.073	95.25
466.293	89.25
466.512	84.25
466.732	83.25
466.951	64.25
467.171	107.25
467.391	81.25
467.61	105.25
467.829	93.25
468.049	71.25
468.268	90.25
468.488	99.25
468.707	100.25
468.927	85.25
469.146	88.25
469.365	82.25
469.585	97.25
469.804	93.25
470.023	85.25
470.243	92.25
470.462	97.25
470.681	108.25
470.901	88.25
471.12	85.25
471.339	92.25
471.558	97.25
471.777	97.25
471.997	92.25
472.216	88.25
472.435	105.25
472.654	92.25
472.873	83.25
473.092	91.25
473.311	96.25
473.53	94.25
473.749	79.25
473.968	99.25
474.187	102.25
474.406	104.25
474.625	89.25
474.844	94.25
475.063	94.25
475.282	92.25
475.501	93.25
475.72	98.25
475.939	85.25
476.158	86.25
476.377	99.25
476.596	79.25
476.814	90.25
477.033	85.25
477.252	95.25
477.471	92.25
477.69	99.25
477.908	86.25
478.127	103.25
478.346	93.25
478.564	92.25
478.783	95.25
479.002	89.25
479.22	83.25
479.439	88.25
479.658	96.25
479.876	100.25
480.095	82.25
480.313	80.25
480.532	89.25
480.751	72.25
480.969	102.25
481.188	103.25
481.406	98.25
481.624	92.25
481.843	101.25
482.061	83.25
482.28	97.25
482.498	96.25
482.717	96.25
482.935	94.25
483.153	79.25
483.372	101.25
483.59	85.25
483.808	105.25
484.027	98.25
484.245	85.25
484.463	106.25
484.681	88.25
484.9	87.25
485.118	101.25
485.336	96.25
485.554	100.25
485.772	100.25
485.99	108.25
486.209	109.25
486.427	102.25
486.645	92.25
486.863	103.25
487.081	94.25
487.299	100.25
487.517	96.25
487.735	89.25
487.953	95.25
488.171	95.25
488.389	79.25
488.607	99.25
488.825	93.25
489.043	87.25
489.261	93.25
489.479	93.25
489.696	84.25
489.914	103.25
490.132	91.25
490.35	91.25
490.568	86.25
490.786	91.25
491.003	85.25
491.221	89.25
491.439	92.25
491.657	105.25
491.874	87.25
492.092	92.25
492.31	89.25
492.527	101.25
492.745	86.25
492.963	106.25
493.18	97.25
493.398	70.25
493.615	100.25
493.833	99.25
494.05	70.25
494.268	101.25
494.485	99.25
494.703	88.25
494.92	98.25
495.138	97.25
495.355	96.25
495.573	95.25
495.79	104.25
496.008	87.25
496.225	92.25
496.442	88.25
496.66	104.25
496.877	89.25
497.094	92.25
497.312	98.25
497.529	88.25
497.746	99.25
497.963	79.25
498.181	85.25
498.398	95.25
498.615	107.25
498.832	109.25
499.049	97.25
499.267	92.25
499.484	101.25
499.701	97.25
499.918	93.25
500.135	95.25
500.352	87.25
500.569	88.25
500.786	98.25
501.003	96.25
501.22	93.25
501.437	105.25
501.654	115.25
501.871	101.25
502.088	93.25
502.305	104.25
502.522	96.25
502.739	94.25
502.956	99.25
503.172	95.25
503.389	89.25
503.606	108.25
503.823	87.25
504.04	101.25
504.256	85.25
504.473	79.25
504.69	83.25
504.907	108.25
505.123	95.25
505.34	94.25
505.557	95.25
505.773	100.25
505.99	103.25
506.207	85.25
506.423	95.25
506.64	105.25
506.856	119.25
507.073	97.25
507.289	94.25
507.506	101.25
507.722	109.25
507.939	111.25
508.155	102.25
508.372	96.25
508.588	97.25
508.805	94.25
509.021	110.25
509.238	97.25
509.454	104.25
509.67	104.25
509.887	108.25
510.103	128.25
510.319	214.25
510.536	683.25
510.752	2047.25
510.968	577.25
511.184	147.25
511.401	112.25
511.617	96.25
511.833	98.25
512.049	95.25
512.265	106.25
512.481	103.25
512.698	101.25
512.914	78.25
513.13	101.25
513.346	85.25
513.562	103.25
513.778	101.25
513.994	95.25
514.21	113.25
514.426	115.25
514.642	111.25
