Data from Uncirc_1993_H10_HRD10591_00047.txt Node
Date: Wed Jan 03 11:43:01 EST 2024
User: Yrep
Spectrometer: HR+D1059
Trigger mode: 1
Integration Time (sec): 1.000000E-1
Scans to average: 1
Electric dark correction enabled: true
Nonlinearity correction enabled: false
Boxcar width: 0
XAxis mode: Wavelengths
Number of Pixels in Spectrum: 2048
>>>>>Begin Spectral Data<<<<<
223.165	-18.88
223.4	-18.88
223.635	-18.88
223.869	-29.88
224.104	-7.88
224.338	-12.88
224.573	-9.88
224.808	-5.88
225.042	-8.88
225.277	-15.88
225.511	5.12
225.746	-2.88
225.98	16.12
226.215	18.12
226.449	17.12
226.683	18.12
226.918	18.12
227.152	20.12
227.387	37.12
227.621	35.12
227.856	45.12
228.09	49.12
228.324	39.12
228.559	45.12
228.793	48.12
229.027	60.12
229.262	70.12
229.496	70.12
229.73	86.12
229.964	75.12
230.199	73.12
230.433	66.12
230.667	70.12
230.901	75.12
231.136	81.12
231.37	82.12
231.604	78.12
231.838	81.12
232.072	82.12
232.306	81.12
232.541	66.12
232.775	85.12
233.009	77.12
233.243	82.12
233.477	92.12
233.711	99.12
233.945	87.12
234.179	77.12
234.413	78.12
234.647	88.12
234.881	74.12
235.115	87.12
235.349	81.12
235.583	72.12
235.817	85.12
236.051	81.12
236.285	69.12
236.519	65.12
236.753	81.12
236.987	85.12
237.221	75.12
237.455	73.12
237.689	68.12
237.922	94.12
238.156	68.12
238.39	76.12
238.624	64.12
238.858	85.12
239.091	65.12
239.325	89.12
239.559	70.12
239.793	77.12
240.027	65.12
240.26	82.12
240.494	77.12
240.728	78.12
240.961	81.12
241.195	76.12
241.429	84.12
241.662	59.12
241.896	73.12
242.13	89.12
242.363	80.12
242.597	73.12
242.83	68.12
243.064	83.12
243.298	81.12
243.531	88.12
243.765	93.12
243.998	72.12
244.232	65.12
244.465	86.12
244.699	71.12
244.932	85.12
245.166	84.12
245.399	94.12
245.633	63.12
245.866	71.12
246.099	87.12
246.333	77.12
246.566	82.12
246.8	89.12
247.033	67.12
247.266	82.12
247.5	81.12
247.733	75.12
247.966	93.12
248.2	75.12
248.433	92.12
248.666	78.12
248.899	88.12
249.133	93.12
249.366	99.12
249.599	105.12
249.832	77.12
250.066	82.12
250.299	77.12
250.532	85.12
250.765	95.12
250.998	85.12
251.231	85.12
251.465	75.12
251.698	91.12
251.931	85.12
252.164	79.12
252.397	77.12
252.63	80.12
252.863	93.12
253.096	76.12
253.329	85.12
253.562	80.12
253.795	86.12
254.028	83.12
254.261	84.12
254.494	72.12
254.727	81.12
254.96	78.12
255.193	79.12
255.426	92.12
255.659	70.12
255.892	97.12
256.124	75.12
256.357	77.12
256.59	93.12
256.823	71.12
257.056	79.12
257.289	79.12
257.521	98.12
257.754	91.12
257.987	64.12
258.22	87.12
258.452	76.12
258.685	73.12
258.918	80.12
259.151	78.12
259.383	70.12
259.616	82.12
259.849	78.12
260.081	81.12
260.314	86.12
260.547	93.12
260.779	74.12
261.012	81.12
261.244	93.12
261.477	95.12
261.71	105.12
261.942	98.12
262.175	106.12
262.407	86.12
262.64	85.12
262.872	82.12
263.105	69.12
263.337	88.12
263.57	74.12
263.802	93.12
264.035	93.12
264.267	95.12
264.499	89.12
264.732	77.12
264.964	83.12
265.197	85.12
265.429	67.12
265.661	74.12
265.894	88.12
266.126	82.12
266.358	81.12
266.591	93.12
266.823	97.12
267.055	84.12
267.287	84.12
267.52	77.12
267.752	77.12
267.984	96.12
268.216	93.12
268.448	78.12
268.681	88.12
268.913	82.12
269.145	82.12
269.377	77.12
269.609	83.12
269.841	85.12
270.073	84.12
270.306	85.12
270.538	80.12
270.77	90.12
271.002	92.12
271.234	87.12
271.466	83.12
271.698	71.12
271.93	92.12
272.162	81.12
272.394	89.12
272.626	100.12
272.858	92.12
273.09	77.12
273.322	96.12
273.553	87.12
273.785	93.12
274.017	83.12
274.249	81.12
274.481	82.12
274.713	88.12
274.945	87.12
275.176	75.12
275.408	109.12
275.64	83.12
275.872	82.12
276.104	87.12
276.335	100.12
276.567	102.12
276.799	94.12
277.031	93.12
277.262	96.12
277.494	81.12
277.726	109.12
277.957	94.12
278.189	96.12
278.421	89.12
278.652	92.12
278.884	67.12
279.115	92.12
279.347	77.12
279.579	73.12
279.81	93.12
280.042	90.12
280.273	93.12
280.505	84.12
280.736	87.12
280.968	86.12
281.199	92.12
281.431	92.12
281.662	86.12
281.894	92.12
282.125	86.12
282.356	113.12
282.588	119.12
282.819	101.12
283.051	99.12
283.282	92.12
283.513	91.12
283.745	97.12
283.976	95.12
284.207	86.12
284.439	89.12
284.67	80.12
284.901	76.12
285.132	86.12
285.364	90.12
285.595	89.12
285.826	87.12
286.057	92.12
286.288	87.12
286.52	85.12
286.751	91.12
286.982	78.12
287.213	78.12
287.444	79.12
287.675	98.12
287.906	89.12
288.138	85.12
288.369	79.12
288.6	93.12
288.831	81.12
289.062	82.12
289.293	93.12
289.524	102.12
289.755	97.12
289.986	91.12
290.217	100.12
290.448	89.12
290.679	90.12
290.91	96.12
291.141	103.12
291.371	84.12
291.602	89.12
291.833	97.12
292.064	77.12
292.295	98.12
292.526	95.12
292.757	88.12
292.987	81.12
293.218	85.12
293.449	82.12
293.68	87.12
293.91	82.12
294.141	87.12
294.372	85.12
294.603	71.12
294.833	89.12
295.064	88.12
295.295	84.12
295.525	95.12
295.756	102.12
295.987	98.12
296.217	133.12
296.448	110.12
296.679	85.12
296.909	81.12
297.14	87.12
297.37	84.12
297.601	87.12
297.831	90.12
298.062	91.12
298.292	93.12
298.523	90.12
298.753	74.12
298.984	70.12
299.214	83.12
299.445	99.12
299.675	86.12
299.905	94.12
300.136	91.12
300.366	82.12
300.597	86.12
300.827	95.12
301.057	94.12
301.288	89.12
301.518	86.12
301.748	100.12
301.979	97.12
302.209	85.12
302.439	94.12
302.669	106.12
302.9	92.12
303.13	83.12
303.36	81.12
303.59	104.12
303.82	95.12
304.051	89.12
304.281	101.12
304.511	85.12
304.741	76.12
304.971	88.12
305.201	91.12
305.431	87.12
305.661	86.12
305.891	78.12
306.121	94.12
306.352	103.12
306.582	85.12
306.812	91.12
307.042	106.12
307.272	100.12
307.502	94.12
307.731	79.12
307.961	88.12
308.191	94.12
308.421	100.12
308.651	69.12
308.881	90.12
309.111	93.12
309.341	98.12
309.571	96.12
309.8	96.12
310.03	103.12
310.26	97.12
310.49	94.12
310.72	102.12
310.949	102.12
311.179	92.12
311.409	83.12
311.639	92.12
311.868	84.12
312.098	87.12
312.328	78.12
312.557	96.12
312.787	99.12
313.017	106.12
313.246	85.12
313.476	108.12
313.706	92.12
313.935	93.12
314.165	95.12
314.394	94.12
314.624	101.12
314.853	92.12
315.083	86.12
315.312	105.12
315.542	92.12
315.771	92.12
316.001	87.12
316.23	93.12
316.46	84.12
316.689	94.12
316.919	88.12
317.148	106.12
317.377	99.12
317.607	97.12
317.836	77.12
318.065	86.12
318.295	97.12
318.524	100.12
318.753	90.12
318.983	115.12
319.212	81.12
319.441	98.12
319.67	98.12
319.9	100.12
320.129	102.12
320.358	108.12
320.587	106.12
320.816	102.12
321.046	101.12
321.275	95.12
321.504	96.12
321.733	95.12
321.962	95.12
322.191	91.12
322.42	111.12
322.649	95.12
322.878	112.12
323.108	110.12
323.337	110.12
323.566	117.12
323.795	143.12
324.024	155.12
324.253	323.12
324.482	622.12
324.71	1229.12
324.939	1555.12
325.168	613.12
325.397	205.12
325.626	130.12
325.855	121.12
326.084	111.12
326.313	124.12
326.542	138.12
326.77	181.12
326.999	349.12
327.228	711.12
327.457	1213.12
327.686	966.12
327.914	285.12
328.143	171.12
328.372	147.12
328.6	108.12
328.829	113.12
329.058	113.12
329.287	122.12
329.515	102.12
329.744	109.12
329.972	94.12
330.201	97.12
330.43	101.12
330.658	112.12
330.887	117.12
331.115	125.12
331.344	102.12
331.572	97.12
331.801	102.12
332.03	102.12
332.258	99.12
332.486	98.12
332.715	83.12
332.943	89.12
333.172	85.12
333.4	80.12
333.629	95.12
333.857	103.12
334.085	89.12
334.314	90.12
334.542	112.12
334.771	101.12
334.999	98.12
335.227	94.12
335.455	97.12
335.684	85.12
335.912	105.12
336.14	95.12
336.369	94.12
336.597	94.12
336.825	94.12
337.053	86.12
337.281	94.12
337.51	70.12
337.738	107.12
337.966	99.12
338.194	103.12
338.422	94.12
338.65	95.12
338.878	97.12
339.106	100.12
339.334	95.12
339.562	100.12
339.79	94.12
340.018	80.12
340.246	100.12
340.474	107.12
340.702	93.12
340.93	78.12
341.158	91.12
341.386	89.12
341.614	89.12
341.842	103.12
342.07	84.12
342.298	91.12
342.526	88.12
342.754	88.12
342.981	97.12
343.209	97.12
343.437	106.12
343.665	92.12
343.893	90.12
344.12	78.12
344.348	100.12
344.576	91.12
344.804	102.12
345.031	100.12
345.259	91.12
345.487	89.12
345.714	92.12
345.942	93.12
346.17	107.12
346.397	96.12
346.625	99.12
346.853	100.12
347.08	77.12
347.308	80.12
347.535	102.12
347.763	94.12
347.99	97.12
348.218	89.12
348.445	106.12
348.673	98.12
348.9	98.12
349.128	100.12
349.355	85.12
349.583	92.12
349.81	94.12
350.037	80.12
350.265	96.12
350.492	100.12
350.72	89.12
350.947	107.12
351.174	113.12
351.402	95.12
351.629	118.12
351.856	91.12
352.083	102.12
352.311	101.12
352.538	109.12
352.765	112.12
352.992	113.12
353.22	110.12
353.447	94.12
353.674	102.12
353.901	99.12
354.128	97.12
354.355	103.12
354.583	117.12
354.81	104.12
355.037	70.12
355.264	103.12
355.491	92.12
355.718	79.12
355.945	96.12
356.172	116.12
356.399	92.12
356.626	94.12
356.853	101.12
357.08	105.12
357.307	96.12
357.534	94.12
357.761	81.12
357.988	98.12
358.215	100.12
358.441	97.12
358.668	100.12
358.895	90.12
359.122	79.12
359.349	67.12
359.576	88.12
359.802	96.12
360.029	102.12
360.256	115.12
360.483	99.12
360.709	102.12
360.936	101.12
361.163	82.12
361.39	92.12
361.616	100.12
361.843	91.12
362.07	94.12
362.296	78.12
362.523	107.12
362.749	83.12
362.976	86.12
363.203	87.12
363.429	82.12
363.656	85.12
363.882	102.12
364.109	87.12
364.335	93.12
364.562	87.12
364.788	92.12
365.015	87.12
365.241	92.12
365.468	105.12
365.694	92.12
365.92	109.12
366.147	84.12
366.373	106.12
366.599	97.12
366.826	97.12
367.052	90.12
367.278	85.12
367.505	92.12
367.731	74.12
367.957	92.12
368.184	96.12
368.41	108.12
368.636	110.12
368.862	123.12
369.089	102.12
369.315	79.12
369.541	91.12
369.767	83.12
369.993	101.12
370.219	90.12
370.445	96.12
370.672	95.12
370.898	101.12
371.124	93.12
371.35	95.12
371.576	100.12
371.802	82.12
372.028	91.12
372.254	101.12
372.48	90.12
372.706	90.12
372.932	73.12
373.158	90.12
373.384	91.12
373.61	91.12
373.835	94.12
374.061	85.12
374.287	92.12
374.513	81.12
374.739	85.12
374.965	86.12
375.191	79.12
375.416	87.12
375.642	99.12
375.868	98.12
376.094	112.12
376.319	99.12
376.545	99.12
376.771	100.12
376.997	84.12
377.222	92.12
377.448	92.12
377.674	84.12
377.899	84.12
378.125	100.12
378.35	88.12
378.576	76.12
378.802	78.12
379.027	100.12
379.253	99.12
379.478	85.12
379.704	93.12
379.929	85.12
380.155	95.12
380.38	93.12
380.606	90.12
380.831	94.12
381.057	109.12
381.282	90.12
381.507	98.12
381.733	109.12
381.958	97.12
382.184	97.12
382.409	84.12
382.634	102.12
382.86	98.12
383.085	94.12
383.31	109.12
383.535	124.12
383.761	100.12
383.986	98.12
384.211	81.12
384.436	85.12
384.662	100.12
384.887	98.12
385.112	111.12
385.337	82.12
385.562	114.12
385.787	103.12
386.013	99.12
386.238	110.12
386.463	114.12
386.688	116.12
386.913	106.12
387.138	95.12
387.363	90.12
387.588	95.12
387.813	91.12
388.038	103.12
388.263	106.12
388.488	114.12
388.713	82.12
388.938	104.12
389.163	110.12
389.387	92.12
389.612	110.12
389.837	98.12
390.062	87.12
390.287	91.12
390.512	95.12
390.736	98.12
390.961	98.12
391.186	102.12
391.411	109.12
391.636	94.12
391.86	97.12
392.085	79.12
392.31	91.12
392.534	96.12
392.759	93.12
392.984	102.12
393.208	94.12
393.433	98.12
393.658	101.12
393.882	98.12
394.107	92.12
394.331	93.12
394.556	85.12
394.78	82.12
395.005	84.12
395.229	100.12
395.454	98.12
395.678	85.12
395.903	97.12
396.127	85.12
396.352	79.12
396.576	89.12
396.801	88.12
397.025	82.12
397.249	106.12
397.474	90.12
397.698	103.12
397.922	102.12
398.147	82.12
398.371	75.12
398.595	100.12
398.82	89.12
399.044	93.12
399.268	82.12
399.492	82.12
399.717	108.12
399.941	98.12
400.165	88.12
400.389	98.12
400.613	83.12
400.837	100.12
401.062	79.12
401.286	90.12
401.51	85.12
401.734	96.12
401.958	103.12
402.182	125.12
402.406	160.12
402.63	99.12
402.854	101.12
403.078	100.12
403.302	85.12
403.526	88.12
403.75	89.12
403.974	80.12
404.198	76.12
404.422	82.12
404.645	92.12
404.869	96.12
405.093	98.12
405.317	93.12
405.541	93.12
405.765	93.12
405.988	100.12
406.212	155.12
406.436	203.12
406.66	124.12
406.883	98.12
407.107	91.12
407.331	78.12
407.555	107.12
407.778	82.12
408.002	95.12
408.226	89.12
408.449	81.12
408.673	85.12
408.896	103.12
409.12	103.12
409.344	97.12
409.567	104.12
409.791	95.12
410.014	100.12
410.238	94.12
410.461	92.12
410.685	100.12
410.908	110.12
411.132	96.12
411.355	105.12
411.578	90.12
411.802	98.12
412.025	85.12
412.249	92.12
412.472	89.12
412.695	76.12
412.919	92.12
413.142	81.12
413.365	97.12
413.589	89.12
413.812	86.12
414.035	96.12
414.258	95.12
414.482	99.12
414.705	83.12
414.928	98.12
415.151	85.12
415.374	79.12
415.597	91.12
415.821	81.12
416.044	95.12
416.267	94.12
416.49	112.12
416.713	91.12
416.936	95.12
417.159	97.12
417.382	91.12
417.605	88.12
417.828	89.12
418.051	94.12
418.274	83.12
418.497	95.12
418.72	83.12
418.943	93.12
419.166	80.12
419.389	97.12
419.611	89.12
419.834	90.12
420.057	92.12
420.28	101.12
420.503	102.12
420.726	107.12
420.948	85.12
421.171	100.12
421.394	92.12
421.617	90.12
421.839	82.12
422.062	106.12
422.285	97.12
422.507	99.12
422.73	87.12
422.953	98.12
423.175	96.12
423.398	88.12
423.621	85.12
423.843	85.12
424.066	87.12
424.288	97.12
424.511	91.12
424.733	93.12
424.956	101.12
425.178	100.12
425.401	85.12
425.623	89.12
425.846	85.12
426.068	83.12
426.291	80.12
426.513	90.12
426.735	93.12
426.958	100.12
427.18	98.12
427.402	110.12
427.625	144.12
427.847	122.12
428.069	95.12
428.292	95.12
428.514	89.12
428.736	81.12
428.958	83.12
429.181	90.12
429.403	85.12
429.625	83.12
429.847	85.12
430.069	88.12
430.292	83.12
430.514	84.12
430.736	81.12
430.958	89.12
431.18	89.12
431.402	82.12
431.624	90.12
431.846	105.12
432.068	89.12
432.29	94.12
432.512	89.12
432.734	82.12
432.956	87.12
433.178	105.12
433.4	108.12
433.622	91.12
433.844	94.12
434.066	104.12
434.287	84.12
434.509	84.12
434.731	76.12
434.953	83.12
435.175	87.12
435.397	93.12
435.618	102.12
435.84	102.12
436.062	119.12
436.284	97.12
436.505	87.12
436.727	99.12
436.949	87.12
437.17	106.12
437.392	75.12
437.614	87.12
437.835	104.12
438.057	114.12
438.278	93.12
438.5	95.12
438.721	108.12
438.943	92.12
439.165	96.12
439.386	85.12
439.608	84.12
439.829	96.12
440.05	98.12
440.272	118.12
440.493	106.12
440.715	89.12
440.936	85.12
441.158	95.12
441.379	84.12
441.6	108.12
441.822	97.12
442.043	109.12
442.264	104.12
442.486	88.12
442.707	92.12
442.928	103.12
443.149	117.12
443.371	117.12
443.592	106.12
443.813	98.12
444.034	94.12
444.255	93.12
444.476	92.12
444.698	81.12
444.919	93.12
445.14	137.12
445.361	121.12
445.582	113.12
445.803	129.12
446.024	118.12
446.245	117.12
446.466	94.12
446.687	101.12
446.908	102.12
447.129	92.12
447.35	88.12
447.571	77.12
447.792	85.12
448.013	92.12
448.234	103.12
448.455	103.12
448.675	99.12
448.896	106.12
449.117	94.12
449.338	107.12
449.559	109.12
449.779	111.12
450	87.12
450.221	87.12
450.442	86.12
450.662	115.12
450.883	91.12
451.104	93.12
451.324	89.12
451.545	92.12
451.766	83.12
451.986	101.12
452.207	94.12
452.428	113.12
452.648	88.12
452.869	94.12
453.089	103.12
453.31	108.12
453.53	89.12
453.751	89.12
453.971	103.12
454.192	117.12
454.412	93.12
454.633	84.12
454.853	85.12
455.073	78.12
455.294	94.12
455.514	94.12
455.734	88.12
455.955	89.12
456.175	89.12
456.395	77.12
456.616	81.12
456.836	79.12
457.056	74.12
457.276	82.12
457.497	89.12
457.717	82.12
457.937	79.12
458.157	95.12
458.377	95.12
458.598	91.12
458.818	139.12
459.038	124.12
459.258	103.12
459.478	99.12
459.698	96.12
459.918	84.12
460.138	83.12
460.358	88.12
460.578	93.12
460.798	101.12
461.018	99.12
461.238	93.12
461.458	116.12
461.678	83.12
461.898	86.12
462.118	97.12
462.338	82.12
462.558	99.12
462.777	90.12
462.997	89.12
463.217	83.12
463.437	86.12
463.657	93.12
463.876	86.12
464.096	98.12
464.316	99.12
464.536	85.12
464.755	98.12
464.975	89.12
465.195	149.12
465.414	118.12
465.634	78.12
465.854	99.12
466.073	87.12
466.293	85.12
466.512	91.12
466.732	85.12
466.951	91.12
467.171	100.12
467.391	91.12
467.61	90.12
467.829	92.12
468.049	103.12
468.268	91.12
468.488	91.12
468.707	95.12
468.927	78.12
469.146	85.12
469.365	91.12
469.585	105.12
469.804	97.12
470.023	103.12
470.243	97.12
470.462	91.12
470.681	102.12
470.901	91.12
471.12	92.12
471.339	86.12
471.558	92.12
471.777	82.12
471.997	85.12
472.216	89.12
472.435	99.12
472.654	89.12
472.873	84.12
473.092	93.12
473.311	81.12
473.53	81.12
473.749	83.12
473.968	94.12
474.187	97.12
474.406	85.12
474.625	89.12
474.844	101.12
475.063	94.12
475.282	98.12
475.501	95.12
475.72	90.12
475.939	83.12
476.158	67.12
476.377	76.12
476.596	87.12
476.814	86.12
477.033	91.12
477.252	93.12
477.471	91.12
477.69	105.12
477.908	104.12
478.127	89.12
478.346	84.12
478.564	77.12
478.783	83.12
479.002	101.12
479.22	89.12
479.439	95.12
479.658	86.12
479.876	89.12
480.095	102.12
480.313	90.12
480.532	86.12
480.751	93.12
480.969	98.12
481.188	104.12
481.406	100.12
481.624	102.12
481.843	98.12
482.061	73.12
482.28	82.12
482.498	94.12
482.717	93.12
482.935	94.12
483.153	78.12
483.372	93.12
483.59	104.12
483.808	98.12
484.027	98.12
484.245	83.12
484.463	96.12
484.681	101.12
484.9	102.12
485.118	109.12
485.336	97.12
485.554	101.12
485.772	101.12
485.99	93.12
486.209	99.12
486.427	112.12
486.645	122.12
486.863	102.12
487.081	116.12
487.299	85.12
487.517	84.12
487.735	97.12
487.953	93.12
488.171	85.12
488.389	95.12
488.607	109.12
488.825	107.12
489.043	87.12
489.261	91.12
489.479	87.12
489.696	95.12
489.914	82.12
490.132	95.12
490.35	91.12
490.568	102.12
490.786	97.12
491.003	101.12
491.221	79.12
491.439	94.12
491.657	89.12
491.874	81.12
492.092	94.12
492.31	93.12
492.527	108.12
492.745	85.12
492.963	87.12
493.18	94.12
493.398	100.12
493.615	102.12
493.833	78.12
494.05	101.12
494.268	89.12
494.485	92.12
494.703	93.12
494.92	90.12
495.138	103.12
495.355	94.12
495.573	92.12
495.79	96.12
496.008	83.12
496.225	97.12
496.442	89.12
496.66	102.12
496.877	102.12
497.094	93.12
497.312	79.12
497.529	90.12
497.746	69.12
497.963	97.12
498.181	97.12
498.398	104.12
498.615	97.12
498.832	99.12
499.049	90.12
499.267	99.12
499.484	93.12
499.701	91.12
499.918	113.12
500.135	85.12
500.352	102.12
500.569	93.12
500.786	78.12
501.003	96.12
501.22	89.12
501.437	93.12
501.654	101.12
501.871	106.12
502.088	89.12
502.305	96.12
502.522	105.12
502.739	96.12
502.956	81.12
503.172	96.12
503.389	95.12
503.606	91.12
503.823	98.12
504.04	88.12
504.256	98.12
504.473	102.12
504.69	81.12
504.907	77.12
505.123	85.12
505.34	72.12
505.557	86.12
505.773	90.12
505.99	77.12
506.207	82.12
506.423	90.12
506.64	74.12
506.856	96.12
507.073	89.12
507.289	87.12
507.506	107.12
507.722	111.12
507.939	101.12
508.155	85.12
508.372	95.12
508.588	83.12
508.805	98.12
509.021	110.12
509.238	83.12
509.454	106.12
509.67	117.12
509.887	118.12
510.103	122.12
510.319	181.12
510.536	640.12
510.752	1969.12
510.968	541.12
511.184	147.12
511.401	96.12
511.617	86.12
511.833	98.12
512.049	94.12
512.265	95.12
512.481	93.12
512.698	69.12
512.914	91.12
513.13	76.12
513.346	99.12
513.562	91.12
513.778	99.12
513.994	92.12
514.21	89.12
514.426	106.12
514.642	123.12
514.858	122.12
515.074	163.12
515.29	376.12
515.506	1179.12
515.721	435.12
