Data from Uncirc_1993_H10_HRD10591_00030.txt Node
Date: Wed Jan 03 11:42:58 EST 2024
User: Yrep
Spectrometer: HR+D1059
Trigger mode: 1
Integration Time (sec): 1.000000E-1
Scans to average: 1
Electric dark correction enabled: true
Nonlinearity correction enabled: false
Boxcar width: 0
XAxis mode: Wavelengths
Number of Pixels in Spectrum: 2048
>>>>>Begin Spectral Data<<<<<
223.165	-25.38
223.4	-25.38
223.635	-25.38
223.869	-12.38
224.104	-9.38
224.338	-19.38
224.573	-26.38
224.808	-23.38
225.042	-13.38
225.277	-9.38
225.511	4.62
225.746	4.62
225.98	4.62
226.215	19.62
226.449	16.62
226.683	34.62
226.918	31.62
227.152	22.62
227.387	37.62
227.621	21.62
227.856	61.62
228.09	58.62
228.324	52.62
228.559	42.62
228.793	66.62
229.027	72.62
229.262	66.62
229.496	76.62
229.73	84.62
229.964	82.62
230.199	74.62
230.433	70.62
230.667	79.62
230.901	76.62
231.136	89.62
231.37	76.62
231.604	72.62
231.838	79.62
232.072	94.62
232.306	85.62
232.541	77.62
232.775	81.62
233.009	76.62
233.243	87.62
233.477	85.62
233.711	82.62
233.945	72.62
234.179	82.62
234.413	92.62
234.647	80.62
234.881	79.62
235.115	92.62
235.349	78.62
235.583	77.62
235.817	65.62
236.051	76.62
236.285	78.62
236.519	94.62
236.753	72.62
236.987	84.62
237.221	78.62
237.455	81.62
237.689	89.62
237.922	78.62
238.156	83.62
238.39	72.62
238.624	74.62
238.858	76.62
239.091	89.62
239.325	78.62
239.559	84.62
239.793	78.62
240.027	78.62
240.26	82.62
240.494	89.62
240.728	76.62
240.961	76.62
241.195	95.62
241.429	82.62
241.662	74.62
241.896	85.62
242.13	78.62
242.363	84.62
242.597	63.62
242.83	72.62
243.064	75.62
243.298	73.62
243.531	74.62
243.765	61.62
243.998	87.62
244.232	67.62
244.465	77.62
244.699	85.62
244.932	86.62
245.166	81.62
245.399	68.62
245.633	72.62
245.866	85.62
246.099	78.62
246.333	84.62
246.566	75.62
246.8	77.62
247.033	58.62
247.266	73.62
247.5	72.62
247.733	79.62
247.966	82.62
248.2	81.62
248.433	80.62
248.666	74.62
248.899	84.62
249.133	102.62
249.366	106.62
249.599	96.62
249.832	82.62
250.066	76.62
250.299	67.62
250.532	74.62
250.765	86.62
250.998	67.62
251.231	80.62
251.465	77.62
251.698	78.62
251.931	85.62
252.164	75.62
252.397	67.62
252.63	76.62
252.863	83.62
253.096	91.62
253.329	78.62
253.562	61.62
253.795	95.62
254.028	82.62
254.261	76.62
254.494	83.62
254.727	88.62
254.96	76.62
255.193	68.62
255.426	88.62
255.659	85.62
255.892	83.62
256.124	68.62
256.357	82.62
256.59	89.62
256.823	92.62
257.056	75.62
257.289	73.62
257.521	86.62
257.754	66.62
257.987	78.62
258.22	78.62
258.452	83.62
258.685	56.62
258.918	81.62
259.151	75.62
259.383	76.62
259.616	91.62
259.849	86.62
260.081	65.62
260.314	77.62
260.547	76.62
260.779	79.62
261.012	84.62
261.244	72.62
261.477	75.62
261.71	79.62
261.942	99.62
262.175	110.62
262.407	90.62
262.64	74.62
262.872	73.62
263.105	67.62
263.337	107.62
263.57	74.62
263.802	80.62
264.035	79.62
264.267	68.62
264.499	72.62
264.732	82.62
264.964	72.62
265.197	68.62
265.429	81.62
265.661	83.62
265.894	89.62
266.126	85.62
266.358	83.62
266.591	89.62
266.823	90.62
267.055	77.62
267.287	68.62
267.52	83.62
267.752	97.62
267.984	83.62
268.216	89.62
268.448	76.62
268.681	86.62
268.913	81.62
269.145	70.62
269.377	94.62
269.609	85.62
269.841	88.62
270.073	82.62
270.306	85.62
270.538	76.62
270.77	72.62
271.002	67.62
271.234	91.62
271.466	88.62
271.698	93.62
271.93	97.62
272.162	89.62
272.394	90.62
272.626	81.62
272.858	98.62
273.09	90.62
273.322	99.62
273.553	91.62
273.785	87.62
274.017	87.62
274.249	65.62
274.481	78.62
274.713	90.62
274.945	79.62
275.176	92.62
275.408	82.62
275.64	81.62
275.872	70.62
276.104	79.62
276.335	80.62
276.567	100.62
276.799	100.62
277.031	94.62
277.262	94.62
277.494	91.62
277.726	88.62
277.957	101.62
278.189	75.62
278.421	68.62
278.652	85.62
278.884	89.62
279.115	79.62
279.347	78.62
279.579	83.62
279.81	82.62
280.042	69.62
280.273	78.62
280.505	86.62
280.736	88.62
280.968	77.62
281.199	84.62
281.431	78.62
281.662	90.62
281.894	91.62
282.125	89.62
282.356	94.62
282.588	120.62
282.819	115.62
283.051	90.62
283.282	74.62
283.513	91.62
283.745	78.62
283.976	82.62
284.207	92.62
284.439	87.62
284.67	83.62
284.901	91.62
285.132	85.62
285.364	76.62
285.595	85.62
285.826	85.62
286.057	97.62
286.288	91.62
286.52	83.62
286.751	70.62
286.982	91.62
287.213	80.62
287.444	79.62
287.675	101.62
287.906	85.62
288.138	96.62
288.369	91.62
288.6	107.62
288.831	86.62
289.062	84.62
289.293	89.62
289.524	87.62
289.755	103.62
289.986	80.62
290.217	86.62
290.448	85.62
290.679	91.62
290.91	99.62
291.141	85.62
291.371	102.62
291.602	97.62
291.833	88.62
292.064	90.62
292.295	92.62
292.526	79.62
292.757	60.62
292.987	96.62
293.218	88.62
293.449	89.62
293.68	102.62
293.91	91.62
294.141	104.62
294.372	96.62
294.603	87.62
294.833	76.62
295.064	87.62
295.295	81.62
295.525	77.62
295.756	85.62
295.987	102.62
296.217	118.62
296.448	112.62
296.679	79.62
296.909	90.62
297.14	84.62
297.37	82.62
297.601	87.62
297.831	95.62
298.062	76.62
298.292	97.62
298.523	84.62
298.753	92.62
298.984	88.62
299.214	91.62
299.445	86.62
299.675	78.62
299.905	100.62
300.136	80.62
300.366	92.62
300.597	84.62
300.827	77.62
301.057	92.62
301.288	113.62
301.518	88.62
301.748	102.62
301.979	103.62
302.209	88.62
302.439	100.62
302.669	90.62
302.9	93.62
303.13	88.62
303.36	90.62
303.59	100.62
303.82	90.62
304.051	104.62
304.281	83.62
304.511	80.62
304.741	90.62
304.971	94.62
305.201	75.62
305.431	99.62
305.661	90.62
305.891	82.62
306.121	97.62
306.352	94.62
306.582	96.62
306.812	105.62
307.042	93.62
307.272	97.62
307.502	92.62
307.731	86.62
307.961	92.62
308.191	97.62
308.421	84.62
308.651	89.62
308.881	86.62
309.111	96.62
309.341	86.62
309.571	88.62
309.8	94.62
310.03	92.62
310.26	92.62
310.49	93.62
310.72	81.62
310.949	92.62
311.179	106.62
311.409	98.62
311.639	82.62
311.868	86.62
312.098	86.62
312.328	82.62
312.557	87.62
312.787	93.62
313.017	101.62
313.246	87.62
313.476	84.62
313.706	92.62
313.935	95.62
314.165	105.62
314.394	93.62
314.624	108.62
314.853	95.62
315.083	96.62
315.312	101.62
315.542	100.62
315.771	85.62
316.001	90.62
316.23	89.62
316.46	82.62
316.689	101.62
316.919	84.62
317.148	97.62
317.377	98.62
317.607	95.62
317.836	90.62
318.065	93.62
318.295	88.62
318.524	94.62
318.753	87.62
318.983	92.62
319.212	100.62
319.441	92.62
319.67	109.62
319.9	86.62
320.129	81.62
320.358	83.62
320.587	98.62
320.816	96.62
321.046	88.62
321.275	92.62
321.504	96.62
321.733	97.62
321.962	94.62
322.191	82.62
322.42	98.62
322.649	99.62
322.878	91.62
323.108	101.62
323.337	122.62
323.566	123.62
323.795	143.62
324.024	167.62
324.253	324.62
324.482	650.62
324.71	1296.62
324.939	1682.62
325.168	612.62
325.397	202.62
325.626	127.62
325.855	114.62
326.084	104.62
326.313	121.62
326.542	128.62
326.77	205.62
326.999	396.62
327.228	742.62
327.457	1326.62
327.686	1041.62
327.914	305.62
328.143	173.62
328.372	126.62
328.6	114.62
328.829	105.62
329.058	111.62
329.287	110.62
329.515	97.62
329.744	91.62
329.972	86.62
330.201	90.62
330.43	107.62
330.658	116.62
330.887	117.62
331.115	106.62
331.344	99.62
331.572	76.62
331.801	92.62
332.03	105.62
332.258	81.62
332.486	88.62
332.715	85.62
332.943	84.62
333.172	93.62
333.4	90.62
333.629	92.62
333.857	85.62
334.085	79.62
334.314	98.62
334.542	100.62
334.771	96.62
334.999	98.62
335.227	99.62
335.455	82.62
335.684	101.62
335.912	89.62
336.14	106.62
336.369	109.62
336.597	90.62
336.825	86.62
337.053	95.62
337.281	92.62
337.51	87.62
337.738	102.62
337.966	87.62
338.194	95.62
338.422	97.62
338.65	88.62
338.878	82.62
339.106	96.62
339.334	93.62
339.562	85.62
339.79	84.62
340.018	96.62
340.246	86.62
340.474	96.62
340.702	98.62
340.93	102.62
341.158	108.62
341.386	90.62
341.614	98.62
341.842	92.62
342.07	81.62
342.298	89.62
342.526	84.62
342.754	82.62
342.981	88.62
343.209	82.62
343.437	90.62
343.665	82.62
343.893	96.62
344.12	90.62
344.348	87.62
344.576	77.62
344.804	83.62
345.031	101.62
345.259	94.62
345.487	83.62
345.714	92.62
345.942	82.62
346.17	88.62
346.397	91.62
346.625	104.62
346.853	76.62
347.08	81.62
347.308	88.62
347.535	91.62
347.763	115.62
347.99	109.62
348.218	88.62
348.445	111.62
348.673	88.62
348.9	90.62
349.128	94.62
349.355	94.62
349.583	84.62
349.81	102.62
350.037	89.62
350.265	94.62
350.492	87.62
350.72	104.62
350.947	105.62
351.174	111.62
351.402	108.62
351.629	93.62
351.856	101.62
352.083	101.62
352.311	94.62
352.538	100.62
352.765	100.62
352.992	110.62
353.22	110.62
353.447	97.62
353.674	100.62
353.901	90.62
354.128	97.62
354.355	100.62
354.583	102.62
354.81	88.62
355.037	99.62
355.264	101.62
355.491	108.62
355.718	96.62
355.945	94.62
356.172	106.62
356.399	104.62
356.626	92.62
356.853	101.62
357.08	93.62
357.307	83.62
357.534	96.62
357.761	95.62
357.988	93.62
358.215	87.62
358.441	90.62
358.668	96.62
358.895	87.62
359.122	90.62
359.349	91.62
359.576	87.62
359.802	99.62
360.029	100.62
360.256	82.62
360.483	96.62
360.709	84.62
360.936	85.62
361.163	82.62
361.39	108.62
361.616	87.62
361.843	85.62
362.07	100.62
362.296	78.62
362.523	84.62
362.749	98.62
362.976	92.62
363.203	97.62
363.429	77.62
363.656	100.62
363.882	93.62
364.109	96.62
364.335	91.62
364.562	94.62
364.788	76.62
365.015	97.62
365.241	100.62
365.468	97.62
365.694	95.62
365.92	92.62
366.147	97.62
366.373	93.62
366.599	106.62
366.826	85.62
367.052	96.62
367.278	105.62
367.505	80.62
367.731	88.62
367.957	85.62
368.184	95.62
368.41	93.62
368.636	111.62
368.862	116.62
369.089	98.62
369.315	91.62
369.541	93.62
369.767	93.62
369.993	101.62
370.219	70.62
370.445	101.62
370.672	80.62
370.898	99.62
371.124	81.62
371.35	92.62
371.576	77.62
371.802	82.62
372.028	89.62
372.254	94.62
372.48	75.62
372.706	88.62
372.932	95.62
373.158	96.62
373.384	92.62
373.61	87.62
373.835	90.62
374.061	83.62
374.287	85.62
374.513	77.62
374.739	86.62
374.965	93.62
375.191	83.62
375.416	91.62
375.642	91.62
375.868	87.62
376.094	103.62
376.319	83.62
376.545	87.62
376.771	92.62
376.997	89.62
377.222	88.62
377.448	84.62
377.674	82.62
377.899	89.62
378.125	81.62
378.35	89.62
378.576	88.62
378.802	89.62
379.027	89.62
379.253	90.62
379.478	76.62
379.704	100.62
379.929	101.62
380.155	88.62
380.38	87.62
380.606	92.62
380.831	99.62
381.057	99.62
381.282	99.62
381.507	98.62
381.733	98.62
381.958	91.62
382.184	96.62
382.409	102.62
382.634	99.62
382.86	91.62
383.085	92.62
383.31	103.62
383.535	99.62
383.761	107.62
383.986	84.62
384.211	92.62
384.436	90.62
384.662	94.62
384.887	85.62
385.112	98.62
385.337	95.62
385.562	92.62
385.787	97.62
386.013	97.62
386.238	99.62
386.463	101.62
386.688	96.62
386.913	106.62
387.138	108.62
387.363	96.62
387.588	109.62
387.813	85.62
388.038	97.62
388.263	92.62
388.488	107.62
388.713	92.62
388.938	102.62
389.163	102.62
389.387	88.62
389.612	94.62
389.837	96.62
390.062	92.62
390.287	82.62
390.512	84.62
390.736	67.62
390.961	101.62
391.186	92.62
391.411	93.62
391.636	106.62
391.86	93.62
392.085	65.62
392.31	66.62
392.534	81.62
392.759	89.62
392.984	88.62
393.208	104.62
393.433	89.62
393.658	82.62
393.882	96.62
394.107	82.62
394.331	97.62
394.556	99.62
394.78	85.62
395.005	92.62
395.229	90.62
395.454	99.62
395.678	97.62
395.903	90.62
396.127	89.62
396.352	80.62
396.576	90.62
396.801	92.62
397.025	84.62
397.249	78.62
397.474	73.62
397.698	84.62
397.922	79.62
398.147	81.62
398.371	88.62
398.595	69.62
398.82	90.62
399.044	79.62
399.268	76.62
399.492	93.62
399.717	98.62
399.941	84.62
400.165	96.62
400.389	79.62
400.613	94.62
400.837	94.62
401.062	98.62
401.286	79.62
401.51	101.62
401.734	81.62
401.958	87.62
402.182	108.62
402.406	158.62
402.63	111.62
402.854	84.62
403.078	90.62
403.302	95.62
403.526	90.62
403.75	98.62
403.974	91.62
404.198	84.62
404.422	98.62
404.645	83.62
404.869	87.62
405.093	100.62
405.317	93.62
405.541	104.62
405.765	94.62
405.988	116.62
406.212	154.62
406.436	191.62
406.66	127.62
406.883	100.62
407.107	79.62
407.331	78.62
407.555	89.62
407.778	91.62
408.002	92.62
408.226	89.62
408.449	84.62
408.673	83.62
408.896	97.62
409.12	92.62
409.344	91.62
409.567	101.62
409.791	102.62
410.014	70.62
410.238	97.62
410.461	82.62
410.685	99.62
410.908	93.62
411.132	100.62
411.355	107.62
411.578	88.62
411.802	78.62
412.025	94.62
412.249	88.62
412.472	96.62
412.695	89.62
412.919	82.62
413.142	89.62
413.365	79.62
413.589	93.62
413.812	91.62
414.035	81.62
414.258	93.62
414.482	80.62
414.705	96.62
414.928	89.62
415.151	84.62
415.374	93.62
415.597	91.62
415.821	94.62
416.044	97.62
416.267	77.62
416.49	91.62
416.713	101.62
416.936	78.62
417.159	104.62
417.382	85.62
417.605	72.62
417.828	90.62
418.051	92.62
418.274	84.62
418.497	92.62
418.72	101.62
418.943	97.62
419.166	85.62
419.389	91.62
419.611	76.62
419.834	85.62
420.057	85.62
420.28	102.62
420.503	84.62
420.726	90.62
420.948	92.62
421.171	102.62
421.394	71.62
421.617	100.62
421.839	79.62
422.062	78.62
422.285	84.62
422.507	81.62
422.73	107.62
422.953	84.62
423.175	87.62
423.398	95.62
423.621	89.62
423.843	71.62
424.066	78.62
424.288	84.62
424.511	104.62
424.733	91.62
424.956	89.62
425.178	85.62
425.401	94.62
425.623	95.62
425.846	80.62
426.068	94.62
426.291	97.62
426.513	98.62
426.735	89.62
426.958	93.62
427.18	91.62
427.402	113.62
427.625	131.62
427.847	118.62
428.069	95.62
428.292	90.62
428.514	82.62
428.736	100.62
428.958	81.62
429.181	86.62
429.403	96.62
429.625	77.62
429.847	96.62
430.069	81.62
430.292	88.62
430.514	86.62
430.736	103.62
430.958	84.62
431.18	68.62
431.402	85.62
431.624	92.62
431.846	93.62
432.068	76.62
432.29	89.62
432.512	103.62
432.734	74.62
432.956	81.62
433.178	79.62
433.4	97.62
433.622	83.62
433.844	101.62
434.066	98.62
434.287	82.62
434.509	90.62
434.731	94.62
434.953	78.62
435.175	84.62
435.397	90.62
435.618	102.62
435.84	98.62
436.062	109.62
436.284	102.62
436.505	97.62
436.727	92.62
436.949	92.62
437.17	86.62
437.392	85.62
437.614	102.62
437.835	92.62
438.057	108.62
438.278	101.62
438.5	86.62
438.721	101.62
438.943	101.62
439.165	96.62
439.386	90.62
439.608	91.62
439.829	84.62
440.05	106.62
440.272	146.62
440.493	96.62
440.715	80.62
440.936	101.62
441.158	82.62
441.379	101.62
441.6	92.62
441.822	91.62
442.043	104.62
442.264	96.62
442.486	92.62
442.707	92.62
442.928	91.62
443.149	104.62
443.371	108.62
443.592	100.62
443.813	104.62
444.034	96.62
444.255	103.62
444.476	92.62
444.698	93.62
444.919	90.62
445.14	129.62
445.361	110.62
445.582	107.62
445.803	117.62
446.024	115.62
446.245	121.62
446.466	100.62
446.687	93.62
446.908	97.62
447.129	96.62
447.35	106.62
447.571	102.62
447.792	93.62
448.013	105.62
448.234	106.62
448.455	98.62
448.675	100.62
448.896	104.62
449.117	84.62
449.338	102.62
449.559	131.62
449.779	109.62
450	79.62
450.221	96.62
450.442	97.62
450.662	84.62
450.883	84.62
451.104	101.62
451.324	77.62
451.545	86.62
451.766	85.62
451.986	84.62
452.207	101.62
452.428	89.62
452.648	92.62
452.869	98.62
453.089	110.62
453.31	95.62
453.53	82.62
453.751	94.62
453.971	109.62
454.192	101.62
454.412	88.62
454.633	90.62
454.853	88.62
455.073	90.62
455.294	86.62
455.514	110.62
455.734	101.62
455.955	92.62
456.175	73.62
456.395	82.62
456.616	84.62
456.836	81.62
457.056	85.62
457.276	83.62
457.497	84.62
457.717	75.62
457.937	87.62
458.157	91.62
458.377	92.62
458.598	91.62
458.818	132.62
459.038	131.62
459.258	96.62
459.478	77.62
459.698	82.62
459.918	95.62
460.138	78.62
460.358	66.62
460.578	83.62
460.798	95.62
461.018	98.62
461.238	72.62
461.458	81.62
461.678	83.62
461.898	88.62
462.118	85.62
462.338	81.62
462.558	94.62
462.777	97.62
462.997	85.62
463.217	80.62
463.437	85.62
463.657	80.62
463.876	87.62
464.096	91.62
464.316	87.62
464.536	88.62
464.755	93.62
464.975	92.62
465.195	140.62
465.414	129.62
465.634	92.62
465.854	91.62
466.073	103.62
466.293	96.62
466.512	74.62
466.732	93.62
466.951	80.62
467.171	95.62
467.391	90.62
467.61	90.62
467.829	77.62
468.049	77.62
468.268	99.62
468.488	72.62
468.707	85.62
468.927	90.62
469.146	92.62
469.365	90.62
469.585	87.62
469.804	96.62
470.023	89.62
470.243	103.62
470.462	102.62
470.681	97.62
470.901	86.62
471.12	101.62
471.339	87.62
471.558	93.62
471.777	81.62
471.997	78.62
472.216	83.62
472.435	80.62
472.654	78.62
472.873	70.62
473.092	84.62
473.311	100.62
473.53	96.62
473.749	98.62
473.968	94.62
474.187	98.62
474.406	82.62
474.625	82.62
474.844	82.62
475.063	101.62
475.282	90.62
475.501	100.62
475.72	97.62
475.939	80.62
476.158	71.62
476.377	94.62
476.596	91.62
476.814	99.62
477.033	96.62
477.252	92.62
477.471	90.62
477.69	89.62
477.908	85.62
478.127	72.62
478.346	95.62
478.564	86.62
478.783	99.62
479.002	90.62
479.22	74.62
479.439	93.62
479.658	93.62
479.876	100.62
480.095	90.62
480.313	84.62
480.532	95.62
480.751	96.62
480.969	94.62
481.188	116.62
481.406	89.62
481.624	95.62
481.843	90.62
482.061	90.62
482.28	93.62
482.498	84.62
482.717	78.62
482.935	97.62
483.153	82.62
483.372	87.62
483.59	85.62
483.808	91.62
484.027	94.62
484.245	99.62
484.463	82.62
484.681	101.62
484.9	94.62
485.118	91.62
485.336	83.62
485.554	101.62
485.772	93.62
485.99	103.62
486.209	105.62
486.427	108.62
486.645	96.62
486.863	99.62
487.081	98.62
487.299	98.62
487.517	81.62
487.735	98.62
487.953	88.62
488.171	94.62
488.389	93.62
488.607	89.62
488.825	83.62
489.043	86.62
489.261	91.62
489.479	77.62
489.696	80.62
489.914	76.62
490.132	100.62
490.35	95.62
490.568	81.62
490.786	98.62
491.003	95.62
491.221	86.62
491.439	92.62
491.657	96.62
491.874	105.62
492.092	80.62
492.31	94.62
492.527	90.62
492.745	87.62
492.963	89.62
493.18	94.62
493.398	83.62
493.615	87.62
493.833	105.62
494.05	85.62
494.268	100.62
494.485	88.62
494.703	76.62
494.92	62.62
495.138	77.62
495.355	82.62
495.573	85.62
495.79	97.62
496.008	86.62
496.225	88.62
496.442	86.62
496.66	91.62
496.877	98.62
497.094	88.62
497.312	94.62
497.529	93.62
497.746	92.62
497.963	98.62
498.181	93.62
498.398	104.62
498.615	98.62
498.832	112.62
499.049	75.62
499.267	92.62
499.484	92.62
499.701	95.62
499.918	90.62
500.135	93.62
500.352	90.62
500.569	74.62
500.786	85.62
501.003	90.62
501.22	93.62
501.437	82.62
501.654	91.62
501.871	94.62
502.088	102.62
502.305	92.62
502.522	86.62
502.739	94.62
502.956	106.62
503.172	92.62
503.389	97.62
503.606	101.62
503.823	85.62
504.04	90.62
504.256	83.62
504.473	99.62
504.69	89.62
504.907	87.62
505.123	92.62
505.34	105.62
505.557	99.62
505.773	97.62
505.99	82.62
506.207	89.62
506.423	93.62
506.64	80.62
506.856	84.62
507.073	91.62
507.289	89.62
507.506	90.62
507.722	97.62
507.939	98.62
508.155	97.62
508.372	94.62
508.588	95.62
508.805	96.62
509.021	82.62
509.238	94.62
509.454	98.62
509.67	96.62
509.887	97.62
510.103	109.62
510.319	194.62
510.536	648.62
510.752	1988.62
510.968	559.62
511.184	157.62
511.401	112.62
511.617	88.62
511.833	85.62
512.049	113.62
512.265	82.62
512.481	90.62
512.698	92.62
512.914	88.62
513.13	80.62
513.346	88.62
513.562	92.62
513.778	97.62
513.994	90.62
514.21	87.62
514.426	113.62
514.642	120.62
514.858	124.62
515.074	143.62
515.29	372.62
515.506	1140.62
515.721	431.62
515.937	143.62
516.153	98.62
516.369	89.62
516.585	107.62
