Data from Uncirc_1993_H10_HRD10591_00041.txt Node
Date: Wed Jan 03 11:43:00 EST 2024
User: Yrep
Spectrometer: HR+D1059
Trigger mode: 1
Integration Time (sec): 1.000000E-1
Scans to average: 1
Electric dark correction enabled: true
Nonlinearity correction enabled: false
Boxcar width: 0
XAxis mode: Wavelengths
Number of Pixels in Spectrum: 2048
>>>>>Begin Spectral Data<<<<<
223.165	-18.94
223.4	-18.94
223.635	-18.94
223.869	-12.94
224.104	-27.94
224.338	-2.94
224.573	-9.94
224.808	-7.94
225.042	10.06
225.277	-19.94
225.511	-15.94
225.746	-5.94
225.98	6.06
226.215	12.06
226.449	22.06
226.683	24.06
226.918	26.06
227.152	22.06
227.387	47.06
227.621	32.06
227.856	38.06
228.09	46.06
228.324	44.06
228.559	63.06
228.793	55.06
229.027	65.06
229.262	58.06
229.496	70.06
229.73	80.06
229.964	69.06
230.199	80.06
230.433	68.06
230.667	79.06
230.901	76.06
231.136	79.06
231.37	78.06
231.604	75.06
231.838	79.06
232.072	73.06
232.306	72.06
232.541	80.06
232.775	69.06
233.009	88.06
233.243	64.06
233.477	60.06
233.711	71.06
233.945	70.06
234.179	84.06
234.413	79.06
234.647	73.06
234.881	85.06
235.115	81.06
235.349	77.06
235.583	83.06
235.817	75.06
236.051	86.06
236.285	82.06
236.519	75.06
236.753	76.06
236.987	74.06
237.221	74.06
237.455	78.06
237.689	79.06
237.922	82.06
238.156	80.06
238.39	71.06
238.624	84.06
238.858	88.06
239.091	89.06
239.325	62.06
239.559	92.06
239.793	86.06
240.027	71.06
240.26	82.06
240.494	78.06
240.728	62.06
240.961	84.06
241.195	71.06
241.429	80.06
241.662	76.06
241.896	61.06
242.13	83.06
242.363	83.06
242.597	78.06
242.83	76.06
243.064	71.06
243.298	72.06
243.531	87.06
243.765	72.06
243.998	74.06
244.232	65.06
244.465	78.06
244.699	62.06
244.932	65.06
245.166	57.06
245.399	59.06
245.633	96.06
245.866	65.06
246.099	80.06
246.333	68.06
246.566	71.06
246.8	70.06
247.033	72.06
247.266	74.06
247.5	76.06
247.733	73.06
247.966	78.06
248.2	68.06
248.433	86.06
248.666	88.06
248.899	76.06
249.133	68.06
249.366	85.06
249.599	83.06
249.832	96.06
250.066	77.06
250.299	68.06
250.532	70.06
250.765	77.06
250.998	80.06
251.231	87.06
251.465	65.06
251.698	82.06
251.931	75.06
252.164	79.06
252.397	80.06
252.63	78.06
252.863	87.06
253.096	78.06
253.329	81.06
253.562	84.06
253.795	72.06
254.028	69.06
254.261	69.06
254.494	84.06
254.727	71.06
254.96	85.06
255.193	78.06
255.426	68.06
255.659	72.06
255.892	85.06
256.124	85.06
256.357	74.06
256.59	86.06
256.823	64.06
257.056	74.06
257.289	81.06
257.521	83.06
257.754	68.06
257.987	70.06
258.22	78.06
258.452	79.06
258.685	80.06
258.918	84.06
259.151	80.06
259.383	78.06
259.616	74.06
259.849	72.06
260.081	81.06
260.314	69.06
260.547	70.06
260.779	86.06
261.012	66.06
261.244	80.06
261.477	87.06
261.71	64.06
261.942	93.06
262.175	86.06
262.407	89.06
262.64	73.06
262.872	82.06
263.105	77.06
263.337	80.06
263.57	84.06
263.802	83.06
264.035	73.06
264.267	78.06
264.499	87.06
264.732	80.06
264.964	89.06
265.197	70.06
265.429	81.06
265.661	86.06
265.894	73.06
266.126	60.06
266.358	85.06
266.591	80.06
266.823	70.06
267.055	79.06
267.287	78.06
267.52	88.06
267.752	65.06
267.984	81.06
268.216	77.06
268.448	87.06
268.681	75.06
268.913	71.06
269.145	77.06
269.377	73.06
269.609	80.06
269.841	80.06
270.073	70.06
270.306	87.06
270.538	90.06
270.77	77.06
271.002	86.06
271.234	88.06
271.466	94.06
271.698	78.06
271.93	78.06
272.162	91.06
272.394	79.06
272.626	73.06
272.858	75.06
273.09	76.06
273.322	81.06
273.553	80.06
273.785	89.06
274.017	84.06
274.249	70.06
274.481	94.06
274.713	80.06
274.945	61.06
275.176	74.06
275.408	88.06
275.64	71.06
275.872	86.06
276.104	82.06
276.335	87.06
276.567	94.06
276.799	103.06
277.031	88.06
277.262	97.06
277.494	81.06
277.726	89.06
277.957	80.06
278.189	81.06
278.421	92.06
278.652	82.06
278.884	73.06
279.115	82.06
279.347	89.06
279.579	84.06
279.81	90.06
280.042	77.06
280.273	81.06
280.505	83.06
280.736	90.06
280.968	79.06
281.199	76.06
281.431	80.06
281.662	74.06
281.894	85.06
282.125	84.06
282.356	100.06
282.588	120.06
282.819	109.06
283.051	76.06
283.282	91.06
283.513	100.06
283.745	83.06
283.976	80.06
284.207	81.06
284.439	95.06
284.67	85.06
284.901	87.06
285.132	90.06
285.364	79.06
285.595	79.06
285.826	84.06
286.057	97.06
286.288	80.06
286.52	84.06
286.751	70.06
286.982	77.06
287.213	89.06
287.444	84.06
287.675	72.06
287.906	85.06
288.138	88.06
288.369	81.06
288.6	79.06
288.831	91.06
289.062	95.06
289.293	72.06
289.524	88.06
289.755	81.06
289.986	75.06
290.217	88.06
290.448	80.06
290.679	72.06
290.91	93.06
291.141	81.06
291.371	91.06
291.602	86.06
291.833	90.06
292.064	92.06
292.295	96.06
292.526	85.06
292.757	84.06
292.987	87.06
293.218	81.06
293.449	84.06
293.68	90.06
293.91	91.06
294.141	82.06
294.372	73.06
294.603	64.06
294.833	83.06
295.064	84.06
295.295	90.06
295.525	89.06
295.756	97.06
295.987	106.06
296.217	114.06
296.448	108.06
296.679	92.06
296.909	87.06
297.14	76.06
297.37	81.06
297.601	78.06
297.831	86.06
298.062	68.06
298.292	82.06
298.523	78.06
298.753	80.06
298.984	76.06
299.214	89.06
299.445	95.06
299.675	88.06
299.905	89.06
300.136	87.06
300.366	83.06
300.597	76.06
300.827	80.06
301.057	81.06
301.288	80.06
301.518	90.06
301.748	92.06
301.979	80.06
302.209	81.06
302.439	77.06
302.669	77.06
302.9	76.06
303.13	101.06
303.36	90.06
303.59	92.06
303.82	106.06
304.051	92.06
304.281	66.06
304.511	77.06
304.741	89.06
304.971	77.06
305.201	85.06
305.431	65.06
305.661	96.06
305.891	84.06
306.121	96.06
306.352	95.06
306.582	97.06
306.812	82.06
307.042	86.06
307.272	92.06
307.502	78.06
307.731	93.06
307.961	98.06
308.191	69.06
308.421	102.06
308.651	89.06
308.881	92.06
309.111	95.06
309.341	94.06
309.571	79.06
309.8	87.06
310.03	77.06
310.26	81.06
310.49	80.06
310.72	88.06
310.949	95.06
311.179	102.06
311.409	93.06
311.639	89.06
311.868	101.06
312.098	99.06
312.328	81.06
312.557	83.06
312.787	93.06
313.017	90.06
313.246	100.06
313.476	81.06
313.706	81.06
313.935	91.06
314.165	91.06
314.394	93.06
314.624	98.06
314.853	93.06
315.083	84.06
315.312	81.06
315.542	83.06
315.771	86.06
316.001	80.06
316.23	88.06
316.46	88.06
316.689	89.06
316.919	96.06
317.148	99.06
317.377	86.06
317.607	81.06
317.836	84.06
318.065	84.06
318.295	91.06
318.524	86.06
318.753	77.06
318.983	83.06
319.212	89.06
319.441	90.06
319.67	88.06
319.9	90.06
320.129	88.06
320.358	111.06
320.587	99.06
320.816	91.06
321.046	105.06
321.275	101.06
321.504	85.06
321.733	96.06
321.962	95.06
322.191	84.06
322.42	97.06
322.649	103.06
322.878	101.06
323.108	118.06
323.337	114.06
323.566	105.06
323.795	130.06
324.024	168.06
324.253	317.06
324.482	638.06
324.71	1275.06
324.939	1655.06
325.168	588.06
325.397	204.06
325.626	134.06
325.855	101.06
326.084	119.06
326.313	119.06
326.542	125.06
326.77	191.06
326.999	361.06
327.228	734.06
327.457	1226.06
327.686	982.06
327.914	300.06
328.143	160.06
328.372	113.06
328.6	100.06
328.829	93.06
329.058	99.06
329.287	109.06
329.515	111.06
329.744	97.06
329.972	87.06
330.201	92.06
330.43	86.06
330.658	111.06
330.887	123.06
331.115	111.06
331.344	86.06
331.572	91.06
331.801	88.06
332.03	90.06
332.258	89.06
332.486	68.06
332.715	79.06
332.943	84.06
333.172	87.06
333.4	92.06
333.629	103.06
333.857	102.06
334.085	108.06
334.314	88.06
334.542	88.06
334.771	98.06
334.999	99.06
335.227	82.06
335.455	85.06
335.684	86.06
335.912	83.06
336.14	97.06
336.369	90.06
336.597	107.06
336.825	89.06
337.053	95.06
337.281	77.06
337.51	87.06
337.738	93.06
337.966	90.06
338.194	89.06
338.422	84.06
338.65	96.06
338.878	84.06
339.106	78.06
339.334	95.06
339.562	101.06
339.79	77.06
340.018	74.06
340.246	73.06
340.474	89.06
340.702	72.06
340.93	81.06
341.158	99.06
341.386	88.06
341.614	84.06
341.842	81.06
342.07	84.06
342.298	85.06
342.526	86.06
342.754	94.06
342.981	91.06
343.209	94.06
343.437	98.06
343.665	78.06
343.893	93.06
344.12	93.06
344.348	66.06
344.576	83.06
344.804	90.06
345.031	89.06
345.259	89.06
345.487	98.06
345.714	89.06
345.942	108.06
346.17	97.06
346.397	80.06
346.625	75.06
346.853	95.06
347.08	96.06
347.308	92.06
347.535	97.06
347.763	92.06
347.99	96.06
348.218	96.06
348.445	94.06
348.673	97.06
348.9	81.06
349.128	89.06
349.355	87.06
349.583	99.06
349.81	88.06
350.037	81.06
350.265	82.06
350.492	90.06
350.72	102.06
350.947	102.06
351.174	107.06
351.402	111.06
351.629	97.06
351.856	87.06
352.083	89.06
352.311	102.06
352.538	113.06
352.765	101.06
352.992	119.06
353.22	104.06
353.447	103.06
353.674	109.06
353.901	92.06
354.128	90.06
354.355	81.06
354.583	90.06
354.81	108.06
355.037	80.06
355.264	94.06
355.491	92.06
355.718	101.06
355.945	93.06
356.172	88.06
356.399	88.06
356.626	95.06
356.853	77.06
357.08	87.06
357.307	86.06
357.534	85.06
357.761	89.06
357.988	88.06
358.215	103.06
358.441	76.06
358.668	89.06
358.895	82.06
359.122	86.06
359.349	90.06
359.576	87.06
359.802	87.06
360.029	115.06
360.256	96.06
360.483	89.06
360.709	91.06
360.936	80.06
361.163	87.06
361.39	84.06
361.616	82.06
361.843	99.06
362.07	92.06
362.296	86.06
362.523	95.06
362.749	98.06
362.976	77.06
363.203	85.06
363.429	78.06
363.656	95.06
363.882	90.06
364.109	103.06
364.335	95.06
364.562	76.06
364.788	84.06
365.015	85.06
365.241	88.06
365.468	92.06
365.694	98.06
365.92	95.06
366.147	95.06
366.373	70.06
366.599	78.06
366.826	81.06
367.052	85.06
367.278	88.06
367.505	85.06
367.731	90.06
367.957	93.06
368.184	94.06
368.41	83.06
368.636	112.06
368.862	122.06
369.089	86.06
369.315	91.06
369.541	77.06
369.767	76.06
369.993	92.06
370.219	95.06
370.445	76.06
370.672	79.06
370.898	79.06
371.124	91.06
371.35	76.06
371.576	86.06
371.802	81.06
372.028	84.06
372.254	84.06
372.48	74.06
372.706	92.06
372.932	84.06
373.158	87.06
373.384	79.06
373.61	84.06
373.835	87.06
374.061	81.06
374.287	87.06
374.513	88.06
374.739	79.06
374.965	87.06
375.191	78.06
375.416	89.06
375.642	73.06
375.868	95.06
376.094	88.06
376.319	100.06
376.545	93.06
376.771	75.06
376.997	83.06
377.222	95.06
377.448	86.06
377.674	66.06
377.899	93.06
378.125	74.06
378.35	93.06
378.576	85.06
378.802	84.06
379.027	83.06
379.253	90.06
379.478	96.06
379.704	96.06
379.929	96.06
380.155	89.06
380.38	84.06
380.606	99.06
380.831	88.06
381.057	101.06
381.282	89.06
381.507	78.06
381.733	86.06
381.958	74.06
382.184	95.06
382.409	94.06
382.634	94.06
382.86	93.06
383.085	98.06
383.31	92.06
383.535	101.06
383.761	104.06
383.986	94.06
384.211	85.06
384.436	90.06
384.662	92.06
384.887	98.06
385.112	84.06
385.337	96.06
385.562	97.06
385.787	93.06
386.013	100.06
386.238	109.06
386.463	93.06
386.688	108.06
386.913	99.06
387.138	95.06
387.363	94.06
387.588	90.06
387.813	98.06
388.038	97.06
388.263	85.06
388.488	100.06
388.713	101.06
388.938	89.06
389.163	93.06
389.387	88.06
389.612	86.06
389.837	88.06
390.062	84.06
390.287	73.06
390.512	90.06
390.736	83.06
390.961	98.06
391.186	86.06
391.411	106.06
391.636	98.06
391.86	86.06
392.085	89.06
392.31	81.06
392.534	86.06
392.759	86.06
392.984	85.06
393.208	89.06
393.433	80.06
393.658	92.06
393.882	71.06
394.107	62.06
394.331	80.06
394.556	86.06
394.78	74.06
395.005	106.06
395.229	81.06
395.454	78.06
395.678	71.06
395.903	80.06
396.127	77.06
396.352	96.06
396.576	89.06
396.801	89.06
397.025	97.06
397.249	68.06
397.474	85.06
397.698	82.06
397.922	96.06
398.147	82.06
398.371	75.06
398.595	82.06
398.82	88.06
399.044	76.06
399.268	77.06
399.492	69.06
399.717	80.06
399.941	81.06
400.165	91.06
400.389	91.06
400.613	84.06
400.837	75.06
401.062	88.06
401.286	76.06
401.51	78.06
401.734	77.06
401.958	92.06
402.182	100.06
402.406	137.06
402.63	99.06
402.854	89.06
403.078	77.06
403.302	73.06
403.526	95.06
403.75	87.06
403.974	76.06
404.198	72.06
404.422	83.06
404.645	84.06
404.869	85.06
405.093	93.06
405.317	92.06
405.541	85.06
405.765	92.06
405.988	98.06
406.212	145.06
406.436	176.06
406.66	132.06
406.883	100.06
407.107	74.06
407.331	76.06
407.555	101.06
407.778	84.06
408.002	97.06
408.226	92.06
408.449	79.06
408.673	91.06
408.896	77.06
409.12	97.06
409.344	96.06
409.567	79.06
409.791	94.06
410.014	109.06
410.238	93.06
410.461	97.06
410.685	85.06
410.908	91.06
411.132	97.06
411.355	85.06
411.578	94.06
411.802	77.06
412.025	80.06
412.249	90.06
412.472	102.06
412.695	97.06
412.919	78.06
413.142	79.06
413.365	73.06
413.589	99.06
413.812	97.06
414.035	89.06
414.258	84.06
414.482	86.06
414.705	85.06
414.928	83.06
415.151	82.06
415.374	88.06
415.597	89.06
415.821	62.06
416.044	82.06
416.267	74.06
416.49	81.06
416.713	89.06
416.936	93.06
417.159	82.06
417.382	62.06
417.605	92.06
417.828	85.06
418.051	90.06
418.274	80.06
418.497	90.06
418.72	78.06
418.943	89.06
419.166	92.06
419.389	87.06
419.611	77.06
419.834	95.06
420.057	81.06
420.28	89.06
420.503	89.06
420.726	89.06
420.948	69.06
421.171	79.06
421.394	88.06
421.617	92.06
421.839	64.06
422.062	80.06
422.285	101.06
422.507	96.06
422.73	88.06
422.953	89.06
423.175	74.06
423.398	81.06
423.621	80.06
423.843	89.06
424.066	85.06
424.288	79.06
424.511	77.06
424.733	100.06
424.956	83.06
425.178	82.06
425.401	89.06
425.623	93.06
425.846	94.06
426.068	85.06
426.291	99.06
426.513	93.06
426.735	84.06
426.958	82.06
427.18	99.06
427.402	110.06
427.625	121.06
427.847	96.06
428.069	93.06
428.292	82.06
428.514	79.06
428.736	87.06
428.958	81.06
429.181	92.06
429.403	72.06
429.625	77.06
429.847	98.06
430.069	80.06
430.292	97.06
430.514	91.06
430.736	84.06
430.958	81.06
431.18	95.06
431.402	83.06
431.624	97.06
431.846	86.06
432.068	78.06
432.29	81.06
432.512	81.06
432.734	69.06
432.956	73.06
433.178	88.06
433.4	104.06
433.622	89.06
433.844	71.06
434.066	90.06
434.287	98.06
434.509	103.06
434.731	93.06
434.953	80.06
435.175	90.06
435.397	93.06
435.618	84.06
435.84	102.06
436.062	119.06
436.284	109.06
436.505	86.06
436.727	96.06
436.949	97.06
437.17	87.06
437.392	81.06
437.614	70.06
437.835	91.06
438.057	95.06
438.278	99.06
438.5	101.06
438.721	81.06
438.943	95.06
439.165	72.06
439.386	91.06
439.608	88.06
439.829	82.06
440.05	100.06
440.272	125.06
440.493	96.06
440.715	78.06
440.936	78.06
441.158	76.06
441.379	96.06
441.6	82.06
441.822	94.06
442.043	98.06
442.264	91.06
442.486	94.06
442.707	84.06
442.928	103.06
443.149	111.06
443.371	106.06
443.592	91.06
443.813	98.06
444.034	90.06
444.255	98.06
444.476	90.06
444.698	81.06
444.919	85.06
445.14	135.06
445.361	108.06
445.582	97.06
445.803	115.06
446.024	104.06
446.245	110.06
446.466	90.06
446.687	76.06
446.908	90.06
447.129	92.06
447.35	79.06
447.571	72.06
447.792	91.06
448.013	90.06
448.234	95.06
448.455	97.06
448.675	103.06
448.896	104.06
449.117	89.06
449.338	81.06
449.559	117.06
449.779	115.06
450	88.06
450.221	83.06
450.442	87.06
450.662	98.06
450.883	101.06
451.104	99.06
451.324	88.06
451.545	89.06
451.766	81.06
451.986	73.06
452.207	72.06
452.428	78.06
452.648	94.06
452.869	101.06
453.089	99.06
453.31	102.06
453.53	92.06
453.751	91.06
453.971	87.06
454.192	104.06
454.412	102.06
454.633	88.06
454.853	87.06
455.073	79.06
455.294	80.06
455.514	94.06
455.734	88.06
455.955	82.06
456.175	75.06
456.395	90.06
456.616	76.06
456.836	79.06
457.056	80.06
457.276	76.06
457.497	81.06
457.717	85.06
457.937	92.06
458.157	79.06
458.377	79.06
458.598	102.06
458.818	126.06
459.038	116.06
459.258	105.06
459.478	74.06
459.698	85.06
459.918	91.06
460.138	66.06
460.358	77.06
460.578	80.06
460.798	90.06
461.018	92.06
461.238	68.06
461.458	79.06
461.678	85.06
461.898	82.06
462.118	77.06
462.338	88.06
462.558	95.06
462.777	85.06
462.997	79.06
463.217	85.06
463.437	79.06
463.657	88.06
463.876	77.06
464.096	94.06
464.316	81.06
464.536	89.06
464.755	86.06
464.975	107.06
465.195	142.06
465.414	128.06
465.634	88.06
465.854	77.06
466.073	82.06
466.293	82.06
466.512	84.06
466.732	84.06
466.951	81.06
467.171	82.06
467.391	90.06
467.61	96.06
467.829	86.06
468.049	76.06
468.268	81.06
468.488	82.06
468.707	91.06
468.927	80.06
469.146	81.06
469.365	100.06
469.585	83.06
469.804	87.06
470.023	88.06
470.243	81.06
470.462	84.06
470.681	107.06
470.901	82.06
471.12	87.06
471.339	85.06
471.558	92.06
471.777	84.06
471.997	88.06
472.216	61.06
472.435	102.06
472.654	96.06
472.873	102.06
473.092	80.06
473.311	87.06
473.53	75.06
473.749	79.06
473.968	88.06
474.187	103.06
474.406	89.06
474.625	95.06
474.844	77.06
475.063	77.06
475.282	69.06
475.501	76.06
475.72	86.06
475.939	98.06
476.158	99.06
476.377	88.06
476.596	89.06
476.814	85.06
477.033	110.06
477.252	83.06
477.471	76.06
477.69	88.06
477.908	91.06
478.127	96.06
478.346	77.06
478.564	94.06
478.783	78.06
479.002	83.06
479.22	89.06
479.439	83.06
479.658	92.06
479.876	101.06
480.095	80.06
480.313	78.06
480.532	84.06
480.751	76.06
480.969	91.06
481.188	95.06
481.406	86.06
481.624	85.06
481.843	96.06
482.061	87.06
482.28	93.06
482.498	82.06
482.717	97.06
482.935	70.06
483.153	83.06
483.372	89.06
483.59	78.06
483.808	75.06
484.027	90.06
484.245	92.06
484.463	78.06
484.681	97.06
484.9	82.06
485.118	96.06
485.336	89.06
485.554	96.06
485.772	101.06
485.99	96.06
486.209	106.06
486.427	95.06
486.645	84.06
486.863	101.06
487.081	98.06
487.299	94.06
487.517	100.06
487.735	87.06
487.953	81.06
488.171	82.06
488.389	86.06
488.607	89.06
488.825	92.06
489.043	67.06
489.261	88.06
489.479	89.06
489.696	88.06
489.914	78.06
490.132	76.06
490.35	101.06
490.568	91.06
490.786	100.06
491.003	79.06
491.221	73.06
491.439	87.06
491.657	91.06
491.874	91.06
492.092	94.06
492.31	82.06
492.527	93.06
492.745	89.06
492.963	85.06
493.18	82.06
493.398	95.06
493.615	87.06
493.833	91.06
494.05	79.06
494.268	86.06
494.485	91.06
494.703	95.06
494.92	85.06
495.138	86.06
495.355	90.06
495.573	76.06
495.79	87.06
496.008	77.06
496.225	87.06
496.442	96.06
496.66	84.06
496.877	105.06
497.094	82.06
497.312	71.06
497.529	87.06
497.746	101.06
497.963	92.06
498.181	98.06
498.398	103.06
498.615	116.06
498.832	101.06
499.049	87.06
499.267	88.06
499.484	97.06
499.701	90.06
499.918	87.06
500.135	80.06
500.352	90.06
500.569	92.06
500.786	84.06
501.003	85.06
501.22	80.06
501.437	72.06
501.654	87.06
501.871	92.06
502.088	84.06
502.305	83.06
502.522	96.06
502.739	80.06
502.956	100.06
503.172	94.06
503.389	98.06
503.606	92.06
503.823	81.06
504.04	85.06
504.256	88.06
504.473	85.06
504.69	86.06
504.907	86.06
505.123	94.06
505.34	96.06
505.557	88.06
505.773	80.06
505.99	80.06
506.207	99.06
506.423	92.06
506.64	89.06
506.856	96.06
507.073	98.06
507.289	82.06
507.506	87.06
507.722	94.06
507.939	114.06
508.155	94.06
508.372	92.06
508.588	96.06
508.805	104.06
509.021	96.06
509.238	102.06
509.454	112.06
509.67	93.06
509.887	87.06
510.103	122.06
510.319	189.06
510.536	676.06
510.752	2023.06
510.968	567.06
511.184	133.06
511.401	107.06
511.617	106.06
511.833	87.06
512.049	89.06
512.265	94.06
512.481	90.06
512.698	85.06
512.914	96.06
513.13	89.06
513.346	87.06
513.562	98.06
513.778	81.06
513.994	93.06
514.21	98.06
514.426	111.06
514.642	119.06
514.858	106.06
515.074	141.06
515.29	390.06
515.506	1190.06
515.721	450.06
515.937	127.06
516.153	96.06
516.369	88.06
516.585	90.06
516.801	89.06
517.016	109.06
517.232	90.06
517.448	90.06
517.664	84.06
