Data from Uncirc_1993_H10_HRD10591_00074.txt Node
Date: Wed Jan 03 11:43:07 EST 2024
User: Yrep
Spectrometer: HR+D1059
Trigger mode: 1
Integration Time (sec): 1.000000E-1
Scans to average: 1
Electric dark correction enabled: true
Nonlinearity correction enabled: false
Boxcar width: 0
XAxis mode: Wavelengths
Number of Pixels in Spectrum: 2048
>>>>>Begin Spectral Data<<<<<
223.165	-9.44
223.4	-9.44
223.635	-9.44
223.869	-24.44
224.104	-36.44
224.338	-13.44
224.573	-5.44
224.808	-15.44
225.042	-4.44
225.277	-6.44
225.511	-1.44
225.746	1.56
225.98	6.56
226.215	-4.44
226.449	17.56
226.683	25.56
226.918	23.56
227.152	46.56
227.387	26.56
227.621	44.56
227.856	43.56
228.09	51.56
228.324	45.56
228.559	39.56
228.793	64.56
229.027	64.56
229.262	61.56
229.496	67.56
229.73	73.56
229.964	64.56
230.199	69.56
230.433	64.56
230.667	73.56
230.901	91.56
231.136	88.56
231.37	75.56
231.604	75.56
231.838	72.56
232.072	66.56
232.306	75.56
232.541	75.56
232.775	68.56
233.009	97.56
233.243	79.56
233.477	84.56
233.711	85.56
233.945	92.56
234.179	74.56
234.413	86.56
234.647	71.56
234.881	80.56
235.115	73.56
235.349	70.56
235.583	76.56
235.817	69.56
236.051	89.56
236.285	87.56
236.519	81.56
236.753	77.56
236.987	78.56
237.221	78.56
237.455	82.56
237.689	81.56
237.922	82.56
238.156	57.56
238.39	66.56
238.624	63.56
238.858	71.56
239.091	77.56
239.325	88.56
239.559	83.56
239.793	93.56
240.027	64.56
240.26	87.56
240.494	73.56
240.728	77.56
240.961	66.56
241.195	77.56
241.429	62.56
241.662	73.56
241.896	83.56
242.13	74.56
242.363	76.56
242.597	83.56
242.83	89.56
243.064	81.56
243.298	82.56
243.531	76.56
243.765	70.56
243.998	79.56
244.232	73.56
244.465	77.56
244.699	82.56
244.932	74.56
245.166	74.56
245.399	75.56
245.633	80.56
245.866	76.56
246.099	82.56
246.333	73.56
246.566	79.56
246.8	77.56
247.033	83.56
247.266	79.56
247.5	50.56
247.733	66.56
247.966	96.56
248.2	77.56
248.433	77.56
248.666	81.56
248.899	75.56
249.133	77.56
249.366	83.56
249.599	101.56
249.832	65.56
250.066	85.56
250.299	74.56
250.532	78.56
250.765	74.56
250.998	66.56
251.231	73.56
251.465	72.56
251.698	76.56
251.931	87.56
252.164	80.56
252.397	74.56
252.63	75.56
252.863	73.56
253.096	78.56
253.329	75.56
253.562	69.56
253.795	64.56
254.028	75.56
254.261	87.56
254.494	74.56
254.727	81.56
254.96	89.56
255.193	76.56
255.426	82.56
255.659	81.56
255.892	92.56
256.124	65.56
256.357	95.56
256.59	81.56
256.823	56.56
257.056	57.56
257.289	87.56
257.521	76.56
257.754	93.56
257.987	84.56
258.22	76.56
258.452	76.56
258.685	85.56
258.918	77.56
259.151	76.56
259.383	92.56
259.616	82.56
259.849	87.56
260.081	84.56
260.314	86.56
260.547	76.56
260.779	82.56
261.012	73.56
261.244	77.56
261.477	76.56
261.71	76.56
261.942	109.56
262.175	103.56
262.407	78.56
262.64	78.56
262.872	76.56
263.105	76.56
263.337	76.56
263.57	89.56
263.802	85.56
264.035	77.56
264.267	79.56
264.499	81.56
264.732	65.56
264.964	74.56
265.197	76.56
265.429	85.56
265.661	90.56
265.894	87.56
266.126	80.56
266.358	81.56
266.591	81.56
266.823	84.56
267.055	89.56
267.287	85.56
267.52	82.56
267.752	64.56
267.984	95.56
268.216	77.56
268.448	90.56
268.681	75.56
268.913	81.56
269.145	74.56
269.377	79.56
269.609	72.56
269.841	91.56
270.073	85.56
270.306	79.56
270.538	82.56
270.77	71.56
271.002	79.56
271.234	71.56
271.466	78.56
271.698	83.56
271.93	84.56
272.162	94.56
272.394	75.56
272.626	74.56
272.858	86.56
273.09	79.56
273.322	90.56
273.553	73.56
273.785	87.56
274.017	82.56
274.249	85.56
274.481	79.56
274.713	86.56
274.945	85.56
275.176	71.56
275.408	79.56
275.64	83.56
275.872	97.56
276.104	76.56
276.335	83.56
276.567	99.56
276.799	105.56
277.031	83.56
277.262	83.56
277.494	82.56
277.726	79.56
277.957	76.56
278.189	53.56
278.421	67.56
278.652	86.56
278.884	95.56
279.115	103.56
279.347	82.56
279.579	88.56
279.81	83.56
280.042	82.56
280.273	86.56
280.505	83.56
280.736	78.56
280.968	59.56
281.199	83.56
281.431	85.56
281.662	91.56
281.894	82.56
282.125	106.56
282.356	103.56
282.588	126.56
282.819	102.56
283.051	89.56
283.282	82.56
283.513	75.56
283.745	98.56
283.976	77.56
284.207	77.56
284.439	93.56
284.67	81.56
284.901	75.56
285.132	84.56
285.364	77.56
285.595	95.56
285.826	82.56
286.057	88.56
286.288	89.56
286.52	79.56
286.751	90.56
286.982	78.56
287.213	83.56
287.444	89.56
287.675	78.56
287.906	73.56
288.138	82.56
288.369	72.56
288.6	81.56
288.831	91.56
289.062	96.56
289.293	79.56
289.524	72.56
289.755	80.56
289.986	71.56
290.217	81.56
290.448	96.56
290.679	75.56
290.91	78.56
291.141	71.56
291.371	85.56
291.602	76.56
291.833	84.56
292.064	74.56
292.295	78.56
292.526	79.56
292.757	78.56
292.987	73.56
293.218	81.56
293.449	87.56
293.68	84.56
293.91	78.56
294.141	85.56
294.372	83.56
294.603	83.56
294.833	85.56
295.064	75.56
295.295	92.56
295.525	96.56
295.756	92.56
295.987	112.56
296.217	131.56
296.448	109.56
296.679	101.56
296.909	84.56
297.14	97.56
297.37	81.56
297.601	78.56
297.831	97.56
298.062	83.56
298.292	75.56
298.523	80.56
298.753	91.56
298.984	87.56
299.214	90.56
299.445	109.56
299.675	91.56
299.905	93.56
300.136	90.56
300.366	90.56
300.597	86.56
300.827	80.56
301.057	89.56
301.288	92.56
301.518	98.56
301.748	94.56
301.979	93.56
302.209	81.56
302.439	87.56
302.669	99.56
302.9	97.56
303.13	80.56
303.36	98.56
303.59	98.56
303.82	98.56
304.051	95.56
304.281	88.56
304.511	101.56
304.741	88.56
304.971	69.56
305.201	78.56
305.431	87.56
305.661	83.56
305.891	91.56
306.121	77.56
306.352	91.56
306.582	116.56
306.812	100.56
307.042	89.56
307.272	87.56
307.502	88.56
307.731	90.56
307.961	92.56
308.191	81.56
308.421	92.56
308.651	86.56
308.881	95.56
309.111	87.56
309.341	88.56
309.571	98.56
309.8	91.56
310.03	86.56
310.26	79.56
310.49	85.56
310.72	91.56
310.949	85.56
311.179	86.56
311.409	103.56
311.639	88.56
311.868	98.56
312.098	87.56
312.328	102.56
312.557	89.56
312.787	108.56
313.017	97.56
313.246	82.56
313.476	80.56
313.706	90.56
313.935	95.56
314.165	92.56
314.394	98.56
314.624	102.56
314.853	94.56
315.083	69.56
315.312	97.56
315.542	88.56
315.771	79.56
316.001	81.56
316.23	104.56
316.46	82.56
316.689	104.56
316.919	86.56
317.148	90.56
317.377	92.56
317.607	84.56
317.836	82.56
318.065	80.56
318.295	82.56
318.524	87.56
318.753	82.56
318.983	81.56
319.212	97.56
319.441	105.56
319.67	101.56
319.9	95.56
320.129	97.56
320.358	85.56
320.587	89.56
320.816	77.56
321.046	89.56
321.275	97.56
321.504	85.56
321.733	82.56
321.962	82.56
322.191	81.56
322.42	98.56
322.649	100.56
322.878	77.56
323.108	117.56
323.337	106.56
323.566	123.56
323.795	148.56
324.024	184.56
324.253	316.56
324.482	665.56
324.71	1293.56
324.939	1653.56
325.168	624.56
325.397	197.56
325.626	113.56
325.855	99.56
326.084	107.56
326.313	103.56
326.542	138.56
326.77	206.56
326.999	377.56
327.228	727.56
327.457	1287.56
327.686	1053.56
327.914	304.56
328.143	167.56
328.372	127.56
328.6	110.56
328.829	103.56
329.058	116.56
329.287	114.56
329.515	103.56
329.744	95.56
329.972	105.56
330.201	97.56
330.43	104.56
330.658	103.56
330.887	119.56
331.115	109.56
331.344	91.56
331.572	96.56
331.801	89.56
332.03	96.56
332.258	89.56
332.486	86.56
332.715	89.56
332.943	94.56
333.172	102.56
333.4	107.56
333.629	99.56
333.857	109.56
334.085	85.56
334.314	101.56
334.542	101.56
334.771	109.56
334.999	99.56
335.227	88.56
335.455	94.56
335.684	101.56
335.912	89.56
336.14	93.56
336.369	98.56
336.597	102.56
336.825	80.56
337.053	96.56
337.281	76.56
337.51	88.56
337.738	106.56
337.966	98.56
338.194	87.56
338.422	95.56
338.65	89.56
338.878	89.56
339.106	94.56
339.334	87.56
339.562	87.56
339.79	83.56
340.018	67.56
340.246	82.56
340.474	81.56
340.702	85.56
340.93	76.56
341.158	86.56
341.386	99.56
341.614	96.56
341.842	93.56
342.07	92.56
342.298	72.56
342.526	91.56
342.754	73.56
342.981	82.56
343.209	73.56
343.437	95.56
343.665	74.56
343.893	86.56
344.12	98.56
344.348	79.56
344.576	84.56
344.804	94.56
345.031	98.56
345.259	94.56
345.487	87.56
345.714	92.56
345.942	88.56
346.17	89.56
346.397	96.56
346.625	96.56
346.853	79.56
347.08	79.56
347.308	86.56
347.535	97.56
347.763	75.56
347.99	96.56
348.218	102.56
348.445	112.56
348.673	85.56
348.9	97.56
349.128	101.56
349.355	77.56
349.583	78.56
349.81	93.56
350.037	85.56
350.265	85.56
350.492	91.56
350.72	85.56
350.947	89.56
351.174	99.56
351.402	98.56
351.629	101.56
351.856	103.56
352.083	97.56
352.311	107.56
352.538	98.56
352.765	103.56
352.992	98.56
353.22	90.56
353.447	91.56
353.674	85.56
353.901	101.56
354.128	85.56
354.355	97.56
354.583	105.56
354.81	103.56
355.037	96.56
355.264	107.56
355.491	89.56
355.718	97.56
355.945	88.56
356.172	101.56
356.399	90.56
356.626	94.56
356.853	102.56
357.08	82.56
357.307	80.56
357.534	75.56
357.761	84.56
357.988	79.56
358.215	93.56
358.441	79.56
358.668	95.56
358.895	85.56
359.122	89.56
359.349	99.56
359.576	69.56
359.802	91.56
360.029	109.56
360.256	99.56
360.483	88.56
360.709	87.56
360.936	97.56
361.163	82.56
361.39	73.56
361.616	89.56
361.843	94.56
362.07	89.56
362.296	87.56
362.523	94.56
362.749	77.56
362.976	92.56
363.203	88.56
363.429	93.56
363.656	95.56
363.882	81.56
364.109	89.56
364.335	94.56
364.562	80.56
364.788	96.56
365.015	93.56
365.241	98.56
365.468	91.56
365.694	108.56
365.92	91.56
366.147	95.56
366.373	89.56
366.599	95.56
366.826	92.56
367.052	80.56
367.278	69.56
367.505	87.56
367.731	99.56
367.957	88.56
368.184	88.56
368.41	83.56
368.636	97.56
368.862	110.56
369.089	91.56
369.315	86.56
369.541	91.56
369.767	93.56
369.993	99.56
370.219	87.56
370.445	80.56
370.672	79.56
370.898	77.56
371.124	85.56
371.35	92.56
371.576	81.56
371.802	80.56
372.028	88.56
372.254	81.56
372.48	82.56
372.706	95.56
372.932	94.56
373.158	93.56
373.384	89.56
373.61	84.56
373.835	92.56
374.061	87.56
374.287	79.56
374.513	85.56
374.739	97.56
374.965	99.56
375.191	91.56
375.416	83.56
375.642	71.56
375.868	87.56
376.094	86.56
376.319	82.56
376.545	83.56
376.771	93.56
376.997	78.56
377.222	94.56
377.448	90.56
377.674	90.56
377.899	83.56
378.125	81.56
378.35	81.56
378.576	85.56
378.802	87.56
379.027	83.56
379.253	96.56
379.478	84.56
379.704	82.56
379.929	84.56
380.155	91.56
380.38	82.56
380.606	73.56
380.831	81.56
381.057	74.56
381.282	85.56
381.507	85.56
381.733	93.56
381.958	89.56
382.184	87.56
382.409	92.56
382.634	116.56
382.86	95.56
383.085	82.56
383.31	106.56
383.535	99.56
383.761	84.56
383.986	89.56
384.211	93.56
384.436	94.56
384.662	88.56
384.887	95.56
385.112	89.56
385.337	87.56
385.562	87.56
385.787	99.56
386.013	102.56
386.238	86.56
386.463	94.56
386.688	106.56
386.913	94.56
387.138	93.56
387.363	102.56
387.588	103.56
387.813	82.56
388.038	94.56
388.263	89.56
388.488	91.56
388.713	86.56
388.938	83.56
389.163	91.56
389.387	86.56
389.612	98.56
389.837	91.56
390.062	90.56
390.287	99.56
390.512	73.56
390.736	101.56
390.961	85.56
391.186	104.56
391.411	97.56
391.636	94.56
391.86	70.56
392.085	75.56
392.31	86.56
392.534	98.56
392.759	92.56
392.984	81.56
393.208	88.56
393.433	75.56
393.658	88.56
393.882	81.56
394.107	101.56
394.331	83.56
394.556	71.56
394.78	80.56
395.005	102.56
395.229	84.56
395.454	96.56
395.678	80.56
395.903	89.56
396.127	81.56
396.352	91.56
396.576	77.56
396.801	70.56
397.025	85.56
397.249	73.56
397.474	75.56
397.698	82.56
397.922	87.56
398.147	89.56
398.371	79.56
398.595	86.56
398.82	77.56
399.044	95.56
399.268	88.56
399.492	75.56
399.717	95.56
399.941	84.56
400.165	93.56
400.389	78.56
400.613	74.56
400.837	81.56
401.062	94.56
401.286	74.56
401.51	80.56
401.734	89.56
401.958	113.56
402.182	124.56
402.406	135.56
402.63	96.56
402.854	85.56
403.078	93.56
403.302	79.56
403.526	71.56
403.75	71.56
403.974	83.56
404.198	82.56
404.422	94.56
404.645	73.56
404.869	89.56
405.093	93.56
405.317	77.56
405.541	78.56
405.765	106.56
405.988	99.56
406.212	148.56
406.436	201.56
406.66	121.56
406.883	84.56
407.107	83.56
407.331	89.56
407.555	90.56
407.778	96.56
408.002	95.56
408.226	90.56
408.449	84.56
408.673	81.56
408.896	90.56
409.12	86.56
409.344	92.56
409.567	79.56
409.791	86.56
410.014	95.56
410.238	87.56
410.461	86.56
410.685	104.56
410.908	82.56
411.132	106.56
411.355	92.56
411.578	93.56
411.802	77.56
412.025	91.56
412.249	94.56
412.472	89.56
412.695	88.56
412.919	69.56
413.142	95.56
413.365	82.56
413.589	91.56
413.812	84.56
414.035	95.56
414.258	87.56
414.482	89.56
414.705	83.56
414.928	83.56
415.151	97.56
415.374	95.56
415.597	82.56
415.821	80.56
416.044	80.56
416.267	69.56
416.49	79.56
416.713	79.56
416.936	85.56
417.159	73.56
417.382	93.56
417.605	93.56
417.828	85.56
418.051	97.56
418.274	88.56
418.497	86.56
418.72	82.56
418.943	70.56
419.166	81.56
419.389	86.56
419.611	87.56
419.834	83.56
420.057	89.56
420.28	85.56
420.503	78.56
420.726	75.56
420.948	80.56
421.171	86.56
421.394	77.56
421.617	84.56
421.839	82.56
422.062	85.56
422.285	85.56
422.507	98.56
422.73	83.56
422.953	103.56
423.175	93.56
423.398	94.56
423.621	86.56
423.843	92.56
424.066	93.56
424.288	97.56
424.511	82.56
424.733	77.56
424.956	97.56
425.178	89.56
425.401	82.56
425.623	86.56
425.846	88.56
426.068	81.56
426.291	83.56
426.513	80.56
426.735	86.56
426.958	85.56
427.18	115.56
427.402	116.56
427.625	147.56
427.847	114.56
428.069	87.56
428.292	96.56
428.514	83.56
428.736	94.56
428.958	73.56
429.181	81.56
429.403	64.56
429.625	77.56
429.847	73.56
430.069	97.56
430.292	80.56
430.514	80.56
430.736	75.56
430.958	75.56
431.18	81.56
431.402	74.56
431.624	85.56
431.846	84.56
432.068	86.56
432.29	79.56
432.512	86.56
432.734	88.56
432.956	80.56
433.178	86.56
433.4	93.56
433.622	91.56
433.844	83.56
434.066	97.56
434.287	101.56
434.509	73.56
434.731	70.56
434.953	83.56
435.175	72.56
435.397	87.56
435.618	88.56
435.84	87.56
436.062	102.56
436.284	100.56
436.505	79.56
436.727	104.56
436.949	81.56
437.17	81.56
437.392	77.56
437.614	86.56
437.835	98.56
438.057	103.56
438.278	98.56
438.5	96.56
438.721	107.56
438.943	106.56
439.165	89.56
439.386	83.56
439.608	96.56
439.829	82.56
440.05	105.56
440.272	120.56
440.493	90.56
440.715	80.56
440.936	92.56
441.158	89.56
441.379	78.56
441.6	101.56
441.822	92.56
442.043	91.56
442.264	98.56
442.486	89.56
442.707	80.56
442.928	90.56
443.149	106.56
443.371	110.56
443.592	105.56
443.813	106.56
444.034	99.56
444.255	94.56
444.476	105.56
444.698	90.56
444.919	80.56
445.14	134.56
445.361	121.56
445.582	107.56
445.803	112.56
446.024	103.56
446.245	117.56
446.466	93.56
446.687	77.56
446.908	78.56
447.129	85.56
447.35	96.56
447.571	94.56
447.792	97.56
448.013	93.56
448.234	98.56
448.455	76.56
448.675	95.56
448.896	101.56
449.117	101.56
449.338	95.56
449.559	128.56
449.779	102.56
450	95.56
450.221	80.56
450.442	88.56
450.662	91.56
450.883	110.56
451.104	100.56
451.324	93.56
451.545	89.56
451.766	84.56
451.986	88.56
452.207	82.56
452.428	83.56
452.648	96.56
452.869	93.56
453.089	106.56
453.31	87.56
453.53	82.56
453.751	96.56
453.971	83.56
454.192	99.56
454.412	93.56
454.633	97.56
454.853	88.56
455.073	71.56
455.294	89.56
455.514	97.56
455.734	83.56
455.955	79.56
456.175	81.56
456.395	71.56
456.616	94.56
456.836	83.56
457.056	81.56
457.276	93.56
457.497	70.56
457.717	91.56
457.937	80.56
458.157	83.56
458.377	89.56
458.598	84.56
458.818	146.56
459.038	137.56
459.258	105.56
459.478	68.56
459.698	86.56
459.918	93.56
460.138	61.56
460.358	75.56
460.578	95.56
460.798	70.56
461.018	86.56
461.238	78.56
461.458	71.56
461.678	80.56
461.898	87.56
462.118	79.56
462.338	71.56
462.558	92.56
462.777	89.56
462.997	64.56
463.217	92.56
463.437	65.56
463.657	90.56
463.876	92.56
464.096	81.56
464.316	83.56
464.536	98.56
464.755	94.56
464.975	110.56
465.195	156.56
465.414	149.56
465.634	91.56
465.854	76.56
466.073	80.56
466.293	88.56
466.512	80.56
466.732	69.56
466.951	90.56
467.171	102.56
467.391	84.56
467.61	89.56
467.829	96.56
468.049	83.56
468.268	81.56
468.488	80.56
468.707	87.56
468.927	79.56
469.146	81.56
469.365	79.56
469.585	79.56
469.804	87.56
470.023	97.56
470.243	77.56
470.462	98.56
470.681	106.56
470.901	83.56
471.12	72.56
471.339	76.56
471.558	87.56
471.777	77.56
471.997	75.56
472.216	91.56
472.435	83.56
472.654	89.56
472.873	89.56
473.092	75.56
473.311	83.56
473.53	73.56
473.749	79.56
473.968	88.56
474.187	96.56
474.406	73.56
474.625	79.56
474.844	74.56
475.063	95.56
475.282	94.56
475.501	83.56
475.72	85.56
475.939	86.56
476.158	85.56
476.377	77.56
476.596	82.56
476.814	75.56
477.033	93.56
477.252	78.56
477.471	80.56
477.69	82.56
477.908	83.56
478.127	82.56
478.346	70.56
478.564	81.56
478.783	90.56
479.002	80.56
479.22	90.56
479.439	98.56
479.658	95.56
479.876	79.56
480.095	99.56
480.313	93.56
480.532	97.56
480.751	71.56
480.969	70.56
481.188	103.56
481.406	96.56
481.624	92.56
481.843	89.56
482.061	73.56
482.28	99.56
482.498	77.56
482.717	82.56
482.935	91.56
483.153	93.56
483.372	82.56
483.59	93.56
483.808	93.56
484.027	88.56
484.245	77.56
484.463	75.56
484.681	80.56
484.9	93.56
485.118	89.56
485.336	89.56
485.554	98.56
485.772	97.56
485.99	82.56
486.209	115.56
486.427	99.56
486.645	106.56
486.863	105.56
487.081	95.56
487.299	98.56
487.517	93.56
487.735	77.56
487.953	86.56
488.171	93.56
488.389	84.56
488.607	93.56
488.825	87.56
489.043	97.56
489.261	90.56
489.479	104.56
489.696	97.56
489.914	90.56
490.132	79.56
490.35	101.56
490.568	85.56
490.786	84.56
491.003	93.56
491.221	86.56
491.439	96.56
491.657	79.56
491.874	89.56
492.092	76.56
492.31	93.56
492.527	83.56
492.745	90.56
492.963	92.56
493.18	96.56
493.398	99.56
493.615	83.56
493.833	87.56
494.05	67.56
494.268	86.56
494.485	81.56
494.703	75.56
494.92	104.56
495.138	88.56
495.355	85.56
495.573	81.56
495.79	85.56
496.008	81.56
496.225	79.56
496.442	75.56
496.66	84.56
496.877	80.56
497.094	91.56
497.312	92.56
497.529	67.56
497.746	95.56
497.963	79.56
498.181	73.56
498.398	97.56
498.615	101.56
498.832	98.56
499.049	95.56
499.267	93.56
499.484	87.56
499.701	96.56
499.918	92.56
500.135	92.56
500.352	75.56
500.569	86.56
500.786	98.56
501.003	85.56
501.22	77.56
501.437	87.56
501.654	100.56
501.871	106.56
502.088	82.56
502.305	91.56
502.522	79.56
502.739	79.56
502.956	69.56
503.172	80.56
503.389	104.56
503.606	79.56
503.823	77.56
504.04	80.56
504.256	84.56
504.473	86.56
504.69	90.56
504.907	91.56
505.123	86.56
505.34	87.56
505.557	79.56
505.773	84.56
505.99	73.56
506.207	90.56
506.423	78.56
506.64	81.56
506.856	91.56
507.073	95.56
507.289	90.56
507.506	69.56
507.722	106.56
507.939	99.56
508.155	81.56
508.372	82.56
508.588	81.56
508.805	78.56
509.021	103.56
509.238	77.56
509.454	102.56
509.67	99.56
509.887	99.56
510.103	126.56
510.319	201.56
510.536	682.56
510.752	2112.56
510.968	569.56
511.184	128.56
511.401	103.56
511.617	87.56
511.833	89.56
512.049	94.56
512.265	81.56
512.481	87.56
512.698	94.56
512.914	98.56
513.13	79.56
513.346	87.56
513.562	88.56
513.778	80.56
513.994	81.56
514.21	94.56
514.426	106.56
514.642	123.56
514.858	114.56
515.074	138.56
515.29	383.56
515.506	1187.56
515.721	462.56
515.937	143.56
516.153	107.56
516.369	95.56
516.585	88.56
516.801	88.56
517.016	92.56
517.232	77.56
517.448	92.56
517.664	95.56
