Data from Uncirc_1993_H10_HRD10591_00076.txt Node
Date: Wed Jan 03 11:43:07 EST 2024
User: Yrep
Spectrometer: HR+D1059
Trigger mode: 1
Integration Time (sec): 1.000000E-1
Scans to average: 1
Electric dark correction enabled: true
Nonlinearity correction enabled: false
Boxcar width: 0
XAxis mode: Wavelengths
Number of Pixels in Spectrum: 2048
>>>>>Begin Spectral Data<<<<<
223.165	-21.88
223.4	-21.88
223.635	-21.88
223.869	-11.88
224.104	-21.88
224.338	-17.88
224.573	-35.88
224.808	-21.88
225.042	-4.88
225.277	0.12
225.511	25.12
225.746	8.12
225.98	9.12
226.215	6.12
226.449	13.12
226.683	21.12
226.918	24.12
227.152	29.12
227.387	32.12
227.621	38.12
227.856	48.12
228.09	54.12
228.324	40.12
228.559	54.12
228.793	53.12
229.027	60.12
229.262	71.12
229.496	62.12
229.73	74.12
229.964	85.12
230.199	77.12
230.433	76.12
230.667	92.12
230.901	63.12
231.136	77.12
231.37	79.12
231.604	73.12
231.838	73.12
232.072	87.12
232.306	87.12
232.541	92.12
232.775	80.12
233.009	85.12
233.243	82.12
233.477	79.12
233.711	83.12
233.945	77.12
234.179	88.12
234.413	76.12
234.647	68.12
234.881	88.12
235.115	81.12
235.349	83.12
235.583	91.12
235.817	84.12
236.051	84.12
236.285	78.12
236.519	89.12
236.753	79.12
236.987	91.12
237.221	84.12
237.455	89.12
237.689	92.12
237.922	75.12
238.156	79.12
238.39	83.12
238.624	86.12
238.858	62.12
239.091	93.12
239.325	78.12
239.559	85.12
239.793	81.12
240.027	91.12
240.26	73.12
240.494	75.12
240.728	85.12
240.961	67.12
241.195	82.12
241.429	86.12
241.662	77.12
241.896	75.12
242.13	78.12
242.363	67.12
242.597	85.12
242.83	77.12
243.064	69.12
243.298	77.12
243.531	70.12
243.765	94.12
243.998	76.12
244.232	70.12
244.465	88.12
244.699	81.12
244.932	73.12
245.166	85.12
245.399	91.12
245.633	87.12
245.866	88.12
246.099	81.12
246.333	90.12
246.566	86.12
246.8	85.12
247.033	81.12
247.266	85.12
247.5	83.12
247.733	84.12
247.966	85.12
248.2	98.12
248.433	99.12
248.666	84.12
248.899	77.12
249.133	92.12
249.366	99.12
249.599	98.12
249.832	81.12
250.066	66.12
250.299	84.12
250.532	75.12
250.765	97.12
250.998	84.12
251.231	92.12
251.465	86.12
251.698	82.12
251.931	77.12
252.164	88.12
252.397	69.12
252.63	83.12
252.863	75.12
253.096	88.12
253.329	72.12
253.562	87.12
253.795	73.12
254.028	93.12
254.261	88.12
254.494	87.12
254.727	83.12
254.96	84.12
255.193	88.12
255.426	82.12
255.659	84.12
255.892	81.12
256.124	92.12
256.357	89.12
256.59	85.12
256.823	89.12
257.056	83.12
257.289	81.12
257.521	96.12
257.754	91.12
257.987	79.12
258.22	77.12
258.452	94.12
258.685	77.12
258.918	83.12
259.151	67.12
259.383	81.12
259.616	85.12
259.849	86.12
260.081	83.12
260.314	93.12
260.547	84.12
260.779	77.12
261.012	94.12
261.244	81.12
261.477	99.12
261.71	87.12
261.942	111.12
262.175	117.12
262.407	95.12
262.64	88.12
262.872	79.12
263.105	77.12
263.337	110.12
263.57	81.12
263.802	79.12
264.035	86.12
264.267	84.12
264.499	80.12
264.732	101.12
264.964	98.12
265.197	83.12
265.429	85.12
265.661	69.12
265.894	86.12
266.126	83.12
266.358	83.12
266.591	91.12
266.823	101.12
267.055	100.12
267.287	83.12
267.52	101.12
267.752	91.12
267.984	87.12
268.216	101.12
268.448	95.12
268.681	100.12
268.913	91.12
269.145	77.12
269.377	75.12
269.609	88.12
269.841	89.12
270.073	76.12
270.306	76.12
270.538	94.12
270.77	87.12
271.002	102.12
271.234	93.12
271.466	77.12
271.698	100.12
271.93	95.12
272.162	91.12
272.394	79.12
272.626	89.12
272.858	86.12
273.09	88.12
273.322	77.12
273.553	79.12
273.785	92.12
274.017	78.12
274.249	93.12
274.481	85.12
274.713	85.12
274.945	82.12
275.176	87.12
275.408	99.12
275.64	75.12
275.872	77.12
276.104	86.12
276.335	84.12
276.567	98.12
276.799	97.12
277.031	99.12
277.262	96.12
277.494	81.12
277.726	74.12
277.957	69.12
278.189	84.12
278.421	80.12
278.652	89.12
278.884	103.12
279.115	92.12
279.347	88.12
279.579	94.12
279.81	94.12
280.042	96.12
280.273	84.12
280.505	83.12
280.736	82.12
280.968	82.12
281.199	80.12
281.431	96.12
281.662	79.12
281.894	95.12
282.125	104.12
282.356	115.12
282.588	129.12
282.819	110.12
283.051	91.12
283.282	87.12
283.513	81.12
283.745	88.12
283.976	73.12
284.207	84.12
284.439	99.12
284.67	86.12
284.901	84.12
285.132	85.12
285.364	92.12
285.595	88.12
285.826	84.12
286.057	82.12
286.288	94.12
286.52	102.12
286.751	91.12
286.982	91.12
287.213	92.12
287.444	95.12
287.675	87.12
287.906	91.12
288.138	89.12
288.369	86.12
288.6	94.12
288.831	99.12
289.062	95.12
289.293	84.12
289.524	87.12
289.755	83.12
289.986	75.12
290.217	94.12
290.448	78.12
290.679	104.12
290.91	92.12
291.141	99.12
291.371	69.12
291.602	94.12
291.833	93.12
292.064	87.12
292.295	84.12
292.526	85.12
292.757	88.12
292.987	94.12
293.218	82.12
293.449	84.12
293.68	86.12
293.91	85.12
294.141	84.12
294.372	85.12
294.603	92.12
294.833	88.12
295.064	94.12
295.295	92.12
295.525	109.12
295.756	105.12
295.987	111.12
296.217	141.12
296.448	103.12
296.679	88.12
296.909	85.12
297.14	98.12
297.37	89.12
297.601	110.12
297.831	98.12
298.062	100.12
298.292	93.12
298.523	87.12
298.753	98.12
298.984	83.12
299.214	95.12
299.445	97.12
299.675	93.12
299.905	109.12
300.136	99.12
300.366	107.12
300.597	104.12
300.827	97.12
301.057	91.12
301.288	92.12
301.518	86.12
301.748	94.12
301.979	89.12
302.209	92.12
302.439	87.12
302.669	101.12
302.9	88.12
303.13	97.12
303.36	93.12
303.59	105.12
303.82	85.12
304.051	94.12
304.281	99.12
304.511	90.12
304.741	95.12
304.971	96.12
305.201	93.12
305.431	83.12
305.661	92.12
305.891	85.12
306.121	92.12
306.352	99.12
306.582	92.12
306.812	92.12
307.042	85.12
307.272	111.12
307.502	93.12
307.731	98.12
307.961	93.12
308.191	97.12
308.421	99.12
308.651	89.12
308.881	84.12
309.111	105.12
309.341	96.12
309.571	98.12
309.8	98.12
310.03	88.12
310.26	100.12
310.49	88.12
310.72	103.12
310.949	100.12
311.179	119.12
311.409	94.12
311.639	95.12
311.868	90.12
312.098	107.12
312.328	89.12
312.557	86.12
312.787	102.12
313.017	86.12
313.246	92.12
313.476	84.12
313.706	84.12
313.935	100.12
314.165	107.12
314.394	115.12
314.624	102.12
314.853	103.12
315.083	91.12
315.312	100.12
315.542	91.12
315.771	89.12
316.001	90.12
316.23	97.12
316.46	94.12
316.689	99.12
316.919	93.12
317.148	94.12
317.377	105.12
317.607	105.12
317.836	91.12
318.065	87.12
318.295	85.12
318.524	87.12
318.753	95.12
318.983	97.12
319.212	102.12
319.441	93.12
319.67	91.12
319.9	99.12
320.129	111.12
320.358	95.12
320.587	97.12
320.816	112.12
321.046	104.12
321.275	108.12
321.504	93.12
321.733	99.12
321.962	102.12
322.191	101.12
322.42	109.12
322.649	109.12
322.878	117.12
323.108	113.12
323.337	111.12
323.566	135.12
323.795	125.12
324.024	189.12
324.253	336.12
324.482	685.12
324.71	1397.12
324.939	1809.12
325.168	705.12
325.397	226.12
325.626	131.12
325.855	139.12
326.084	119.12
326.313	134.12
326.542	132.12
326.77	210.12
326.999	395.12
327.228	776.12
327.457	1384.12
327.686	1084.12
327.914	313.12
328.143	185.12
328.372	143.12
328.6	121.12
328.829	117.12
329.058	126.12
329.287	116.12
329.515	125.12
329.744	114.12
329.972	104.12
330.201	102.12
330.43	116.12
330.658	125.12
330.887	138.12
331.115	121.12
331.344	118.12
331.572	89.12
331.801	88.12
332.03	115.12
332.258	87.12
332.486	87.12
332.715	111.12
332.943	99.12
333.172	102.12
333.4	100.12
333.629	107.12
333.857	108.12
334.085	113.12
334.314	105.12
334.542	100.12
334.771	109.12
334.999	95.12
335.227	97.12
335.455	105.12
335.684	107.12
335.912	94.12
336.14	102.12
336.369	102.12
336.597	101.12
336.825	83.12
337.053	98.12
337.281	88.12
337.51	93.12
337.738	98.12
337.966	91.12
338.194	99.12
338.422	102.12
338.65	98.12
338.878	95.12
339.106	97.12
339.334	95.12
339.562	72.12
339.79	107.12
340.018	75.12
340.246	97.12
340.474	99.12
340.702	95.12
340.93	110.12
341.158	95.12
341.386	103.12
341.614	97.12
341.842	93.12
342.07	100.12
342.298	93.12
342.526	88.12
342.754	84.12
342.981	78.12
343.209	91.12
343.437	101.12
343.665	95.12
343.893	96.12
344.12	94.12
344.348	86.12
344.576	91.12
344.804	98.12
345.031	102.12
345.259	104.12
345.487	87.12
345.714	110.12
345.942	76.12
346.17	98.12
346.397	100.12
346.625	102.12
346.853	99.12
347.08	102.12
347.308	105.12
347.535	88.12
347.763	104.12
347.99	101.12
348.218	107.12
348.445	95.12
348.673	94.12
348.9	96.12
349.128	101.12
349.355	95.12
349.583	84.12
349.81	85.12
350.037	97.12
350.265	97.12
350.492	88.12
350.72	95.12
350.947	103.12
351.174	117.12
351.402	100.12
351.629	102.12
351.856	103.12
352.083	111.12
352.311	120.12
352.538	101.12
352.765	109.12
352.992	124.12
353.22	113.12
353.447	101.12
353.674	92.12
353.901	86.12
354.128	102.12
354.355	115.12
354.583	94.12
354.81	121.12
355.037	98.12
355.264	105.12
355.491	90.12
355.718	89.12
355.945	93.12
356.172	116.12
356.399	87.12
356.626	94.12
356.853	97.12
357.08	88.12
357.307	80.12
357.534	86.12
357.761	95.12
357.988	89.12
358.215	104.12
358.441	95.12
358.668	87.12
358.895	87.12
359.122	86.12
359.349	79.12
359.576	87.12
359.802	96.12
360.029	98.12
360.256	104.12
360.483	103.12
360.709	92.12
360.936	92.12
361.163	100.12
361.39	86.12
361.616	100.12
361.843	92.12
362.07	100.12
362.296	100.12
362.523	97.12
362.749	90.12
362.976	82.12
363.203	80.12
363.429	88.12
363.656	102.12
363.882	98.12
364.109	95.12
364.335	78.12
364.562	88.12
364.788	82.12
365.015	96.12
365.241	104.12
365.468	111.12
365.694	99.12
365.92	93.12
366.147	89.12
366.373	91.12
366.599	109.12
366.826	94.12
367.052	95.12
367.278	102.12
367.505	77.12
367.731	85.12
367.957	92.12
368.184	91.12
368.41	101.12
368.636	104.12
368.862	124.12
369.089	109.12
369.315	104.12
369.541	100.12
369.767	96.12
369.993	81.12
370.219	98.12
370.445	87.12
370.672	97.12
370.898	95.12
371.124	90.12
371.35	95.12
371.576	90.12
371.802	79.12
372.028	86.12
372.254	81.12
372.48	83.12
372.706	81.12
372.932	91.12
373.158	91.12
373.384	96.12
373.61	93.12
373.835	83.12
374.061	96.12
374.287	93.12
374.513	86.12
374.739	93.12
374.965	100.12
375.191	86.12
375.416	105.12
375.642	79.12
375.868	111.12
376.094	89.12
376.319	88.12
376.545	100.12
376.771	100.12
376.997	96.12
377.222	84.12
377.448	85.12
377.674	106.12
377.899	87.12
378.125	84.12
378.35	88.12
378.576	106.12
378.802	87.12
379.027	117.12
379.253	93.12
379.478	95.12
379.704	87.12
379.929	101.12
380.155	92.12
380.38	91.12
380.606	95.12
380.831	94.12
381.057	96.12
381.282	98.12
381.507	94.12
381.733	87.12
381.958	92.12
382.184	101.12
382.409	102.12
382.634	113.12
382.86	103.12
383.085	93.12
383.31	91.12
383.535	102.12
383.761	103.12
383.986	91.12
384.211	89.12
384.436	110.12
384.662	92.12
384.887	95.12
385.112	101.12
385.337	104.12
385.562	89.12
385.787	98.12
386.013	104.12
386.238	102.12
386.463	96.12
386.688	98.12
386.913	105.12
387.138	103.12
387.363	99.12
387.588	93.12
387.813	105.12
388.038	96.12
388.263	101.12
388.488	108.12
388.713	88.12
388.938	103.12
389.163	100.12
389.387	101.12
389.612	91.12
389.837	82.12
390.062	93.12
390.287	91.12
390.512	101.12
390.736	95.12
390.961	88.12
391.186	97.12
391.411	90.12
391.636	95.12
391.86	92.12
392.085	90.12
392.31	102.12
392.534	87.12
392.759	92.12
392.984	81.12
393.208	69.12
393.433	83.12
393.658	97.12
393.882	76.12
394.107	83.12
394.331	79.12
394.556	85.12
394.78	86.12
395.005	91.12
395.229	81.12
395.454	93.12
395.678	84.12
395.903	86.12
396.127	91.12
396.352	94.12
396.576	100.12
396.801	88.12
397.025	92.12
397.249	94.12
397.474	91.12
397.698	89.12
397.922	81.12
398.147	98.12
398.371	94.12
398.595	104.12
398.82	100.12
399.044	79.12
399.268	87.12
399.492	79.12
399.717	86.12
399.941	96.12
400.165	96.12
400.389	103.12
400.613	85.12
400.837	102.12
401.062	88.12
401.286	94.12
401.51	86.12
401.734	101.12
401.958	108.12
402.182	117.12
402.406	158.12
402.63	107.12
402.854	96.12
403.078	77.12
403.302	77.12
403.526	85.12
403.75	81.12
403.974	78.12
404.198	88.12
404.422	87.12
404.645	82.12
404.869	100.12
405.093	101.12
405.317	87.12
405.541	93.12
405.765	94.12
405.988	106.12
406.212	164.12
406.436	218.12
406.66	123.12
406.883	95.12
407.107	86.12
407.331	90.12
407.555	89.12
407.778	80.12
408.002	94.12
408.226	100.12
408.449	91.12
408.673	93.12
408.896	86.12
409.12	107.12
409.344	87.12
409.567	94.12
409.791	96.12
410.014	88.12
410.238	94.12
410.461	88.12
410.685	92.12
410.908	96.12
411.132	103.12
411.355	91.12
411.578	87.12
411.802	96.12
412.025	88.12
412.249	92.12
412.472	108.12
412.695	86.12
412.919	81.12
413.142	87.12
413.365	88.12
413.589	78.12
413.812	84.12
414.035	101.12
414.258	94.12
414.482	101.12
414.705	95.12
414.928	98.12
415.151	98.12
415.374	100.12
415.597	86.12
415.821	91.12
416.044	79.12
416.267	87.12
416.49	82.12
416.713	108.12
416.936	87.12
417.159	99.12
417.382	98.12
417.605	93.12
417.828	83.12
418.051	90.12
418.274	88.12
418.497	96.12
418.72	97.12
418.943	79.12
419.166	97.12
419.389	101.12
419.611	89.12
419.834	93.12
420.057	93.12
420.28	96.12
420.503	83.12
420.726	83.12
420.948	73.12
421.171	80.12
421.394	81.12
421.617	93.12
421.839	86.12
422.062	79.12
422.285	90.12
422.507	92.12
422.73	113.12
422.953	88.12
423.175	91.12
423.398	88.12
423.621	80.12
423.843	83.12
424.066	106.12
424.288	98.12
424.511	91.12
424.733	96.12
424.956	94.12
425.178	93.12
425.401	85.12
425.623	99.12
425.846	104.12
426.068	100.12
426.291	82.12
426.513	88.12
426.735	90.12
426.958	99.12
427.18	98.12
427.402	131.12
427.625	158.12
427.847	109.12
428.069	111.12
428.292	79.12
428.514	82.12
428.736	91.12
428.958	93.12
429.181	105.12
429.403	88.12
429.625	95.12
429.847	81.12
430.069	89.12
430.292	88.12
430.514	77.12
430.736	97.12
430.958	77.12
431.18	87.12
431.402	79.12
431.624	84.12
431.846	100.12
432.068	69.12
432.29	87.12
432.512	86.12
432.734	90.12
432.956	99.12
433.178	93.12
433.4	100.12
433.622	96.12
433.844	99.12
434.066	102.12
434.287	82.12
434.509	79.12
434.731	81.12
434.953	81.12
435.175	89.12
435.397	101.12
435.618	86.12
435.84	96.12
436.062	114.12
436.284	104.12
436.505	99.12
436.727	101.12
436.949	96.12
437.17	93.12
437.392	93.12
437.614	107.12
437.835	108.12
438.057	117.12
438.278	98.12
438.5	81.12
438.721	98.12
438.943	97.12
439.165	85.12
439.386	81.12
439.608	102.12
439.829	101.12
440.05	118.12
440.272	127.12
440.493	96.12
440.715	77.12
440.936	68.12
441.158	89.12
441.379	94.12
441.6	95.12
441.822	99.12
442.043	80.12
442.264	103.12
442.486	93.12
442.707	98.12
442.928	96.12
443.149	125.12
443.371	115.12
443.592	112.12
443.813	101.12
444.034	89.12
444.255	85.12
444.476	97.12
444.698	92.12
444.919	90.12
445.14	143.12
445.361	124.12
445.582	109.12
445.803	121.12
446.024	115.12
446.245	129.12
446.466	114.12
446.687	91.12
446.908	85.12
447.129	101.12
447.35	92.12
447.571	90.12
447.792	75.12
448.013	94.12
448.234	117.12
448.455	108.12
448.675	119.12
448.896	97.12
449.117	87.12
449.338	105.12
449.559	122.12
449.779	117.12
450	96.12
450.221	77.12
450.442	93.12
450.662	100.12
450.883	115.12
451.104	114.12
451.324	98.12
451.545	99.12
451.766	100.12
451.986	91.12
452.207	84.12
452.428	77.12
452.648	97.12
452.869	111.12
453.089	108.12
453.31	120.12
453.53	89.12
453.751	95.12
453.971	93.12
454.192	105.12
454.412	92.12
454.633	98.12
454.853	88.12
455.073	98.12
455.294	93.12
455.514	104.12
455.734	79.12
455.955	85.12
456.175	79.12
456.395	83.12
456.616	95.12
456.836	92.12
457.056	92.12
457.276	92.12
457.497	75.12
457.717	97.12
457.937	86.12
458.157	91.12
458.377	104.12
458.598	112.12
458.818	129.12
459.038	157.12
459.258	121.12
459.478	91.12
459.698	96.12
459.918	79.12
460.138	83.12
460.358	86.12
460.578	95.12
460.798	106.12
461.018	82.12
461.238	88.12
461.458	95.12
461.678	80.12
461.898	100.12
462.118	72.12
462.338	87.12
462.558	88.12
462.777	86.12
462.997	95.12
463.217	83.12
463.437	87.12
463.657	99.12
463.876	92.12
464.096	102.12
464.316	100.12
464.536	93.12
464.755	99.12
464.975	113.12
465.195	172.12
465.414	152.12
465.634	84.12
465.854	81.12
466.073	92.12
466.293	90.12
466.512	84.12
466.732	77.12
466.951	92.12
467.171	95.12
467.391	93.12
467.61	106.12
467.829	96.12
468.049	85.12
468.268	94.12
468.488	95.12
468.707	85.12
468.927	86.12
469.146	103.12
469.365	77.12
469.585	95.12
469.804	89.12
470.023	93.12
470.243	103.12
470.462	104.12
470.681	105.12
470.901	85.12
471.12	95.12
471.339	89.12
471.558	92.12
471.777	78.12
471.997	92.12
472.216	91.12
472.435	89.12
472.654	101.12
472.873	103.12
473.092	84.12
473.311	71.12
473.53	103.12
473.749	93.12
473.968	95.12
474.187	100.12
474.406	96.12
474.625	96.12
474.844	92.12
475.063	94.12
475.282	102.12
475.501	87.12
475.72	93.12
475.939	86.12
476.158	93.12
476.377	89.12
476.596	85.12
476.814	77.12
477.033	95.12
477.252	98.12
477.471	97.12
477.69	99.12
477.908	92.12
478.127	111.12
478.346	89.12
478.564	88.12
478.783	85.12
479.002	95.12
479.22	91.12
479.439	94.12
479.658	109.12
479.876	112.12
480.095	84.12
480.313	92.12
480.532	103.12
480.751	104.12
480.969	85.12
481.188	94.12
481.406	92.12
481.624	92.12
481.843	84.12
482.061	94.12
482.28	105.12
482.498	87.12
482.717	93.12
482.935	95.12
483.153	102.12
483.372	101.12
483.59	85.12
483.808	93.12
484.027	96.12
484.245	101.12
484.463	98.12
484.681	94.12
484.9	113.12
485.118	110.12
485.336	106.12
485.554	114.12
485.772	106.12
485.99	96.12
486.209	103.12
486.427	96.12
486.645	108.12
486.863	103.12
487.081	96.12
487.299	92.12
487.517	98.12
487.735	99.12
487.953	88.12
488.171	95.12
488.389	87.12
488.607	114.12
488.825	101.12
489.043	93.12
489.261	97.12
489.479	88.12
489.696	87.12
489.914	90.12
490.132	88.12
490.35	91.12
490.568	74.12
490.786	88.12
491.003	99.12
491.221	89.12
491.439	96.12
491.657	106.12
491.874	94.12
492.092	92.12
492.31	97.12
492.527	93.12
492.745	94.12
492.963	103.12
493.18	95.12
493.398	114.12
493.615	94.12
493.833	96.12
494.05	78.12
494.268	88.12
494.485	92.12
494.703	97.12
494.92	81.12
495.138	92.12
495.355	67.12
495.573	92.12
495.79	92.12
496.008	92.12
496.225	81.12
496.442	81.12
496.66	79.12
496.877	85.12
497.094	99.12
497.312	105.12
497.529	97.12
497.746	92.12
497.963	94.12
498.181	90.12
498.398	101.12
498.615	92.12
498.832	105.12
499.049	99.12
499.267	95.12
499.484	98.12
499.701	79.12
499.918	84.12
500.135	88.12
500.352	89.12
500.569	97.12
500.786	98.12
501.003	94.12
501.22	98.12
501.437	102.12
501.654	94.12
501.871	92.12
502.088	89.12
502.305	99.12
502.522	76.12
502.739	104.12
502.956	83.12
503.172	105.12
503.389	101.12
503.606	99.12
503.823	90.12
504.04	103.12
504.256	103.12
504.473	87.12
504.69	79.12
504.907	103.12
505.123	89.12
505.34	104.12
505.557	97.12
505.773	98.12
505.99	79.12
506.207	92.12
506.423	95.12
506.64	88.12
506.856	94.12
507.073	82.12
507.289	102.12
507.506	92.12
507.722	97.12
507.939	111.12
508.155	104.12
508.372	99.12
508.588	97.12
508.805	83.12
509.021	97.12
509.238	108.12
509.454	102.12
509.67	93.12
509.887	111.12
510.103	133.12
510.319	199.12
510.536	745.12
510.752	2255.12
510.968	616.12
511.184	153.12
511.401	121.12
511.617	108.12
511.833	98.12
512.049	102.12
512.265	93.12
512.481	99.12
512.698	94.12
512.914	102.12
513.13	89.12
513.346	107.12
513.562	94.12
513.778	95.12
513.994	91.12
514.21	105.12
514.426	126.12
514.642	135.12
514.858	119.12
515.074	153.12
515.29	440.12
