Data from Uncirc_1993_H10_HRD10591_00028.txt Node
Date: Wed Jan 03 11:42:57 EST 2024
User: Yrep
Spectrometer: HR+D1059
Trigger mode: 1
Integration Time (sec): 1.000000E-1
Scans to average: 1
Electric dark correction enabled: true
Nonlinearity correction enabled: false
Boxcar width: 0
XAxis mode: Wavelengths
Number of Pixels in Spectrum: 2048
>>>>>Begin Spectral Data<<<<<
223.165	-30.56
223.4	-30.56
223.635	-30.56
223.869	-16.56
224.104	-15.56
224.338	-10.56
224.573	-4.56
224.808	-14.56
225.042	-8.56
225.277	4.44
225.511	-0.56
225.746	-11.56
225.98	6.44
226.215	16.44
226.449	16.44
226.683	21.44
226.918	20.44
227.152	27.44
227.387	29.44
227.621	49.44
227.856	59.44
228.09	53.44
228.324	76.44
228.559	54.44
228.793	61.44
229.027	61.44
229.262	83.44
229.496	73.44
229.73	81.44
229.964	77.44
230.199	72.44
230.433	72.44
230.667	85.44
230.901	74.44
231.136	80.44
231.37	81.44
231.604	91.44
231.838	83.44
232.072	80.44
232.306	94.44
232.541	95.44
232.775	83.44
233.009	90.44
233.243	81.44
233.477	93.44
233.711	84.44
233.945	86.44
234.179	96.44
234.413	89.44
234.647	79.44
234.881	83.44
235.115	72.44
235.349	91.44
235.583	88.44
235.817	67.44
236.051	75.44
236.285	75.44
236.519	77.44
236.753	83.44
236.987	88.44
237.221	85.44
237.455	82.44
237.689	80.44
237.922	79.44
238.156	67.44
238.39	84.44
238.624	63.44
238.858	77.44
239.091	63.44
239.325	77.44
239.559	77.44
239.793	82.44
240.027	76.44
240.26	77.44
240.494	72.44
240.728	79.44
240.961	77.44
241.195	86.44
241.429	92.44
241.662	86.44
241.896	85.44
242.13	80.44
242.363	87.44
242.597	70.44
242.83	82.44
243.064	93.44
243.298	87.44
243.531	69.44
243.765	73.44
243.998	80.44
244.232	85.44
244.465	78.44
244.699	84.44
244.932	81.44
245.166	87.44
245.399	85.44
245.633	80.44
245.866	91.44
246.099	65.44
246.333	77.44
246.566	104.44
246.8	81.44
247.033	79.44
247.266	75.44
247.5	93.44
247.733	85.44
247.966	80.44
248.2	65.44
248.433	89.44
248.666	83.44
248.899	76.44
249.133	77.44
249.366	92.44
249.599	95.44
249.832	86.44
250.066	82.44
250.299	85.44
250.532	80.44
250.765	83.44
250.998	87.44
251.231	85.44
251.465	84.44
251.698	76.44
251.931	80.44
252.164	67.44
252.397	73.44
252.63	88.44
252.863	85.44
253.096	78.44
253.329	79.44
253.562	77.44
253.795	83.44
254.028	79.44
254.261	75.44
254.494	80.44
254.727	92.44
254.96	82.44
255.193	79.44
255.426	91.44
255.659	85.44
255.892	70.44
256.124	84.44
256.357	80.44
256.59	87.44
256.823	82.44
257.056	88.44
257.289	85.44
257.521	97.44
257.754	87.44
257.987	84.44
258.22	81.44
258.452	72.44
258.685	83.44
258.918	84.44
259.151	88.44
259.383	77.44
259.616	85.44
259.849	77.44
260.081	93.44
260.314	83.44
260.547	85.44
260.779	80.44
261.012	87.44
261.244	76.44
261.477	92.44
261.71	96.44
261.942	101.44
262.175	98.44
262.407	77.44
262.64	82.44
262.872	69.44
263.105	93.44
263.337	99.44
263.57	101.44
263.802	97.44
264.035	87.44
264.267	92.44
264.499	72.44
264.732	93.44
264.964	88.44
265.197	78.44
265.429	87.44
265.661	90.44
265.894	101.44
266.126	88.44
266.358	81.44
266.591	98.44
266.823	76.44
267.055	77.44
267.287	83.44
267.52	86.44
267.752	94.44
267.984	87.44
268.216	81.44
268.448	89.44
268.681	81.44
268.913	96.44
269.145	94.44
269.377	75.44
269.609	96.44
269.841	82.44
270.073	91.44
270.306	78.44
270.538	79.44
270.77	71.44
271.002	89.44
271.234	93.44
271.466	91.44
271.698	78.44
271.93	80.44
272.162	89.44
272.394	104.44
272.626	91.44
272.858	90.44
273.09	93.44
273.322	76.44
273.553	81.44
273.785	81.44
274.017	79.44
274.249	79.44
274.481	81.44
274.713	90.44
274.945	80.44
275.176	85.44
275.408	89.44
275.64	109.44
275.872	96.44
276.104	87.44
276.335	94.44
276.567	88.44
276.799	102.44
277.031	94.44
277.262	97.44
277.494	71.44
277.726	104.44
277.957	83.44
278.189	91.44
278.421	94.44
278.652	94.44
278.884	86.44
279.115	82.44
279.347	100.44
279.579	83.44
279.81	83.44
280.042	83.44
280.273	97.44
280.505	101.44
280.736	75.44
280.968	86.44
281.199	84.44
281.431	81.44
281.662	87.44
281.894	85.44
282.125	90.44
282.356	120.44
282.588	139.44
282.819	118.44
283.051	90.44
283.282	93.44
283.513	99.44
283.745	95.44
283.976	99.44
284.207	85.44
284.439	80.44
284.67	81.44
284.901	83.44
285.132	83.44
285.364	82.44
285.595	88.44
285.826	94.44
286.057	90.44
286.288	85.44
286.52	103.44
286.751	91.44
286.982	95.44
287.213	93.44
287.444	103.44
287.675	90.44
287.906	99.44
288.138	97.44
288.369	88.44
288.6	88.44
288.831	82.44
289.062	91.44
289.293	97.44
289.524	88.44
289.755	93.44
289.986	91.44
290.217	83.44
290.448	72.44
290.679	77.44
290.91	77.44
291.141	95.44
291.371	85.44
291.602	85.44
291.833	75.44
292.064	112.44
292.295	96.44
292.526	89.44
292.757	66.44
292.987	92.44
293.218	88.44
293.449	90.44
293.68	100.44
293.91	77.44
294.141	90.44
294.372	94.44
294.603	85.44
294.833	90.44
295.064	92.44
295.295	100.44
295.525	86.44
295.756	100.44
295.987	104.44
296.217	140.44
296.448	124.44
296.679	83.44
296.909	104.44
297.14	92.44
297.37	80.44
297.601	101.44
297.831	95.44
298.062	78.44
298.292	93.44
298.523	99.44
298.753	80.44
298.984	93.44
299.214	82.44
299.445	83.44
299.675	98.44
299.905	100.44
300.136	93.44
300.366	89.44
300.597	95.44
300.827	92.44
301.057	93.44
301.288	112.44
301.518	94.44
301.748	87.44
301.979	87.44
302.209	94.44
302.439	95.44
302.669	84.44
302.9	85.44
303.13	96.44
303.36	103.44
303.59	102.44
303.82	113.44
304.051	98.44
304.281	99.44
304.511	98.44
304.741	80.44
304.971	84.44
305.201	93.44
305.431	95.44
305.661	92.44
305.891	80.44
306.121	91.44
306.352	104.44
306.582	112.44
306.812	96.44
307.042	83.44
307.272	85.44
307.502	101.44
307.731	94.44
307.961	100.44
308.191	109.44
308.421	89.44
308.651	99.44
308.881	103.44
309.111	96.44
309.341	105.44
309.571	103.44
309.8	98.44
310.03	98.44
310.26	107.44
310.49	109.44
310.72	105.44
310.949	104.44
311.179	97.44
311.409	83.44
311.639	100.44
311.868	109.44
312.098	112.44
312.328	121.44
312.557	100.44
312.787	104.44
313.017	88.44
313.246	96.44
313.476	97.44
313.706	97.44
313.935	91.44
314.165	100.44
314.394	91.44
314.624	97.44
314.853	97.44
315.083	103.44
315.312	101.44
315.542	80.44
315.771	100.44
316.001	103.44
316.23	95.44
316.46	87.44
316.689	97.44
316.919	80.44
317.148	88.44
317.377	96.44
317.607	86.44
317.836	87.44
318.065	86.44
318.295	82.44
318.524	87.44
318.753	85.44
318.983	96.44
319.212	111.44
319.441	100.44
319.67	110.44
319.9	100.44
320.129	109.44
320.358	91.44
320.587	85.44
320.816	112.44
321.046	109.44
321.275	86.44
321.504	89.44
321.733	95.44
321.962	82.44
322.191	104.44
322.42	105.44
322.649	103.44
322.878	106.44
323.108	112.44
323.337	120.44
323.566	117.44
323.795	152.44
324.024	183.44
324.253	318.44
324.482	674.44
324.71	1342.44
324.939	1711.44
325.168	637.44
325.397	212.44
325.626	133.44
325.855	123.44
326.084	115.44
326.313	118.44
326.542	144.44
326.77	183.44
326.999	405.44
327.228	733.44
327.457	1311.44
327.686	1048.44
327.914	307.44
328.143	179.44
328.372	144.44
328.6	117.44
328.829	108.44
329.058	120.44
329.287	126.44
329.515	99.44
329.744	106.44
329.972	96.44
330.201	116.44
330.43	114.44
330.658	118.44
330.887	125.44
331.115	109.44
331.344	99.44
331.572	98.44
331.801	101.44
332.03	103.44
332.258	96.44
332.486	95.44
332.715	86.44
332.943	101.44
333.172	94.44
333.4	93.44
333.629	102.44
333.857	110.44
334.085	118.44
334.314	93.44
334.542	100.44
334.771	96.44
334.999	109.44
335.227	87.44
335.455	98.44
335.684	108.44
335.912	105.44
336.14	105.44
336.369	96.44
336.597	95.44
336.825	87.44
337.053	85.44
337.281	101.44
337.51	99.44
337.738	95.44
337.966	94.44
338.194	104.44
338.422	95.44
338.65	79.44
338.878	95.44
339.106	90.44
339.334	86.44
339.562	95.44
339.79	76.44
340.018	94.44
340.246	87.44
340.474	100.44
340.702	88.44
340.93	91.44
341.158	85.44
341.386	96.44
341.614	91.44
341.842	95.44
342.07	94.44
342.298	91.44
342.526	92.44
342.754	93.44
342.981	86.44
343.209	96.44
343.437	119.44
343.665	94.44
343.893	108.44
344.12	91.44
344.348	98.44
344.576	93.44
344.804	107.44
345.031	95.44
345.259	82.44
345.487	91.44
345.714	94.44
345.942	97.44
346.17	79.44
346.397	89.44
346.625	94.44
346.853	76.44
347.08	103.44
347.308	86.44
347.535	101.44
347.763	105.44
347.99	99.44
348.218	108.44
348.445	109.44
348.673	85.44
348.9	73.44
349.128	86.44
349.355	91.44
349.583	97.44
349.81	100.44
350.037	104.44
350.265	81.44
350.492	103.44
350.72	99.44
350.947	104.44
351.174	97.44
351.402	102.44
351.629	111.44
351.856	96.44
352.083	111.44
352.311	116.44
352.538	108.44
352.765	109.44
352.992	113.44
353.22	97.44
353.447	111.44
353.674	110.44
353.901	108.44
354.128	109.44
354.355	93.44
354.583	86.44
354.81	91.44
355.037	92.44
355.264	101.44
355.491	115.44
355.718	86.44
355.945	92.44
356.172	96.44
356.399	82.44
356.626	102.44
356.853	88.44
357.08	96.44
357.307	106.44
357.534	92.44
357.761	100.44
357.988	93.44
358.215	109.44
358.441	93.44
358.668	87.44
358.895	99.44
359.122	94.44
359.349	85.44
359.576	94.44
359.802	98.44
360.029	111.44
360.256	121.44
360.483	98.44
360.709	88.44
360.936	92.44
361.163	111.44
361.39	87.44
361.616	103.44
361.843	113.44
362.07	91.44
362.296	92.44
362.523	102.44
362.749	83.44
362.976	88.44
363.203	97.44
363.429	88.44
363.656	99.44
363.882	75.44
364.109	89.44
364.335	92.44
364.562	89.44
364.788	101.44
365.015	88.44
365.241	101.44
365.468	117.44
365.694	108.44
365.92	112.44
366.147	107.44
366.373	79.44
366.599	90.44
366.826	83.44
367.052	89.44
367.278	95.44
367.505	100.44
367.731	105.44
367.957	88.44
368.184	80.44
368.41	93.44
368.636	108.44
368.862	110.44
369.089	102.44
369.315	93.44
369.541	91.44
369.767	90.44
369.993	95.44
370.219	86.44
370.445	94.44
370.672	104.44
370.898	76.44
371.124	79.44
371.35	101.44
371.576	101.44
371.802	87.44
372.028	76.44
372.254	95.44
372.48	77.44
372.706	100.44
372.932	96.44
373.158	90.44
373.384	91.44
373.61	100.44
373.835	88.44
374.061	77.44
374.287	94.44
374.513	94.44
374.739	81.44
374.965	94.44
375.191	90.44
375.416	102.44
375.642	85.44
375.868	96.44
376.094	102.44
376.319	95.44
376.545	82.44
376.771	92.44
376.997	89.44
377.222	96.44
377.448	93.44
377.674	94.44
377.899	91.44
378.125	95.44
378.35	94.44
378.576	92.44
378.802	88.44
379.027	113.44
379.253	88.44
379.478	96.44
379.704	91.44
379.929	88.44
380.155	80.44
380.38	91.44
380.606	93.44
380.831	93.44
381.057	99.44
381.282	103.44
381.507	95.44
381.733	105.44
381.958	96.44
382.184	95.44
382.409	99.44
382.634	105.44
382.86	105.44
383.085	90.44
383.31	98.44
383.535	102.44
383.761	104.44
383.986	104.44
384.211	115.44
384.436	96.44
384.662	88.44
384.887	99.44
385.112	92.44
385.337	103.44
385.562	111.44
385.787	110.44
386.013	107.44
386.238	109.44
386.463	101.44
386.688	99.44
386.913	91.44
387.138	104.44
387.363	114.44
387.588	91.44
387.813	95.44
388.038	95.44
388.263	108.44
388.488	94.44
388.713	89.44
388.938	88.44
389.163	95.44
389.387	98.44
389.612	89.44
389.837	84.44
390.062	87.44
390.287	88.44
390.512	99.44
390.736	90.44
390.961	79.44
391.186	99.44
391.411	95.44
391.636	85.44
391.86	80.44
392.085	91.44
392.31	84.44
392.534	86.44
392.759	100.44
392.984	92.44
393.208	102.44
393.433	71.44
393.658	103.44
393.882	84.44
394.107	80.44
394.331	86.44
394.556	86.44
394.78	85.44
395.005	97.44
395.229	97.44
395.454	85.44
395.678	83.44
395.903	91.44
396.127	78.44
396.352	107.44
396.576	94.44
396.801	103.44
397.025	86.44
397.249	87.44
397.474	97.44
397.698	84.44
397.922	86.44
398.147	97.44
398.371	85.44
398.595	97.44
398.82	88.44
399.044	85.44
399.268	85.44
399.492	90.44
399.717	83.44
399.941	96.44
400.165	104.44
400.389	84.44
400.613	97.44
400.837	87.44
401.062	81.44
401.286	97.44
401.51	92.44
401.734	96.44
401.958	89.44
402.182	130.44
402.406	147.44
402.63	116.44
402.854	102.44
403.078	96.44
403.302	93.44
403.526	88.44
403.75	77.44
403.974	88.44
404.198	99.44
404.422	73.44
404.645	100.44
404.869	103.44
405.093	80.44
405.317	89.44
405.541	93.44
405.765	91.44
405.988	100.44
406.212	153.44
406.436	195.44
406.66	140.44
406.883	97.44
407.107	95.44
407.331	94.44
407.555	91.44
407.778	100.44
408.002	76.44
408.226	90.44
408.449	85.44
408.673	88.44
408.896	84.44
409.12	101.44
409.344	101.44
409.567	86.44
409.791	98.44
410.014	104.44
410.238	96.44
410.461	89.44
410.685	97.44
410.908	104.44
411.132	118.44
411.355	89.44
411.578	94.44
411.802	81.44
412.025	75.44
412.249	80.44
412.472	79.44
412.695	81.44
412.919	81.44
413.142	87.44
413.365	82.44
413.589	80.44
413.812	89.44
414.035	73.44
414.258	87.44
414.482	89.44
414.705	96.44
414.928	96.44
415.151	88.44
415.374	89.44
415.597	87.44
415.821	93.44
416.044	78.44
416.267	88.44
416.49	92.44
416.713	88.44
416.936	98.44
417.159	85.44
417.382	88.44
417.605	86.44
417.828	96.44
418.051	88.44
418.274	91.44
418.497	86.44
418.72	81.44
418.943	85.44
419.166	91.44
419.389	91.44
419.611	94.44
419.834	81.44
420.057	104.44
420.28	86.44
420.503	92.44
420.726	77.44
420.948	92.44
421.171	93.44
421.394	108.44
421.617	97.44
421.839	99.44
422.062	97.44
422.285	100.44
422.507	97.44
422.73	101.44
422.953	97.44
423.175	90.44
423.398	102.44
423.621	95.44
423.843	93.44
424.066	88.44
424.288	95.44
424.511	90.44
424.733	104.44
424.956	112.44
425.178	96.44
425.401	104.44
425.623	101.44
425.846	89.44
426.068	90.44
426.291	91.44
426.513	86.44
426.735	70.44
426.958	101.44
427.18	93.44
427.402	113.44
427.625	156.44
427.847	119.44
428.069	100.44
428.292	88.44
428.514	85.44
428.736	87.44
428.958	95.44
429.181	96.44
429.403	83.44
429.625	87.44
429.847	90.44
430.069	111.44
430.292	94.44
430.514	90.44
430.736	85.44
430.958	79.44
431.18	86.44
431.402	96.44
431.624	83.44
431.846	86.44
432.068	78.44
432.29	88.44
432.512	89.44
432.734	96.44
432.956	84.44
433.178	86.44
433.4	100.44
433.622	73.44
433.844	81.44
434.066	94.44
434.287	91.44
434.509	82.44
434.731	92.44
434.953	97.44
435.175	86.44
435.397	87.44
435.618	86.44
435.84	101.44
436.062	110.44
436.284	107.44
436.505	104.44
436.727	99.44
436.949	91.44
437.17	87.44
437.392	72.44
437.614	100.44
437.835	104.44
438.057	91.44
438.278	96.44
438.5	109.44
438.721	118.44
438.943	99.44
439.165	97.44
439.386	82.44
439.608	87.44
439.829	98.44
440.05	123.44
440.272	133.44
440.493	100.44
440.715	90.44
440.936	78.44
441.158	89.44
441.379	95.44
441.6	84.44
441.822	90.44
442.043	112.44
442.264	104.44
442.486	110.44
442.707	101.44
442.928	108.44
443.149	123.44
443.371	110.44
443.592	88.44
443.813	113.44
444.034	109.44
444.255	94.44
444.476	86.44
444.698	105.44
444.919	88.44
445.14	135.44
445.361	123.44
445.582	105.44
445.803	112.44
446.024	132.44
446.245	122.44
446.466	106.44
446.687	88.44
446.908	89.44
447.129	69.44
447.35	75.44
447.571	83.44
447.792	97.44
448.013	113.44
448.234	125.44
448.455	96.44
448.675	116.44
448.896	118.44
449.117	98.44
449.338	98.44
449.559	118.44
449.779	128.44
450	95.44
450.221	81.44
450.442	85.44
450.662	82.44
450.883	107.44
451.104	125.44
451.324	101.44
451.545	106.44
451.766	92.44
451.986	101.44
452.207	85.44
452.428	105.44
452.648	84.44
452.869	103.44
453.089	105.44
453.31	124.44
453.53	107.44
453.751	95.44
453.971	92.44
454.192	105.44
454.412	105.44
454.633	92.44
454.853	84.44
455.073	83.44
455.294	99.44
455.514	95.44
455.734	97.44
455.955	89.44
456.175	84.44
456.395	81.44
456.616	83.44
456.836	94.44
457.056	91.44
457.276	91.44
457.497	87.44
457.717	101.44
457.937	80.44
458.157	75.44
458.377	89.44
458.598	97.44
458.818	135.44
459.038	147.44
459.258	99.44
459.478	91.44
459.698	83.44
459.918	101.44
460.138	88.44
460.358	76.44
460.578	92.44
460.798	109.44
461.018	89.44
461.238	91.44
461.458	97.44
461.678	73.44
461.898	87.44
462.118	94.44
462.338	91.44
462.558	81.44
462.777	89.44
462.997	94.44
463.217	99.44
463.437	79.44
463.657	87.44
463.876	97.44
464.096	93.44
464.316	103.44
464.536	104.44
464.755	96.44
464.975	98.44
465.195	140.44
465.414	133.44
465.634	94.44
465.854	95.44
466.073	98.44
466.293	96.44
466.512	91.44
466.732	68.44
466.951	102.44
467.171	89.44
467.391	98.44
467.61	98.44
467.829	88.44
468.049	93.44
468.268	84.44
468.488	91.44
468.707	86.44
468.927	89.44
469.146	94.44
469.365	98.44
469.585	84.44
469.804	100.44
470.023	87.44
470.243	87.44
470.462	102.44
470.681	115.44
470.901	96.44
471.12	97.44
471.339	86.44
471.558	81.44
471.777	67.44
471.997	79.44
472.216	99.44
472.435	106.44
472.654	92.44
472.873	99.44
473.092	95.44
473.311	97.44
473.53	93.44
473.749	93.44
473.968	100.44
474.187	92.44
474.406	97.44
474.625	87.44
474.844	93.44
475.063	79.44
475.282	85.44
475.501	111.44
475.72	89.44
475.939	88.44
476.158	87.44
476.377	89.44
476.596	87.44
476.814	104.44
477.033	100.44
477.252	87.44
477.471	84.44
477.69	101.44
477.908	95.44
478.127	101.44
478.346	95.44
478.564	102.44
478.783	100.44
479.002	98.44
479.22	100.44
479.439	105.44
479.658	93.44
479.876	91.44
480.095	79.44
480.313	77.44
480.532	86.44
480.751	99.44
480.969	96.44
481.188	108.44
481.406	108.44
481.624	79.44
481.843	84.44
482.061	77.44
482.28	96.44
482.498	98.44
482.717	83.44
482.935	100.44
483.153	91.44
483.372	100.44
483.59	97.44
483.808	107.44
484.027	92.44
484.245	97.44
484.463	89.44
484.681	100.44
484.9	89.44
485.118	93.44
485.336	94.44
485.554	96.44
485.772	95.44
485.99	104.44
486.209	108.44
486.427	113.44
486.645	105.44
486.863	107.44
487.081	117.44
487.299	99.44
487.517	104.44
487.735	88.44
487.953	93.44
488.171	97.44
488.389	99.44
488.607	97.44
488.825	96.44
489.043	108.44
489.261	88.44
489.479	94.44
489.696	87.44
489.914	88.44
490.132	92.44
490.35	95.44
490.568	92.44
490.786	88.44
491.003	93.44
491.221	87.44
491.439	80.44
491.657	91.44
491.874	106.44
492.092	86.44
492.31	102.44
492.527	98.44
492.745	89.44
492.963	97.44
493.18	101.44
493.398	86.44
493.615	89.44
493.833	105.44
494.05	114.44
494.268	91.44
494.485	85.44
494.703	88.44
494.92	86.44
495.138	89.44
495.355	96.44
495.573	83.44
495.79	71.44
496.008	97.44
496.225	94.44
496.442	99.44
496.66	97.44
496.877	86.44
497.094	97.44
497.312	111.44
497.529	79.44
497.746	89.44
497.963	89.44
498.181	85.44
498.398	92.44
498.615	106.44
498.832	103.44
499.049	94.44
499.267	87.44
499.484	80.44
499.701	92.44
499.918	101.44
500.135	95.44
500.352	94.44
500.569	88.44
500.786	90.44
501.003	88.44
501.22	105.44
501.437	93.44
501.654	99.44
501.871	104.44
502.088	100.44
502.305	90.44
502.522	100.44
502.739	96.44
502.956	88.44
503.172	94.44
503.389	84.44
503.606	93.44
503.823	100.44
504.04	103.44
504.256	100.44
504.473	78.44
504.69	104.44
504.907	97.44
505.123	90.44
505.34	90.44
505.557	103.44
505.773	105.44
505.99	93.44
506.207	95.44
506.423	91.44
506.64	87.44
506.856	89.44
507.073	97.44
507.289	86.44
507.506	96.44
507.722	105.44
507.939	110.44
508.155	93.44
508.372	78.44
508.588	95.44
508.805	103.44
509.021	97.44
509.238	105.44
509.454	96.44
509.67	95.44
509.887	105.44
510.103	119.44
510.319	218.44
510.536	676.44
510.752	2027.44
510.968	563.44
511.184	144.44
511.401	111.44
511.617	104.44
511.833	84.44
512.049	96.44
512.265	75.44
512.481	92.44
512.698	97.44
512.914	82.44
513.13	89.44
513.346	96.44
513.562	96.44
513.778	92.44
513.994	88.44
514.21	99.44
514.426	97.44
514.642	122.44
514.858	116.44
515.074	166.44
515.29	413.44
