Data from Uncirc_1993_H10_HRD10591_00068.txt Node
Date: Wed Jan 03 11:43:05 EST 2024
User: Yrep
Spectrometer: HR+D1059
Trigger mode: 1
Integration Time (sec): 1.000000E-1
Scans to average: 1
Electric dark correction enabled: true
Nonlinearity correction enabled: false
Boxcar width: 0
XAxis mode: Wavelengths
Number of Pixels in Spectrum: 2048
>>>>>Begin Spectral Data<<<<<
223.165	-26.06
223.4	-26.06
223.635	-26.06
223.869	-18.06
224.104	-20.06
224.338	-21.06
224.573	-12.06
224.808	-13.06
225.042	-4.06
225.277	12.94
225.511	8.94
225.746	-9.06
225.98	-2.06
226.215	12.94
226.449	16.94
226.683	12.94
226.918	28.94
227.152	31.94
227.387	36.94
227.621	25.94
227.856	32.94
228.09	49.94
228.324	52.94
228.559	51.94
228.793	39.94
229.027	58.94
229.262	73.94
229.496	70.94
229.73	66.94
229.964	76.94
230.199	88.94
230.433	82.94
230.667	70.94
230.901	91.94
231.136	80.94
231.37	82.94
231.604	76.94
231.838	86.94
232.072	67.94
232.306	76.94
232.541	76.94
232.775	70.94
233.009	72.94
233.243	84.94
233.477	69.94
233.711	92.94
233.945	96.94
234.179	85.94
234.413	81.94
234.647	71.94
234.881	89.94
235.115	74.94
235.349	73.94
235.583	74.94
235.817	74.94
236.051	96.94
236.285	69.94
236.519	78.94
236.753	69.94
236.987	73.94
237.221	72.94
237.455	80.94
237.689	78.94
237.922	79.94
238.156	67.94
238.39	58.94
238.624	87.94
238.858	77.94
239.091	74.94
239.325	68.94
239.559	59.94
239.793	88.94
240.027	85.94
240.26	74.94
240.494	80.94
240.728	66.94
240.961	80.94
241.195	78.94
241.429	78.94
241.662	81.94
241.896	80.94
242.13	81.94
242.363	78.94
242.597	81.94
242.83	83.94
243.064	83.94
243.298	80.94
243.531	81.94
243.765	60.94
243.998	77.94
244.232	70.94
244.465	86.94
244.699	81.94
244.932	92.94
245.166	65.94
245.399	67.94
245.633	76.94
245.866	67.94
246.099	68.94
246.333	85.94
246.566	82.94
246.8	84.94
247.033	90.94
247.266	76.94
247.5	85.94
247.733	73.94
247.966	78.94
248.2	78.94
248.433	95.94
248.666	80.94
248.899	89.94
249.133	70.94
249.366	78.94
249.599	81.94
249.832	70.94
250.066	74.94
250.299	73.94
250.532	74.94
250.765	89.94
250.998	72.94
251.231	68.94
251.465	87.94
251.698	68.94
251.931	77.94
252.164	80.94
252.397	67.94
252.63	78.94
252.863	78.94
253.096	93.94
253.329	91.94
253.562	72.94
253.795	77.94
254.028	86.94
254.261	88.94
254.494	91.94
254.727	86.94
254.96	74.94
255.193	82.94
255.426	79.94
255.659	77.94
255.892	85.94
256.124	72.94
256.357	83.94
256.59	76.94
256.823	97.94
257.056	72.94
257.289	83.94
257.521	82.94
257.754	83.94
257.987	85.94
258.22	82.94
258.452	80.94
258.685	80.94
258.918	96.94
259.151	81.94
259.383	81.94
259.616	80.94
259.849	76.94
260.081	78.94
260.314	82.94
260.547	80.94
260.779	87.94
261.012	80.94
261.244	79.94
261.477	70.94
261.71	91.94
261.942	92.94
262.175	108.94
262.407	80.94
262.64	80.94
262.872	78.94
263.105	68.94
263.337	77.94
263.57	84.94
263.802	76.94
264.035	79.94
264.267	68.94
264.499	84.94
264.732	76.94
264.964	87.94
265.197	90.94
265.429	90.94
265.661	87.94
265.894	73.94
266.126	79.94
266.358	87.94
266.591	80.94
266.823	82.94
267.055	94.94
267.287	89.94
267.52	96.94
267.752	84.94
267.984	93.94
268.216	89.94
268.448	86.94
268.681	84.94
268.913	80.94
269.145	65.94
269.377	86.94
269.609	72.94
269.841	79.94
270.073	91.94
270.306	72.94
270.538	90.94
270.77	77.94
271.002	90.94
271.234	87.94
271.466	96.94
271.698	85.94
271.93	81.94
272.162	87.94
272.394	83.94
272.626	77.94
272.858	76.94
273.09	80.94
273.322	77.94
273.553	75.94
273.785	88.94
274.017	68.94
274.249	72.94
274.481	81.94
274.713	84.94
274.945	78.94
275.176	83.94
275.408	97.94
275.64	77.94
275.872	90.94
276.104	87.94
276.335	101.94
276.567	95.94
276.799	107.94
277.031	93.94
277.262	98.94
277.494	80.94
277.726	89.94
277.957	72.94
278.189	80.94
278.421	85.94
278.652	76.94
278.884	82.94
279.115	82.94
279.347	94.94
279.579	95.94
279.81	82.94
280.042	86.94
280.273	86.94
280.505	75.94
280.736	106.94
280.968	92.94
281.199	92.94
281.431	84.94
281.662	96.94
281.894	69.94
282.125	84.94
282.356	98.94
282.588	127.94
282.819	104.94
283.051	91.94
283.282	81.94
283.513	82.94
283.745	93.94
283.976	81.94
284.207	90.94
284.439	80.94
284.67	88.94
284.901	88.94
285.132	91.94
285.364	87.94
285.595	67.94
285.826	77.94
286.057	87.94
286.288	90.94
286.52	82.94
286.751	84.94
286.982	85.94
287.213	86.94
287.444	73.94
287.675	81.94
287.906	100.94
288.138	90.94
288.369	85.94
288.6	93.94
288.831	78.94
289.062	87.94
289.293	78.94
289.524	76.94
289.755	82.94
289.986	83.94
290.217	85.94
290.448	88.94
290.679	77.94
290.91	90.94
291.141	95.94
291.371	84.94
291.602	96.94
291.833	92.94
292.064	98.94
292.295	90.94
292.526	85.94
292.757	78.94
292.987	97.94
293.218	87.94
293.449	93.94
293.68	92.94
293.91	91.94
294.141	87.94
294.372	98.94
294.603	105.94
294.833	77.94
295.064	90.94
295.295	84.94
295.525	77.94
295.756	109.94
295.987	119.94
296.217	109.94
296.448	105.94
296.679	100.94
296.909	94.94
297.14	92.94
297.37	97.94
297.601	93.94
297.831	82.94
298.062	101.94
298.292	85.94
298.523	90.94
298.753	90.94
298.984	92.94
299.214	85.94
299.445	99.94
299.675	88.94
299.905	96.94
300.136	98.94
300.366	104.94
300.597	86.94
300.827	94.94
301.057	80.94
301.288	89.94
301.518	104.94
301.748	93.94
301.979	97.94
302.209	92.94
302.439	76.94
302.669	80.94
302.9	96.94
303.13	78.94
303.36	87.94
303.59	97.94
303.82	88.94
304.051	95.94
304.281	91.94
304.511	99.94
304.741	89.94
304.971	96.94
305.201	97.94
305.431	109.94
305.661	92.94
305.891	87.94
306.121	110.94
306.352	93.94
306.582	107.94
306.812	94.94
307.042	95.94
307.272	104.94
307.502	92.94
307.731	86.94
307.961	96.94
308.191	101.94
308.421	99.94
308.651	94.94
308.881	93.94
309.111	89.94
309.341	88.94
309.571	99.94
309.8	90.94
310.03	96.94
310.26	94.94
310.49	83.94
310.72	82.94
310.949	80.94
311.179	94.94
311.409	101.94
311.639	92.94
311.868	82.94
312.098	85.94
312.328	87.94
312.557	94.94
312.787	101.94
313.017	89.94
313.246	88.94
313.476	80.94
313.706	85.94
313.935	109.94
314.165	110.94
314.394	107.94
314.624	111.94
314.853	92.94
315.083	89.94
315.312	84.94
315.542	78.94
315.771	94.94
316.001	83.94
316.23	83.94
316.46	93.94
316.689	98.94
316.919	60.94
317.148	94.94
317.377	89.94
317.607	93.94
317.836	98.94
318.065	94.94
318.295	89.94
318.524	82.94
318.753	94.94
318.983	93.94
319.212	98.94
319.441	113.94
319.67	105.94
319.9	88.94
320.129	89.94
320.358	76.94
320.587	93.94
320.816	90.94
321.046	88.94
321.275	93.94
321.504	91.94
321.733	82.94
321.962	88.94
322.191	95.94
322.42	93.94
322.649	99.94
322.878	99.94
323.108	112.94
323.337	112.94
323.566	137.94
323.795	141.94
324.024	162.94
324.253	325.94
324.482	633.94
324.71	1277.94
324.939	1702.94
325.168	627.94
325.397	194.94
325.626	130.94
325.855	113.94
326.084	118.94
326.313	126.94
326.542	139.94
326.77	208.94
326.999	364.94
327.228	722.94
327.457	1274.94
327.686	1034.94
327.914	305.94
328.143	162.94
328.372	129.94
328.6	117.94
328.829	118.94
329.058	127.94
329.287	114.94
329.515	116.94
329.744	126.94
329.972	80.94
330.201	90.94
330.43	109.94
330.658	117.94
330.887	128.94
331.115	114.94
331.344	110.94
331.572	106.94
331.801	93.94
332.03	98.94
332.258	88.94
332.486	97.94
332.715	80.94
332.943	99.94
333.172	105.94
333.4	88.94
333.629	100.94
333.857	102.94
334.085	86.94
334.314	97.94
334.542	97.94
334.771	98.94
334.999	82.94
335.227	83.94
335.455	100.94
335.684	92.94
335.912	88.94
336.14	105.94
336.369	97.94
336.597	92.94
336.825	95.94
337.053	87.94
337.281	90.94
337.51	100.94
337.738	77.94
337.966	93.94
338.194	85.94
338.422	96.94
338.65	94.94
338.878	97.94
339.106	87.94
339.334	86.94
339.562	94.94
339.79	82.94
340.018	96.94
340.246	86.94
340.474	85.94
340.702	100.94
340.93	80.94
341.158	91.94
341.386	88.94
341.614	89.94
341.842	102.94
342.07	92.94
342.298	90.94
342.526	80.94
342.754	90.94
342.981	88.94
343.209	91.94
343.437	115.94
343.665	88.94
343.893	88.94
344.12	78.94
344.348	87.94
344.576	76.94
344.804	85.94
345.031	102.94
345.259	88.94
345.487	96.94
345.714	85.94
345.942	97.94
346.17	98.94
346.397	111.94
346.625	95.94
346.853	94.94
347.08	99.94
347.308	88.94
347.535	98.94
347.763	107.94
347.99	97.94
348.218	107.94
348.445	105.94
348.673	96.94
348.9	90.94
349.128	104.94
349.355	94.94
349.583	83.94
349.81	82.94
350.037	95.94
350.265	106.94
350.492	98.94
350.72	96.94
350.947	84.94
351.174	101.94
351.402	101.94
351.629	109.94
351.856	119.94
352.083	99.94
352.311	107.94
352.538	115.94
352.765	94.94
352.992	100.94
353.22	117.94
353.447	100.94
353.674	101.94
353.901	97.94
354.128	97.94
354.355	95.94
354.583	90.94
354.81	95.94
355.037	99.94
355.264	100.94
355.491	88.94
355.718	99.94
355.945	113.94
356.172	83.94
356.399	85.94
356.626	86.94
356.853	84.94
357.08	98.94
357.307	92.94
357.534	87.94
357.761	81.94
357.988	94.94
358.215	94.94
358.441	100.94
358.668	99.94
358.895	93.94
359.122	77.94
359.349	82.94
359.576	84.94
359.802	85.94
360.029	92.94
360.256	104.94
360.483	101.94
360.709	89.94
360.936	92.94
361.163	87.94
361.39	105.94
361.616	95.94
361.843	85.94
362.07	85.94
362.296	91.94
362.523	87.94
362.749	83.94
362.976	91.94
363.203	96.94
363.429	82.94
363.656	86.94
363.882	76.94
364.109	89.94
364.335	89.94
364.562	83.94
364.788	80.94
365.015	99.94
365.241	85.94
365.468	101.94
365.694	104.94
365.92	91.94
366.147	89.94
366.373	90.94
366.599	89.94
366.826	77.94
367.052	79.94
367.278	102.94
367.505	88.94
367.731	105.94
367.957	78.94
368.184	101.94
368.41	95.94
368.636	102.94
368.862	106.94
369.089	94.94
369.315	94.94
369.541	88.94
369.767	86.94
369.993	88.94
370.219	92.94
370.445	86.94
370.672	93.94
370.898	97.94
371.124	91.94
371.35	89.94
371.576	95.94
371.802	92.94
372.028	83.94
372.254	85.94
372.48	99.94
372.706	78.94
372.932	82.94
373.158	101.94
373.384	95.94
373.61	96.94
373.835	93.94
374.061	94.94
374.287	86.94
374.513	103.94
374.739	63.94
374.965	90.94
375.191	117.94
375.416	91.94
375.642	87.94
375.868	94.94
376.094	92.94
376.319	80.94
376.545	78.94
376.771	84.94
376.997	94.94
377.222	88.94
377.448	82.94
377.674	86.94
377.899	89.94
378.125	98.94
378.35	81.94
378.576	96.94
378.802	79.94
379.027	89.94
379.253	84.94
379.478	84.94
379.704	90.94
379.929	88.94
380.155	102.94
380.38	100.94
380.606	101.94
380.831	94.94
381.057	89.94
381.282	89.94
381.507	98.94
381.733	90.94
381.958	92.94
382.184	110.94
382.409	102.94
382.634	97.94
382.86	97.94
383.085	106.94
383.31	104.94
383.535	94.94
383.761	85.94
383.986	86.94
384.211	81.94
384.436	97.94
384.662	89.94
384.887	90.94
385.112	97.94
385.337	108.94
385.562	109.94
385.787	94.94
386.013	108.94
386.238	104.94
386.463	97.94
386.688	102.94
386.913	103.94
387.138	101.94
387.363	108.94
387.588	96.94
387.813	96.94
388.038	108.94
388.263	115.94
388.488	95.94
388.713	81.94
388.938	102.94
389.163	95.94
389.387	85.94
389.612	94.94
389.837	99.94
390.062	98.94
390.287	96.94
390.512	90.94
390.736	90.94
390.961	97.94
391.186	98.94
391.411	98.94
391.636	89.94
391.86	102.94
392.085	83.94
392.31	85.94
392.534	92.94
392.759	98.94
392.984	78.94
393.208	92.94
393.433	99.94
393.658	82.94
393.882	84.94
394.107	86.94
394.331	80.94
394.556	88.94
394.78	101.94
395.005	105.94
395.229	80.94
395.454	93.94
395.678	95.94
395.903	92.94
396.127	86.94
396.352	97.94
396.576	84.94
396.801	99.94
397.025	94.94
397.249	99.94
397.474	100.94
397.698	72.94
397.922	90.94
398.147	85.94
398.371	88.94
398.595	81.94
398.82	76.94
399.044	82.94
399.268	92.94
399.492	94.94
399.717	84.94
399.941	91.94
400.165	84.94
400.389	95.94
400.613	93.94
400.837	100.94
401.062	88.94
401.286	91.94
401.51	87.94
401.734	93.94
401.958	106.94
402.182	129.94
402.406	139.94
402.63	109.94
402.854	72.94
403.078	85.94
403.302	84.94
403.526	91.94
403.75	91.94
403.974	100.94
404.198	90.94
404.422	88.94
404.645	100.94
404.869	81.94
405.093	97.94
405.317	101.94
405.541	86.94
405.765	104.94
405.988	107.94
406.212	161.94
406.436	194.94
406.66	136.94
406.883	104.94
407.107	81.94
407.331	98.94
407.555	105.94
407.778	87.94
408.002	90.94
408.226	100.94
408.449	86.94
408.673	98.94
408.896	93.94
409.12	96.94
409.344	91.94
409.567	85.94
409.791	81.94
410.014	106.94
410.238	107.94
410.461	97.94
410.685	91.94
410.908	101.94
411.132	111.94
411.355	90.94
411.578	101.94
411.802	87.94
412.025	90.94
412.249	88.94
412.472	90.94
412.695	94.94
412.919	82.94
413.142	80.94
413.365	98.94
413.589	84.94
413.812	81.94
414.035	88.94
414.258	88.94
414.482	86.94
414.705	84.94
414.928	100.94
415.151	94.94
415.374	86.94
415.597	89.94
415.821	91.94
416.044	92.94
416.267	78.94
416.49	95.94
416.713	88.94
416.936	84.94
417.159	94.94
417.382	85.94
417.605	91.94
417.828	84.94
418.051	95.94
418.274	87.94
418.497	85.94
418.72	93.94
418.943	86.94
419.166	85.94
419.389	78.94
419.611	98.94
419.834	87.94
420.057	96.94
420.28	85.94
420.503	93.94
420.726	84.94
420.948	89.94
421.171	84.94
421.394	96.94
421.617	97.94
421.839	92.94
422.062	78.94
422.285	100.94
422.507	89.94
422.73	94.94
422.953	79.94
423.175	87.94
423.398	86.94
423.621	94.94
423.843	81.94
424.066	69.94
424.288	84.94
424.511	77.94
424.733	84.94
424.956	103.94
425.178	95.94
425.401	83.94
425.623	102.94
425.846	94.94
426.068	88.94
426.291	85.94
426.513	98.94
426.735	91.94
426.958	90.94
427.18	100.94
427.402	112.94
427.625	138.94
427.847	118.94
428.069	93.94
428.292	89.94
428.514	79.94
428.736	80.94
428.958	69.94
429.181	97.94
429.403	74.94
429.625	83.94
429.847	92.94
430.069	91.94
430.292	91.94
430.514	73.94
430.736	89.94
430.958	80.94
431.18	79.94
431.402	84.94
431.624	83.94
431.846	65.94
432.068	80.94
432.29	96.94
432.512	98.94
432.734	95.94
432.956	82.94
433.178	93.94
433.4	87.94
433.622	93.94
433.844	82.94
434.066	100.94
434.287	83.94
434.509	100.94
434.731	97.94
434.953	85.94
435.175	81.94
435.397	66.94
435.618	86.94
435.84	91.94
436.062	124.94
436.284	115.94
436.505	106.94
436.727	89.94
436.949	90.94
437.17	108.94
437.392	79.94
437.614	85.94
437.835	92.94
438.057	108.94
438.278	104.94
438.5	101.94
438.721	104.94
438.943	85.94
439.165	98.94
439.386	70.94
439.608	101.94
439.829	94.94
440.05	105.94
440.272	116.94
440.493	112.94
440.715	93.94
440.936	72.94
441.158	92.94
441.379	86.94
441.6	101.94
441.822	89.94
442.043	97.94
442.264	93.94
442.486	85.94
442.707	78.94
442.928	102.94
443.149	122.94
443.371	102.94
443.592	94.94
443.813	109.94
444.034	104.94
444.255	90.94
444.476	96.94
444.698	69.94
444.919	78.94
445.14	122.94
445.361	114.94
445.582	103.94
445.803	122.94
446.024	117.94
446.245	121.94
446.466	109.94
446.687	91.94
446.908	84.94
447.129	85.94
447.35	105.94
447.571	90.94
447.792	84.94
448.013	93.94
448.234	99.94
448.455	84.94
448.675	103.94
448.896	97.94
449.117	95.94
449.338	97.94
449.559	132.94
449.779	114.94
450	111.94
450.221	105.94
450.442	79.94
450.662	93.94
450.883	94.94
451.104	97.94
451.324	94.94
451.545	90.94
451.766	81.94
451.986	89.94
452.207	89.94
452.428	79.94
452.648	89.94
452.869	102.94
453.089	110.94
453.31	127.94
453.53	95.94
453.751	101.94
453.971	99.94
454.192	106.94
454.412	82.94
454.633	97.94
454.853	95.94
455.073	92.94
455.294	91.94
455.514	85.94
455.734	92.94
455.955	86.94
456.175	93.94
456.395	86.94
456.616	79.94
456.836	85.94
457.056	86.94
457.276	77.94
457.497	95.94
457.717	86.94
457.937	79.94
458.157	98.94
458.377	89.94
458.598	92.94
458.818	136.94
459.038	133.94
459.258	108.94
459.478	98.94
459.698	75.94
459.918	96.94
460.138	87.94
460.358	84.94
460.578	84.94
460.798	95.94
461.018	90.94
461.238	84.94
461.458	97.94
461.678	83.94
461.898	87.94
462.118	83.94
462.338	85.94
462.558	82.94
462.777	93.94
462.997	97.94
463.217	94.94
463.437	86.94
463.657	77.94
463.876	89.94
464.096	102.94
464.316	88.94
464.536	92.94
464.755	96.94
464.975	106.94
465.195	132.94
465.414	140.94
465.634	100.94
465.854	74.94
466.073	96.94
466.293	86.94
466.512	73.94
466.732	90.94
466.951	89.94
467.171	102.94
467.391	92.94
467.61	82.94
467.829	86.94
468.049	88.94
468.268	95.94
468.488	93.94
468.707	88.94
468.927	89.94
469.146	77.94
469.365	92.94
469.585	88.94
469.804	85.94
470.023	86.94
470.243	93.94
470.462	109.94
470.681	109.94
470.901	89.94
471.12	89.94
471.339	94.94
471.558	99.94
471.777	73.94
471.997	74.94
472.216	91.94
472.435	95.94
472.654	87.94
472.873	89.94
473.092	82.94
473.311	82.94
473.53	82.94
473.749	82.94
473.968	90.94
474.187	78.94
474.406	96.94
474.625	89.94
474.844	88.94
475.063	83.94
475.282	83.94
475.501	91.94
475.72	88.94
475.939	80.94
476.158	86.94
476.377	84.94
476.596	92.94
476.814	87.94
477.033	82.94
477.252	101.94
477.471	80.94
477.69	77.94
477.908	91.94
478.127	99.94
478.346	92.94
478.564	86.94
478.783	102.94
479.002	85.94
479.22	86.94
479.439	97.94
479.658	89.94
479.876	87.94
480.095	92.94
480.313	98.94
480.532	100.94
480.751	82.94
480.969	100.94
481.188	107.94
481.406	89.94
481.624	73.94
481.843	96.94
482.061	86.94
482.28	75.94
482.498	92.94
482.717	90.94
482.935	99.94
483.153	100.94
483.372	92.94
483.59	108.94
483.808	98.94
484.027	98.94
484.245	85.94
484.463	89.94
484.681	91.94
484.9	102.94
485.118	91.94
485.336	84.94
485.554	97.94
485.772	110.94
485.99	104.94
486.209	100.94
486.427	109.94
486.645	104.94
486.863	108.94
487.081	85.94
487.299	97.94
487.517	87.94
487.735	97.94
487.953	83.94
488.171	88.94
488.389	96.94
488.607	93.94
488.825	75.94
489.043	93.94
489.261	84.94
489.479	104.94
489.696	88.94
489.914	82.94
490.132	82.94
490.35	75.94
490.568	83.94
490.786	80.94
491.003	92.94
491.221	82.94
491.439	88.94
491.657	108.94
491.874	95.94
492.092	90.94
492.31	94.94
492.527	89.94
492.745	100.94
492.963	89.94
493.18	73.94
493.398	97.94
493.615	81.94
493.833	100.94
494.05	107.94
494.268	96.94
494.485	97.94
494.703	93.94
494.92	101.94
495.138	88.94
495.355	96.94
495.573	84.94
495.79	85.94
496.008	85.94
496.225	78.94
496.442	78.94
496.66	98.94
496.877	89.94
497.094	86.94
497.312	75.94
497.529	78.94
497.746	97.94
497.963	74.94
498.181	92.94
498.398	100.94
498.615	100.94
498.832	108.94
499.049	74.94
499.267	85.94
499.484	80.94
499.701	80.94
499.918	89.94
500.135	90.94
500.352	91.94
500.569	93.94
500.786	90.94
501.003	93.94
501.22	106.94
501.437	100.94
501.654	107.94
501.871	99.94
502.088	89.94
502.305	83.94
502.522	79.94
502.739	105.94
502.956	95.94
503.172	86.94
503.389	86.94
503.606	88.94
503.823	97.94
504.04	95.94
504.256	96.94
504.473	92.94
504.69	92.94
504.907	84.94
505.123	88.94
505.34	78.94
505.557	91.94
505.773	93.94
505.99	96.94
506.207	80.94
506.423	85.94
506.64	94.94
506.856	74.94
507.073	82.94
507.289	97.94
507.506	94.94
507.722	107.94
507.939	115.94
508.155	89.94
508.372	88.94
508.588	78.94
508.805	82.94
509.021	100.94
509.238	83.94
509.454	77.94
509.67	97.94
509.887	103.94
510.103	140.94
510.319	200.94
510.536	650.94
510.752	1968.94
510.968	571.94
511.184	152.94
511.401	102.94
511.617	112.94
511.833	103.94
512.049	72.94
512.265	98.94
512.481	93.94
512.698	81.94
512.914	82.94
513.13	92.94
513.346	86.94
513.562	104.94
513.778	98.94
513.994	107.94
514.21	104.94
514.426	124.94
514.642	122.94
514.858	112.94
515.074	138.94
515.29	359.94
515.506	1168.94
515.721	420.94
515.937	119.94
516.153	109.94
516.369	108.94
