Data from Uncirc_1993_H10_HRD10591_00051.txt Node
Date: Wed Jan 03 11:43:02 EST 2024
User: Yrep
Spectrometer: HR+D1059
Trigger mode: 1
Integration Time (sec): 1.000000E-1
Scans to average: 1
Electric dark correction enabled: true
Nonlinearity correction enabled: false
Boxcar width: 0
XAxis mode: Wavelengths
Number of Pixels in Spectrum: 2048
>>>>>Begin Spectral Data<<<<<
223.165	-15.94
223.4	-15.94
223.635	-15.94
223.869	-19.94
224.104	-24.94
224.338	-11.94
224.573	-15.94
224.808	4.06
225.042	-8.94
225.277	-5.94
225.511	-12.94
225.746	-5.94
225.98	8.06
226.215	17.06
226.449	13.06
226.683	13.06
226.918	35.06
227.152	32.06
227.387	34.06
227.621	35.06
227.856	40.06
228.09	42.06
228.324	57.06
228.559	55.06
228.793	61.06
229.027	59.06
229.262	73.06
229.496	58.06
229.73	75.06
229.964	70.06
230.199	85.06
230.433	79.06
230.667	82.06
230.901	89.06
231.136	84.06
231.37	69.06
231.604	72.06
231.838	82.06
232.072	66.06
232.306	67.06
232.541	80.06
232.775	82.06
233.009	91.06
233.243	91.06
233.477	86.06
233.711	87.06
233.945	85.06
234.179	82.06
234.413	86.06
234.647	74.06
234.881	74.06
235.115	75.06
235.349	82.06
235.583	69.06
235.817	76.06
236.051	82.06
236.285	62.06
236.519	72.06
236.753	71.06
236.987	92.06
237.221	84.06
237.455	91.06
237.689	74.06
237.922	76.06
238.156	70.06
238.39	72.06
238.624	55.06
238.858	78.06
239.091	76.06
239.325	79.06
239.559	78.06
239.793	77.06
240.027	78.06
240.26	75.06
240.494	88.06
240.728	82.06
240.961	84.06
241.195	75.06
241.429	57.06
241.662	94.06
241.896	78.06
242.13	75.06
242.363	85.06
242.597	65.06
242.83	76.06
243.064	85.06
243.298	90.06
243.531	78.06
243.765	97.06
243.998	73.06
244.232	77.06
244.465	88.06
244.699	83.06
244.932	84.06
245.166	85.06
245.399	77.06
245.633	75.06
245.866	87.06
246.099	70.06
246.333	82.06
246.566	76.06
246.8	60.06
247.033	73.06
247.266	78.06
247.5	77.06
247.733	89.06
247.966	86.06
248.2	82.06
248.433	72.06
248.666	70.06
248.899	84.06
249.133	85.06
249.366	102.06
249.599	97.06
249.832	84.06
250.066	72.06
250.299	74.06
250.532	88.06
250.765	85.06
250.998	76.06
251.231	85.06
251.465	84.06
251.698	80.06
251.931	91.06
252.164	74.06
252.397	84.06
252.63	74.06
252.863	82.06
253.096	74.06
253.329	89.06
253.562	81.06
253.795	80.06
254.028	74.06
254.261	92.06
254.494	78.06
254.727	81.06
254.96	76.06
255.193	78.06
255.426	85.06
255.659	70.06
255.892	85.06
256.124	69.06
256.357	88.06
256.59	84.06
256.823	76.06
257.056	72.06
257.289	73.06
257.521	94.06
257.754	85.06
257.987	80.06
258.22	90.06
258.452	77.06
258.685	82.06
258.918	66.06
259.151	83.06
259.383	82.06
259.616	90.06
259.849	79.06
260.081	97.06
260.314	79.06
260.547	85.06
260.779	81.06
261.012	89.06
261.244	76.06
261.477	91.06
261.71	97.06
261.942	94.06
262.175	106.06
262.407	94.06
262.64	74.06
262.872	96.06
263.105	95.06
263.337	96.06
263.57	81.06
263.802	75.06
264.035	89.06
264.267	92.06
264.499	95.06
264.732	78.06
264.964	87.06
265.197	79.06
265.429	81.06
265.661	78.06
265.894	85.06
266.126	92.06
266.358	82.06
266.591	85.06
266.823	83.06
267.055	76.06
267.287	78.06
267.52	88.06
267.752	89.06
267.984	78.06
268.216	71.06
268.448	89.06
268.681	85.06
268.913	90.06
269.145	80.06
269.377	93.06
269.609	79.06
269.841	82.06
270.073	82.06
270.306	76.06
270.538	67.06
270.77	101.06
271.002	80.06
271.234	92.06
271.466	82.06
271.698	77.06
271.93	85.06
272.162	80.06
272.394	95.06
272.626	80.06
272.858	89.06
273.09	104.06
273.322	83.06
273.553	85.06
273.785	77.06
274.017	80.06
274.249	77.06
274.481	87.06
274.713	74.06
274.945	67.06
275.176	78.06
275.408	84.06
275.64	80.06
275.872	75.06
276.104	96.06
276.335	78.06
276.567	97.06
276.799	103.06
277.031	90.06
277.262	94.06
277.494	85.06
277.726	90.06
277.957	88.06
278.189	84.06
278.421	101.06
278.652	82.06
278.884	90.06
279.115	82.06
279.347	89.06
279.579	96.06
279.81	96.06
280.042	91.06
280.273	100.06
280.505	90.06
280.736	95.06
280.968	64.06
281.199	83.06
281.431	80.06
281.662	84.06
281.894	94.06
282.125	101.06
282.356	110.06
282.588	134.06
282.819	91.06
283.051	88.06
283.282	84.06
283.513	84.06
283.745	97.06
283.976	67.06
284.207	106.06
284.439	88.06
284.67	85.06
284.901	102.06
285.132	80.06
285.364	75.06
285.595	92.06
285.826	84.06
286.057	78.06
286.288	93.06
286.52	86.06
286.751	76.06
286.982	78.06
287.213	98.06
287.444	94.06
287.675	90.06
287.906	93.06
288.138	77.06
288.369	86.06
288.6	86.06
288.831	83.06
289.062	76.06
289.293	78.06
289.524	80.06
289.755	89.06
289.986	77.06
290.217	77.06
290.448	76.06
290.679	85.06
290.91	82.06
291.141	94.06
291.371	91.06
291.602	94.06
291.833	79.06
292.064	86.06
292.295	88.06
292.526	79.06
292.757	80.06
292.987	82.06
293.218	93.06
293.449	76.06
293.68	88.06
293.91	88.06
294.141	85.06
294.372	102.06
294.603	79.06
294.833	69.06
295.064	80.06
295.295	94.06
295.525	93.06
295.756	102.06
295.987	101.06
296.217	128.06
296.448	104.06
296.679	99.06
296.909	85.06
297.14	82.06
297.37	88.06
297.601	96.06
297.831	90.06
298.062	80.06
298.292	79.06
298.523	85.06
298.753	83.06
298.984	92.06
299.214	89.06
299.445	86.06
299.675	108.06
299.905	97.06
300.136	92.06
300.366	97.06
300.597	85.06
300.827	104.06
301.057	96.06
301.288	100.06
301.518	95.06
301.748	81.06
301.979	94.06
302.209	94.06
302.439	89.06
302.669	86.06
302.9	74.06
303.13	80.06
303.36	86.06
303.59	90.06
303.82	111.06
304.051	91.06
304.281	99.06
304.511	91.06
304.741	79.06
304.971	76.06
305.201	78.06
305.431	82.06
305.661	89.06
305.891	97.06
306.121	90.06
306.352	91.06
306.582	93.06
306.812	87.06
307.042	80.06
307.272	94.06
307.502	93.06
307.731	89.06
307.961	92.06
308.191	88.06
308.421	87.06
308.651	91.06
308.881	81.06
309.111	97.06
309.341	106.06
309.571	72.06
309.8	88.06
310.03	104.06
310.26	91.06
310.49	102.06
310.72	74.06
310.949	78.06
311.179	82.06
311.409	91.06
311.639	98.06
311.868	101.06
312.098	93.06
312.328	75.06
312.557	90.06
312.787	103.06
313.017	114.06
313.246	107.06
313.476	89.06
313.706	81.06
313.935	90.06
314.165	103.06
314.394	104.06
314.624	84.06
314.853	100.06
315.083	91.06
315.312	94.06
315.542	81.06
315.771	98.06
316.001	80.06
316.23	82.06
316.46	87.06
316.689	79.06
316.919	86.06
317.148	93.06
317.377	84.06
317.607	80.06
317.836	92.06
318.065	94.06
318.295	101.06
318.524	83.06
318.753	100.06
318.983	98.06
319.212	98.06
319.441	115.06
319.67	106.06
319.9	93.06
320.129	88.06
320.358	84.06
320.587	100.06
320.816	97.06
321.046	93.06
321.275	83.06
321.504	87.06
321.733	85.06
321.962	92.06
322.191	100.06
322.42	97.06
322.649	101.06
322.878	107.06
323.108	104.06
323.337	102.06
323.566	116.06
323.795	138.06
324.024	186.06
324.253	323.06
324.482	680.06
324.71	1316.06
324.939	1715.06
325.168	668.06
325.397	205.06
325.626	144.06
325.855	121.06
326.084	141.06
326.313	136.06
326.542	136.06
326.77	202.06
326.999	399.06
327.228	756.06
327.457	1358.06
327.686	1050.06
327.914	308.06
328.143	160.06
328.372	154.06
328.6	113.06
328.829	115.06
329.058	124.06
329.287	116.06
329.515	107.06
329.744	97.06
329.972	90.06
330.201	93.06
330.43	111.06
330.658	107.06
330.887	116.06
331.115	114.06
331.344	73.06
331.572	101.06
331.801	95.06
332.03	89.06
332.258	93.06
332.486	86.06
332.715	93.06
332.943	93.06
333.172	106.06
333.4	81.06
333.629	100.06
333.857	110.06
334.085	101.06
334.314	101.06
334.542	96.06
334.771	99.06
334.999	87.06
335.227	86.06
335.455	83.06
335.684	94.06
335.912	85.06
336.14	92.06
336.369	108.06
336.597	98.06
336.825	103.06
337.053	91.06
337.281	77.06
337.51	78.06
337.738	94.06
337.966	100.06
338.194	88.06
338.422	87.06
338.65	96.06
338.878	88.06
339.106	93.06
339.334	97.06
339.562	80.06
339.79	92.06
340.018	94.06
340.246	101.06
340.474	92.06
340.702	102.06
340.93	91.06
341.158	84.06
341.386	107.06
341.614	92.06
341.842	94.06
342.07	102.06
342.298	96.06
342.526	85.06
342.754	93.06
342.981	97.06
343.209	90.06
343.437	99.06
343.665	88.06
343.893	81.06
344.12	86.06
344.348	99.06
344.576	106.06
344.804	90.06
345.031	90.06
345.259	76.06
345.487	102.06
345.714	96.06
345.942	84.06
346.17	82.06
346.397	103.06
346.625	87.06
346.853	81.06
347.08	83.06
347.308	96.06
347.535	86.06
347.763	94.06
347.99	113.06
348.218	98.06
348.445	97.06
348.673	100.06
348.9	94.06
349.128	95.06
349.355	92.06
349.583	82.06
349.81	94.06
350.037	96.06
350.265	109.06
350.492	102.06
350.72	101.06
350.947	90.06
351.174	102.06
351.402	109.06
351.629	98.06
351.856	98.06
352.083	106.06
352.311	96.06
352.538	88.06
352.765	91.06
352.992	105.06
353.22	99.06
353.447	121.06
353.674	91.06
353.901	104.06
354.128	95.06
354.355	82.06
354.583	82.06
354.81	93.06
355.037	92.06
355.264	93.06
355.491	83.06
355.718	91.06
355.945	81.06
356.172	92.06
356.399	102.06
356.626	89.06
356.853	81.06
357.08	78.06
357.307	78.06
357.534	76.06
357.761	88.06
357.988	102.06
358.215	99.06
358.441	90.06
358.668	96.06
358.895	87.06
359.122	99.06
359.349	84.06
359.576	94.06
359.802	107.06
360.029	99.06
360.256	99.06
360.483	111.06
360.709	89.06
360.936	102.06
361.163	97.06
361.39	95.06
361.616	96.06
361.843	82.06
362.07	92.06
362.296	110.06
362.523	96.06
362.749	102.06
362.976	96.06
363.203	86.06
363.429	83.06
363.656	77.06
363.882	75.06
364.109	89.06
364.335	93.06
364.562	74.06
364.788	90.06
365.015	104.06
365.241	102.06
365.468	108.06
365.694	97.06
365.92	95.06
366.147	93.06
366.373	86.06
366.599	78.06
366.826	93.06
367.052	80.06
367.278	90.06
367.505	92.06
367.731	97.06
367.957	94.06
368.184	101.06
368.41	108.06
368.636	108.06
368.862	109.06
369.089	109.06
369.315	95.06
369.541	99.06
369.767	88.06
369.993	83.06
370.219	86.06
370.445	86.06
370.672	95.06
370.898	97.06
371.124	93.06
371.35	91.06
371.576	82.06
371.802	86.06
372.028	85.06
372.254	91.06
372.48	96.06
372.706	92.06
372.932	79.06
373.158	104.06
373.384	103.06
373.61	94.06
373.835	78.06
374.061	85.06
374.287	73.06
374.513	89.06
374.739	88.06
374.965	96.06
375.191	85.06
375.416	104.06
375.642	96.06
375.868	100.06
376.094	94.06
376.319	88.06
376.545	77.06
376.771	96.06
376.997	99.06
377.222	92.06
377.448	98.06
377.674	96.06
377.899	85.06
378.125	96.06
378.35	83.06
378.576	99.06
378.802	90.06
379.027	83.06
379.253	91.06
379.478	89.06
379.704	97.06
379.929	99.06
380.155	98.06
380.38	99.06
380.606	83.06
380.831	99.06
381.057	93.06
381.282	81.06
381.507	107.06
381.733	101.06
381.958	99.06
382.184	115.06
382.409	94.06
382.634	92.06
382.86	88.06
383.085	85.06
383.31	108.06
383.535	112.06
383.761	103.06
383.986	100.06
384.211	101.06
384.436	103.06
384.662	109.06
384.887	92.06
385.112	113.06
385.337	101.06
385.562	105.06
385.787	107.06
386.013	118.06
386.238	102.06
386.463	90.06
386.688	105.06
386.913	89.06
387.138	112.06
387.363	104.06
387.588	114.06
387.813	101.06
388.038	106.06
388.263	100.06
388.488	93.06
388.713	99.06
388.938	87.06
389.163	89.06
389.387	90.06
389.612	94.06
389.837	93.06
390.062	87.06
390.287	89.06
390.512	101.06
390.736	92.06
390.961	89.06
391.186	97.06
391.411	100.06
391.636	94.06
391.86	85.06
392.085	83.06
392.31	99.06
392.534	96.06
392.759	91.06
392.984	97.06
393.208	99.06
393.433	88.06
393.658	87.06
393.882	97.06
394.107	102.06
394.331	78.06
394.556	75.06
394.78	81.06
395.005	101.06
395.229	80.06
395.454	83.06
395.678	103.06
395.903	98.06
396.127	93.06
396.352	86.06
396.576	90.06
396.801	76.06
397.025	89.06
397.249	101.06
397.474	89.06
397.698	96.06
397.922	85.06
398.147	92.06
398.371	86.06
398.595	82.06
398.82	76.06
399.044	86.06
399.268	89.06
399.492	98.06
399.717	102.06
399.941	97.06
400.165	70.06
400.389	74.06
400.613	84.06
400.837	89.06
401.062	91.06
401.286	98.06
401.51	80.06
401.734	97.06
401.958	111.06
402.182	112.06
402.406	151.06
402.63	111.06
402.854	101.06
403.078	81.06
403.302	109.06
403.526	92.06
403.75	86.06
403.974	82.06
404.198	75.06
404.422	79.06
404.645	91.06
404.869	91.06
405.093	93.06
405.317	88.06
405.541	86.06
405.765	91.06
405.988	120.06
406.212	172.06
406.436	200.06
406.66	148.06
406.883	101.06
407.107	103.06
407.331	83.06
407.555	112.06
407.778	100.06
408.002	84.06
408.226	90.06
408.449	66.06
408.673	74.06
408.896	87.06
409.12	76.06
409.344	90.06
409.567	96.06
409.791	80.06
410.014	87.06
410.238	93.06
410.461	90.06
410.685	95.06
410.908	96.06
411.132	100.06
411.355	99.06
411.578	86.06
411.802	81.06
412.025	91.06
412.249	85.06
412.472	95.06
412.695	85.06
412.919	94.06
413.142	81.06
413.365	84.06
413.589	92.06
413.812	83.06
414.035	92.06
414.258	101.06
414.482	89.06
414.705	88.06
414.928	91.06
415.151	109.06
415.374	82.06
415.597	88.06
415.821	94.06
416.044	93.06
416.267	87.06
416.49	85.06
416.713	87.06
416.936	77.06
417.159	79.06
417.382	83.06
417.605	94.06
417.828	90.06
418.051	84.06
418.274	96.06
418.497	88.06
418.72	73.06
418.943	79.06
419.166	98.06
419.389	102.06
419.611	81.06
419.834	93.06
420.057	88.06
420.28	84.06
420.503	78.06
420.726	95.06
420.948	84.06
421.171	87.06
421.394	96.06
421.617	73.06
421.839	97.06
422.062	96.06
422.285	82.06
422.507	115.06
422.73	93.06
422.953	88.06
423.175	107.06
423.398	98.06
423.621	83.06
423.843	91.06
424.066	90.06
424.288	116.06
424.511	95.06
424.733	96.06
424.956	98.06
425.178	97.06
425.401	106.06
425.623	108.06
425.846	102.06
426.068	66.06
426.291	83.06
426.513	97.06
426.735	90.06
426.958	85.06
427.18	108.06
427.402	130.06
427.625	132.06
427.847	114.06
428.069	101.06
428.292	85.06
428.514	92.06
428.736	88.06
428.958	79.06
429.181	88.06
429.403	91.06
429.625	82.06
429.847	89.06
430.069	106.06
430.292	99.06
430.514	81.06
430.736	101.06
430.958	97.06
431.18	90.06
431.402	90.06
431.624	96.06
431.846	78.06
432.068	94.06
432.29	90.06
432.512	90.06
432.734	85.06
432.956	88.06
433.178	84.06
433.4	99.06
433.622	94.06
433.844	101.06
434.066	88.06
434.287	102.06
434.509	80.06
434.731	97.06
434.953	87.06
435.175	95.06
435.397	88.06
435.618	93.06
435.84	93.06
436.062	102.06
436.284	105.06
436.505	100.06
436.727	84.06
436.949	77.06
437.17	90.06
437.392	84.06
437.614	95.06
437.835	95.06
438.057	125.06
438.278	107.06
438.5	92.06
438.721	113.06
438.943	95.06
439.165	95.06
439.386	82.06
439.608	82.06
439.829	96.06
440.05	100.06
440.272	137.06
440.493	98.06
440.715	89.06
440.936	76.06
441.158	92.06
441.379	84.06
441.6	72.06
441.822	89.06
442.043	89.06
442.264	102.06
442.486	91.06
442.707	98.06
442.928	110.06
443.149	127.06
443.371	122.06
443.592	95.06
443.813	111.06
444.034	98.06
444.255	90.06
444.476	90.06
444.698	86.06
444.919	85.06
445.14	137.06
445.361	115.06
445.582	96.06
445.803	134.06
446.024	116.06
446.245	113.06
446.466	110.06
446.687	81.06
446.908	92.06
447.129	87.06
447.35	83.06
447.571	96.06
447.792	94.06
448.013	95.06
448.234	102.06
448.455	103.06
448.675	111.06
448.896	92.06
449.117	76.06
449.338	81.06
449.559	107.06
449.779	125.06
450	97.06
450.221	91.06
450.442	81.06
450.662	93.06
450.883	103.06
451.104	107.06
451.324	91.06
451.545	93.06
451.766	92.06
451.986	88.06
452.207	111.06
452.428	76.06
452.648	94.06
452.869	93.06
453.089	102.06
453.31	107.06
453.53	87.06
453.751	92.06
453.971	100.06
454.192	109.06
454.412	101.06
454.633	93.06
454.853	84.06
455.073	103.06
455.294	95.06
455.514	99.06
455.734	85.06
455.955	85.06
456.175	75.06
456.395	105.06
456.616	91.06
456.836	91.06
457.056	85.06
457.276	76.06
457.497	75.06
457.717	88.06
457.937	88.06
458.157	99.06
458.377	88.06
458.598	102.06
458.818	123.06
459.038	137.06
459.258	106.06
459.478	82.06
459.698	77.06
459.918	86.06
460.138	80.06
460.358	89.06
460.578	93.06
460.798	84.06
461.018	75.06
461.238	87.06
461.458	99.06
461.678	91.06
461.898	91.06
462.118	105.06
462.338	86.06
462.558	86.06
462.777	79.06
462.997	88.06
463.217	96.06
463.437	79.06
463.657	82.06
463.876	92.06
464.096	84.06
464.316	87.06
464.536	93.06
464.755	95.06
464.975	109.06
465.195	132.06
465.414	145.06
465.634	89.06
465.854	98.06
466.073	108.06
466.293	82.06
466.512	94.06
466.732	90.06
466.951	74.06
467.171	93.06
467.391	89.06
467.61	108.06
467.829	108.06
468.049	92.06
468.268	83.06
468.488	88.06
468.707	98.06
468.927	82.06
469.146	77.06
469.365	97.06
469.585	87.06
469.804	111.06
470.023	93.06
470.243	96.06
470.462	97.06
470.681	121.06
470.901	83.06
471.12	96.06
471.339	79.06
471.558	84.06
471.777	71.06
471.997	81.06
472.216	84.06
472.435	85.06
472.654	88.06
472.873	82.06
473.092	91.06
473.311	96.06
473.53	82.06
473.749	91.06
473.968	77.06
474.187	95.06
474.406	75.06
474.625	86.06
474.844	78.06
475.063	87.06
475.282	89.06
475.501	92.06
475.72	82.06
475.939	100.06
476.158	86.06
476.377	96.06
476.596	80.06
476.814	99.06
477.033	84.06
477.252	98.06
477.471	89.06
477.69	79.06
477.908	82.06
478.127	89.06
478.346	82.06
478.564	96.06
478.783	93.06
479.002	86.06
479.22	81.06
479.439	93.06
479.658	101.06
479.876	84.06
480.095	84.06
480.313	91.06
480.532	95.06
480.751	85.06
480.969	86.06
481.188	91.06
481.406	99.06
481.624	95.06
481.843	81.06
482.061	101.06
482.28	97.06
482.498	81.06
482.717	85.06
482.935	103.06
483.153	98.06
483.372	113.06
483.59	88.06
483.808	86.06
484.027	99.06
484.245	98.06
484.463	92.06
484.681	85.06
484.9	84.06
485.118	95.06
485.336	102.06
485.554	101.06
485.772	103.06
485.99	102.06
486.209	108.06
486.427	108.06
486.645	113.06
486.863	105.06
487.081	99.06
487.299	103.06
487.517	95.06
487.735	94.06
487.953	96.06
488.171	82.06
488.389	101.06
488.607	89.06
488.825	91.06
489.043	92.06
489.261	84.06
489.479	99.06
489.696	78.06
489.914	90.06
490.132	91.06
490.35	94.06
490.568	97.06
490.786	85.06
491.003	88.06
491.221	91.06
491.439	95.06
491.657	74.06
491.874	80.06
492.092	84.06
492.31	99.06
492.527	93.06
492.745	88.06
492.963	88.06
493.18	92.06
493.398	97.06
493.615	91.06
493.833	98.06
494.05	83.06
494.268	84.06
494.485	94.06
494.703	90.06
494.92	104.06
495.138	84.06
495.355	85.06
495.573	91.06
495.79	96.06
496.008	93.06
496.225	93.06
496.442	102.06
496.66	99.06
496.877	91.06
497.094	99.06
497.312	96.06
497.529	87.06
497.746	93.06
497.963	84.06
498.181	93.06
498.398	95.06
498.615	100.06
498.832	108.06
499.049	111.06
499.267	93.06
499.484	81.06
499.701	88.06
499.918	99.06
500.135	91.06
500.352	91.06
500.569	94.06
500.786	96.06
501.003	92.06
501.22	86.06
501.437	87.06
501.654	95.06
501.871	99.06
502.088	96.06
502.305	80.06
502.522	76.06
502.739	93.06
502.956	81.06
503.172	82.06
503.389	100.06
503.606	105.06
503.823	92.06
504.04	91.06
504.256	87.06
504.473	98.06
504.69	82.06
504.907	88.06
505.123	85.06
505.34	85.06
505.557	85.06
505.773	93.06
505.99	84.06
506.207	98.06
506.423	94.06
506.64	88.06
506.856	79.06
507.073	77.06
507.289	102.06
507.506	102.06
507.722	112.06
507.939	105.06
508.155	100.06
508.372	88.06
508.588	95.06
508.805	81.06
509.021	105.06
509.238	106.06
509.454	102.06
509.67	102.06
509.887	110.06
510.103	118.06
510.319	213.06
510.536	695.06
510.752	2113.06
510.968	587.06
511.184	146.06
511.401	101.06
511.617	101.06
511.833	90.06
512.049	75.06
512.265	95.06
512.481	87.06
512.698	82.06
512.914	78.06
513.13	97.06
513.346	85.06
513.562	90.06
513.778	95.06
513.994	93.06
514.21	107.06
514.426	117.06
514.642	128.06
514.858	118.06
515.074	164.06
515.29	397.06
515.506	1288.06
515.721	469.06
515.937	132.06
516.153	101.06
