Data from Uncirc_1993_H10_HRD10591_00048.txt Node
Date: Wed Jan 03 11:43:01 EST 2024
User: Yrep
Spectrometer: HR+D1059
Trigger mode: 1
Integration Time (sec): 1.000000E-1
Scans to average: 1
Electric dark correction enabled: true
Nonlinearity correction enabled: false
Boxcar width: 0
XAxis mode: Wavelengths
Number of Pixels in Spectrum: 2048
>>>>>Begin Spectral Data<<<<<
223.165	-12.31
223.4	-12.31
223.635	-12.31
223.869	-21.31
224.104	-10.31
224.338	-19.31
224.573	-16.31
224.808	-14.31
225.042	-18.31
225.277	-17.31
225.511	-3.31
225.746	20.69
225.98	-12.31
226.215	18.69
226.449	14.69
226.683	16.69
226.918	45.69
227.152	28.69
227.387	35.69
227.621	25.69
227.856	42.69
228.09	47.69
228.324	55.69
228.559	55.69
228.793	69.69
229.027	59.69
229.262	74.69
229.496	66.69
229.73	73.69
229.964	67.69
230.199	74.69
230.433	78.69
230.667	76.69
230.901	73.69
231.136	78.69
231.37	80.69
231.604	83.69
231.838	82.69
232.072	75.69
232.306	86.69
232.541	84.69
232.775	74.69
233.009	79.69
233.243	76.69
233.477	79.69
233.711	76.69
233.945	70.69
234.179	70.69
234.413	83.69
234.647	71.69
234.881	82.69
235.115	76.69
235.349	72.69
235.583	75.69
235.817	76.69
236.051	65.69
236.285	83.69
236.519	70.69
236.753	84.69
236.987	72.69
237.221	87.69
237.455	74.69
237.689	65.69
237.922	84.69
238.156	64.69
238.39	67.69
238.624	76.69
238.858	72.69
239.091	76.69
239.325	82.69
239.559	80.69
239.793	86.69
240.027	58.69
240.26	45.69
240.494	91.69
240.728	72.69
240.961	76.69
241.195	83.69
241.429	65.69
241.662	82.69
241.896	72.69
242.13	71.69
242.363	80.69
242.597	65.69
242.83	76.69
243.064	72.69
243.298	71.69
243.531	64.69
243.765	89.69
243.998	65.69
244.232	78.69
244.465	75.69
244.699	72.69
244.932	78.69
245.166	75.69
245.399	66.69
245.633	91.69
245.866	77.69
246.099	80.69
246.333	67.69
246.566	71.69
246.8	78.69
247.033	82.69
247.266	73.69
247.5	72.69
247.733	88.69
247.966	89.69
248.2	90.69
248.433	80.69
248.666	78.69
248.899	96.69
249.133	78.69
249.366	100.69
249.599	103.69
249.832	80.69
250.066	77.69
250.299	90.69
250.532	70.69
250.765	72.69
250.998	78.69
251.231	83.69
251.465	65.69
251.698	72.69
251.931	88.69
252.164	89.69
252.397	67.69
252.63	78.69
252.863	84.69
253.096	71.69
253.329	83.69
253.562	76.69
253.795	70.69
254.028	83.69
254.261	84.69
254.494	67.69
254.727	83.69
254.96	79.69
255.193	70.69
255.426	90.69
255.659	93.69
255.892	91.69
256.124	90.69
256.357	82.69
256.59	63.69
256.823	86.69
257.056	89.69
257.289	73.69
257.521	77.69
257.754	76.69
257.987	75.69
258.22	79.69
258.452	71.69
258.685	71.69
258.918	70.69
259.151	79.69
259.383	80.69
259.616	88.69
259.849	89.69
260.081	91.69
260.314	72.69
260.547	84.69
260.779	81.69
261.012	80.69
261.244	84.69
261.477	85.69
261.71	84.69
261.942	101.69
262.175	104.69
262.407	83.69
262.64	86.69
262.872	81.69
263.105	90.69
263.337	93.69
263.57	79.69
263.802	84.69
264.035	82.69
264.267	82.69
264.499	93.69
264.732	87.69
264.964	75.69
265.197	86.69
265.429	81.69
265.661	84.69
265.894	96.69
266.126	94.69
266.358	97.69
266.591	73.69
266.823	70.69
267.055	80.69
267.287	72.69
267.52	83.69
267.752	80.69
267.984	70.69
268.216	85.69
268.448	74.69
268.681	92.69
268.913	86.69
269.145	83.69
269.377	90.69
269.609	78.69
269.841	89.69
270.073	91.69
270.306	90.69
270.538	82.69
270.77	78.69
271.002	71.69
271.234	94.69
271.466	77.69
271.698	91.69
271.93	87.69
272.162	81.69
272.394	85.69
272.626	84.69
272.858	83.69
273.09	74.69
273.322	76.69
273.553	74.69
273.785	77.69
274.017	91.69
274.249	76.69
274.481	83.69
274.713	86.69
274.945	96.69
275.176	83.69
275.408	77.69
275.64	84.69
275.872	75.69
276.104	82.69
276.335	80.69
276.567	83.69
276.799	118.69
277.031	76.69
277.262	87.69
277.494	98.69
277.726	87.69
277.957	80.69
278.189	94.69
278.421	80.69
278.652	66.69
278.884	74.69
279.115	82.69
279.347	81.69
279.579	92.69
279.81	76.69
280.042	90.69
280.273	89.69
280.505	89.69
280.736	81.69
280.968	83.69
281.199	78.69
281.431	90.69
281.662	78.69
281.894	88.69
282.125	91.69
282.356	119.69
282.588	126.69
282.819	96.69
283.051	86.69
283.282	88.69
283.513	82.69
283.745	67.69
283.976	94.69
284.207	78.69
284.439	94.69
284.67	82.69
284.901	87.69
285.132	90.69
285.364	76.69
285.595	90.69
285.826	76.69
286.057	93.69
286.288	97.69
286.52	87.69
286.751	88.69
286.982	59.69
287.213	72.69
287.444	83.69
287.675	76.69
287.906	91.69
288.138	86.69
288.369	98.69
288.6	97.69
288.831	84.69
289.062	83.69
289.293	89.69
289.524	75.69
289.755	90.69
289.986	78.69
290.217	82.69
290.448	92.69
290.679	86.69
290.91	91.69
291.141	57.69
291.371	86.69
291.602	93.69
291.833	88.69
292.064	97.69
292.295	78.69
292.526	86.69
292.757	92.69
292.987	92.69
293.218	89.69
293.449	80.69
293.68	83.69
293.91	67.69
294.141	97.69
294.372	84.69
294.603	86.69
294.833	71.69
295.064	84.69
295.295	83.69
295.525	85.69
295.756	82.69
295.987	106.69
296.217	124.69
296.448	122.69
296.679	90.69
296.909	93.69
297.14	88.69
297.37	74.69
297.601	71.69
297.831	84.69
298.062	94.69
298.292	79.69
298.523	94.69
298.753	93.69
298.984	76.69
299.214	68.69
299.445	91.69
299.675	95.69
299.905	91.69
300.136	95.69
300.366	87.69
300.597	92.69
300.827	91.69
301.057	88.69
301.288	93.69
301.518	91.69
301.748	86.69
301.979	98.69
302.209	91.69
302.439	98.69
302.669	97.69
302.9	77.69
303.13	79.69
303.36	85.69
303.59	107.69
303.82	101.69
304.051	96.69
304.281	106.69
304.511	82.69
304.741	85.69
304.971	83.69
305.201	76.69
305.431	91.69
305.661	94.69
305.891	84.69
306.121	95.69
306.352	82.69
306.582	98.69
306.812	100.69
307.042	96.69
307.272	80.69
307.502	91.69
307.731	79.69
307.961	83.69
308.191	83.69
308.421	67.69
308.651	91.69
308.881	91.69
309.111	103.69
309.341	94.69
309.571	74.69
309.8	91.69
310.03	100.69
310.26	88.69
310.49	91.69
310.72	93.69
310.949	98.69
311.179	103.69
311.409	86.69
311.639	73.69
311.868	89.69
312.098	74.69
312.328	87.69
312.557	94.69
312.787	94.69
313.017	100.69
313.246	97.69
313.476	94.69
313.706	90.69
313.935	99.69
314.165	103.69
314.394	94.69
314.624	92.69
314.853	96.69
315.083	89.69
315.312	97.69
315.542	90.69
315.771	78.69
316.001	76.69
316.23	78.69
316.46	91.69
316.689	86.69
316.919	90.69
317.148	86.69
317.377	90.69
317.607	89.69
317.836	79.69
318.065	90.69
318.295	91.69
318.524	90.69
318.753	91.69
318.983	90.69
319.212	92.69
319.441	113.69
319.67	105.69
319.9	94.69
320.129	100.69
320.358	87.69
320.587	97.69
320.816	105.69
321.046	98.69
321.275	87.69
321.504	106.69
321.733	99.69
321.962	89.69
322.191	96.69
322.42	113.69
322.649	103.69
322.878	97.69
323.108	114.69
323.337	100.69
323.566	115.69
323.795	113.69
324.024	184.69
324.253	323.69
324.482	680.69
324.71	1326.69
324.939	1712.69
325.168	672.69
325.397	208.69
325.626	135.69
325.855	131.69
326.084	127.69
326.313	110.69
326.542	154.69
326.77	194.69
326.999	375.69
327.228	774.69
327.457	1360.69
327.686	1068.69
327.914	289.69
328.143	156.69
328.372	108.69
328.6	135.69
328.829	94.69
329.058	108.69
329.287	129.69
329.515	119.69
329.744	108.69
329.972	95.69
330.201	92.69
330.43	108.69
330.658	110.69
330.887	137.69
331.115	104.69
331.344	94.69
331.572	107.69
331.801	91.69
332.03	105.69
332.258	84.69
332.486	82.69
332.715	93.69
332.943	90.69
333.172	86.69
333.4	100.69
333.629	102.69
333.857	93.69
334.085	98.69
334.314	90.69
334.542	88.69
334.771	95.69
334.999	103.69
335.227	89.69
335.455	91.69
335.684	91.69
335.912	81.69
336.14	105.69
336.369	97.69
336.597	100.69
336.825	99.69
337.053	98.69
337.281	85.69
337.51	82.69
337.738	91.69
337.966	83.69
338.194	86.69
338.422	88.69
338.65	97.69
338.878	93.69
339.106	97.69
339.334	83.69
339.562	86.69
339.79	80.69
340.018	78.69
340.246	94.69
340.474	98.69
340.702	98.69
340.93	92.69
341.158	114.69
341.386	99.69
341.614	102.69
341.842	84.69
342.07	95.69
342.298	83.69
342.526	89.69
342.754	63.69
342.981	88.69
343.209	84.69
343.437	88.69
343.665	79.69
343.893	102.69
344.12	106.69
344.348	94.69
344.576	81.69
344.804	81.69
345.031	84.69
345.259	102.69
345.487	87.69
345.714	92.69
345.942	98.69
346.17	91.69
346.397	91.69
346.625	92.69
346.853	99.69
347.08	83.69
347.308	93.69
347.535	92.69
347.763	95.69
347.99	104.69
348.218	100.69
348.445	107.69
348.673	92.69
348.9	100.69
349.128	83.69
349.355	90.69
349.583	87.69
349.81	78.69
350.037	95.69
350.265	95.69
350.492	87.69
350.72	89.69
350.947	96.69
351.174	97.69
351.402	96.69
351.629	113.69
351.856	97.69
352.083	98.69
352.311	105.69
352.538	95.69
352.765	91.69
352.992	109.69
353.22	110.69
353.447	108.69
353.674	86.69
353.901	95.69
354.128	94.69
354.355	91.69
354.583	107.69
354.81	121.69
355.037	105.69
355.264	77.69
355.491	83.69
355.718	86.69
355.945	91.69
356.172	90.69
356.399	91.69
356.626	91.69
356.853	88.69
357.08	101.69
357.307	88.69
357.534	81.69
357.761	82.69
357.988	80.69
358.215	99.69
358.441	77.69
358.668	90.69
358.895	96.69
359.122	82.69
359.349	86.69
359.576	90.69
359.802	101.69
360.029	102.69
360.256	89.69
360.483	105.69
360.709	89.69
360.936	91.69
361.163	89.69
361.39	102.69
361.616	98.69
361.843	90.69
362.07	111.69
362.296	84.69
362.523	87.69
362.749	92.69
362.976	94.69
363.203	72.69
363.429	90.69
363.656	79.69
363.882	88.69
364.109	79.69
364.335	98.69
364.562	99.69
364.788	85.69
365.015	82.69
365.241	89.69
365.468	97.69
365.694	109.69
365.92	114.69
366.147	88.69
366.373	76.69
366.599	83.69
366.826	93.69
367.052	82.69
367.278	97.69
367.505	86.69
367.731	84.69
367.957	92.69
368.184	82.69
368.41	82.69
368.636	108.69
368.862	105.69
369.089	87.69
369.315	90.69
369.541	90.69
369.767	84.69
369.993	93.69
370.219	84.69
370.445	89.69
370.672	90.69
370.898	79.69
371.124	89.69
371.35	78.69
371.576	82.69
371.802	71.69
372.028	100.69
372.254	78.69
372.48	86.69
372.706	80.69
372.932	79.69
373.158	83.69
373.384	87.69
373.61	87.69
373.835	104.69
374.061	74.69
374.287	93.69
374.513	92.69
374.739	82.69
374.965	91.69
375.191	83.69
375.416	87.69
375.642	90.69
375.868	83.69
376.094	104.69
376.319	84.69
376.545	79.69
376.771	78.69
376.997	75.69
377.222	95.69
377.448	90.69
377.674	95.69
377.899	96.69
378.125	104.69
378.35	79.69
378.576	107.69
378.802	95.69
379.027	77.69
379.253	83.69
379.478	81.69
379.704	82.69
379.929	95.69
380.155	94.69
380.38	87.69
380.606	87.69
380.831	101.69
381.057	96.69
381.282	91.69
381.507	78.69
381.733	92.69
381.958	97.69
382.184	98.69
382.409	98.69
382.634	98.69
382.86	82.69
383.085	84.69
383.31	88.69
383.535	108.69
383.761	100.69
383.986	92.69
384.211	81.69
384.436	84.69
384.662	99.69
384.887	91.69
385.112	106.69
385.337	100.69
385.562	108.69
385.787	98.69
386.013	100.69
386.238	101.69
386.463	90.69
386.688	112.69
386.913	86.69
387.138	105.69
387.363	101.69
387.588	108.69
387.813	92.69
388.038	96.69
388.263	102.69
388.488	96.69
388.713	83.69
388.938	93.69
389.163	83.69
389.387	105.69
389.612	94.69
389.837	89.69
390.062	82.69
390.287	80.69
390.512	95.69
390.736	80.69
390.961	88.69
391.186	94.69
391.411	103.69
391.636	82.69
391.86	78.69
392.085	87.69
392.31	78.69
392.534	78.69
392.759	79.69
392.984	91.69
393.208	85.69
393.433	86.69
393.658	85.69
393.882	74.69
394.107	83.69
394.331	94.69
394.556	91.69
394.78	81.69
395.005	85.69
395.229	88.69
395.454	81.69
395.678	91.69
395.903	80.69
396.127	91.69
396.352	85.69
396.576	86.69
396.801	77.69
397.025	76.69
397.249	88.69
397.474	80.69
397.698	79.69
397.922	77.69
398.147	96.69
398.371	103.69
398.595	93.69
398.82	78.69
399.044	88.69
399.268	84.69
399.492	95.69
399.717	96.69
399.941	94.69
400.165	104.69
400.389	93.69
400.613	77.69
400.837	87.69
401.062	96.69
401.286	79.69
401.51	77.69
401.734	95.69
401.958	87.69
402.182	109.69
402.406	127.69
402.63	127.69
402.854	77.69
403.078	100.69
403.302	83.69
403.526	84.69
403.75	98.69
403.974	87.69
404.198	81.69
404.422	99.69
404.645	74.69
404.869	77.69
405.093	103.69
405.317	99.69
405.541	88.69
405.765	90.69
405.988	108.69
406.212	159.69
406.436	204.69
406.66	134.69
406.883	108.69
407.107	82.69
407.331	91.69
407.555	94.69
407.778	90.69
408.002	87.69
408.226	83.69
408.449	85.69
408.673	82.69
408.896	78.69
409.12	88.69
409.344	87.69
409.567	92.69
409.791	79.69
410.014	77.69
410.238	89.69
410.461	92.69
410.685	86.69
410.908	104.69
411.132	104.69
411.355	88.69
411.578	84.69
411.802	88.69
412.025	91.69
412.249	99.69
412.472	81.69
412.695	71.69
412.919	88.69
413.142	82.69
413.365	81.69
413.589	77.69
413.812	98.69
414.035	80.69
414.258	91.69
414.482	91.69
414.705	99.69
414.928	79.69
415.151	76.69
415.374	93.69
415.597	75.69
415.821	87.69
416.044	88.69
416.267	93.69
416.49	89.69
416.713	91.69
416.936	90.69
417.159	94.69
417.382	87.69
417.605	82.69
417.828	104.69
418.051	89.69
418.274	82.69
418.497	95.69
418.72	74.69
418.943	86.69
419.166	87.69
419.389	84.69
419.611	85.69
419.834	86.69
420.057	83.69
420.28	84.69
420.503	82.69
420.726	86.69
420.948	80.69
421.171	90.69
421.394	84.69
421.617	89.69
421.839	94.69
422.062	97.69
422.285	88.69
422.507	102.69
422.73	96.69
422.953	98.69
423.175	91.69
423.398	98.69
423.621	89.69
423.843	81.69
424.066	88.69
424.288	91.69
424.511	92.69
424.733	103.69
424.956	111.69
425.178	86.69
425.401	96.69
425.623	95.69
425.846	97.69
426.068	88.69
426.291	93.69
426.513	80.69
426.735	81.69
426.958	92.69
427.18	93.69
427.402	120.69
427.625	146.69
427.847	119.69
428.069	94.69
428.292	78.69
428.514	87.69
428.736	100.69
428.958	94.69
429.181	94.69
429.403	85.69
429.625	83.69
429.847	82.69
430.069	93.69
430.292	102.69
430.514	84.69
430.736	89.69
430.958	95.69
431.18	86.69
431.402	85.69
431.624	90.69
431.846	78.69
432.068	80.69
432.29	87.69
432.512	93.69
432.734	81.69
432.956	83.69
433.178	87.69
433.4	86.69
433.622	95.69
433.844	79.69
434.066	89.69
434.287	80.69
434.509	90.69
434.731	80.69
434.953	71.69
435.175	77.69
435.397	107.69
435.618	92.69
435.84	88.69
436.062	113.69
436.284	92.69
436.505	99.69
436.727	91.69
436.949	90.69
437.17	82.69
437.392	91.69
437.614	95.69
437.835	86.69
438.057	98.69
438.278	100.69
438.5	105.69
438.721	118.69
438.943	100.69
439.165	87.69
439.386	92.69
439.608	84.69
439.829	81.69
440.05	122.69
440.272	136.69
440.493	93.69
440.715	95.69
440.936	92.69
441.158	74.69
441.379	80.69
441.6	81.69
441.822	87.69
442.043	94.69
442.264	114.69
442.486	92.69
442.707	100.69
442.928	120.69
443.149	119.69
443.371	115.69
443.592	94.69
443.813	104.69
444.034	101.69
444.255	99.69
444.476	96.69
444.698	91.69
444.919	77.69
445.14	121.69
445.361	99.69
445.582	108.69
445.803	119.69
446.024	119.69
446.245	132.69
446.466	102.69
446.687	79.69
446.908	80.69
447.129	71.69
447.35	92.69
447.571	86.69
447.792	98.69
448.013	91.69
448.234	88.69
448.455	97.69
448.675	92.69
448.896	111.69
449.117	93.69
449.338	95.69
449.559	112.69
449.779	120.69
450	97.69
450.221	83.69
450.442	98.69
450.662	93.69
450.883	104.69
451.104	102.69
451.324	78.69
451.545	75.69
451.766	86.69
451.986	91.69
452.207	77.69
452.428	87.69
452.648	100.69
452.869	100.69
453.089	108.69
453.31	96.69
453.53	87.69
453.751	81.69
453.971	96.69
454.192	99.69
454.412	76.69
454.633	87.69
454.853	78.69
455.073	76.69
455.294	94.69
455.514	95.69
455.734	88.69
455.955	90.69
456.175	77.69
456.395	75.69
456.616	82.69
456.836	72.69
457.056	78.69
457.276	74.69
457.497	80.69
457.717	94.69
457.937	80.69
458.157	89.69
458.377	88.69
458.598	92.69
458.818	123.69
459.038	143.69
459.258	124.69
459.478	82.69
459.698	94.69
459.918	80.69
460.138	95.69
460.358	81.69
460.578	96.69
460.798	102.69
461.018	82.69
461.238	94.69
461.458	94.69
461.678	88.69
461.898	95.69
462.118	90.69
462.338	79.69
462.558	94.69
462.777	74.69
462.997	77.69
463.217	87.69
463.437	86.69
463.657	71.69
463.876	77.69
464.096	78.69
464.316	81.69
464.536	82.69
464.755	105.69
464.975	100.69
465.195	152.69
465.414	136.69
465.634	101.69
465.854	75.69
466.073	80.69
466.293	71.69
466.512	71.69
466.732	64.69
466.951	71.69
467.171	90.69
467.391	95.69
467.61	86.69
467.829	94.69
468.049	75.69
468.268	90.69
468.488	91.69
468.707	79.69
468.927	89.69
469.146	74.69
469.365	90.69
469.585	92.69
469.804	105.69
470.023	94.69
470.243	104.69
470.462	90.69
470.681	98.69
470.901	95.69
471.12	91.69
471.339	91.69
471.558	73.69
471.777	94.69
471.997	82.69
472.216	83.69
472.435	91.69
472.654	82.69
472.873	99.69
473.092	85.69
473.311	89.69
473.53	94.69
473.749	90.69
473.968	101.69
474.187	99.69
474.406	101.69
474.625	76.69
474.844	80.69
475.063	91.69
475.282	94.69
475.501	78.69
475.72	100.69
475.939	84.69
476.158	78.69
476.377	98.69
476.596	82.69
476.814	79.69
477.033	98.69
477.252	93.69
477.471	62.69
477.69	101.69
477.908	90.69
478.127	82.69
478.346	82.69
478.564	77.69
478.783	83.69
479.002	95.69
479.22	87.69
479.439	97.69
479.658	97.69
479.876	79.69
480.095	72.69
480.313	85.69
480.532	91.69
480.751	86.69
480.969	81.69
481.188	95.69
481.406	103.69
481.624	84.69
481.843	85.69
482.061	87.69
482.28	82.69
482.498	95.69
482.717	92.69
482.935	71.69
483.153	90.69
483.372	86.69
483.59	100.69
483.808	89.69
484.027	80.69
484.245	74.69
484.463	96.69
484.681	91.69
484.9	99.69
485.118	104.69
485.336	80.69
485.554	98.69
485.772	96.69
485.99	121.69
486.209	98.69
486.427	105.69
486.645	117.69
486.863	112.69
487.081	113.69
487.299	86.69
487.517	105.69
487.735	99.69
487.953	92.69
488.171	89.69
488.389	92.69
488.607	91.69
488.825	91.69
489.043	89.69
489.261	76.69
489.479	93.69
489.696	94.69
489.914	90.69
490.132	92.69
490.35	95.69
490.568	67.69
490.786	90.69
491.003	87.69
491.221	105.69
491.439	94.69
491.657	99.69
491.874	80.69
492.092	85.69
492.31	95.69
492.527	83.69
492.745	90.69
492.963	82.69
493.18	79.69
493.398	87.69
493.615	101.69
493.833	88.69
494.05	99.69
494.268	94.69
494.485	72.69
494.703	59.69
494.92	90.69
495.138	78.69
495.355	94.69
495.573	90.69
495.79	93.69
496.008	95.69
496.225	90.69
496.442	98.69
496.66	89.69
496.877	83.69
497.094	90.69
497.312	84.69
497.529	89.69
497.746	96.69
497.963	85.69
498.181	87.69
498.398	91.69
498.615	117.69
498.832	108.69
499.049	78.69
499.267	95.69
499.484	84.69
499.701	80.69
499.918	99.69
500.135	91.69
500.352	94.69
500.569	85.69
500.786	89.69
501.003	89.69
501.22	90.69
501.437	80.69
501.654	94.69
501.871	96.69
502.088	84.69
502.305	86.69
502.522	84.69
502.739	83.69
502.956	91.69
503.172	89.69
503.389	81.69
503.606	94.69
503.823	96.69
504.04	105.69
504.256	92.69
504.473	75.69
504.69	90.69
504.907	104.69
505.123	77.69
505.34	94.69
505.557	95.69
505.773	79.69
505.99	97.69
506.207	90.69
506.423	78.69
506.64	76.69
506.856	93.69
507.073	89.69
507.289	95.69
507.506	97.69
507.722	103.69
507.939	100.69
508.155	98.69
508.372	93.69
508.588	90.69
508.805	94.69
509.021	87.69
509.238	95.69
509.454	102.69
509.67	92.69
509.887	99.69
510.103	116.69
510.319	201.69
510.536	672.69
510.752	2092.69
510.968	574.69
511.184	148.69
511.401	103.69
511.617	102.69
511.833	82.69
512.049	85.69
512.265	90.69
512.481	89.69
512.698	87.69
512.914	93.69
513.13	88.69
513.346	88.69
513.562	91.69
513.778	93.69
513.994	93.69
514.21	104.69
514.426	101.69
514.642	103.69
514.858	122.69
515.074	146.69
515.29	389.69
515.506	1262.69
515.721	472.69
515.937	126.69
516.153	95.69
516.369	104.69
516.585	99.69
516.801	98.69
