Data from Uncirc_1993_H10_HRD10591_00021.txt Node
Date: Wed Jan 03 11:42:56 EST 2024
User: Yrep
Spectrometer: HR+D1059
Trigger mode: 1
Integration Time (sec): 1.000000E-1
Scans to average: 1
Electric dark correction enabled: true
Nonlinearity correction enabled: false
Boxcar width: 0
XAxis mode: Wavelengths
Number of Pixels in Spectrum: 2048
>>>>>Begin Spectral Data<<<<<
223.165	-6.81
223.4	-6.81
223.635	-6.81
223.869	-1.81
224.104	-29.81
224.338	-9.81
224.573	-12.81
224.808	-32.81
225.042	-14.81
225.277	5.19
225.511	6.19
225.746	-8.81
225.98	-4.81
226.215	20.19
226.449	9.19
226.683	17.19
226.918	34.19
227.152	30.19
227.387	18.19
227.621	49.19
227.856	51.19
228.09	58.19
228.324	34.19
228.559	53.19
228.793	45.19
229.027	58.19
229.262	72.19
229.496	60.19
229.73	72.19
229.964	66.19
230.199	63.19
230.433	75.19
230.667	77.19
230.901	71.19
231.136	89.19
231.37	76.19
231.604	75.19
231.838	79.19
232.072	91.19
232.306	69.19
232.541	71.19
232.775	75.19
233.009	80.19
233.243	81.19
233.477	75.19
233.711	72.19
233.945	80.19
234.179	68.19
234.413	74.19
234.647	79.19
234.881	68.19
235.115	80.19
235.349	67.19
235.583	65.19
235.817	83.19
236.051	62.19
236.285	80.19
236.519	75.19
236.753	71.19
236.987	101.19
237.221	75.19
237.455	81.19
237.689	60.19
237.922	68.19
238.156	71.19
238.39	71.19
238.624	74.19
238.858	79.19
239.091	77.19
239.325	69.19
239.559	89.19
239.793	66.19
240.027	75.19
240.26	76.19
240.494	65.19
240.728	72.19
240.961	87.19
241.195	75.19
241.429	73.19
241.662	72.19
241.896	82.19
242.13	68.19
242.363	77.19
242.597	78.19
242.83	69.19
243.064	67.19
243.298	85.19
243.531	78.19
243.765	64.19
243.998	81.19
244.232	65.19
244.465	84.19
244.699	62.19
244.932	82.19
245.166	84.19
245.399	94.19
245.633	58.19
245.866	72.19
246.099	61.19
246.333	71.19
246.566	71.19
246.8	79.19
247.033	69.19
247.266	75.19
247.5	69.19
247.733	62.19
247.966	72.19
248.2	75.19
248.433	71.19
248.666	83.19
248.899	79.19
249.133	94.19
249.366	84.19
249.599	97.19
249.832	83.19
250.066	79.19
250.299	83.19
250.532	63.19
250.765	81.19
250.998	90.19
251.231	76.19
251.465	68.19
251.698	80.19
251.931	73.19
252.164	82.19
252.397	69.19
252.63	69.19
252.863	80.19
253.096	81.19
253.329	99.19
253.562	85.19
253.795	81.19
254.028	90.19
254.261	83.19
254.494	93.19
254.727	88.19
254.96	79.19
255.193	88.19
255.426	73.19
255.659	69.19
255.892	87.19
256.124	83.19
256.357	86.19
256.59	91.19
256.823	81.19
257.056	87.19
257.289	76.19
257.521	81.19
257.754	76.19
257.987	87.19
258.22	66.19
258.452	79.19
258.685	87.19
258.918	77.19
259.151	80.19
259.383	84.19
259.616	82.19
259.849	91.19
260.081	80.19
260.314	92.19
260.547	75.19
260.779	80.19
261.012	96.19
261.244	82.19
261.477	72.19
261.71	92.19
261.942	98.19
262.175	118.19
262.407	94.19
262.64	82.19
262.872	71.19
263.105	78.19
263.337	78.19
263.57	92.19
263.802	100.19
264.035	82.19
264.267	79.19
264.499	87.19
264.732	97.19
264.964	99.19
265.197	78.19
265.429	71.19
265.661	81.19
265.894	77.19
266.126	86.19
266.358	77.19
266.591	84.19
266.823	81.19
267.055	64.19
267.287	84.19
267.52	89.19
267.752	88.19
267.984	98.19
268.216	64.19
268.448	79.19
268.681	95.19
268.913	84.19
269.145	63.19
269.377	75.19
269.609	85.19
269.841	77.19
270.073	94.19
270.306	89.19
270.538	78.19
270.77	75.19
271.002	92.19
271.234	78.19
271.466	97.19
271.698	76.19
271.93	91.19
272.162	81.19
272.394	77.19
272.626	76.19
272.858	87.19
273.09	91.19
273.322	68.19
273.553	91.19
273.785	87.19
274.017	88.19
274.249	78.19
274.481	85.19
274.713	76.19
274.945	99.19
275.176	84.19
275.408	76.19
275.64	92.19
275.872	81.19
276.104	89.19
276.335	90.19
276.567	91.19
276.799	86.19
277.031	91.19
277.262	77.19
277.494	81.19
277.726	92.19
277.957	84.19
278.189	75.19
278.421	96.19
278.652	87.19
278.884	95.19
279.115	94.19
279.347	85.19
279.579	79.19
279.81	85.19
280.042	78.19
280.273	76.19
280.505	79.19
280.736	81.19
280.968	79.19
281.199	77.19
281.431	88.19
281.662	87.19
281.894	98.19
282.125	109.19
282.356	109.19
282.588	101.19
282.819	106.19
283.051	85.19
283.282	93.19
283.513	87.19
283.745	91.19
283.976	82.19
284.207	82.19
284.439	80.19
284.67	94.19
284.901	94.19
285.132	65.19
285.364	81.19
285.595	86.19
285.826	84.19
286.057	83.19
286.288	80.19
286.52	84.19
286.751	71.19
286.982	107.19
287.213	87.19
287.444	72.19
287.675	85.19
287.906	75.19
288.138	85.19
288.369	95.19
288.6	91.19
288.831	78.19
289.062	83.19
289.293	89.19
289.524	97.19
289.755	76.19
289.986	94.19
290.217	73.19
290.448	85.19
290.679	78.19
290.91	89.19
291.141	98.19
291.371	78.19
291.602	96.19
291.833	87.19
292.064	89.19
292.295	80.19
292.526	96.19
292.757	92.19
292.987	87.19
293.218	83.19
293.449	81.19
293.68	88.19
293.91	94.19
294.141	104.19
294.372	86.19
294.603	83.19
294.833	77.19
295.064	83.19
295.295	97.19
295.525	83.19
295.756	100.19
295.987	110.19
296.217	122.19
296.448	111.19
296.679	105.19
296.909	96.19
297.14	95.19
297.37	96.19
297.601	90.19
297.831	90.19
298.062	82.19
298.292	92.19
298.523	91.19
298.753	94.19
298.984	91.19
299.214	85.19
299.445	89.19
299.675	81.19
299.905	93.19
300.136	94.19
300.366	87.19
300.597	87.19
300.827	76.19
301.057	93.19
301.288	83.19
301.518	100.19
301.748	98.19
301.979	99.19
302.209	94.19
302.439	96.19
302.669	84.19
302.9	93.19
303.13	85.19
303.36	91.19
303.59	88.19
303.82	101.19
304.051	89.19
304.281	93.19
304.511	85.19
304.741	90.19
304.971	77.19
305.201	79.19
305.431	81.19
305.661	88.19
305.891	106.19
306.121	91.19
306.352	92.19
306.582	89.19
306.812	97.19
307.042	91.19
307.272	88.19
307.502	96.19
307.731	83.19
307.961	96.19
308.191	93.19
308.421	83.19
308.651	92.19
308.881	95.19
309.111	84.19
309.341	92.19
309.571	89.19
309.8	87.19
310.03	105.19
310.26	101.19
310.49	82.19
310.72	84.19
310.949	109.19
311.179	100.19
311.409	100.19
311.639	77.19
311.868	88.19
312.098	84.19
312.328	100.19
312.557	99.19
312.787	95.19
313.017	103.19
313.246	104.19
313.476	95.19
313.706	84.19
313.935	91.19
314.165	90.19
314.394	101.19
314.624	90.19
314.853	87.19
315.083	84.19
315.312	85.19
315.542	87.19
315.771	96.19
316.001	96.19
316.23	99.19
316.46	102.19
316.689	88.19
316.919	75.19
317.148	83.19
317.377	83.19
317.607	93.19
317.836	91.19
318.065	89.19
318.295	87.19
318.524	96.19
318.753	104.19
318.983	75.19
319.212	74.19
319.441	95.19
319.67	79.19
319.9	87.19
320.129	87.19
320.358	79.19
320.587	77.19
320.816	93.19
321.046	96.19
321.275	102.19
321.504	93.19
321.733	88.19
321.962	111.19
322.191	89.19
322.42	106.19
322.649	101.19
322.878	107.19
323.108	94.19
323.337	126.19
323.566	116.19
323.795	131.19
324.024	167.19
324.253	283.19
324.482	587.19
324.71	1172.19
324.939	1501.19
325.168	587.19
325.397	186.19
325.626	130.19
325.855	98.19
326.084	123.19
326.313	118.19
326.542	141.19
326.77	201.19
326.999	340.19
327.228	667.19
327.457	1146.19
327.686	948.19
327.914	271.19
328.143	170.19
328.372	124.19
328.6	115.19
328.829	107.19
329.058	95.19
329.287	101.19
329.515	117.19
329.744	92.19
329.972	99.19
330.201	83.19
330.43	98.19
330.658	112.19
330.887	114.19
331.115	104.19
331.344	80.19
331.572	90.19
331.801	91.19
332.03	94.19
332.258	86.19
332.486	71.19
332.715	103.19
332.943	83.19
333.172	99.19
333.4	93.19
333.629	99.19
333.857	108.19
334.085	89.19
334.314	92.19
334.542	95.19
334.771	93.19
334.999	88.19
335.227	96.19
335.455	92.19
335.684	108.19
335.912	89.19
336.14	98.19
336.369	103.19
336.597	96.19
336.825	99.19
337.053	83.19
337.281	92.19
337.51	98.19
337.738	85.19
337.966	97.19
338.194	103.19
338.422	104.19
338.65	96.19
338.878	92.19
339.106	91.19
339.334	97.19
339.562	101.19
339.79	87.19
340.018	83.19
340.246	76.19
340.474	91.19
340.702	93.19
340.93	90.19
341.158	82.19
341.386	91.19
341.614	114.19
341.842	84.19
342.07	83.19
342.298	83.19
342.526	99.19
342.754	99.19
342.981	94.19
343.209	93.19
343.437	91.19
343.665	83.19
343.893	91.19
344.12	92.19
344.348	93.19
344.576	94.19
344.804	83.19
345.031	91.19
345.259	79.19
345.487	98.19
345.714	105.19
345.942	99.19
346.17	90.19
346.397	92.19
346.625	93.19
346.853	82.19
347.08	97.19
347.308	98.19
347.535	91.19
347.763	95.19
347.99	89.19
348.218	113.19
348.445	105.19
348.673	97.19
348.9	106.19
349.128	96.19
349.355	83.19
349.583	95.19
349.81	81.19
350.037	106.19
350.265	98.19
350.492	100.19
350.72	99.19
350.947	94.19
351.174	99.19
351.402	109.19
351.629	97.19
351.856	92.19
352.083	91.19
352.311	99.19
352.538	92.19
352.765	96.19
352.992	107.19
353.22	93.19
353.447	112.19
353.674	103.19
353.901	109.19
354.128	101.19
354.355	96.19
354.583	85.19
354.81	98.19
355.037	96.19
355.264	90.19
355.491	98.19
355.718	93.19
355.945	101.19
356.172	96.19
356.399	95.19
356.626	82.19
356.853	89.19
357.08	92.19
357.307	109.19
357.534	85.19
357.761	83.19
357.988	88.19
358.215	92.19
358.441	100.19
358.668	83.19
358.895	93.19
359.122	82.19
359.349	85.19
359.576	97.19
359.802	108.19
360.029	104.19
360.256	100.19
360.483	80.19
360.709	84.19
360.936	83.19
361.163	79.19
361.39	101.19
361.616	98.19
361.843	83.19
362.07	90.19
362.296	84.19
362.523	97.19
362.749	95.19
362.976	86.19
363.203	76.19
363.429	80.19
363.656	93.19
363.882	100.19
364.109	83.19
364.335	91.19
364.562	76.19
364.788	81.19
365.015	87.19
365.241	95.19
365.468	90.19
365.694	97.19
365.92	101.19
366.147	88.19
366.373	87.19
366.599	72.19
366.826	83.19
367.052	81.19
367.278	90.19
367.505	79.19
367.731	99.19
367.957	83.19
368.184	75.19
368.41	96.19
368.636	102.19
368.862	91.19
369.089	88.19
369.315	92.19
369.541	99.19
369.767	99.19
369.993	93.19
370.219	84.19
370.445	95.19
370.672	81.19
370.898	93.19
371.124	81.19
371.35	93.19
371.576	93.19
371.802	92.19
372.028	82.19
372.254	85.19
372.48	99.19
372.706	92.19
372.932	71.19
373.158	91.19
373.384	91.19
373.61	91.19
373.835	84.19
374.061	89.19
374.287	98.19
374.513	92.19
374.739	87.19
374.965	76.19
375.191	76.19
375.416	84.19
375.642	83.19
375.868	95.19
376.094	101.19
376.319	82.19
376.545	85.19
376.771	85.19
376.997	74.19
377.222	93.19
377.448	75.19
377.674	95.19
377.899	84.19
378.125	81.19
378.35	96.19
378.576	103.19
378.802	91.19
379.027	96.19
379.253	108.19
379.478	75.19
379.704	94.19
379.929	82.19
380.155	96.19
380.38	97.19
380.606	90.19
380.831	94.19
381.057	88.19
381.282	81.19
381.507	85.19
381.733	102.19
381.958	88.19
382.184	81.19
382.409	97.19
382.634	91.19
382.86	90.19
383.085	112.19
383.31	95.19
383.535	80.19
383.761	93.19
383.986	92.19
384.211	90.19
384.436	100.19
384.662	99.19
384.887	99.19
385.112	98.19
385.337	98.19
385.562	97.19
385.787	100.19
386.013	88.19
386.238	107.19
386.463	108.19
386.688	98.19
386.913	96.19
387.138	104.19
387.363	97.19
387.588	91.19
387.813	97.19
388.038	96.19
388.263	97.19
388.488	91.19
388.713	92.19
388.938	102.19
389.163	79.19
389.387	68.19
389.612	94.19
389.837	88.19
390.062	96.19
390.287	95.19
390.512	87.19
390.736	79.19
390.961	102.19
391.186	89.19
391.411	81.19
391.636	81.19
391.86	91.19
392.085	96.19
392.31	94.19
392.534	89.19
392.759	95.19
392.984	75.19
393.208	75.19
393.433	81.19
393.658	66.19
393.882	77.19
394.107	73.19
394.331	83.19
394.556	93.19
394.78	78.19
395.005	98.19
395.229	77.19
395.454	98.19
395.678	95.19
395.903	100.19
396.127	92.19
396.352	92.19
396.576	87.19
396.801	91.19
397.025	84.19
397.249	80.19
397.474	87.19
397.698	80.19
397.922	83.19
398.147	96.19
398.371	73.19
398.595	84.19
398.82	86.19
399.044	90.19
399.268	95.19
399.492	83.19
399.717	88.19
399.941	92.19
400.165	82.19
400.389	83.19
400.613	82.19
400.837	82.19
401.062	83.19
401.286	68.19
401.51	79.19
401.734	71.19
401.958	76.19
402.182	116.19
402.406	133.19
402.63	101.19
402.854	92.19
403.078	91.19
403.302	88.19
403.526	90.19
403.75	98.19
403.974	85.19
404.198	100.19
404.422	87.19
404.645	78.19
404.869	84.19
405.093	78.19
405.317	104.19
405.541	100.19
405.765	95.19
405.988	116.19
406.212	141.19
406.436	190.19
406.66	109.19
406.883	93.19
407.107	82.19
407.331	77.19
407.555	103.19
407.778	90.19
408.002	77.19
408.226	88.19
408.449	81.19
408.673	85.19
408.896	100.19
409.12	97.19
409.344	76.19
409.567	96.19
409.791	100.19
410.014	92.19
410.238	83.19
410.461	98.19
410.685	83.19
410.908	104.19
411.132	99.19
411.355	97.19
411.578	83.19
411.802	91.19
412.025	87.19
412.249	96.19
412.472	73.19
412.695	75.19
412.919	88.19
413.142	91.19
413.365	82.19
413.589	89.19
413.812	94.19
414.035	109.19
414.258	88.19
414.482	87.19
414.705	86.19
414.928	82.19
415.151	89.19
415.374	88.19
415.597	87.19
415.821	85.19
416.044	78.19
416.267	94.19
416.49	95.19
416.713	78.19
416.936	89.19
417.159	85.19
417.382	80.19
417.605	83.19
417.828	84.19
418.051	68.19
418.274	89.19
418.497	89.19
418.72	90.19
418.943	96.19
419.166	83.19
419.389	80.19
419.611	73.19
419.834	79.19
420.057	75.19
420.28	76.19
420.503	94.19
420.726	82.19
420.948	89.19
421.171	89.19
421.394	95.19
421.617	79.19
421.839	101.19
422.062	87.19
422.285	88.19
422.507	82.19
422.73	96.19
422.953	93.19
423.175	80.19
423.398	75.19
423.621	89.19
423.843	82.19
424.066	84.19
424.288	95.19
424.511	93.19
424.733	91.19
424.956	73.19
425.178	101.19
425.401	93.19
425.623	95.19
425.846	88.19
426.068	65.19
426.291	95.19
426.513	81.19
426.735	93.19
426.958	96.19
427.18	91.19
427.402	116.19
427.625	136.19
427.847	113.19
428.069	93.19
428.292	90.19
428.514	81.19
428.736	94.19
428.958	75.19
429.181	71.19
429.403	87.19
429.625	83.19
429.847	88.19
430.069	103.19
430.292	86.19
430.514	93.19
430.736	99.19
430.958	87.19
431.18	90.19
431.402	95.19
431.624	89.19
431.846	82.19
432.068	67.19
432.29	88.19
432.512	91.19
432.734	93.19
432.956	84.19
433.178	106.19
433.4	88.19
433.622	88.19
433.844	80.19
434.066	94.19
434.287	98.19
434.509	86.19
434.731	90.19
434.953	69.19
435.175	88.19
435.397	74.19
435.618	89.19
435.84	91.19
436.062	102.19
436.284	92.19
436.505	91.19
436.727	97.19
436.949	80.19
437.17	87.19
437.392	78.19
437.614	90.19
437.835	107.19
438.057	114.19
438.278	107.19
438.5	115.19
438.721	113.19
438.943	94.19
439.165	96.19
439.386	80.19
439.608	65.19
439.829	84.19
440.05	89.19
440.272	108.19
440.493	93.19
440.715	92.19
440.936	75.19
441.158	88.19
441.379	99.19
441.6	73.19
441.822	73.19
442.043	89.19
442.264	91.19
442.486	89.19
442.707	80.19
442.928	96.19
443.149	114.19
443.371	125.19
443.592	95.19
443.813	100.19
444.034	96.19
444.255	99.19
444.476	80.19
444.698	72.19
444.919	89.19
445.14	123.19
445.361	112.19
445.582	96.19
445.803	106.19
446.024	114.19
446.245	115.19
446.466	108.19
446.687	90.19
446.908	96.19
447.129	85.19
447.35	79.19
447.571	87.19
447.792	80.19
448.013	98.19
448.234	90.19
448.455	100.19
448.675	114.19
448.896	114.19
449.117	102.19
449.338	101.19
449.559	113.19
449.779	106.19
450	93.19
450.221	79.19
450.442	85.19
450.662	98.19
450.883	87.19
451.104	113.19
451.324	101.19
451.545	81.19
451.766	83.19
451.986	81.19
452.207	86.19
452.428	81.19
452.648	98.19
452.869	105.19
453.089	87.19
453.31	96.19
453.53	91.19
453.751	72.19
453.971	105.19
454.192	112.19
454.412	83.19
454.633	91.19
454.853	77.19
455.073	74.19
455.294	73.19
455.514	98.19
455.734	83.19
455.955	75.19
456.175	93.19
456.395	78.19
456.616	76.19
456.836	100.19
457.056	91.19
457.276	98.19
457.497	89.19
457.717	76.19
457.937	84.19
458.157	79.19
458.377	92.19
458.598	96.19
458.818	127.19
459.038	142.19
459.258	92.19
459.478	83.19
459.698	88.19
459.918	90.19
460.138	82.19
460.358	88.19
460.578	79.19
460.798	87.19
461.018	82.19
461.238	77.19
461.458	71.19
461.678	80.19
461.898	91.19
462.118	93.19
462.338	91.19
462.558	98.19
462.777	83.19
462.997	90.19
463.217	74.19
463.437	88.19
463.657	78.19
463.876	93.19
464.096	83.19
464.316	99.19
464.536	78.19
464.755	100.19
464.975	97.19
465.195	119.19
465.414	133.19
465.634	95.19
465.854	86.19
466.073	84.19
466.293	92.19
466.512	81.19
466.732	65.19
466.951	84.19
467.171	86.19
467.391	95.19
467.61	111.19
467.829	102.19
468.049	87.19
468.268	81.19
468.488	99.19
468.707	99.19
468.927	73.19
469.146	83.19
469.365	94.19
469.585	78.19
469.804	88.19
470.023	76.19
470.243	80.19
470.462	95.19
470.681	95.19
470.901	85.19
471.12	75.19
471.339	87.19
471.558	82.19
471.777	83.19
471.997	83.19
472.216	90.19
472.435	81.19
472.654	96.19
472.873	85.19
473.092	85.19
473.311	92.19
473.53	80.19
473.749	89.19
473.968	88.19
474.187	89.19
474.406	88.19
474.625	79.19
474.844	81.19
475.063	75.19
475.282	81.19
475.501	96.19
475.72	101.19
475.939	84.19
476.158	90.19
476.377	79.19
476.596	70.19
476.814	80.19
477.033	90.19
477.252	81.19
477.471	96.19
477.69	96.19
477.908	84.19
478.127	98.19
478.346	84.19
478.564	91.19
478.783	95.19
479.002	83.19
479.22	81.19
479.439	99.19
479.658	101.19
479.876	83.19
480.095	77.19
480.313	81.19
480.532	92.19
480.751	89.19
480.969	84.19
481.188	91.19
481.406	82.19
481.624	88.19
481.843	100.19
482.061	84.19
482.28	81.19
482.498	81.19
482.717	90.19
482.935	83.19
483.153	82.19
483.372	80.19
483.59	100.19
483.808	79.19
484.027	97.19
484.245	77.19
484.463	100.19
484.681	101.19
484.9	97.19
485.118	91.19
485.336	84.19
485.554	93.19
485.772	91.19
485.99	97.19
486.209	101.19
486.427	102.19
486.645	94.19
486.863	98.19
487.081	95.19
487.299	97.19
487.517	101.19
487.735	86.19
487.953	88.19
488.171	87.19
488.389	79.19
488.607	92.19
488.825	96.19
489.043	85.19
489.261	89.19
489.479	94.19
489.696	86.19
489.914	85.19
490.132	82.19
490.35	93.19
490.568	95.19
490.786	97.19
491.003	87.19
491.221	105.19
491.439	81.19
491.657	81.19
491.874	89.19
492.092	89.19
492.31	86.19
492.527	80.19
492.745	92.19
492.963	92.19
493.18	99.19
493.398	79.19
493.615	82.19
493.833	88.19
494.05	88.19
494.268	80.19
494.485	87.19
494.703	80.19
494.92	81.19
495.138	72.19
495.355	86.19
495.573	83.19
495.79	91.19
496.008	92.19
496.225	108.19
496.442	98.19
496.66	93.19
496.877	94.19
497.094	95.19
497.312	89.19
497.529	84.19
497.746	95.19
497.963	91.19
498.181	78.19
498.398	103.19
498.615	91.19
498.832	93.19
499.049	77.19
499.267	85.19
499.484	77.19
499.701	84.19
499.918	93.19
500.135	84.19
500.352	84.19
500.569	100.19
500.786	82.19
501.003	98.19
501.22	88.19
501.437	98.19
501.654	87.19
501.871	100.19
502.088	103.19
502.305	88.19
502.522	92.19
502.739	72.19
502.956	91.19
503.172	89.19
503.389	91.19
503.606	84.19
503.823	93.19
504.04	95.19
504.256	94.19
504.473	84.19
504.69	90.19
504.907	78.19
505.123	85.19
505.34	88.19
505.557	85.19
505.773	104.19
505.99	108.19
506.207	76.19
506.423	81.19
506.64	93.19
506.856	104.19
507.073	93.19
507.289	96.19
507.506	89.19
507.722	101.19
507.939	103.19
508.155	89.19
508.372	90.19
508.588	74.19
508.805	85.19
509.021	96.19
509.238	91.19
509.454	103.19
509.67	94.19
509.887	111.19
510.103	108.19
510.319	177.19
510.536	613.19
510.752	1843.19
510.968	519.19
511.184	131.19
511.401	107.19
511.617	84.19
511.833	79.19
512.049	79.19
512.265	93.19
512.481	82.19
512.698	63.19
512.914	98.19
513.13	92.19
513.346	97.19
513.562	88.19
513.778	92.19
513.994	89.19
514.21	99.19
514.426	109.19
514.642	100.19
514.858	105.19
515.074	132.19
515.29	344.19
515.506	1045.19
515.721	407.19
515.937	124.19
516.153	107.19
516.369	93.19
516.585	86.19
516.801	91.19
517.016	83.19
517.232	101.19
