Data from Uncirc_1993_H10_HRD10591_00010.txt Node
Date: Wed Jan 03 11:42:54 EST 2024
User: Yrep
Spectrometer: HR+D1059
Trigger mode: 1
Integration Time (sec): 1.000000E-1
Scans to average: 1
Electric dark correction enabled: true
Nonlinearity correction enabled: false
Boxcar width: 0
XAxis mode: Wavelengths
Number of Pixels in Spectrum: 2048
>>>>>Begin Spectral Data<<<<<
223.165	-17.69
223.4	-17.69
223.635	-17.69
223.869	-22.69
224.104	-29.69
224.338	-19.69
224.573	-14.69
224.808	-11.69
225.042	4.31
225.277	-4.69
225.511	-3.69
225.746	11.31
225.98	1.31
226.215	20.31
226.449	4.31
226.683	13.31
226.918	37.31
227.152	32.31
227.387	36.31
227.621	28.31
227.856	41.31
228.09	58.31
228.324	45.31
228.559	56.31
228.793	62.31
229.027	64.31
229.262	59.31
229.496	69.31
229.73	68.31
229.964	86.31
230.199	60.31
230.433	62.31
230.667	68.31
230.901	76.31
231.136	77.31
231.37	75.31
231.604	62.31
231.838	78.31
232.072	82.31
232.306	88.31
232.541	68.31
232.775	86.31
233.009	87.31
233.243	74.31
233.477	68.31
233.711	69.31
233.945	72.31
234.179	74.31
234.413	84.31
234.647	75.31
234.881	81.31
235.115	88.31
235.349	77.31
235.583	91.31
235.817	72.31
236.051	58.31
236.285	81.31
236.519	74.31
236.753	67.31
236.987	77.31
237.221	82.31
237.455	79.31
237.689	59.31
237.922	72.31
238.156	60.31
238.39	80.31
238.624	69.31
238.858	71.31
239.091	74.31
239.325	68.31
239.559	83.31
239.793	87.31
240.027	88.31
240.26	63.31
240.494	68.31
240.728	78.31
240.961	72.31
241.195	73.31
241.429	68.31
241.662	74.31
241.896	80.31
242.13	77.31
242.363	67.31
242.597	71.31
242.83	80.31
243.064	59.31
243.298	67.31
243.531	75.31
243.765	69.31
243.998	74.31
244.232	84.31
244.465	74.31
244.699	76.31
244.932	78.31
245.166	70.31
245.399	72.31
245.633	59.31
245.866	87.31
246.099	59.31
246.333	68.31
246.566	73.31
246.8	69.31
247.033	88.31
247.266	59.31
247.5	77.31
247.733	68.31
247.966	85.31
248.2	81.31
248.433	76.31
248.666	77.31
248.899	66.31
249.133	76.31
249.366	80.31
249.599	79.31
249.832	89.31
250.066	87.31
250.299	86.31
250.532	77.31
250.765	63.31
250.998	68.31
251.231	73.31
251.465	78.31
251.698	66.31
251.931	84.31
252.164	73.31
252.397	71.31
252.63	77.31
252.863	88.31
253.096	78.31
253.329	74.31
253.562	86.31
253.795	79.31
254.028	92.31
254.261	63.31
254.494	70.31
254.727	79.31
254.96	64.31
255.193	72.31
255.426	65.31
255.659	84.31
255.892	85.31
256.124	89.31
256.357	82.31
256.59	80.31
256.823	83.31
257.056	88.31
257.289	99.31
257.521	77.31
257.754	78.31
257.987	68.31
258.22	89.31
258.452	76.31
258.685	73.31
258.918	70.31
259.151	63.31
259.383	76.31
259.616	76.31
259.849	64.31
260.081	89.31
260.314	64.31
260.547	84.31
260.779	73.31
261.012	85.31
261.244	87.31
261.477	97.31
261.71	93.31
261.942	101.31
262.175	96.31
262.407	78.31
262.64	89.31
262.872	77.31
263.105	61.31
263.337	69.31
263.57	79.31
263.802	81.31
264.035	76.31
264.267	76.31
264.499	82.31
264.732	82.31
264.964	73.31
265.197	87.31
265.429	79.31
265.661	80.31
265.894	82.31
266.126	80.31
266.358	73.31
266.591	60.31
266.823	80.31
267.055	82.31
267.287	86.31
267.52	73.31
267.752	81.31
267.984	72.31
268.216	69.31
268.448	93.31
268.681	72.31
268.913	79.31
269.145	83.31
269.377	79.31
269.609	85.31
269.841	86.31
270.073	70.31
270.306	90.31
270.538	86.31
270.77	68.31
271.002	71.31
271.234	73.31
271.466	81.31
271.698	93.31
271.93	81.31
272.162	74.31
272.394	81.31
272.626	73.31
272.858	81.31
273.09	84.31
273.322	77.31
273.553	71.31
273.785	80.31
274.017	70.31
274.249	86.31
274.481	86.31
274.713	90.31
274.945	105.31
275.176	80.31
275.408	72.31
275.64	80.31
275.872	81.31
276.104	91.31
276.335	85.31
276.567	88.31
276.799	79.31
277.031	80.31
277.262	87.31
277.494	98.31
277.726	82.31
277.957	72.31
278.189	81.31
278.421	81.31
278.652	81.31
278.884	75.31
279.115	84.31
279.347	72.31
279.579	91.31
279.81	89.31
280.042	78.31
280.273	73.31
280.505	87.31
280.736	79.31
280.968	78.31
281.199	72.31
281.431	73.31
281.662	96.31
281.894	98.31
282.125	97.31
282.356	105.31
282.588	127.31
282.819	109.31
283.051	91.31
283.282	72.31
283.513	80.31
283.745	94.31
283.976	80.31
284.207	87.31
284.439	94.31
284.67	75.31
284.901	88.31
285.132	85.31
285.364	95.31
285.595	82.31
285.826	87.31
286.057	95.31
286.288	78.31
286.52	76.31
286.751	84.31
286.982	82.31
287.213	86.31
287.444	74.31
287.675	81.31
287.906	80.31
288.138	87.31
288.369	80.31
288.6	105.31
288.831	86.31
289.062	84.31
289.293	72.31
289.524	91.31
289.755	82.31
289.986	82.31
290.217	77.31
290.448	81.31
290.679	89.31
290.91	80.31
291.141	80.31
291.371	82.31
291.602	72.31
291.833	75.31
292.064	75.31
292.295	83.31
292.526	92.31
292.757	84.31
292.987	87.31
293.218	85.31
293.449	81.31
293.68	82.31
293.91	92.31
294.141	86.31
294.372	84.31
294.603	82.31
294.833	79.31
295.064	85.31
295.295	98.31
295.525	88.31
295.756	111.31
295.987	97.31
296.217	111.31
296.448	111.31
296.679	107.31
296.909	93.31
297.14	95.31
297.37	101.31
297.601	80.31
297.831	89.31
298.062	83.31
298.292	92.31
298.523	92.31
298.753	92.31
298.984	81.31
299.214	88.31
299.445	83.31
299.675	95.31
299.905	88.31
300.136	81.31
300.366	82.31
300.597	94.31
300.827	80.31
301.057	84.31
301.288	96.31
301.518	92.31
301.748	76.31
301.979	102.31
302.209	91.31
302.439	96.31
302.669	69.31
302.9	95.31
303.13	94.31
303.36	83.31
303.59	105.31
303.82	97.31
304.051	77.31
304.281	89.31
304.511	87.31
304.741	85.31
304.971	87.31
305.201	78.31
305.431	88.31
305.661	88.31
305.891	85.31
306.121	79.31
306.352	106.31
306.582	109.31
306.812	96.31
307.042	96.31
307.272	92.31
307.502	88.31
307.731	86.31
307.961	84.31
308.191	90.31
308.421	78.31
308.651	84.31
308.881	96.31
309.111	97.31
309.341	91.31
309.571	94.31
309.8	98.31
310.03	89.31
310.26	102.31
310.49	92.31
310.72	82.31
310.949	90.31
311.179	103.31
311.409	97.31
311.639	96.31
311.868	92.31
312.098	74.31
312.328	78.31
312.557	101.31
312.787	101.31
313.017	102.31
313.246	79.31
313.476	84.31
313.706	88.31
313.935	88.31
314.165	90.31
314.394	105.31
314.624	98.31
314.853	84.31
315.083	90.31
315.312	84.31
315.542	78.31
315.771	87.31
316.001	91.31
316.23	79.31
316.46	90.31
316.689	84.31
316.919	81.31
317.148	80.31
317.377	71.31
317.607	73.31
317.836	68.31
318.065	77.31
318.295	76.31
318.524	87.31
318.753	86.31
318.983	85.31
319.212	95.31
319.441	110.31
319.67	97.31
319.9	86.31
320.129	102.31
320.358	96.31
320.587	87.31
320.816	93.31
321.046	85.31
321.275	87.31
321.504	91.31
321.733	96.31
321.962	96.31
322.191	93.31
322.42	98.31
322.649	110.31
322.878	97.31
323.108	108.31
323.337	114.31
323.566	118.31
323.795	140.31
324.024	177.31
324.253	335.31
324.482	689.31
324.71	1364.31
324.939	1734.31
325.168	656.31
325.397	211.31
325.626	138.31
325.855	114.31
326.084	106.31
326.313	114.31
326.542	128.31
326.77	207.31
326.999	379.31
327.228	740.31
327.457	1322.31
327.686	1059.31
327.914	310.31
328.143	154.31
328.372	134.31
328.6	112.31
328.829	119.31
329.058	114.31
329.287	112.31
329.515	100.31
329.744	91.31
329.972	116.31
330.201	113.31
330.43	113.31
330.658	111.31
330.887	123.31
331.115	101.31
331.344	88.31
331.572	95.31
331.801	94.31
332.03	111.31
332.258	94.31
332.486	84.31
332.715	92.31
332.943	78.31
333.172	91.31
333.4	83.31
333.629	118.31
333.857	93.31
334.085	97.31
334.314	103.31
334.542	107.31
334.771	92.31
334.999	93.31
335.227	84.31
335.455	86.31
335.684	89.31
335.912	103.31
336.14	94.31
336.369	92.31
336.597	94.31
336.825	73.31
337.053	94.31
337.281	88.31
337.51	82.31
337.738	81.31
337.966	93.31
338.194	80.31
338.422	88.31
338.65	82.31
338.878	102.31
339.106	94.31
339.334	102.31
339.562	104.31
339.79	72.31
340.018	80.31
340.246	88.31
340.474	81.31
340.702	90.31
340.93	103.31
341.158	79.31
341.386	88.31
341.614	90.31
341.842	79.31
342.07	92.31
342.298	82.31
342.526	79.31
342.754	86.31
342.981	88.31
343.209	81.31
343.437	95.31
343.665	72.31
343.893	78.31
344.12	93.31
344.348	88.31
344.576	92.31
344.804	81.31
345.031	85.31
345.259	78.31
345.487	74.31
345.714	90.31
345.942	77.31
346.17	87.31
346.397	93.31
346.625	80.31
346.853	88.31
347.08	97.31
347.308	86.31
347.535	88.31
347.763	86.31
347.99	86.31
348.218	89.31
348.445	105.31
348.673	85.31
348.9	93.31
349.128	71.31
349.355	83.31
349.583	85.31
349.81	76.31
350.037	101.31
350.265	89.31
350.492	87.31
350.72	92.31
350.947	101.31
351.174	102.31
351.402	113.31
351.629	102.31
351.856	98.31
352.083	96.31
352.311	93.31
352.538	112.31
352.765	90.31
352.992	117.31
353.22	98.31
353.447	103.31
353.674	106.31
353.901	92.31
354.128	95.31
354.355	103.31
354.583	103.31
354.81	96.31
355.037	104.31
355.264	89.31
355.491	96.31
355.718	91.31
355.945	102.31
356.172	93.31
356.399	91.31
356.626	81.31
356.853	77.31
357.08	82.31
357.307	87.31
357.534	82.31
357.761	78.31
357.988	86.31
358.215	89.31
358.441	81.31
358.668	78.31
358.895	91.31
359.122	89.31
359.349	82.31
359.576	86.31
359.802	94.31
360.029	106.31
360.256	90.31
360.483	88.31
360.709	87.31
360.936	103.31
361.163	84.31
361.39	100.31
361.616	83.31
361.843	85.31
362.07	101.31
362.296	96.31
362.523	79.31
362.749	83.31
362.976	74.31
363.203	86.31
363.429	93.31
363.656	87.31
363.882	89.31
364.109	92.31
364.335	81.31
364.562	92.31
364.788	93.31
365.015	92.31
365.241	108.31
365.468	98.31
365.694	111.31
365.92	82.31
366.147	83.31
366.373	86.31
366.599	95.31
366.826	72.31
367.052	78.31
367.278	87.31
367.505	92.31
367.731	83.31
367.957	93.31
368.184	91.31
368.41	91.31
368.636	92.31
368.862	108.31
369.089	92.31
369.315	89.31
369.541	95.31
369.767	93.31
369.993	84.31
370.219	73.31
370.445	93.31
370.672	78.31
370.898	90.31
371.124	87.31
371.35	92.31
371.576	77.31
371.802	84.31
372.028	92.31
372.254	98.31
372.48	60.31
372.706	74.31
372.932	73.31
373.158	90.31
373.384	92.31
373.61	96.31
373.835	90.31
374.061	85.31
374.287	74.31
374.513	92.31
374.739	83.31
374.965	81.31
375.191	73.31
375.416	80.31
375.642	81.31
375.868	83.31
376.094	91.31
376.319	89.31
376.545	77.31
376.771	69.31
376.997	102.31
377.222	82.31
377.448	98.31
377.674	86.31
377.899	89.31
378.125	87.31
378.35	99.31
378.576	90.31
378.802	94.31
379.027	88.31
379.253	97.31
379.478	92.31
379.704	94.31
379.929	94.31
380.155	81.31
380.38	98.31
380.606	86.31
380.831	75.31
381.057	95.31
381.282	96.31
381.507	97.31
381.733	86.31
381.958	87.31
382.184	104.31
382.409	91.31
382.634	89.31
382.86	91.31
383.085	100.31
383.31	97.31
383.535	92.31
383.761	84.31
383.986	92.31
384.211	89.31
384.436	88.31
384.662	97.31
384.887	101.31
385.112	97.31
385.337	85.31
385.562	81.31
385.787	99.31
386.013	107.31
386.238	110.31
386.463	106.31
386.688	98.31
386.913	90.31
387.138	102.31
387.363	92.31
387.588	92.31
387.813	100.31
388.038	104.31
388.263	110.31
388.488	89.31
388.713	80.31
388.938	93.31
389.163	95.31
389.387	105.31
389.612	68.31
389.837	77.31
390.062	92.31
390.287	104.31
390.512	79.31
390.736	89.31
390.961	87.31
391.186	94.31
391.411	92.31
391.636	97.31
391.86	80.31
392.085	94.31
392.31	80.31
392.534	103.31
392.759	80.31
392.984	85.31
393.208	82.31
393.433	98.31
393.658	78.31
393.882	91.31
394.107	79.31
394.331	81.31
394.556	76.31
394.78	85.31
395.005	73.31
395.229	85.31
395.454	78.31
395.678	78.31
395.903	73.31
396.127	90.31
396.352	82.31
396.576	88.31
396.801	88.31
397.025	80.31
397.249	70.31
397.474	90.31
397.698	81.31
397.922	72.31
398.147	74.31
398.371	82.31
398.595	73.31
398.82	75.31
399.044	71.31
399.268	64.31
399.492	79.31
399.717	88.31
399.941	86.31
400.165	104.31
400.389	78.31
400.613	79.31
400.837	82.31
401.062	80.31
401.286	86.31
401.51	86.31
401.734	93.31
401.958	89.31
402.182	138.31
402.406	154.31
402.63	98.31
402.854	91.31
403.078	90.31
403.302	89.31
403.526	95.31
403.75	83.31
403.974	73.31
404.198	89.31
404.422	89.31
404.645	66.31
404.869	90.31
405.093	77.31
405.317	82.31
405.541	84.31
405.765	113.31
405.988	110.31
406.212	175.31
406.436	214.31
406.66	127.31
406.883	97.31
407.107	86.31
407.331	88.31
407.555	89.31
407.778	97.31
408.002	92.31
408.226	85.31
408.449	77.31
408.673	80.31
408.896	95.31
409.12	106.31
409.344	89.31
409.567	82.31
409.791	93.31
410.014	92.31
410.238	91.31
410.461	82.31
410.685	84.31
410.908	97.31
411.132	109.31
411.355	93.31
411.578	95.31
411.802	85.31
412.025	103.31
412.249	74.31
412.472	83.31
412.695	81.31
412.919	81.31
413.142	102.31
413.365	80.31
413.589	87.31
413.812	89.31
414.035	84.31
414.258	65.31
414.482	82.31
414.705	78.31
414.928	95.31
415.151	78.31
415.374	87.31
415.597	78.31
415.821	78.31
416.044	71.31
416.267	74.31
416.49	81.31
416.713	92.31
416.936	95.31
417.159	78.31
417.382	78.31
417.605	96.31
417.828	86.31
418.051	64.31
418.274	92.31
418.497	85.31
418.72	85.31
418.943	93.31
419.166	89.31
419.389	95.31
419.611	98.31
419.834	87.31
420.057	85.31
420.28	79.31
420.503	81.31
420.726	87.31
420.948	83.31
421.171	93.31
421.394	101.31
421.617	81.31
421.839	84.31
422.062	95.31
422.285	85.31
422.507	84.31
422.73	96.31
422.953	90.31
423.175	86.31
423.398	84.31
423.621	83.31
423.843	80.31
424.066	78.31
424.288	88.31
424.511	97.31
424.733	82.31
424.956	90.31
425.178	95.31
425.401	91.31
425.623	103.31
425.846	82.31
426.068	89.31
426.291	94.31
426.513	80.31
426.735	85.31
426.958	88.31
427.18	87.31
427.402	122.31
427.625	137.31
427.847	111.31
428.069	94.31
428.292	86.31
428.514	80.31
428.736	73.31
428.958	100.31
429.181	84.31
429.403	91.31
429.625	60.31
429.847	80.31
430.069	85.31
430.292	70.31
430.514	92.31
430.736	83.31
430.958	85.31
431.18	79.31
431.402	73.31
431.624	87.31
431.846	88.31
432.068	90.31
432.29	98.31
432.512	91.31
432.734	82.31
432.956	84.31
433.178	91.31
433.4	82.31
433.622	91.31
433.844	82.31
434.066	88.31
434.287	90.31
434.509	89.31
434.731	97.31
434.953	94.31
435.175	87.31
435.397	84.31
435.618	85.31
435.84	92.31
436.062	116.31
436.284	92.31
436.505	90.31
436.727	90.31
436.949	82.31
437.17	87.31
437.392	94.31
437.614	83.31
437.835	86.31
438.057	104.31
438.278	91.31
438.5	90.31
438.721	117.31
438.943	97.31
439.165	77.31
439.386	78.31
439.608	97.31
439.829	85.31
440.05	122.31
440.272	126.31
440.493	96.31
440.715	72.31
440.936	83.31
441.158	87.31
441.379	85.31
441.6	109.31
441.822	80.31
442.043	72.31
442.264	98.31
442.486	94.31
442.707	80.31
442.928	98.31
443.149	119.31
443.371	112.31
443.592	101.31
443.813	101.31
444.034	90.31
444.255	69.31
444.476	84.31
444.698	79.31
444.919	75.31
445.14	128.31
445.361	130.31
445.582	90.31
445.803	128.31
446.024	126.31
446.245	122.31
446.466	91.31
446.687	95.31
446.908	92.31
447.129	90.31
447.35	92.31
447.571	89.31
447.792	89.31
448.013	94.31
448.234	105.31
448.455	113.31
448.675	106.31
448.896	117.31
449.117	92.31
449.338	89.31
449.559	108.31
449.779	117.31
450	84.31
450.221	86.31
450.442	71.31
450.662	85.31
450.883	98.31
451.104	99.31
451.324	80.31
451.545	90.31
451.766	71.31
451.986	80.31
452.207	77.31
452.428	89.31
452.648	90.31
452.869	110.31
453.089	115.31
453.31	110.31
453.53	109.31
453.751	89.31
453.971	102.31
454.192	110.31
454.412	88.31
454.633	100.31
454.853	72.31
455.073	77.31
455.294	96.31
455.514	84.31
455.734	95.31
455.955	81.31
456.175	90.31
456.395	83.31
456.616	81.31
456.836	68.31
457.056	79.31
457.276	74.31
457.497	77.31
457.717	74.31
457.937	77.31
458.157	71.31
458.377	94.31
458.598	95.31
458.818	109.31
459.038	140.31
459.258	116.31
459.478	96.31
459.698	82.31
459.918	85.31
460.138	78.31
460.358	84.31
460.578	83.31
460.798	84.31
461.018	83.31
461.238	90.31
461.458	77.31
461.678	83.31
461.898	80.31
462.118	82.31
462.338	81.31
462.558	65.31
462.777	97.31
462.997	87.31
463.217	82.31
463.437	65.31
463.657	83.31
463.876	84.31
464.096	90.31
464.316	92.31
464.536	103.31
464.755	77.31
464.975	96.31
465.195	148.31
465.414	141.31
465.634	93.31
465.854	70.31
466.073	72.31
466.293	63.31
466.512	85.31
466.732	73.31
466.951	85.31
467.171	89.31
467.391	84.31
467.61	93.31
467.829	93.31
468.049	85.31
468.268	75.31
468.488	81.31
468.707	82.31
468.927	94.31
469.146	80.31
469.365	87.31
469.585	90.31
469.804	84.31
470.023	78.31
470.243	92.31
470.462	102.31
470.681	101.31
470.901	85.31
471.12	86.31
471.339	85.31
471.558	77.31
471.777	79.31
471.997	98.31
472.216	90.31
472.435	73.31
472.654	80.31
472.873	85.31
473.092	85.31
473.311	73.31
473.53	76.31
473.749	81.31
473.968	97.31
474.187	78.31
474.406	79.31
474.625	91.31
474.844	84.31
475.063	86.31
475.282	81.31
475.501	91.31
475.72	73.31
475.939	85.31
476.158	74.31
476.377	80.31
476.596	73.31
476.814	77.31
477.033	71.31
477.252	92.31
477.471	92.31
477.69	80.31
477.908	90.31
478.127	94.31
478.346	86.31
478.564	93.31
478.783	87.31
479.002	101.31
479.22	98.31
479.439	76.31
479.658	93.31
479.876	88.31
480.095	84.31
480.313	81.31
480.532	68.31
480.751	80.31
480.969	93.31
481.188	102.31
481.406	102.31
481.624	75.31
481.843	77.31
482.061	97.31
482.28	76.31
482.498	83.31
482.717	87.31
482.935	85.31
483.153	82.31
483.372	80.31
483.59	84.31
483.808	78.31
484.027	76.31
484.245	85.31
484.463	95.31
484.681	109.31
484.9	72.31
485.118	107.31
485.336	88.31
485.554	77.31
485.772	98.31
485.99	88.31
486.209	96.31
486.427	97.31
486.645	117.31
486.863	94.31
487.081	89.31
487.299	98.31
487.517	95.31
487.735	94.31
487.953	85.31
488.171	93.31
488.389	96.31
488.607	85.31
488.825	94.31
489.043	89.31
489.261	78.31
489.479	74.31
489.696	87.31
489.914	91.31
490.132	80.31
490.35	76.31
490.568	80.31
490.786	77.31
491.003	88.31
491.221	83.31
491.439	87.31
491.657	98.31
491.874	76.31
492.092	84.31
492.31	93.31
492.527	76.31
492.745	84.31
492.963	76.31
493.18	84.31
493.398	90.31
493.615	105.31
493.833	88.31
494.05	76.31
494.268	77.31
494.485	81.31
494.703	80.31
494.92	86.31
495.138	93.31
495.355	73.31
495.573	92.31
495.79	80.31
496.008	90.31
496.225	94.31
496.442	89.31
496.66	86.31
496.877	89.31
497.094	78.31
497.312	92.31
497.529	94.31
497.746	95.31
497.963	86.31
498.181	82.31
498.398	88.31
498.615	90.31
498.832	84.31
499.049	93.31
499.267	88.31
499.484	84.31
499.701	86.31
499.918	94.31
500.135	87.31
500.352	89.31
500.569	82.31
500.786	80.31
501.003	91.31
501.22	91.31
501.437	73.31
501.654	88.31
501.871	116.31
502.088	89.31
502.305	82.31
502.522	92.31
502.739	86.31
502.956	87.31
503.172	78.31
503.389	87.31
503.606	101.31
503.823	104.31
504.04	87.31
504.256	89.31
504.473	85.31
504.69	68.31
504.907	93.31
505.123	95.31
505.34	89.31
505.557	95.31
505.773	93.31
505.99	87.31
506.207	81.31
506.423	85.31
506.64	86.31
506.856	94.31
507.073	85.31
507.289	73.31
507.506	93.31
507.722	109.31
507.939	93.31
508.155	82.31
508.372	80.31
508.588	89.31
508.805	92.31
509.021	91.31
509.238	74.31
509.454	99.31
509.67	112.31
509.887	110.31
510.103	118.31
510.319	203.31
510.536	718.31
510.752	2113.31
510.968	573.31
511.184	146.31
511.401	110.31
511.617	101.31
511.833	92.31
512.049	83.31
512.265	89.31
512.481	86.31
512.698	93.31
512.914	82.31
513.13	107.31
513.346	89.31
513.562	88.31
513.778	80.31
513.994	71.31
514.21	91.31
514.426	107.31
514.642	108.31
514.858	134.31
515.074	162.31
515.29	401.31
515.506	1286.31
515.721	455.31
515.937	129.31
516.153	91.31
516.369	96.31
516.585	104.31
516.801	86.31
517.016	92.31
517.232	81.31
517.448	104.31
