Data from Uncirc_1993_H10_HRD10591_00088.txt Node
Date: Wed Jan 03 11:43:09 EST 2024
User: Yrep
Spectrometer: HR+D1059
Trigger mode: 1
Integration Time (sec): 1.000000E-1
Scans to average: 1
Electric dark correction enabled: true
Nonlinearity correction enabled: false
Boxcar width: 0
XAxis mode: Wavelengths
Number of Pixels in Spectrum: 2048
>>>>>Begin Spectral Data<<<<<
223.165	-14.56
223.4	-14.56
223.635	-14.56
223.869	-18.56
224.104	-13.56
224.338	-19.56
224.573	-13.56
224.808	-16.56
225.042	-13.56
225.277	-23.56
225.511	1.44
225.746	-4.56
225.98	6.44
226.215	13.44
226.449	23.44
226.683	14.44
226.918	39.44
227.152	39.44
227.387	52.44
227.621	34.44
227.856	43.44
228.09	38.44
228.324	43.44
228.559	65.44
228.793	67.44
229.027	63.44
229.262	76.44
229.496	53.44
229.73	89.44
229.964	81.44
230.199	67.44
230.433	75.44
230.667	70.44
230.901	79.44
231.136	71.44
231.37	76.44
231.604	68.44
231.838	70.44
232.072	89.44
232.306	89.44
232.541	88.44
232.775	76.44
233.009	79.44
233.243	86.44
233.477	84.44
233.711	69.44
233.945	81.44
234.179	77.44
234.413	81.44
234.647	82.44
234.881	70.44
235.115	75.44
235.349	71.44
235.583	81.44
235.817	87.44
236.051	79.44
236.285	76.44
236.519	67.44
236.753	75.44
236.987	84.44
237.221	97.44
237.455	76.44
237.689	81.44
237.922	86.44
238.156	77.44
238.39	84.44
238.624	84.44
238.858	73.44
239.091	64.44
239.325	82.44
239.559	61.44
239.793	83.44
240.027	83.44
240.26	78.44
240.494	70.44
240.728	70.44
240.961	74.44
241.195	74.44
241.429	74.44
241.662	78.44
241.896	80.44
242.13	80.44
242.363	78.44
242.597	70.44
242.83	89.44
243.064	73.44
243.298	89.44
243.531	93.44
243.765	81.44
243.998	74.44
244.232	71.44
244.465	89.44
244.699	72.44
244.932	85.44
245.166	75.44
245.399	79.44
245.633	69.44
245.866	86.44
246.099	70.44
246.333	73.44
246.566	78.44
246.8	75.44
247.033	90.44
247.266	67.44
247.5	75.44
247.733	83.44
247.966	81.44
248.2	72.44
248.433	95.44
248.666	84.44
248.899	74.44
249.133	95.44
249.366	97.44
249.599	98.44
249.832	79.44
250.066	79.44
250.299	69.44
250.532	65.44
250.765	84.44
250.998	83.44
251.231	66.44
251.465	93.44
251.698	70.44
251.931	78.44
252.164	79.44
252.397	84.44
252.63	85.44
252.863	69.44
253.096	79.44
253.329	77.44
253.562	94.44
253.795	79.44
254.028	73.44
254.261	81.44
254.494	87.44
254.727	75.44
254.96	79.44
255.193	80.44
255.426	89.44
255.659	93.44
255.892	88.44
256.124	83.44
256.357	87.44
256.59	81.44
256.823	64.44
257.056	95.44
257.289	83.44
257.521	93.44
257.754	70.44
257.987	80.44
258.22	73.44
258.452	84.44
258.685	82.44
258.918	74.44
259.151	90.44
259.383	84.44
259.616	86.44
259.849	82.44
260.081	77.44
260.314	74.44
260.547	85.44
260.779	71.44
261.012	90.44
261.244	89.44
261.477	78.44
261.71	78.44
261.942	108.44
262.175	98.44
262.407	80.44
262.64	70.44
262.872	78.44
263.105	86.44
263.337	70.44
263.57	83.44
263.802	71.44
264.035	69.44
264.267	67.44
264.499	80.44
264.732	84.44
264.964	82.44
265.197	73.44
265.429	96.44
265.661	88.44
265.894	81.44
266.126	69.44
266.358	61.44
266.591	87.44
266.823	97.44
267.055	90.44
267.287	85.44
267.52	85.44
267.752	85.44
267.984	82.44
268.216	68.44
268.448	92.44
268.681	79.44
268.913	80.44
269.145	57.44
269.377	79.44
269.609	89.44
269.841	81.44
270.073	92.44
270.306	82.44
270.538	90.44
270.77	77.44
271.002	80.44
271.234	81.44
271.466	77.44
271.698	79.44
271.93	88.44
272.162	98.44
272.394	80.44
272.626	84.44
272.858	96.44
273.09	97.44
273.322	98.44
273.553	77.44
273.785	83.44
274.017	101.44
274.249	99.44
274.481	77.44
274.713	66.44
274.945	81.44
275.176	79.44
275.408	71.44
275.64	91.44
275.872	94.44
276.104	83.44
276.335	98.44
276.567	85.44
276.799	98.44
277.031	73.44
277.262	84.44
277.494	92.44
277.726	99.44
277.957	62.44
278.189	73.44
278.421	91.44
278.652	75.44
278.884	82.44
279.115	92.44
279.347	99.44
279.579	77.44
279.81	85.44
280.042	81.44
280.273	84.44
280.505	84.44
280.736	99.44
280.968	81.44
281.199	92.44
281.431	103.44
281.662	91.44
281.894	83.44
282.125	102.44
282.356	113.44
282.588	143.44
282.819	107.44
283.051	83.44
283.282	93.44
283.513	87.44
283.745	104.44
283.976	98.44
284.207	87.44
284.439	95.44
284.67	89.44
284.901	79.44
285.132	89.44
285.364	81.44
285.595	83.44
285.826	94.44
286.057	75.44
286.288	86.44
286.52	93.44
286.751	99.44
286.982	101.44
287.213	93.44
287.444	78.44
287.675	89.44
287.906	83.44
288.138	85.44
288.369	87.44
288.6	90.44
288.831	96.44
289.062	100.44
289.293	101.44
289.524	74.44
289.755	81.44
289.986	88.44
290.217	103.44
290.448	77.44
290.679	85.44
290.91	82.44
291.141	96.44
291.371	102.44
291.602	78.44
291.833	93.44
292.064	89.44
292.295	87.44
292.526	86.44
292.757	66.44
292.987	80.44
293.218	83.44
293.449	87.44
293.68	84.44
293.91	83.44
294.141	97.44
294.372	82.44
294.603	86.44
294.833	94.44
295.064	103.44
295.295	86.44
295.525	85.44
295.756	96.44
295.987	95.44
296.217	124.44
296.448	108.44
296.679	93.44
296.909	93.44
297.14	89.44
297.37	70.44
297.601	87.44
297.831	79.44
298.062	91.44
298.292	103.44
298.523	106.44
298.753	98.44
298.984	97.44
299.214	93.44
299.445	85.44
299.675	90.44
299.905	89.44
300.136	90.44
300.366	105.44
300.597	92.44
300.827	78.44
301.057	100.44
301.288	100.44
301.518	85.44
301.748	100.44
301.979	104.44
302.209	93.44
302.439	92.44
302.669	96.44
302.9	92.44
303.13	89.44
303.36	98.44
303.59	113.44
303.82	111.44
304.051	106.44
304.281	81.44
304.511	79.44
304.741	99.44
304.971	86.44
305.201	92.44
305.431	84.44
305.661	80.44
305.891	90.44
306.121	89.44
306.352	115.44
306.582	94.44
306.812	74.44
307.042	91.44
307.272	88.44
307.502	97.44
307.731	90.44
307.961	89.44
308.191	87.44
308.421	92.44
308.651	93.44
308.881	78.44
309.111	98.44
309.341	103.44
309.571	92.44
309.8	88.44
310.03	108.44
310.26	90.44
310.49	108.44
310.72	104.44
310.949	78.44
311.179	104.44
311.409	96.44
311.639	85.44
311.868	99.44
312.098	100.44
312.328	102.44
312.557	97.44
312.787	90.44
313.017	83.44
313.246	76.44
313.476	81.44
313.706	83.44
313.935	92.44
314.165	98.44
314.394	96.44
314.624	97.44
314.853	88.44
315.083	95.44
315.312	93.44
315.542	100.44
315.771	98.44
316.001	108.44
316.23	105.44
316.46	93.44
316.689	95.44
316.919	100.44
317.148	93.44
317.377	93.44
317.607	87.44
317.836	82.44
318.065	96.44
318.295	95.44
318.524	82.44
318.753	95.44
318.983	97.44
319.212	95.44
319.441	97.44
319.67	93.44
319.9	86.44
320.129	91.44
320.358	91.44
320.587	103.44
320.816	88.44
321.046	93.44
321.275	92.44
321.504	76.44
321.733	90.44
321.962	94.44
322.191	92.44
322.42	87.44
322.649	114.44
322.878	101.44
323.108	103.44
323.337	118.44
323.566	135.44
323.795	157.44
324.024	176.44
324.253	321.44
324.482	632.44
324.71	1270.44
324.939	1620.44
325.168	612.44
325.397	206.44
325.626	137.44
325.855	103.44
326.084	119.44
326.313	129.44
326.542	127.44
326.77	205.44
326.999	370.44
327.228	719.44
327.457	1265.44
327.686	998.44
327.914	308.44
328.143	171.44
328.372	126.44
328.6	114.44
328.829	97.44
329.058	105.44
329.287	117.44
329.515	105.44
329.744	98.44
329.972	103.44
330.201	102.44
330.43	113.44
330.658	125.44
330.887	147.44
331.115	102.44
331.344	90.44
331.572	99.44
331.801	87.44
332.03	97.44
332.258	95.44
332.486	95.44
332.715	98.44
332.943	80.44
333.172	84.44
333.4	103.44
333.629	96.44
333.857	97.44
334.085	101.44
334.314	102.44
334.542	97.44
334.771	101.44
334.999	105.44
335.227	93.44
335.455	103.44
335.684	98.44
335.912	99.44
336.14	108.44
336.369	109.44
336.597	78.44
336.825	95.44
337.053	91.44
337.281	82.44
337.51	87.44
337.738	95.44
337.966	89.44
338.194	83.44
338.422	92.44
338.65	100.44
338.878	97.44
339.106	94.44
339.334	101.44
339.562	86.44
339.79	102.44
340.018	97.44
340.246	100.44
340.474	96.44
340.702	81.44
340.93	100.44
341.158	92.44
341.386	92.44
341.614	92.44
341.842	96.44
342.07	96.44
342.298	93.44
342.526	93.44
342.754	80.44
342.981	79.44
343.209	90.44
343.437	78.44
343.665	93.44
343.893	90.44
344.12	97.44
344.348	85.44
344.576	84.44
344.804	85.44
345.031	106.44
345.259	98.44
345.487	92.44
345.714	90.44
345.942	94.44
346.17	90.44
346.397	81.44
346.625	76.44
346.853	101.44
347.08	87.44
347.308	97.44
347.535	91.44
347.763	101.44
347.99	98.44
348.218	113.44
348.445	94.44
348.673	103.44
348.9	90.44
349.128	89.44
349.355	103.44
349.583	87.44
349.81	93.44
350.037	100.44
350.265	95.44
350.492	86.44
350.72	102.44
350.947	96.44
351.174	109.44
351.402	101.44
351.629	111.44
351.856	100.44
352.083	106.44
352.311	111.44
352.538	89.44
352.765	104.44
352.992	111.44
353.22	102.44
353.447	106.44
353.674	110.44
353.901	93.44
354.128	91.44
354.355	94.44
354.583	109.44
354.81	102.44
355.037	100.44
355.264	82.44
355.491	79.44
355.718	91.44
355.945	102.44
356.172	98.44
356.399	85.44
356.626	94.44
356.853	95.44
357.08	94.44
357.307	96.44
357.534	98.44
357.761	103.44
357.988	82.44
358.215	94.44
358.441	102.44
358.668	86.44
358.895	93.44
359.122	87.44
359.349	87.44
359.576	92.44
359.802	95.44
360.029	109.44
360.256	108.44
360.483	100.44
360.709	85.44
360.936	79.44
361.163	86.44
361.39	82.44
361.616	85.44
361.843	86.44
362.07	92.44
362.296	104.44
362.523	92.44
362.749	95.44
362.976	85.44
363.203	99.44
363.429	85.44
363.656	100.44
363.882	89.44
364.109	91.44
364.335	89.44
364.562	94.44
364.788	97.44
365.015	100.44
365.241	95.44
365.468	102.44
365.694	102.44
365.92	90.44
366.147	102.44
366.373	76.44
366.599	84.44
366.826	86.44
367.052	81.44
367.278	100.44
367.505	98.44
367.731	89.44
367.957	93.44
368.184	103.44
368.41	100.44
368.636	106.44
368.862	115.44
369.089	107.44
369.315	89.44
369.541	91.44
369.767	78.44
369.993	96.44
370.219	90.44
370.445	89.44
370.672	83.44
370.898	94.44
371.124	93.44
371.35	86.44
371.576	78.44
371.802	89.44
372.028	83.44
372.254	86.44
372.48	96.44
372.706	77.44
372.932	81.44
373.158	90.44
373.384	86.44
373.61	86.44
373.835	92.44
374.061	87.44
374.287	85.44
374.513	82.44
374.739	90.44
374.965	82.44
375.191	89.44
375.416	106.44
375.642	94.44
375.868	92.44
376.094	78.44
376.319	95.44
376.545	78.44
376.771	100.44
376.997	102.44
377.222	106.44
377.448	82.44
377.674	69.44
377.899	85.44
378.125	98.44
378.35	110.44
378.576	94.44
378.802	90.44
379.027	93.44
379.253	94.44
379.478	89.44
379.704	115.44
379.929	109.44
380.155	91.44
380.38	103.44
380.606	92.44
380.831	98.44
381.057	97.44
381.282	105.44
381.507	112.44
381.733	91.44
381.958	88.44
382.184	99.44
382.409	86.44
382.634	103.44
382.86	109.44
383.085	97.44
383.31	99.44
383.535	91.44
383.761	100.44
383.986	101.44
384.211	93.44
384.436	103.44
384.662	92.44
384.887	99.44
385.112	102.44
385.337	98.44
385.562	103.44
385.787	102.44
386.013	118.44
386.238	105.44
386.463	95.44
386.688	105.44
386.913	95.44
387.138	93.44
387.363	101.44
387.588	79.44
387.813	95.44
388.038	97.44
388.263	100.44
388.488	106.44
388.713	92.44
388.938	89.44
389.163	93.44
389.387	93.44
389.612	97.44
389.837	85.44
390.062	95.44
390.287	96.44
390.512	81.44
390.736	97.44
390.961	84.44
391.186	88.44
391.411	107.44
391.636	98.44
391.86	99.44
392.085	80.44
392.31	86.44
392.534	85.44
392.759	87.44
392.984	84.44
393.208	85.44
393.433	87.44
393.658	95.44
393.882	87.44
394.107	83.44
394.331	103.44
394.556	78.44
394.78	78.44
395.005	92.44
395.229	100.44
395.454	100.44
395.678	91.44
395.903	88.44
396.127	90.44
396.352	91.44
396.576	91.44
396.801	98.44
397.025	90.44
397.249	94.44
397.474	93.44
397.698	94.44
397.922	89.44
398.147	85.44
398.371	90.44
398.595	89.44
398.82	99.44
399.044	102.44
399.268	87.44
399.492	89.44
399.717	82.44
399.941	93.44
400.165	94.44
400.389	76.44
400.613	81.44
400.837	85.44
401.062	88.44
401.286	96.44
401.51	101.44
401.734	87.44
401.958	95.44
402.182	128.44
402.406	140.44
402.63	102.44
402.854	81.44
403.078	84.44
403.302	83.44
403.526	89.44
403.75	97.44
403.974	77.44
404.198	78.44
404.422	89.44
404.645	83.44
404.869	87.44
405.093	98.44
405.317	87.44
405.541	73.44
405.765	94.44
405.988	114.44
406.212	163.44
406.436	201.44
406.66	129.44
406.883	94.44
407.107	99.44
407.331	108.44
407.555	94.44
407.778	100.44
408.002	113.44
408.226	81.44
408.449	83.44
408.673	85.44
408.896	89.44
409.12	87.44
409.344	79.44
409.567	88.44
409.791	83.44
410.014	92.44
410.238	97.44
410.461	88.44
410.685	101.44
410.908	95.44
411.132	96.44
411.355	92.44
411.578	97.44
411.802	84.44
412.025	90.44
412.249	92.44
412.472	106.44
412.695	97.44
412.919	88.44
413.142	85.44
413.365	95.44
413.589	85.44
413.812	83.44
414.035	107.44
414.258	101.44
414.482	83.44
414.705	102.44
414.928	80.44
415.151	97.44
415.374	85.44
415.597	95.44
415.821	82.44
416.044	84.44
416.267	90.44
416.49	91.44
416.713	89.44
416.936	102.44
417.159	81.44
417.382	103.44
417.605	83.44
417.828	99.44
418.051	96.44
418.274	93.44
418.497	93.44
418.72	84.44
418.943	84.44
419.166	87.44
419.389	101.44
419.611	88.44
419.834	92.44
420.057	97.44
420.28	98.44
420.503	90.44
420.726	82.44
420.948	92.44
421.171	88.44
421.394	107.44
421.617	93.44
421.839	106.44
422.062	84.44
422.285	95.44
422.507	112.44
422.73	105.44
422.953	102.44
423.175	80.44
423.398	97.44
423.621	85.44
423.843	70.44
424.066	77.44
424.288	93.44
424.511	94.44
424.733	85.44
424.956	110.44
425.178	90.44
425.401	103.44
425.623	97.44
425.846	79.44
426.068	87.44
426.291	81.44
426.513	91.44
426.735	90.44
426.958	108.44
427.18	90.44
427.402	125.44
427.625	146.44
427.847	111.44
428.069	103.44
428.292	78.44
428.514	80.44
428.736	92.44
428.958	94.44
429.181	85.44
429.403	94.44
429.625	88.44
429.847	89.44
430.069	102.44
430.292	88.44
430.514	102.44
430.736	94.44
430.958	77.44
431.18	81.44
431.402	80.44
431.624	91.44
431.846	87.44
432.068	79.44
432.29	88.44
432.512	81.44
432.734	80.44
432.956	101.44
433.178	95.44
433.4	95.44
433.622	93.44
433.844	92.44
434.066	95.44
434.287	104.44
434.509	97.44
434.731	83.44
434.953	80.44
435.175	87.44
435.397	86.44
435.618	105.44
435.84	92.44
436.062	102.44
436.284	109.44
436.505	88.44
436.727	98.44
436.949	95.44
437.17	87.44
437.392	69.44
437.614	89.44
437.835	98.44
438.057	122.44
438.278	96.44
438.5	100.44
438.721	118.44
438.943	97.44
439.165	88.44
439.386	86.44
439.608	69.44
439.829	98.44
440.05	104.44
440.272	129.44
440.493	100.44
440.715	100.44
440.936	78.44
441.158	82.44
441.379	77.44
441.6	90.44
441.822	97.44
442.043	86.44
442.264	93.44
442.486	113.44
442.707	101.44
442.928	93.44
443.149	118.44
443.371	108.44
443.592	102.44
443.813	118.44
444.034	90.44
444.255	105.44
444.476	99.44
444.698	85.44
444.919	86.44
445.14	134.44
445.361	108.44
445.582	115.44
445.803	111.44
446.024	130.44
446.245	121.44
446.466	111.44
446.687	91.44
446.908	94.44
447.129	89.44
447.35	83.44
447.571	88.44
447.792	105.44
448.013	94.44
448.234	86.44
448.455	86.44
448.675	107.44
448.896	117.44
449.117	107.44
449.338	106.44
449.559	122.44
449.779	118.44
450	94.44
450.221	93.44
450.442	94.44
450.662	91.44
450.883	89.44
451.104	117.44
451.324	90.44
451.545	85.44
451.766	88.44
451.986	85.44
452.207	93.44
452.428	99.44
452.648	88.44
452.869	99.44
453.089	118.44
453.31	109.44
453.53	98.44
453.751	107.44
453.971	110.44
454.192	102.44
454.412	88.44
454.633	87.44
454.853	82.44
455.073	94.44
455.294	105.44
455.514	88.44
455.734	91.44
455.955	78.44
456.175	81.44
456.395	80.44
456.616	83.44
456.836	96.44
457.056	95.44
457.276	100.44
457.497	90.44
457.717	82.44
457.937	86.44
458.157	92.44
458.377	98.44
458.598	93.44
458.818	126.44
459.038	122.44
459.258	89.44
459.478	92.44
459.698	89.44
459.918	86.44
460.138	82.44
460.358	91.44
460.578	88.44
460.798	85.44
461.018	81.44
461.238	95.44
461.458	102.44
461.678	77.44
461.898	95.44
462.118	100.44
462.338	77.44
462.558	90.44
462.777	84.44
462.997	86.44
463.217	89.44
463.437	87.44
463.657	93.44
463.876	97.44
464.096	95.44
464.316	91.44
464.536	76.44
464.755	82.44
464.975	105.44
465.195	141.44
465.414	155.44
465.634	101.44
465.854	85.44
466.073	81.44
466.293	91.44
466.512	85.44
466.732	79.44
466.951	102.44
467.171	89.44
467.391	91.44
467.61	105.44
467.829	96.44
468.049	75.44
468.268	76.44
468.488	85.44
468.707	67.44
468.927	89.44
469.146	92.44
469.365	103.44
469.585	93.44
469.804	90.44
470.023	113.44
470.243	104.44
470.462	91.44
470.681	105.44
470.901	89.44
471.12	94.44
471.339	89.44
471.558	102.44
471.777	79.44
471.997	91.44
472.216	82.44
472.435	100.44
472.654	66.44
472.873	91.44
473.092	103.44
473.311	93.44
473.53	84.44
473.749	94.44
473.968	94.44
474.187	114.44
474.406	103.44
474.625	95.44
474.844	91.44
475.063	86.44
475.282	81.44
475.501	86.44
475.72	89.44
475.939	78.44
476.158	88.44
476.377	90.44
476.596	96.44
476.814	90.44
477.033	92.44
477.252	99.44
477.471	85.44
477.69	90.44
477.908	95.44
478.127	91.44
478.346	86.44
478.564	100.44
478.783	109.44
479.002	97.44
479.22	81.44
479.439	100.44
479.658	96.44
479.876	81.44
480.095	75.44
480.313	68.44
480.532	84.44
480.751	89.44
480.969	102.44
481.188	109.44
481.406	90.44
481.624	100.44
481.843	87.44
482.061	87.44
482.28	86.44
482.498	91.44
482.717	96.44
482.935	92.44
483.153	82.44
483.372	79.44
483.59	84.44
483.808	89.44
484.027	99.44
484.245	102.44
484.463	101.44
484.681	95.44
484.9	86.44
485.118	86.44
485.336	97.44
485.554	108.44
485.772	85.44
485.99	86.44
486.209	101.44
486.427	117.44
486.645	119.44
486.863	104.44
487.081	102.44
487.299	96.44
487.517	106.44
487.735	92.44
487.953	101.44
488.171	85.44
488.389	102.44
488.607	87.44
488.825	89.44
489.043	76.44
489.261	87.44
489.479	83.44
489.696	100.44
489.914	91.44
490.132	103.44
490.35	89.44
490.568	90.44
490.786	83.44
491.003	80.44
491.221	82.44
491.439	87.44
491.657	109.44
491.874	97.44
492.092	77.44
492.31	102.44
492.527	92.44
492.745	98.44
492.963	98.44
493.18	82.44
493.398	98.44
493.615	104.44
493.833	99.44
494.05	82.44
494.268	87.44
494.485	95.44
494.703	77.44
494.92	89.44
495.138	89.44
495.355	91.44
495.573	96.44
495.79	96.44
496.008	86.44
496.225	91.44
496.442	92.44
496.66	97.44
496.877	97.44
497.094	95.44
497.312	95.44
497.529	92.44
497.746	79.44
497.963	77.44
498.181	106.44
498.398	100.44
498.615	110.44
498.832	100.44
499.049	92.44
499.267	85.44
499.484	81.44
499.701	85.44
499.918	98.44
500.135	90.44
500.352	87.44
500.569	89.44
500.786	81.44
501.003	90.44
501.22	92.44
501.437	79.44
501.654	96.44
501.871	94.44
502.088	84.44
502.305	85.44
502.522	92.44
502.739	82.44
502.956	92.44
503.172	93.44
503.389	94.44
503.606	101.44
503.823	104.44
504.04	100.44
504.256	101.44
504.473	88.44
504.69	93.44
504.907	92.44
505.123	99.44
505.34	90.44
505.557	89.44
505.773	93.44
505.99	87.44
506.207	88.44
506.423	97.44
506.64	89.44
506.856	92.44
507.073	74.44
507.289	107.44
507.506	86.44
507.722	106.44
507.939	113.44
508.155	105.44
508.372	87.44
508.588	91.44
508.805	89.44
509.021	102.44
509.238	100.44
509.454	82.44
509.67	107.44
509.887	107.44
510.103	107.44
510.319	188.44
510.536	632.44
510.752	1997.44
510.968	561.44
511.184	136.44
511.401	114.44
511.617	102.44
511.833	82.44
512.049	90.44
512.265	97.44
512.481	93.44
512.698	83.44
512.914	90.44
513.13	85.44
513.346	83.44
513.562	94.44
513.778	105.44
513.994	85.44
514.21	85.44
514.426	114.44
514.642	129.44
514.858	124.44
515.074	171.44
515.29	370.44
515.506	1173.44
515.721	434.44
