Data from Uncirc_1993_H10_HRD10591_00098.txt Node
Date: Wed Jan 03 11:43:11 EST 2024
User: Yrep
Spectrometer: HR+D1059
Trigger mode: 1
Integration Time (sec): 1.000000E-1
Scans to average: 1
Electric dark correction enabled: true
Nonlinearity correction enabled: false
Boxcar width: 0
XAxis mode: Wavelengths
Number of Pixels in Spectrum: 2048
>>>>>Begin Spectral Data<<<<<
223.165	-16.88
223.4	-16.88
223.635	-16.88
223.869	-24.88
224.104	-17.88
224.338	-5.88
224.573	-19.88
224.808	-10.88
225.042	-9.88
225.277	-11.88
225.511	-4.88
225.746	16.12
225.98	12.12
226.215	-1.88
226.449	20.12
226.683	10.12
226.918	39.12
227.152	27.12
227.387	37.12
227.621	39.12
227.856	47.12
228.09	64.12
228.324	67.12
228.559	61.12
228.793	54.12
229.027	64.12
229.262	52.12
229.496	79.12
229.73	92.12
229.964	89.12
230.199	77.12
230.433	89.12
230.667	79.12
230.901	86.12
231.136	76.12
231.37	76.12
231.604	75.12
231.838	67.12
232.072	87.12
232.306	78.12
232.541	82.12
232.775	70.12
233.009	74.12
233.243	80.12
233.477	83.12
233.711	77.12
233.945	80.12
234.179	82.12
234.413	79.12
234.647	79.12
234.881	87.12
235.115	77.12
235.349	84.12
235.583	84.12
235.817	84.12
236.051	82.12
236.285	75.12
236.519	90.12
236.753	86.12
236.987	74.12
237.221	81.12
237.455	88.12
237.689	76.12
237.922	78.12
238.156	79.12
238.39	71.12
238.624	86.12
238.858	63.12
239.091	92.12
239.325	79.12
239.559	93.12
239.793	84.12
240.027	85.12
240.26	63.12
240.494	82.12
240.728	79.12
240.961	75.12
241.195	78.12
241.429	69.12
241.662	85.12
241.896	84.12
242.13	79.12
242.363	73.12
242.597	82.12
242.83	63.12
243.064	69.12
243.298	63.12
243.531	75.12
243.765	77.12
243.998	77.12
244.232	75.12
244.465	83.12
244.699	89.12
244.932	92.12
245.166	91.12
245.399	80.12
245.633	91.12
245.866	65.12
246.099	84.12
246.333	72.12
246.566	85.12
246.8	83.12
247.033	85.12
247.266	78.12
247.5	78.12
247.733	83.12
247.966	70.12
248.2	76.12
248.433	101.12
248.666	76.12
248.899	78.12
249.133	82.12
249.366	78.12
249.599	98.12
249.832	93.12
250.066	59.12
250.299	54.12
250.532	78.12
250.765	80.12
250.998	70.12
251.231	69.12
251.465	77.12
251.698	85.12
251.931	85.12
252.164	79.12
252.397	77.12
252.63	73.12
252.863	71.12
253.096	82.12
253.329	93.12
253.562	81.12
253.795	75.12
254.028	94.12
254.261	72.12
254.494	81.12
254.727	91.12
254.96	86.12
255.193	90.12
255.426	76.12
255.659	83.12
255.892	70.12
256.124	84.12
256.357	82.12
256.59	91.12
256.823	76.12
257.056	69.12
257.289	86.12
257.521	93.12
257.754	72.12
257.987	78.12
258.22	94.12
258.452	70.12
258.685	70.12
258.918	88.12
259.151	87.12
259.383	81.12
259.616	87.12
259.849	77.12
260.081	83.12
260.314	78.12
260.547	83.12
260.779	81.12
261.012	76.12
261.244	80.12
261.477	87.12
261.71	103.12
261.942	101.12
262.175	109.12
262.407	96.12
262.64	90.12
262.872	85.12
263.105	90.12
263.337	86.12
263.57	79.12
263.802	85.12
264.035	76.12
264.267	90.12
264.499	85.12
264.732	74.12
264.964	89.12
265.197	80.12
265.429	88.12
265.661	85.12
265.894	98.12
266.126	90.12
266.358	93.12
266.591	85.12
266.823	88.12
267.055	83.12
267.287	91.12
267.52	71.12
267.752	84.12
267.984	83.12
268.216	82.12
268.448	83.12
268.681	90.12
268.913	92.12
269.145	75.12
269.377	82.12
269.609	87.12
269.841	86.12
270.073	85.12
270.306	74.12
270.538	82.12
270.77	81.12
271.002	92.12
271.234	78.12
271.466	82.12
271.698	82.12
271.93	90.12
272.162	82.12
272.394	96.12
272.626	86.12
272.858	87.12
273.09	72.12
273.322	79.12
273.553	84.12
273.785	88.12
274.017	86.12
274.249	82.12
274.481	86.12
274.713	92.12
274.945	98.12
275.176	79.12
275.408	95.12
275.64	88.12
275.872	83.12
276.104	93.12
276.335	96.12
276.567	100.12
276.799	107.12
277.031	99.12
277.262	91.12
277.494	88.12
277.726	83.12
277.957	91.12
278.189	86.12
278.421	83.12
278.652	94.12
278.884	82.12
279.115	88.12
279.347	84.12
279.579	83.12
279.81	86.12
280.042	90.12
280.273	78.12
280.505	92.12
280.736	84.12
280.968	86.12
281.199	76.12
281.431	101.12
281.662	89.12
281.894	85.12
282.125	111.12
282.356	110.12
282.588	141.12
282.819	124.12
283.051	92.12
283.282	84.12
283.513	88.12
283.745	93.12
283.976	98.12
284.207	95.12
284.439	84.12
284.67	96.12
284.901	85.12
285.132	91.12
285.364	87.12
285.595	79.12
285.826	84.12
286.057	92.12
286.288	87.12
286.52	85.12
286.751	83.12
286.982	99.12
287.213	88.12
287.444	102.12
287.675	85.12
287.906	88.12
288.138	86.12
288.369	84.12
288.6	101.12
288.831	74.12
289.062	80.12
289.293	93.12
289.524	87.12
289.755	93.12
289.986	87.12
290.217	87.12
290.448	90.12
290.679	88.12
290.91	92.12
291.141	89.12
291.371	75.12
291.602	100.12
291.833	94.12
292.064	105.12
292.295	87.12
292.526	87.12
292.757	106.12
292.987	78.12
293.218	91.12
293.449	100.12
293.68	91.12
293.91	83.12
294.141	87.12
294.372	90.12
294.603	80.12
294.833	87.12
295.064	90.12
295.295	87.12
295.525	87.12
295.756	101.12
295.987	109.12
296.217	123.12
296.448	114.12
296.679	86.12
296.909	82.12
297.14	83.12
297.37	92.12
297.601	83.12
297.831	104.12
298.062	95.12
298.292	99.12
298.523	74.12
298.753	82.12
298.984	99.12
299.214	86.12
299.445	83.12
299.675	101.12
299.905	104.12
300.136	85.12
300.366	92.12
300.597	87.12
300.827	87.12
301.057	106.12
301.288	101.12
301.518	90.12
301.748	97.12
301.979	90.12
302.209	92.12
302.439	90.12
302.669	84.12
302.9	81.12
303.13	102.12
303.36	84.12
303.59	90.12
303.82	106.12
304.051	99.12
304.281	85.12
304.511	94.12
304.741	94.12
304.971	78.12
305.201	100.12
305.431	105.12
305.661	91.12
305.891	85.12
306.121	93.12
306.352	103.12
306.582	98.12
306.812	97.12
307.042	94.12
307.272	99.12
307.502	97.12
307.731	102.12
307.961	92.12
308.191	89.12
308.421	102.12
308.651	84.12
308.881	110.12
309.111	82.12
309.341	107.12
309.571	92.12
309.8	101.12
310.03	103.12
310.26	94.12
310.49	94.12
310.72	104.12
310.949	102.12
311.179	88.12
311.409	94.12
311.639	96.12
311.868	102.12
312.098	97.12
312.328	108.12
312.557	91.12
312.787	102.12
313.017	90.12
313.246	91.12
313.476	105.12
313.706	101.12
313.935	90.12
314.165	97.12
314.394	119.12
314.624	84.12
314.853	89.12
315.083	95.12
315.312	108.12
315.542	99.12
315.771	86.12
316.001	89.12
316.23	104.12
316.46	98.12
316.689	78.12
316.919	77.12
317.148	79.12
317.377	92.12
317.607	90.12
317.836	102.12
318.065	102.12
318.295	104.12
318.524	92.12
318.753	86.12
318.983	79.12
319.212	109.12
319.441	104.12
319.67	108.12
319.9	94.12
320.129	92.12
320.358	95.12
320.587	111.12
320.816	104.12
321.046	87.12
321.275	94.12
321.504	106.12
321.733	93.12
321.962	104.12
322.191	118.12
322.42	100.12
322.649	104.12
322.878	103.12
323.108	112.12
323.337	126.12
323.566	129.12
323.795	139.12
324.024	197.12
324.253	368.12
324.482	733.12
324.71	1520.12
324.939	1930.12
325.168	726.12
325.397	231.12
325.626	159.12
325.855	123.12
326.084	122.12
326.313	146.12
326.542	148.12
326.77	216.12
326.999	427.12
327.228	861.12
327.457	1521.12
327.686	1202.12
327.914	330.12
328.143	181.12
328.372	142.12
328.6	116.12
328.829	108.12
329.058	122.12
329.287	121.12
329.515	110.12
329.744	102.12
329.972	100.12
330.201	97.12
330.43	111.12
330.658	104.12
330.887	123.12
331.115	122.12
331.344	98.12
331.572	119.12
331.801	104.12
332.03	112.12
332.258	94.12
332.486	92.12
332.715	101.12
332.943	104.12
333.172	83.12
333.4	113.12
333.629	111.12
333.857	115.12
334.085	109.12
334.314	92.12
334.542	103.12
334.771	114.12
334.999	98.12
335.227	107.12
335.455	107.12
335.684	107.12
335.912	96.12
336.14	116.12
336.369	103.12
336.597	103.12
336.825	93.12
337.053	76.12
337.281	89.12
337.51	104.12
337.738	101.12
337.966	92.12
338.194	100.12
338.422	91.12
338.65	88.12
338.878	98.12
339.106	84.12
339.334	92.12
339.562	94.12
339.79	93.12
340.018	80.12
340.246	82.12
340.474	102.12
340.702	95.12
340.93	101.12
341.158	85.12
341.386	88.12
341.614	103.12
341.842	104.12
342.07	91.12
342.298	91.12
342.526	90.12
342.754	92.12
342.981	86.12
343.209	90.12
343.437	94.12
343.665	98.12
343.893	92.12
344.12	86.12
344.348	94.12
344.576	104.12
344.804	93.12
345.031	103.12
345.259	90.12
345.487	92.12
345.714	108.12
345.942	84.12
346.17	94.12
346.397	92.12
346.625	100.12
346.853	82.12
347.08	83.12
347.308	95.12
347.535	111.12
347.763	91.12
347.99	101.12
348.218	115.12
348.445	111.12
348.673	99.12
348.9	95.12
349.128	102.12
349.355	94.12
349.583	106.12
349.81	94.12
350.037	87.12
350.265	98.12
350.492	98.12
350.72	85.12
350.947	93.12
351.174	106.12
351.402	123.12
351.629	115.12
351.856	102.12
352.083	120.12
352.311	95.12
352.538	126.12
352.765	115.12
352.992	113.12
353.22	109.12
353.447	102.12
353.674	112.12
353.901	102.12
354.128	95.12
354.355	92.12
354.583	100.12
354.81	96.12
355.037	85.12
355.264	86.12
355.491	82.12
355.718	101.12
355.945	102.12
356.172	82.12
356.399	92.12
356.626	99.12
356.853	100.12
357.08	87.12
357.307	96.12
357.534	103.12
357.761	87.12
357.988	95.12
358.215	96.12
358.441	81.12
358.668	95.12
358.895	84.12
359.122	106.12
359.349	96.12
359.576	88.12
359.802	105.12
360.029	106.12
360.256	114.12
360.483	101.12
360.709	99.12
360.936	89.12
361.163	76.12
361.39	108.12
361.616	98.12
361.843	95.12
362.07	100.12
362.296	78.12
362.523	97.12
362.749	94.12
362.976	91.12
363.203	99.12
363.429	81.12
363.656	79.12
363.882	84.12
364.109	104.12
364.335	95.12
364.562	101.12
364.788	85.12
365.015	101.12
365.241	89.12
365.468	123.12
365.694	119.12
365.92	92.12
366.147	93.12
366.373	92.12
366.599	76.12
366.826	79.12
367.052	93.12
367.278	98.12
367.505	99.12
367.731	105.12
367.957	94.12
368.184	96.12
368.41	98.12
368.636	109.12
368.862	121.12
369.089	109.12
369.315	94.12
369.541	98.12
369.767	95.12
369.993	97.12
370.219	95.12
370.445	82.12
370.672	103.12
370.898	106.12
371.124	89.12
371.35	88.12
371.576	82.12
371.802	98.12
372.028	100.12
372.254	90.12
372.48	96.12
372.706	91.12
372.932	86.12
373.158	99.12
373.384	79.12
373.61	92.12
373.835	91.12
374.061	101.12
374.287	98.12
374.513	86.12
374.739	102.12
374.965	96.12
375.191	87.12
375.416	95.12
375.642	88.12
375.868	91.12
376.094	92.12
376.319	91.12
376.545	86.12
376.771	102.12
376.997	75.12
377.222	82.12
377.448	101.12
377.674	103.12
377.899	95.12
378.125	93.12
378.35	87.12
378.576	87.12
378.802	77.12
379.027	76.12
379.253	96.12
379.478	85.12
379.704	101.12
379.929	93.12
380.155	88.12
380.38	96.12
380.606	93.12
380.831	94.12
381.057	99.12
381.282	95.12
381.507	102.12
381.733	95.12
381.958	111.12
382.184	99.12
382.409	97.12
382.634	92.12
382.86	94.12
383.085	88.12
383.31	95.12
383.535	96.12
383.761	99.12
383.986	95.12
384.211	99.12
384.436	96.12
384.662	96.12
384.887	102.12
385.112	97.12
385.337	95.12
385.562	100.12
385.787	90.12
386.013	114.12
386.238	108.12
386.463	113.12
386.688	103.12
386.913	94.12
387.138	109.12
387.363	109.12
387.588	102.12
387.813	100.12
388.038	101.12
388.263	105.12
388.488	136.12
388.713	101.12
388.938	96.12
389.163	98.12
389.387	88.12
389.612	94.12
389.837	89.12
390.062	109.12
390.287	97.12
390.512	97.12
390.736	94.12
390.961	84.12
391.186	102.12
391.411	92.12
391.636	93.12
391.86	82.12
392.085	81.12
392.31	83.12
392.534	88.12
392.759	85.12
392.984	88.12
393.208	88.12
393.433	88.12
393.658	88.12
393.882	82.12
394.107	95.12
394.331	92.12
394.556	83.12
394.78	80.12
395.005	86.12
395.229	83.12
395.454	89.12
395.678	93.12
395.903	102.12
396.127	101.12
396.352	95.12
396.576	111.12
396.801	103.12
397.025	86.12
397.249	84.12
397.474	76.12
397.698	86.12
397.922	96.12
398.147	98.12
398.371	94.12
398.595	91.12
398.82	87.12
399.044	94.12
399.268	91.12
399.492	90.12
399.717	97.12
399.941	100.12
400.165	94.12
400.389	79.12
400.613	97.12
400.837	101.12
401.062	84.12
401.286	87.12
401.51	105.12
401.734	88.12
401.958	105.12
402.182	121.12
402.406	159.12
402.63	104.12
402.854	92.12
403.078	90.12
403.302	93.12
403.526	98.12
403.75	86.12
403.974	86.12
404.198	86.12
404.422	80.12
404.645	85.12
404.869	98.12
405.093	92.12
405.317	105.12
405.541	105.12
405.765	116.12
405.988	110.12
406.212	175.12
406.436	222.12
406.66	133.12
406.883	111.12
407.107	108.12
407.331	105.12
407.555	92.12
407.778	104.12
408.002	89.12
408.226	94.12
408.449	91.12
408.673	86.12
408.896	94.12
409.12	104.12
409.344	88.12
409.567	109.12
409.791	106.12
410.014	100.12
410.238	106.12
410.461	86.12
410.685	79.12
410.908	94.12
411.132	102.12
411.355	90.12
411.578	98.12
411.802	94.12
412.025	98.12
412.249	96.12
412.472	95.12
412.695	91.12
412.919	85.12
413.142	70.12
413.365	94.12
413.589	102.12
413.812	99.12
414.035	98.12
414.258	90.12
414.482	106.12
414.705	97.12
414.928	90.12
415.151	99.12
415.374	105.12
415.597	91.12
415.821	84.12
416.044	101.12
416.267	94.12
416.49	82.12
416.713	93.12
416.936	89.12
417.159	98.12
417.382	106.12
417.605	79.12
417.828	80.12
418.051	85.12
418.274	97.12
418.497	94.12
418.72	96.12
418.943	109.12
419.166	87.12
419.389	88.12
419.611	82.12
419.834	86.12
420.057	95.12
420.28	95.12
420.503	79.12
420.726	86.12
420.948	102.12
421.171	92.12
421.394	90.12
421.617	83.12
421.839	93.12
422.062	82.12
422.285	92.12
422.507	97.12
422.73	108.12
422.953	104.12
423.175	89.12
423.398	94.12
423.621	95.12
423.843	93.12
424.066	84.12
424.288	86.12
424.511	81.12
424.733	91.12
424.956	102.12
425.178	101.12
425.401	112.12
425.623	94.12
425.846	87.12
426.068	97.12
426.291	82.12
426.513	82.12
426.735	101.12
426.958	112.12
427.18	99.12
427.402	133.12
427.625	168.12
427.847	130.12
428.069	119.12
428.292	98.12
428.514	80.12
428.736	89.12
428.958	91.12
429.181	102.12
429.403	83.12
429.625	81.12
429.847	93.12
430.069	106.12
430.292	92.12
430.514	92.12
430.736	93.12
430.958	100.12
431.18	88.12
431.402	82.12
431.624	77.12
431.846	102.12
432.068	94.12
432.29	91.12
432.512	85.12
432.734	90.12
432.956	86.12
433.178	93.12
433.4	90.12
433.622	93.12
433.844	93.12
434.066	99.12
434.287	97.12
434.509	92.12
434.731	91.12
434.953	80.12
435.175	80.12
435.397	74.12
435.618	95.12
435.84	97.12
436.062	121.12
436.284	105.12
436.505	99.12
436.727	101.12
436.949	90.12
437.17	89.12
437.392	81.12
437.614	94.12
437.835	98.12
438.057	123.12
438.278	98.12
438.5	104.12
438.721	117.12
438.943	85.12
439.165	91.12
439.386	76.12
439.608	96.12
439.829	95.12
440.05	107.12
440.272	120.12
440.493	98.12
440.715	95.12
440.936	98.12
441.158	87.12
441.379	99.12
441.6	98.12
441.822	101.12
442.043	113.12
442.264	90.12
442.486	97.12
442.707	108.12
442.928	101.12
443.149	126.12
443.371	122.12
443.592	100.12
443.813	104.12
444.034	98.12
444.255	71.12
444.476	84.12
444.698	99.12
444.919	95.12
445.14	145.12
445.361	118.12
445.582	109.12
445.803	116.12
446.024	121.12
446.245	117.12
446.466	104.12
446.687	89.12
446.908	80.12
447.129	86.12
447.35	98.12
447.571	100.12
447.792	100.12
448.013	99.12
448.234	105.12
448.455	86.12
448.675	123.12
448.896	114.12
449.117	99.12
449.338	99.12
449.559	120.12
449.779	114.12
450	106.12
450.221	105.12
450.442	88.12
450.662	97.12
450.883	123.12
451.104	116.12
451.324	99.12
451.545	79.12
451.766	82.12
451.986	86.12
452.207	99.12
452.428	96.12
452.648	113.12
452.869	120.12
453.089	108.12
453.31	116.12
453.53	97.12
453.751	93.12
453.971	120.12
454.192	112.12
454.412	89.12
454.633	94.12
454.853	99.12
455.073	98.12
455.294	87.12
455.514	81.12
455.734	96.12
455.955	78.12
456.175	82.12
456.395	99.12
456.616	86.12
456.836	76.12
457.056	91.12
457.276	88.12
457.497	89.12
457.717	93.12
457.937	82.12
458.157	98.12
458.377	94.12
458.598	110.12
458.818	144.12
459.038	156.12
459.258	118.12
459.478	80.12
459.698	79.12
459.918	81.12
460.138	89.12
460.358	83.12
460.578	86.12
460.798	95.12
461.018	93.12
461.238	94.12
461.458	92.12
461.678	96.12
461.898	96.12
462.118	96.12
462.338	103.12
462.558	84.12
462.777	91.12
462.997	97.12
463.217	82.12
463.437	101.12
463.657	92.12
463.876	95.12
464.096	96.12
464.316	94.12
464.536	75.12
464.755	85.12
464.975	103.12
465.195	160.12
465.414	174.12
465.634	112.12
465.854	88.12
466.073	81.12
466.293	77.12
466.512	66.12
466.732	86.12
466.951	91.12
467.171	103.12
467.391	107.12
467.61	101.12
467.829	86.12
468.049	91.12
468.268	96.12
468.488	96.12
468.707	94.12
468.927	95.12
469.146	99.12
469.365	83.12
469.585	94.12
469.804	94.12
470.023	109.12
470.243	107.12
470.462	93.12
470.681	104.12
470.901	86.12
471.12	86.12
471.339	100.12
471.558	89.12
471.777	78.12
471.997	94.12
472.216	107.12
472.435	86.12
472.654	91.12
472.873	85.12
473.092	89.12
473.311	84.12
473.53	98.12
473.749	88.12
473.968	98.12
474.187	95.12
474.406	91.12
474.625	90.12
474.844	82.12
475.063	83.12
475.282	91.12
475.501	100.12
475.72	111.12
475.939	87.12
476.158	83.12
476.377	81.12
476.596	79.12
476.814	93.12
477.033	94.12
477.252	82.12
477.471	84.12
477.69	83.12
477.908	80.12
478.127	84.12
478.346	86.12
478.564	92.12
478.783	115.12
479.002	101.12
479.22	94.12
479.439	96.12
479.658	101.12
479.876	98.12
480.095	82.12
480.313	96.12
480.532	96.12
480.751	103.12
480.969	93.12
481.188	103.12
481.406	95.12
481.624	94.12
481.843	81.12
482.061	97.12
482.28	89.12
482.498	90.12
482.717	78.12
482.935	83.12
483.153	97.12
483.372	98.12
483.59	95.12
483.808	78.12
484.027	91.12
484.245	89.12
484.463	105.12
484.681	90.12
484.9	90.12
485.118	91.12
485.336	95.12
485.554	92.12
485.772	97.12
485.99	97.12
486.209	92.12
486.427	98.12
486.645	108.12
486.863	121.12
487.081	115.12
487.299	100.12
487.517	112.12
487.735	93.12
487.953	82.12
488.171	76.12
488.389	106.12
488.607	110.12
488.825	109.12
489.043	93.12
489.261	108.12
489.479	77.12
489.696	95.12
489.914	105.12
490.132	98.12
490.35	89.12
490.568	107.12
490.786	104.12
491.003	94.12
491.221	89.12
491.439	88.12
491.657	96.12
491.874	95.12
492.092	93.12
492.31	101.12
492.527	96.12
492.745	102.12
492.963	77.12
493.18	94.12
493.398	85.12
493.615	94.12
493.833	83.12
494.05	90.12
494.268	97.12
494.485	81.12
494.703	80.12
494.92	87.12
495.138	80.12
495.355	109.12
495.573	83.12
495.79	96.12
496.008	92.12
496.225	91.12
496.442	93.12
496.66	99.12
496.877	86.12
497.094	93.12
497.312	103.12
497.529	86.12
497.746	77.12
497.963	94.12
498.181	93.12
498.398	101.12
498.615	100.12
498.832	103.12
499.049	92.12
499.267	104.12
499.484	92.12
499.701	91.12
499.918	98.12
500.135	102.12
500.352	99.12
500.569	80.12
500.786	86.12
501.003	68.12
501.22	92.12
501.437	82.12
501.654	101.12
501.871	95.12
502.088	92.12
502.305	97.12
502.522	92.12
502.739	86.12
502.956	101.12
503.172	98.12
503.389	91.12
503.606	104.12
503.823	107.12
504.04	103.12
504.256	92.12
504.473	96.12
504.69	87.12
504.907	92.12
505.123	97.12
505.34	91.12
505.557	90.12
505.773	92.12
505.99	91.12
506.207	96.12
506.423	88.12
506.64	104.12
506.856	98.12
507.073	101.12
507.289	98.12
507.506	106.12
507.722	106.12
507.939	110.12
508.155	92.12
508.372	90.12
508.588	93.12
508.805	82.12
509.021	94.12
509.238	82.12
509.454	105.12
509.67	107.12
509.887	115.12
510.103	141.12
510.319	222.12
510.536	807.12
510.752	2460.12
510.968	677.12
511.184	147.12
511.401	105.12
511.617	95.12
511.833	90.12
512.049	93.12
512.265	87.12
512.481	96.12
512.698	102.12
512.914	98.12
513.13	95.12
513.346	91.12
513.562	88.12
513.778	83.12
513.994	100.12
514.21	104.12
514.426	121.12
514.642	142.12
514.858	132.12
515.074	154.12
