Data from Uncirc_1993_H10_HRD10591_00039.txt Node
Date: Wed Jan 03 11:43:00 EST 2024
User: Yrep
Spectrometer: HR+D1059
Trigger mode: 1
Integration Time (sec): 1.000000E-1
Scans to average: 1
Electric dark correction enabled: true
Nonlinearity correction enabled: false
Boxcar width: 0
XAxis mode: Wavelengths
Number of Pixels in Spectrum: 2048
>>>>>Begin Spectral Data<<<<<
223.165	-28.62
223.4	-28.62
223.635	-28.62
223.869	-6.62
224.104	-13.62
224.338	0.38
224.573	-9.62
224.808	-8.62
225.042	-14.62
225.277	6.38
225.511	0.38
225.746	5.38
225.98	2.38
226.215	14.38
226.449	16.38
226.683	-0.62
226.918	17.38
227.152	19.38
227.387	42.38
227.621	52.38
227.856	44.38
228.09	38.38
228.324	48.38
228.559	51.38
228.793	57.38
229.027	68.38
229.262	70.38
229.496	78.38
229.73	81.38
229.964	76.38
230.199	79.38
230.433	84.38
230.667	63.38
230.901	75.38
231.136	70.38
231.37	72.38
231.604	82.38
231.838	74.38
232.072	81.38
232.306	77.38
232.541	74.38
232.775	79.38
233.009	74.38
233.243	82.38
233.477	67.38
233.711	86.38
233.945	76.38
234.179	80.38
234.413	84.38
234.647	88.38
234.881	80.38
235.115	67.38
235.349	67.38
235.583	85.38
235.817	90.38
236.051	88.38
236.285	60.38
236.519	80.38
236.753	88.38
236.987	75.38
237.221	90.38
237.455	84.38
237.689	68.38
237.922	83.38
238.156	67.38
238.39	70.38
238.624	75.38
238.858	76.38
239.091	66.38
239.325	76.38
239.559	74.38
239.793	82.38
240.027	70.38
240.26	70.38
240.494	87.38
240.728	82.38
240.961	49.38
241.195	76.38
241.429	54.38
241.662	72.38
241.896	78.38
242.13	81.38
242.363	72.38
242.597	68.38
242.83	77.38
243.064	76.38
243.298	63.38
243.531	68.38
243.765	74.38
243.998	82.38
244.232	77.38
244.465	77.38
244.699	77.38
244.932	72.38
245.166	59.38
245.399	80.38
245.633	74.38
245.866	83.38
246.099	89.38
246.333	79.38
246.566	75.38
246.8	78.38
247.033	73.38
247.266	81.38
247.5	79.38
247.733	85.38
247.966	85.38
248.2	74.38
248.433	86.38
248.666	92.38
248.899	72.38
249.133	81.38
249.366	82.38
249.599	84.38
249.832	77.38
250.066	70.38
250.299	80.38
250.532	83.38
250.765	87.38
250.998	72.38
251.231	72.38
251.465	86.38
251.698	76.38
251.931	81.38
252.164	76.38
252.397	86.38
252.63	89.38
252.863	67.38
253.096	68.38
253.329	93.38
253.562	75.38
253.795	78.38
254.028	75.38
254.261	78.38
254.494	82.38
254.727	87.38
254.96	83.38
255.193	76.38
255.426	86.38
255.659	98.38
255.892	84.38
256.124	71.38
256.357	78.38
256.59	74.38
256.823	75.38
257.056	68.38
257.289	93.38
257.521	100.38
257.754	87.38
257.987	77.38
258.22	78.38
258.452	75.38
258.685	74.38
258.918	83.38
259.151	83.38
259.383	71.38
259.616	94.38
259.849	68.38
260.081	88.38
260.314	80.38
260.547	80.38
260.779	89.38
261.012	74.38
261.244	78.38
261.477	82.38
261.71	75.38
261.942	96.38
262.175	93.38
262.407	67.38
262.64	75.38
262.872	73.38
263.105	62.38
263.337	76.38
263.57	72.38
263.802	80.38
264.035	80.38
264.267	80.38
264.499	71.38
264.732	66.38
264.964	83.38
265.197	75.38
265.429	94.38
265.661	78.38
265.894	85.38
266.126	77.38
266.358	85.38
266.591	84.38
266.823	90.38
267.055	90.38
267.287	74.38
267.52	84.38
267.752	89.38
267.984	81.38
268.216	78.38
268.448	83.38
268.681	81.38
268.913	67.38
269.145	76.38
269.377	86.38
269.609	73.38
269.841	82.38
270.073	85.38
270.306	75.38
270.538	88.38
270.77	66.38
271.002	74.38
271.234	74.38
271.466	66.38
271.698	78.38
271.93	76.38
272.162	82.38
272.394	86.38
272.626	78.38
272.858	79.38
273.09	75.38
273.322	85.38
273.553	71.38
273.785	72.38
274.017	72.38
274.249	81.38
274.481	76.38
274.713	76.38
274.945	77.38
275.176	84.38
275.408	82.38
275.64	78.38
275.872	97.38
276.104	78.38
276.335	90.38
276.567	94.38
276.799	83.38
277.031	82.38
277.262	92.38
277.494	100.38
277.726	82.38
277.957	85.38
278.189	81.38
278.421	78.38
278.652	83.38
278.884	75.38
279.115	89.38
279.347	91.38
279.579	83.38
279.81	87.38
280.042	83.38
280.273	79.38
280.505	85.38
280.736	74.38
280.968	76.38
281.199	79.38
281.431	82.38
281.662	80.38
281.894	89.38
282.125	93.38
282.356	109.38
282.588	106.38
282.819	108.38
283.051	105.38
283.282	88.38
283.513	100.38
283.745	82.38
283.976	71.38
284.207	83.38
284.439	80.38
284.67	88.38
284.901	83.38
285.132	91.38
285.364	91.38
285.595	79.38
285.826	84.38
286.057	99.38
286.288	98.38
286.52	82.38
286.751	84.38
286.982	100.38
287.213	73.38
287.444	79.38
287.675	74.38
287.906	81.38
288.138	81.38
288.369	78.38
288.6	86.38
288.831	89.38
289.062	84.38
289.293	79.38
289.524	88.38
289.755	82.38
289.986	87.38
290.217	74.38
290.448	64.38
290.679	88.38
290.91	94.38
291.141	92.38
291.371	87.38
291.602	79.38
291.833	86.38
292.064	84.38
292.295	78.38
292.526	104.38
292.757	97.38
292.987	90.38
293.218	91.38
293.449	91.38
293.68	88.38
293.91	95.38
294.141	91.38
294.372	80.38
294.603	83.38
294.833	94.38
295.064	94.38
295.295	78.38
295.525	81.38
295.756	101.38
295.987	98.38
296.217	115.38
296.448	98.38
296.679	80.38
296.909	96.38
297.14	82.38
297.37	96.38
297.601	79.38
297.831	86.38
298.062	99.38
298.292	74.38
298.523	81.38
298.753	87.38
298.984	73.38
299.214	88.38
299.445	97.38
299.675	96.38
299.905	91.38
300.136	91.38
300.366	78.38
300.597	81.38
300.827	96.38
301.057	83.38
301.288	95.38
301.518	91.38
301.748	87.38
301.979	100.38
302.209	81.38
302.439	84.38
302.669	78.38
302.9	86.38
303.13	82.38
303.36	87.38
303.59	100.38
303.82	99.38
304.051	90.38
304.281	90.38
304.511	87.38
304.741	79.38
304.971	79.38
305.201	80.38
305.431	95.38
305.661	98.38
305.891	86.38
306.121	91.38
306.352	76.38
306.582	99.38
306.812	100.38
307.042	87.38
307.272	85.38
307.502	93.38
307.731	87.38
307.961	89.38
308.191	91.38
308.421	71.38
308.651	88.38
308.881	100.38
309.111	99.38
309.341	95.38
309.571	80.38
309.8	88.38
310.03	96.38
310.26	80.38
310.49	92.38
310.72	92.38
310.949	99.38
311.179	95.38
311.409	98.38
311.639	77.38
311.868	79.38
312.098	85.38
312.328	98.38
312.557	103.38
312.787	95.38
313.017	92.38
313.246	99.38
313.476	80.38
313.706	92.38
313.935	86.38
314.165	93.38
314.394	86.38
314.624	77.38
314.853	88.38
315.083	85.38
315.312	98.38
315.542	91.38
315.771	84.38
316.001	90.38
316.23	93.38
316.46	91.38
316.689	79.38
316.919	74.38
317.148	87.38
317.377	104.38
317.607	100.38
317.836	86.38
318.065	88.38
318.295	87.38
318.524	88.38
318.753	83.38
318.983	78.38
319.212	108.38
319.441	109.38
319.67	101.38
319.9	95.38
320.129	87.38
320.358	73.38
320.587	81.38
320.816	88.38
321.046	107.38
321.275	82.38
321.504	80.38
321.733	94.38
321.962	76.38
322.191	96.38
322.42	90.38
322.649	107.38
322.878	97.38
323.108	101.38
323.337	128.38
323.566	123.38
323.795	128.38
324.024	154.38
324.253	303.38
324.482	623.38
324.71	1202.38
324.939	1542.38
325.168	588.38
325.397	196.38
325.626	123.38
325.855	119.38
326.084	113.38
326.313	117.38
326.542	137.38
326.77	179.38
326.999	333.38
327.228	667.38
327.457	1218.38
327.686	946.38
327.914	273.38
328.143	152.38
328.372	125.38
328.6	118.38
328.829	118.38
329.058	118.38
329.287	124.38
329.515	108.38
329.744	84.38
329.972	92.38
330.201	98.38
330.43	97.38
330.658	116.38
330.887	123.38
331.115	116.38
331.344	109.38
331.572	102.38
331.801	101.38
332.03	92.38
332.258	103.38
332.486	79.38
332.715	88.38
332.943	92.38
333.172	97.38
333.4	93.38
333.629	101.38
333.857	106.38
334.085	97.38
334.314	83.38
334.542	82.38
334.771	95.38
334.999	82.38
335.227	103.38
335.455	96.38
335.684	90.38
335.912	94.38
336.14	93.38
336.369	81.38
336.597	102.38
336.825	87.38
337.053	87.38
337.281	87.38
337.51	88.38
337.738	96.38
337.966	75.38
338.194	88.38
338.422	95.38
338.65	85.38
338.878	89.38
339.106	91.38
339.334	76.38
339.562	92.38
339.79	86.38
340.018	75.38
340.246	89.38
340.474	83.38
340.702	92.38
340.93	97.38
341.158	99.38
341.386	89.38
341.614	83.38
341.842	92.38
342.07	88.38
342.298	91.38
342.526	83.38
342.754	87.38
342.981	107.38
343.209	86.38
343.437	99.38
343.665	87.38
343.893	84.38
344.12	65.38
344.348	90.38
344.576	78.38
344.804	92.38
345.031	88.38
345.259	95.38
345.487	83.38
345.714	93.38
345.942	84.38
346.17	80.38
346.397	90.38
346.625	101.38
346.853	96.38
347.08	87.38
347.308	85.38
347.535	92.38
347.763	100.38
347.99	98.38
348.218	98.38
348.445	94.38
348.673	100.38
348.9	89.38
349.128	88.38
349.355	81.38
349.583	87.38
349.81	99.38
350.037	93.38
350.265	92.38
350.492	84.38
350.72	88.38
350.947	101.38
351.174	87.38
351.402	104.38
351.629	96.38
351.856	92.38
352.083	100.38
352.311	100.38
352.538	87.38
352.765	101.38
352.992	107.38
353.22	106.38
353.447	115.38
353.674	87.38
353.901	92.38
354.128	93.38
354.355	90.38
354.583	95.38
354.81	97.38
355.037	103.38
355.264	104.38
355.491	99.38
355.718	90.38
355.945	86.38
356.172	89.38
356.399	95.38
356.626	81.38
356.853	87.38
357.08	90.38
357.307	101.38
357.534	98.38
357.761	81.38
357.988	94.38
358.215	82.38
358.441	98.38
358.668	82.38
358.895	94.38
359.122	86.38
359.349	75.38
359.576	99.38
359.802	102.38
360.029	96.38
360.256	102.38
360.483	75.38
360.709	81.38
360.936	97.38
361.163	87.38
361.39	97.38
361.616	84.38
361.843	96.38
362.07	80.38
362.296	92.38
362.523	104.38
362.749	103.38
362.976	88.38
363.203	88.38
363.429	104.38
363.656	91.38
363.882	88.38
364.109	71.38
364.335	90.38
364.562	82.38
364.788	85.38
365.015	91.38
365.241	110.38
365.468	95.38
365.694	107.38
365.92	81.38
366.147	98.38
366.373	94.38
366.599	96.38
366.826	82.38
367.052	89.38
367.278	96.38
367.505	85.38
367.731	95.38
367.957	82.38
368.184	81.38
368.41	95.38
368.636	102.38
368.862	107.38
369.089	111.38
369.315	94.38
369.541	91.38
369.767	96.38
369.993	86.38
370.219	80.38
370.445	82.38
370.672	91.38
370.898	75.38
371.124	80.38
371.35	87.38
371.576	91.38
371.802	74.38
372.028	68.38
372.254	71.38
372.48	80.38
372.706	89.38
372.932	86.38
373.158	93.38
373.384	87.38
373.61	76.38
373.835	82.38
374.061	80.38
374.287	90.38
374.513	96.38
374.739	81.38
374.965	89.38
375.191	74.38
375.416	94.38
375.642	84.38
375.868	91.38
376.094	97.38
376.319	86.38
376.545	79.38
376.771	81.38
376.997	85.38
377.222	89.38
377.448	84.38
377.674	90.38
377.899	73.38
378.125	77.38
378.35	86.38
378.576	95.38
378.802	74.38
379.027	90.38
379.253	95.38
379.478	93.38
379.704	79.38
379.929	85.38
380.155	92.38
380.38	105.38
380.606	98.38
380.831	91.38
381.057	84.38
381.282	82.38
381.507	92.38
381.733	86.38
381.958	85.38
382.184	96.38
382.409	97.38
382.634	95.38
382.86	105.38
383.085	104.38
383.31	88.38
383.535	99.38
383.761	99.38
383.986	88.38
384.211	77.38
384.436	91.38
384.662	84.38
384.887	89.38
385.112	88.38
385.337	102.38
385.562	88.38
385.787	99.38
386.013	105.38
386.238	107.38
386.463	94.38
386.688	104.38
386.913	97.38
387.138	86.38
387.363	94.38
387.588	101.38
387.813	87.38
388.038	92.38
388.263	111.38
388.488	105.38
388.713	96.38
388.938	96.38
389.163	97.38
389.387	91.38
389.612	77.38
389.837	80.38
390.062	91.38
390.287	87.38
390.512	88.38
390.736	91.38
390.961	89.38
391.186	103.38
391.411	91.38
391.636	110.38
391.86	92.38
392.085	80.38
392.31	100.38
392.534	90.38
392.759	84.38
392.984	87.38
393.208	97.38
393.433	82.38
393.658	79.38
393.882	89.38
394.107	86.38
394.331	87.38
394.556	83.38
394.78	91.38
395.005	95.38
395.229	86.38
395.454	89.38
395.678	67.38
395.903	83.38
396.127	91.38
396.352	89.38
396.576	97.38
396.801	95.38
397.025	92.38
397.249	82.38
397.474	88.38
397.698	78.38
397.922	84.38
398.147	90.38
398.371	82.38
398.595	102.38
398.82	88.38
399.044	87.38
399.268	89.38
399.492	89.38
399.717	89.38
399.941	86.38
400.165	91.38
400.389	92.38
400.613	76.38
400.837	93.38
401.062	90.38
401.286	92.38
401.51	90.38
401.734	87.38
401.958	93.38
402.182	120.38
402.406	136.38
402.63	95.38
402.854	86.38
403.078	90.38
403.302	83.38
403.526	86.38
403.75	81.38
403.974	79.38
404.198	99.38
404.422	64.38
404.645	81.38
404.869	85.38
405.093	91.38
405.317	96.38
405.541	88.38
405.765	97.38
405.988	99.38
406.212	161.38
406.436	198.38
406.66	118.38
406.883	91.38
407.107	84.38
407.331	97.38
407.555	91.38
407.778	78.38
408.002	86.38
408.226	77.38
408.449	76.38
408.673	90.38
408.896	83.38
409.12	94.38
409.344	78.38
409.567	75.38
409.791	94.38
410.014	96.38
410.238	76.38
410.461	83.38
410.685	97.38
410.908	80.38
411.132	95.38
411.355	91.38
411.578	68.38
411.802	85.38
412.025	90.38
412.249	89.38
412.472	86.38
412.695	87.38
412.919	78.38
413.142	86.38
413.365	78.38
413.589	74.38
413.812	80.38
414.035	93.38
414.258	78.38
414.482	99.38
414.705	82.38
414.928	80.38
415.151	90.38
415.374	91.38
415.597	74.38
415.821	88.38
416.044	66.38
416.267	79.38
416.49	92.38
416.713	86.38
416.936	92.38
417.159	83.38
417.382	73.38
417.605	84.38
417.828	85.38
418.051	83.38
418.274	87.38
418.497	84.38
418.72	68.38
418.943	89.38
419.166	66.38
419.389	82.38
419.611	93.38
419.834	88.38
420.057	82.38
420.28	73.38
420.503	88.38
420.726	77.38
420.948	78.38
421.171	99.38
421.394	81.38
421.617	92.38
421.839	91.38
422.062	88.38
422.285	96.38
422.507	89.38
422.73	92.38
422.953	103.38
423.175	79.38
423.398	71.38
423.621	80.38
423.843	89.38
424.066	81.38
424.288	82.38
424.511	91.38
424.733	88.38
424.956	95.38
425.178	100.38
425.401	107.38
425.623	101.38
425.846	98.38
426.068	82.38
426.291	93.38
426.513	84.38
426.735	82.38
426.958	81.38
427.18	93.38
427.402	126.38
427.625	144.38
427.847	121.38
428.069	85.38
428.292	75.38
428.514	76.38
428.736	90.38
428.958	91.38
429.181	78.38
429.403	82.38
429.625	78.38
429.847	88.38
430.069	98.38
430.292	92.38
430.514	97.38
430.736	89.38
430.958	90.38
431.18	93.38
431.402	96.38
431.624	86.38
431.846	109.38
432.068	79.38
432.29	74.38
432.512	84.38
432.734	81.38
432.956	88.38
433.178	100.38
433.4	99.38
433.622	104.38
433.844	74.38
434.066	94.38
434.287	97.38
434.509	78.38
434.731	97.38
434.953	78.38
435.175	90.38
435.397	80.38
435.618	82.38
435.84	91.38
436.062	115.38
436.284	99.38
436.505	99.38
436.727	79.38
436.949	82.38
437.17	81.38
437.392	89.38
437.614	92.38
437.835	90.38
438.057	105.38
438.278	100.38
438.5	101.38
438.721	97.38
438.943	93.38
439.165	86.38
439.386	91.38
439.608	91.38
439.829	99.38
440.05	105.38
440.272	119.38
440.493	82.38
440.715	76.38
440.936	94.38
441.158	89.38
441.379	96.38
441.6	96.38
441.822	90.38
442.043	80.38
442.264	91.38
442.486	95.38
442.707	95.38
442.928	100.38
443.149	117.38
443.371	115.38
443.592	95.38
443.813	107.38
444.034	113.38
444.255	87.38
444.476	72.38
444.698	84.38
444.919	77.38
445.14	124.38
445.361	127.38
445.582	97.38
445.803	101.38
446.024	113.38
446.245	120.38
446.466	97.38
446.687	83.38
446.908	75.38
447.129	70.38
447.35	85.38
447.571	90.38
447.792	91.38
448.013	79.38
448.234	92.38
448.455	90.38
448.675	96.38
448.896	109.38
449.117	126.38
449.338	98.38
449.559	117.38
449.779	98.38
450	91.38
450.221	83.38
450.442	100.38
450.662	90.38
450.883	106.38
451.104	98.38
451.324	93.38
451.545	96.38
451.766	87.38
451.986	86.38
452.207	87.38
452.428	85.38
452.648	94.38
452.869	99.38
453.089	96.38
453.31	111.38
453.53	95.38
453.751	86.38
453.971	84.38
454.192	89.38
454.412	93.38
454.633	86.38
454.853	76.38
455.073	82.38
455.294	84.38
455.514	94.38
455.734	88.38
455.955	88.38
456.175	98.38
456.395	75.38
456.616	89.38
456.836	84.38
457.056	89.38
457.276	91.38
457.497	83.38
457.717	76.38
457.937	86.38
458.157	81.38
458.377	103.38
458.598	85.38
458.818	122.38
459.038	141.38
459.258	102.38
459.478	95.38
459.698	86.38
459.918	81.38
460.138	70.38
460.358	84.38
460.578	93.38
460.798	84.38
461.018	88.38
461.238	82.38
461.458	77.38
461.678	72.38
461.898	92.38
462.118	83.38
462.338	85.38
462.558	90.38
462.777	90.38
462.997	81.38
463.217	64.38
463.437	90.38
463.657	81.38
463.876	90.38
464.096	77.38
464.316	86.38
464.536	90.38
464.755	85.38
464.975	106.38
465.195	125.38
465.414	137.38
465.634	93.38
465.854	74.38
466.073	72.38
466.293	89.38
466.512	90.38
466.732	80.38
466.951	98.38
467.171	97.38
467.391	96.38
467.61	95.38
467.829	92.38
468.049	104.38
468.268	81.38
468.488	89.38
468.707	80.38
468.927	82.38
469.146	62.38
469.365	93.38
469.585	86.38
469.804	99.38
470.023	103.38
470.243	98.38
470.462	94.38
470.681	99.38
470.901	87.38
471.12	85.38
471.339	82.38
471.558	85.38
471.777	88.38
471.997	87.38
472.216	90.38
472.435	86.38
472.654	96.38
472.873	91.38
473.092	79.38
473.311	73.38
473.53	78.38
473.749	95.38
473.968	84.38
474.187	90.38
474.406	79.38
474.625	89.38
474.844	96.38
475.063	88.38
475.282	70.38
475.501	94.38
475.72	87.38
475.939	92.38
476.158	92.38
476.377	89.38
476.596	82.38
476.814	87.38
477.033	88.38
477.252	97.38
477.471	91.38
477.69	109.38
477.908	99.38
478.127	95.38
478.346	83.38
478.564	89.38
478.783	94.38
479.002	84.38
479.22	86.38
479.439	109.38
479.658	98.38
479.876	90.38
480.095	90.38
480.313	98.38
480.532	80.38
480.751	86.38
480.969	95.38
481.188	97.38
481.406	103.38
481.624	88.38
481.843	90.38
482.061	84.38
482.28	99.38
482.498	96.38
482.717	89.38
482.935	81.38
483.153	86.38
483.372	94.38
483.59	76.38
483.808	74.38
484.027	91.38
484.245	104.38
484.463	72.38
484.681	97.38
484.9	94.38
485.118	95.38
485.336	75.38
485.554	79.38
485.772	100.38
485.99	92.38
486.209	105.38
486.427	104.38
486.645	110.38
486.863	109.38
487.081	88.38
487.299	87.38
487.517	94.38
487.735	92.38
487.953	91.38
488.171	98.38
488.389	82.38
488.607	97.38
488.825	87.38
489.043	92.38
489.261	81.38
489.479	86.38
489.696	87.38
489.914	101.38
490.132	86.38
490.35	83.38
490.568	79.38
490.786	87.38
491.003	72.38
491.221	85.38
491.439	87.38
491.657	98.38
491.874	83.38
492.092	76.38
492.31	89.38
492.527	86.38
492.745	86.38
492.963	92.38
493.18	86.38
493.398	80.38
493.615	104.38
493.833	102.38
494.05	87.38
494.268	73.38
494.485	74.38
494.703	94.38
494.92	88.38
495.138	78.38
495.355	82.38
495.573	95.38
495.79	84.38
496.008	93.38
496.225	90.38
496.442	87.38
496.66	95.38
496.877	77.38
497.094	102.38
497.312	86.38
497.529	83.38
497.746	81.38
497.963	89.38
498.181	89.38
498.398	86.38
498.615	102.38
498.832	99.38
499.049	75.38
499.267	94.38
499.484	90.38
499.701	93.38
499.918	86.38
500.135	88.38
500.352	85.38
500.569	92.38
500.786	102.38
501.003	83.38
501.22	95.38
501.437	89.38
501.654	102.38
501.871	99.38
502.088	86.38
502.305	78.38
502.522	95.38
502.739	87.38
502.956	89.38
503.172	89.38
503.389	92.38
503.606	98.38
503.823	98.38
504.04	88.38
504.256	81.38
504.473	75.38
504.69	86.38
504.907	86.38
505.123	89.38
505.34	78.38
505.557	83.38
505.773	83.38
505.99	88.38
506.207	86.38
506.423	91.38
506.64	94.38
506.856	92.38
507.073	93.38
507.289	86.38
507.506	103.38
507.722	104.38
507.939	103.38
508.155	94.38
508.372	85.38
508.588	94.38
508.805	94.38
509.021	93.38
509.238	93.38
509.454	86.38
509.67	87.38
509.887	97.38
510.103	108.38
510.319	187.38
510.536	643.38
510.752	1871.38
510.968	519.38
511.184	131.38
511.401	100.38
511.617	97.38
511.833	75.38
512.049	89.38
512.265	82.38
512.481	99.38
512.698	88.38
512.914	90.38
513.13	92.38
513.346	103.38
513.562	82.38
513.778	85.38
513.994	90.38
514.21	119.38
514.426	116.38
514.642	115.38
514.858	104.38
515.074	122.38
515.29	356.38
515.506	1104.38
515.721	412.38
515.937	136.38
516.153	95.38
516.369	100.38
516.585	87.38
516.801	87.38
517.016	88.38
517.232	93.38
517.448	90.38
