Data from Uncirc_1993_H10_HRD10591_00080.txt Node
Date: Wed Jan 03 11:43:08 EST 2024
User: Yrep
Spectrometer: HR+D1059
Trigger mode: 1
Integration Time (sec): 1.000000E-1
Scans to average: 1
Electric dark correction enabled: true
Nonlinearity correction enabled: false
Boxcar width: 0
XAxis mode: Wavelengths
Number of Pixels in Spectrum: 2048
>>>>>Begin Spectral Data<<<<<
223.165	5.12
223.4	5.12
223.635	5.12
223.869	-27.88
224.104	-27.88
224.338	-13.88
224.573	-7.88
224.808	-14.88
225.042	-28.88
225.277	-2.88
225.511	-5.88
225.746	3.12
225.98	3.12
226.215	9.12
226.449	31.12
226.683	12.12
226.918	31.12
227.152	35.12
227.387	21.12
227.621	47.12
227.856	35.12
228.09	61.12
228.324	52.12
228.559	48.12
228.793	60.12
229.027	54.12
229.262	53.12
229.496	80.12
229.73	93.12
229.964	85.12
230.199	78.12
230.433	81.12
230.667	71.12
230.901	73.12
231.136	81.12
231.37	72.12
231.604	79.12
231.838	83.12
232.072	81.12
232.306	79.12
232.541	84.12
232.775	71.12
233.009	78.12
233.243	68.12
233.477	74.12
233.711	78.12
233.945	80.12
234.179	81.12
234.413	79.12
234.647	71.12
234.881	78.12
235.115	92.12
235.349	64.12
235.583	75.12
235.817	75.12
236.051	73.12
236.285	77.12
236.519	77.12
236.753	86.12
236.987	84.12
237.221	89.12
237.455	92.12
237.689	75.12
237.922	76.12
238.156	83.12
238.39	80.12
238.624	88.12
238.858	76.12
239.091	80.12
239.325	80.12
239.559	73.12
239.793	88.12
240.027	79.12
240.26	79.12
240.494	90.12
240.728	79.12
240.961	80.12
241.195	84.12
241.429	77.12
241.662	75.12
241.896	80.12
242.13	92.12
242.363	89.12
242.597	68.12
242.83	81.12
243.064	83.12
243.298	75.12
243.531	75.12
243.765	78.12
243.998	100.12
244.232	85.12
244.465	77.12
244.699	73.12
244.932	80.12
245.166	70.12
245.399	77.12
245.633	80.12
245.866	63.12
246.099	77.12
246.333	72.12
246.566	88.12
246.8	78.12
247.033	76.12
247.266	73.12
247.5	64.12
247.733	78.12
247.966	66.12
248.2	69.12
248.433	81.12
248.666	68.12
248.899	81.12
249.133	80.12
249.366	96.12
249.599	86.12
249.832	89.12
250.066	85.12
250.299	77.12
250.532	65.12
250.765	69.12
250.998	77.12
251.231	90.12
251.465	82.12
251.698	71.12
251.931	74.12
252.164	67.12
252.397	83.12
252.63	83.12
252.863	84.12
253.096	88.12
253.329	75.12
253.562	88.12
253.795	92.12
254.028	71.12
254.261	81.12
254.494	79.12
254.727	75.12
254.96	80.12
255.193	78.12
255.426	79.12
255.659	72.12
255.892	73.12
256.124	76.12
256.357	77.12
256.59	93.12
256.823	83.12
257.056	82.12
257.289	79.12
257.521	95.12
257.754	77.12
257.987	73.12
258.22	79.12
258.452	86.12
258.685	78.12
258.918	90.12
259.151	84.12
259.383	68.12
259.616	80.12
259.849	73.12
260.081	88.12
260.314	73.12
260.547	88.12
260.779	80.12
261.012	83.12
261.244	96.12
261.477	85.12
261.71	92.12
261.942	99.12
262.175	115.12
262.407	79.12
262.64	103.12
262.872	82.12
263.105	82.12
263.337	80.12
263.57	78.12
263.802	85.12
264.035	85.12
264.267	89.12
264.499	98.12
264.732	86.12
264.964	92.12
265.197	83.12
265.429	93.12
265.661	92.12
265.894	84.12
266.126	66.12
266.358	79.12
266.591	69.12
266.823	84.12
267.055	84.12
267.287	83.12
267.52	82.12
267.752	80.12
267.984	87.12
268.216	80.12
268.448	96.12
268.681	80.12
268.913	95.12
269.145	94.12
269.377	60.12
269.609	91.12
269.841	91.12
270.073	81.12
270.306	83.12
270.538	89.12
270.77	88.12
271.002	78.12
271.234	79.12
271.466	88.12
271.698	86.12
271.93	104.12
272.162	87.12
272.394	85.12
272.626	83.12
272.858	87.12
273.09	61.12
273.322	91.12
273.553	72.12
273.785	78.12
274.017	80.12
274.249	95.12
274.481	69.12
274.713	72.12
274.945	81.12
275.176	92.12
275.408	89.12
275.64	85.12
275.872	86.12
276.104	83.12
276.335	89.12
276.567	99.12
276.799	112.12
277.031	98.12
277.262	81.12
277.494	67.12
277.726	87.12
277.957	69.12
278.189	98.12
278.421	99.12
278.652	79.12
278.884	81.12
279.115	98.12
279.347	83.12
279.579	78.12
279.81	73.12
280.042	90.12
280.273	98.12
280.505	68.12
280.736	99.12
280.968	83.12
281.199	81.12
281.431	87.12
281.662	77.12
281.894	83.12
282.125	91.12
282.356	107.12
282.588	120.12
282.819	100.12
283.051	100.12
283.282	102.12
283.513	96.12
283.745	93.12
283.976	87.12
284.207	71.12
284.439	90.12
284.67	93.12
284.901	97.12
285.132	77.12
285.364	96.12
285.595	73.12
285.826	65.12
286.057	91.12
286.288	86.12
286.52	84.12
286.751	84.12
286.982	83.12
287.213	74.12
287.444	93.12
287.675	85.12
287.906	89.12
288.138	86.12
288.369	97.12
288.6	90.12
288.831	94.12
289.062	94.12
289.293	91.12
289.524	92.12
289.755	88.12
289.986	86.12
290.217	83.12
290.448	97.12
290.679	84.12
290.91	84.12
291.141	83.12
291.371	88.12
291.602	89.12
291.833	97.12
292.064	91.12
292.295	84.12
292.526	85.12
292.757	77.12
292.987	89.12
293.218	85.12
293.449	89.12
293.68	90.12
293.91	87.12
294.141	85.12
294.372	101.12
294.603	93.12
294.833	102.12
295.064	82.12
295.295	84.12
295.525	80.12
295.756	99.12
295.987	115.12
296.217	114.12
296.448	121.12
296.679	86.12
296.909	85.12
297.14	81.12
297.37	87.12
297.601	89.12
297.831	78.12
298.062	88.12
298.292	79.12
298.523	89.12
298.753	85.12
298.984	85.12
299.214	82.12
299.445	87.12
299.675	97.12
299.905	112.12
300.136	75.12
300.366	76.12
300.597	93.12
300.827	86.12
301.057	82.12
301.288	89.12
301.518	100.12
301.748	91.12
301.979	95.12
302.209	97.12
302.439	103.12
302.669	100.12
302.9	87.12
303.13	99.12
303.36	97.12
303.59	105.12
303.82	99.12
304.051	94.12
304.281	92.12
304.511	87.12
304.741	76.12
304.971	91.12
305.201	88.12
305.431	99.12
305.661	85.12
305.891	96.12
306.121	99.12
306.352	99.12
306.582	111.12
306.812	92.12
307.042	100.12
307.272	91.12
307.502	92.12
307.731	91.12
307.961	103.12
308.191	95.12
308.421	99.12
308.651	91.12
308.881	99.12
309.111	104.12
309.341	88.12
309.571	91.12
309.8	82.12
310.03	103.12
310.26	79.12
310.49	82.12
310.72	92.12
310.949	95.12
311.179	103.12
311.409	89.12
311.639	94.12
311.868	87.12
312.098	90.12
312.328	93.12
312.557	96.12
312.787	72.12
313.017	97.12
313.246	98.12
313.476	95.12
313.706	88.12
313.935	92.12
314.165	104.12
314.394	103.12
314.624	92.12
314.853	110.12
315.083	98.12
315.312	85.12
315.542	84.12
315.771	87.12
316.001	93.12
316.23	84.12
316.46	80.12
316.689	76.12
316.919	97.12
317.148	93.12
317.377	86.12
317.607	99.12
317.836	91.12
318.065	102.12
318.295	96.12
318.524	95.12
318.753	92.12
318.983	94.12
319.212	107.12
319.441	107.12
319.67	95.12
319.9	87.12
320.129	87.12
320.358	87.12
320.587	99.12
320.816	83.12
321.046	106.12
321.275	112.12
321.504	105.12
321.733	94.12
321.962	97.12
322.191	91.12
322.42	97.12
322.649	89.12
322.878	104.12
323.108	110.12
323.337	129.12
323.566	111.12
323.795	159.12
324.024	180.12
324.253	329.12
324.482	692.12
324.71	1322.12
324.939	1697.12
325.168	647.12
325.397	212.12
325.626	155.12
325.855	117.12
326.084	105.12
326.313	100.12
326.542	138.12
326.77	201.12
326.999	377.12
327.228	761.12
327.457	1316.12
327.686	1063.12
327.914	305.12
328.143	179.12
328.372	139.12
328.6	128.12
328.829	106.12
329.058	132.12
329.287	122.12
329.515	117.12
329.744	95.12
329.972	87.12
330.201	93.12
330.43	80.12
330.658	109.12
330.887	122.12
331.115	111.12
331.344	77.12
331.572	99.12
331.801	93.12
332.03	99.12
332.258	96.12
332.486	90.12
332.715	91.12
332.943	93.12
333.172	103.12
333.4	79.12
333.629	105.12
333.857	126.12
334.085	99.12
334.314	107.12
334.542	108.12
334.771	84.12
334.999	107.12
335.227	94.12
335.455	103.12
335.684	91.12
335.912	105.12
336.14	103.12
336.369	104.12
336.597	85.12
336.825	91.12
337.053	83.12
337.281	91.12
337.51	94.12
337.738	101.12
337.966	85.12
338.194	79.12
338.422	82.12
338.65	106.12
338.878	92.12
339.106	87.12
339.334	96.12
339.562	92.12
339.79	95.12
340.018	88.12
340.246	91.12
340.474	90.12
340.702	92.12
340.93	94.12
341.158	103.12
341.386	76.12
341.614	108.12
341.842	93.12
342.07	88.12
342.298	104.12
342.526	78.12
342.754	90.12
342.981	93.12
343.209	78.12
343.437	85.12
343.665	81.12
343.893	95.12
344.12	95.12
344.348	83.12
344.576	85.12
344.804	98.12
345.031	87.12
345.259	91.12
345.487	95.12
345.714	99.12
345.942	80.12
346.17	93.12
346.397	91.12
346.625	98.12
346.853	86.12
347.08	85.12
347.308	88.12
347.535	91.12
347.763	97.12
347.99	93.12
348.218	94.12
348.445	101.12
348.673	99.12
348.9	105.12
349.128	93.12
349.355	82.12
349.583	98.12
349.81	98.12
350.037	97.12
350.265	82.12
350.492	91.12
350.72	100.12
350.947	96.12
351.174	92.12
351.402	110.12
351.629	100.12
351.856	112.12
352.083	90.12
352.311	105.12
352.538	91.12
352.765	106.12
352.992	98.12
353.22	110.12
353.447	104.12
353.674	95.12
353.901	105.12
354.128	104.12
354.355	106.12
354.583	106.12
354.81	107.12
355.037	96.12
355.264	105.12
355.491	99.12
355.718	98.12
355.945	104.12
356.172	88.12
356.399	84.12
356.626	94.12
356.853	104.12
357.08	85.12
357.307	100.12
357.534	87.12
357.761	83.12
357.988	103.12
358.215	97.12
358.441	94.12
358.668	96.12
358.895	85.12
359.122	87.12
359.349	91.12
359.576	82.12
359.802	90.12
360.029	88.12
360.256	97.12
360.483	82.12
360.709	91.12
360.936	87.12
361.163	106.12
361.39	99.12
361.616	87.12
361.843	79.12
362.07	87.12
362.296	83.12
362.523	103.12
362.749	85.12
362.976	80.12
363.203	95.12
363.429	82.12
363.656	79.12
363.882	74.12
364.109	103.12
364.335	82.12
364.562	86.12
364.788	93.12
365.015	91.12
365.241	100.12
365.468	101.12
365.694	107.12
365.92	89.12
366.147	91.12
366.373	87.12
366.599	78.12
366.826	97.12
367.052	75.12
367.278	84.12
367.505	83.12
367.731	89.12
367.957	101.12
368.184	91.12
368.41	90.12
368.636	102.12
368.862	125.12
369.089	95.12
369.315	97.12
369.541	90.12
369.767	86.12
369.993	79.12
370.219	96.12
370.445	85.12
370.672	74.12
370.898	88.12
371.124	97.12
371.35	85.12
371.576	85.12
371.802	89.12
372.028	81.12
372.254	73.12
372.48	83.12
372.706	83.12
372.932	87.12
373.158	83.12
373.384	87.12
373.61	86.12
373.835	87.12
374.061	97.12
374.287	100.12
374.513	86.12
374.739	83.12
374.965	71.12
375.191	93.12
375.416	89.12
375.642	87.12
375.868	88.12
376.094	90.12
376.319	93.12
376.545	93.12
376.771	86.12
376.997	81.12
377.222	73.12
377.448	83.12
377.674	91.12
377.899	85.12
378.125	98.12
378.35	90.12
378.576	88.12
378.802	76.12
379.027	103.12
379.253	97.12
379.478	97.12
379.704	88.12
379.929	92.12
380.155	88.12
380.38	90.12
380.606	95.12
380.831	76.12
381.057	101.12
381.282	95.12
381.507	101.12
381.733	101.12
381.958	98.12
382.184	101.12
382.409	90.12
382.634	113.12
382.86	82.12
383.085	93.12
383.31	88.12
383.535	76.12
383.761	97.12
383.986	97.12
384.211	90.12
384.436	87.12
384.662	92.12
384.887	97.12
385.112	95.12
385.337	105.12
385.562	82.12
385.787	110.12
386.013	108.12
386.238	94.12
386.463	95.12
386.688	116.12
386.913	93.12
387.138	104.12
387.363	93.12
387.588	96.12
387.813	95.12
388.038	99.12
388.263	104.12
388.488	103.12
388.713	98.12
388.938	99.12
389.163	94.12
389.387	96.12
389.612	85.12
389.837	83.12
390.062	87.12
390.287	86.12
390.512	96.12
390.736	99.12
390.961	87.12
391.186	93.12
391.411	99.12
391.636	100.12
391.86	76.12
392.085	84.12
392.31	87.12
392.534	88.12
392.759	97.12
392.984	86.12
393.208	79.12
393.433	92.12
393.658	93.12
393.882	92.12
394.107	89.12
394.331	77.12
394.556	84.12
394.78	82.12
395.005	89.12
395.229	97.12
395.454	98.12
395.678	92.12
395.903	90.12
396.127	96.12
396.352	95.12
396.576	84.12
396.801	95.12
397.025	93.12
397.249	83.12
397.474	91.12
397.698	88.12
397.922	78.12
398.147	90.12
398.371	86.12
398.595	87.12
398.82	77.12
399.044	86.12
399.268	91.12
399.492	104.12
399.717	79.12
399.941	85.12
400.165	92.12
400.389	103.12
400.613	87.12
400.837	74.12
401.062	90.12
401.286	88.12
401.51	89.12
401.734	95.12
401.958	90.12
402.182	109.12
402.406	126.12
402.63	116.12
402.854	91.12
403.078	98.12
403.302	89.12
403.526	83.12
403.75	101.12
403.974	88.12
404.198	82.12
404.422	80.12
404.645	94.12
404.869	85.12
405.093	103.12
405.317	92.12
405.541	107.12
405.765	109.12
405.988	113.12
406.212	144.12
406.436	199.12
406.66	128.12
406.883	97.12
407.107	77.12
407.331	79.12
407.555	76.12
407.778	93.12
408.002	83.12
408.226	91.12
408.449	85.12
408.673	99.12
408.896	106.12
409.12	87.12
409.344	97.12
409.567	78.12
409.791	83.12
410.014	111.12
410.238	108.12
410.461	79.12
410.685	90.12
410.908	92.12
411.132	109.12
411.355	102.12
411.578	84.12
411.802	92.12
412.025	76.12
412.249	86.12
412.472	96.12
412.695	81.12
412.919	85.12
413.142	77.12
413.365	69.12
413.589	79.12
413.812	89.12
414.035	87.12
414.258	96.12
414.482	101.12
414.705	90.12
414.928	92.12
415.151	97.12
415.374	92.12
415.597	90.12
415.821	89.12
416.044	84.12
416.267	83.12
416.49	85.12
416.713	92.12
416.936	88.12
417.159	77.12
417.382	85.12
417.605	92.12
417.828	91.12
418.051	80.12
418.274	77.12
418.497	86.12
418.72	88.12
418.943	84.12
419.166	85.12
419.389	94.12
419.611	85.12
419.834	90.12
420.057	93.12
420.28	87.12
420.503	100.12
420.726	89.12
420.948	88.12
421.171	81.12
421.394	91.12
421.617	95.12
421.839	80.12
422.062	93.12
422.285	102.12
422.507	82.12
422.73	84.12
422.953	96.12
423.175	75.12
423.398	78.12
423.621	93.12
423.843	69.12
424.066	88.12
424.288	88.12
424.511	85.12
424.733	88.12
424.956	83.12
425.178	78.12
425.401	96.12
425.623	88.12
425.846	74.12
426.068	97.12
426.291	81.12
426.513	81.12
426.735	90.12
426.958	78.12
427.18	87.12
427.402	114.12
427.625	133.12
427.847	106.12
428.069	88.12
428.292	72.12
428.514	92.12
428.736	68.12
428.958	78.12
429.181	68.12
429.403	76.12
429.625	91.12
429.847	99.12
430.069	96.12
430.292	104.12
430.514	92.12
430.736	92.12
430.958	88.12
431.18	72.12
431.402	71.12
431.624	79.12
431.846	89.12
432.068	77.12
432.29	83.12
432.512	86.12
432.734	80.12
432.956	86.12
433.178	103.12
433.4	99.12
433.622	97.12
433.844	86.12
434.066	90.12
434.287	92.12
434.509	89.12
434.731	106.12
434.953	95.12
435.175	91.12
435.397	90.12
435.618	87.12
435.84	92.12
436.062	108.12
436.284	124.12
436.505	114.12
436.727	98.12
436.949	87.12
437.17	92.12
437.392	93.12
437.614	88.12
437.835	90.12
438.057	101.12
438.278	99.12
438.5	81.12
438.721	104.12
438.943	94.12
439.165	71.12
439.386	97.12
439.608	93.12
439.829	92.12
440.05	111.12
440.272	133.12
440.493	90.12
440.715	93.12
440.936	89.12
441.158	85.12
441.379	97.12
441.6	89.12
441.822	90.12
442.043	83.12
442.264	88.12
442.486	90.12
442.707	79.12
442.928	104.12
443.149	115.12
443.371	128.12
443.592	110.12
443.813	111.12
444.034	93.12
444.255	76.12
444.476	97.12
444.698	68.12
444.919	94.12
445.14	133.12
445.361	115.12
445.582	111.12
445.803	108.12
446.024	125.12
446.245	100.12
446.466	101.12
446.687	79.12
446.908	87.12
447.129	90.12
447.35	78.12
447.571	98.12
447.792	89.12
448.013	97.12
448.234	101.12
448.455	101.12
448.675	104.12
448.896	110.12
449.117	100.12
449.338	93.12
449.559	119.12
449.779	130.12
450	89.12
450.221	82.12
450.442	98.12
450.662	94.12
450.883	86.12
451.104	103.12
451.324	84.12
451.545	78.12
451.766	88.12
451.986	81.12
452.207	92.12
452.428	77.12
452.648	87.12
452.869	99.12
453.089	106.12
453.31	113.12
453.53	95.12
453.751	101.12
453.971	99.12
454.192	93.12
454.412	84.12
454.633	80.12
454.853	76.12
455.073	78.12
455.294	88.12
455.514	97.12
455.734	103.12
455.955	85.12
456.175	82.12
456.395	78.12
456.616	71.12
456.836	81.12
457.056	78.12
457.276	82.12
457.497	84.12
457.717	87.12
457.937	85.12
458.157	79.12
458.377	83.12
458.598	112.12
458.818	118.12
459.038	129.12
459.258	122.12
459.478	91.12
459.698	80.12
459.918	96.12
460.138	73.12
460.358	78.12
460.578	77.12
460.798	80.12
461.018	90.12
461.238	91.12
461.458	83.12
461.678	84.12
461.898	79.12
462.118	81.12
462.338	90.12
462.558	89.12
462.777	84.12
462.997	87.12
463.217	76.12
463.437	76.12
463.657	74.12
463.876	83.12
464.096	77.12
464.316	84.12
464.536	90.12
464.755	87.12
464.975	90.12
465.195	148.12
465.414	118.12
465.634	96.12
465.854	95.12
466.073	86.12
466.293	88.12
466.512	87.12
466.732	73.12
466.951	83.12
467.171	90.12
467.391	95.12
467.61	83.12
467.829	98.12
468.049	90.12
468.268	74.12
468.488	83.12
468.707	89.12
468.927	80.12
469.146	74.12
469.365	69.12
469.585	92.12
469.804	89.12
470.023	95.12
470.243	93.12
470.462	97.12
470.681	98.12
470.901	93.12
471.12	97.12
471.339	79.12
471.558	95.12
471.777	87.12
471.997	92.12
472.216	91.12
472.435	95.12
472.654	84.12
472.873	91.12
473.092	88.12
473.311	90.12
473.53	64.12
473.749	87.12
473.968	74.12
474.187	99.12
474.406	83.12
474.625	76.12
474.844	71.12
475.063	89.12
475.282	92.12
475.501	85.12
475.72	87.12
475.939	82.12
476.158	74.12
476.377	86.12
476.596	95.12
476.814	76.12
477.033	86.12
477.252	89.12
477.471	81.12
477.69	88.12
477.908	88.12
478.127	88.12
478.346	89.12
478.564	92.12
478.783	96.12
479.002	96.12
479.22	84.12
479.439	98.12
479.658	100.12
479.876	89.12
480.095	94.12
480.313	84.12
480.532	89.12
480.751	91.12
480.969	79.12
481.188	97.12
481.406	96.12
481.624	73.12
481.843	85.12
482.061	88.12
482.28	92.12
482.498	84.12
482.717	80.12
482.935	97.12
483.153	88.12
483.372	88.12
483.59	88.12
483.808	82.12
484.027	80.12
484.245	86.12
484.463	94.12
484.681	97.12
484.9	74.12
485.118	82.12
485.336	98.12
485.554	88.12
485.772	101.12
485.99	99.12
486.209	97.12
486.427	95.12
486.645	93.12
486.863	103.12
487.081	97.12
487.299	88.12
487.517	105.12
487.735	89.12
487.953	85.12
488.171	83.12
488.389	92.12
488.607	84.12
488.825	90.12
489.043	90.12
489.261	92.12
489.479	83.12
489.696	75.12
489.914	94.12
490.132	97.12
490.35	82.12
490.568	78.12
490.786	81.12
491.003	85.12
491.221	64.12
491.439	87.12
491.657	96.12
491.874	94.12
492.092	92.12
492.31	95.12
492.527	104.12
492.745	88.12
492.963	88.12
493.18	96.12
493.398	89.12
493.615	108.12
493.833	77.12
494.05	91.12
494.268	84.12
494.485	107.12
494.703	78.12
494.92	86.12
495.138	88.12
495.355	101.12
495.573	88.12
495.79	94.12
496.008	89.12
496.225	93.12
496.442	79.12
496.66	93.12
496.877	86.12
497.094	96.12
497.312	78.12
497.529	89.12
497.746	96.12
497.963	85.12
498.181	76.12
498.398	101.12
498.615	105.12
498.832	101.12
499.049	87.12
499.267	97.12
499.484	99.12
499.701	88.12
499.918	83.12
500.135	72.12
500.352	89.12
500.569	89.12
500.786	89.12
501.003	88.12
501.22	82.12
501.437	98.12
501.654	92.12
501.871	105.12
502.088	91.12
502.305	98.12
502.522	85.12
502.739	84.12
502.956	77.12
503.172	97.12
503.389	87.12
503.606	98.12
503.823	83.12
504.04	83.12
504.256	85.12
504.473	83.12
504.69	85.12
504.907	92.12
505.123	81.12
505.34	75.12
505.557	86.12
505.773	84.12
505.99	87.12
506.207	100.12
506.423	91.12
506.64	83.12
506.856	91.12
507.073	86.12
507.289	81.12
507.506	93.12
507.722	113.12
507.939	97.12
508.155	92.12
508.372	91.12
508.588	96.12
508.805	101.12
509.021	92.12
509.238	102.12
509.454	94.12
509.67	107.12
509.887	100.12
510.103	139.12
510.319	198.12
510.536	642.12
510.752	2013.12
510.968	569.12
511.184	132.12
511.401	103.12
511.617	99.12
511.833	92.12
512.049	83.12
512.265	106.12
512.481	85.12
512.698	120.12
512.914	98.12
513.13	90.12
513.346	81.12
513.562	87.12
513.778	99.12
513.994	82.12
514.21	99.12
514.426	111.12
514.642	119.12
514.858	115.12
515.074	164.12
515.29	368.12
515.506	1207.12
515.721	442.12
515.937	139.12
516.153	107.12
516.369	85.12
516.585	89.12
516.801	95.12
517.016	92.12
