Data from Uncirc_1993_H10_HRD10591_00055.txt Node
Date: Wed Jan 03 11:43:03 EST 2024
User: Yrep
Spectrometer: HR+D1059
Trigger mode: 1
Integration Time (sec): 1.000000E-1
Scans to average: 1
Electric dark correction enabled: true
Nonlinearity correction enabled: false
Boxcar width: 0
XAxis mode: Wavelengths
Number of Pixels in Spectrum: 2048
>>>>>Begin Spectral Data<<<<<
223.165	-13.12
223.4	-13.12
223.635	-13.12
223.869	-18.12
224.104	-22.12
224.338	-7.12
224.573	-10.12
224.808	-20.12
225.042	0.88
225.277	-15.12
225.511	-8.12
225.746	8.88
225.98	8.88
226.215	16.88
226.449	1.88
226.683	11.88
226.918	21.88
227.152	42.88
227.387	30.88
227.621	40.88
227.856	44.88
228.09	44.88
228.324	43.88
228.559	58.88
228.793	56.88
229.027	83.88
229.262	80.88
229.496	77.88
229.73	91.88
229.964	80.88
230.199	79.88
230.433	66.88
230.667	80.88
230.901	82.88
231.136	68.88
231.37	81.88
231.604	78.88
231.838	96.88
232.072	80.88
232.306	69.88
232.541	74.88
232.775	90.88
233.009	86.88
233.243	77.88
233.477	84.88
233.711	77.88
233.945	88.88
234.179	79.88
234.413	86.88
234.647	69.88
234.881	82.88
235.115	76.88
235.349	78.88
235.583	83.88
235.817	79.88
236.051	91.88
236.285	82.88
236.519	93.88
236.753	75.88
236.987	81.88
237.221	92.88
237.455	86.88
237.689	79.88
237.922	78.88
238.156	69.88
238.39	71.88
238.624	68.88
238.858	82.88
239.091	80.88
239.325	80.88
239.559	69.88
239.793	87.88
240.027	92.88
240.26	76.88
240.494	86.88
240.728	81.88
240.961	79.88
241.195	95.88
241.429	79.88
241.662	79.88
241.896	70.88
242.13	69.88
242.363	67.88
242.597	71.88
242.83	86.88
243.064	70.88
243.298	76.88
243.531	71.88
243.765	74.88
243.998	65.88
244.232	76.88
244.465	80.88
244.699	78.88
244.932	86.88
245.166	67.88
245.399	81.88
245.633	93.88
245.866	79.88
246.099	78.88
246.333	90.88
246.566	76.88
246.8	78.88
247.033	81.88
247.266	77.88
247.5	89.88
247.733	76.88
247.966	88.88
248.2	80.88
248.433	92.88
248.666	90.88
248.899	75.88
249.133	87.88
249.366	91.88
249.599	92.88
249.832	99.88
250.066	71.88
250.299	83.88
250.532	89.88
250.765	82.88
250.998	77.88
251.231	78.88
251.465	69.88
251.698	80.88
251.931	78.88
252.164	104.88
252.397	90.88
252.63	90.88
252.863	91.88
253.096	82.88
253.329	87.88
253.562	83.88
253.795	80.88
254.028	81.88
254.261	99.88
254.494	88.88
254.727	92.88
254.96	79.88
255.193	83.88
255.426	98.88
255.659	97.88
255.892	93.88
256.124	84.88
256.357	86.88
256.59	82.88
256.823	75.88
257.056	76.88
257.289	79.88
257.521	99.88
257.754	86.88
257.987	83.88
258.22	72.88
258.452	82.88
258.685	72.88
258.918	85.88
259.151	92.88
259.383	83.88
259.616	76.88
259.849	84.88
260.081	83.88
260.314	99.88
260.547	94.88
260.779	92.88
261.012	66.88
261.244	87.88
261.477	103.88
261.71	89.88
261.942	102.88
262.175	98.88
262.407	99.88
262.64	74.88
262.872	85.88
263.105	83.88
263.337	88.88
263.57	71.88
263.802	88.88
264.035	87.88
264.267	95.88
264.499	90.88
264.732	85.88
264.964	71.88
265.197	84.88
265.429	69.88
265.661	71.88
265.894	90.88
266.126	86.88
266.358	90.88
266.591	71.88
266.823	80.88
267.055	94.88
267.287	92.88
267.52	75.88
267.752	86.88
267.984	71.88
268.216	77.88
268.448	93.88
268.681	84.88
268.913	80.88
269.145	78.88
269.377	94.88
269.609	81.88
269.841	81.88
270.073	93.88
270.306	90.88
270.538	88.88
270.77	71.88
271.002	87.88
271.234	92.88
271.466	83.88
271.698	84.88
271.93	81.88
272.162	86.88
272.394	93.88
272.626	90.88
272.858	86.88
273.09	91.88
273.322	91.88
273.553	93.88
273.785	76.88
274.017	94.88
274.249	79.88
274.481	79.88
274.713	81.88
274.945	80.88
275.176	88.88
275.408	85.88
275.64	73.88
275.872	86.88
276.104	85.88
276.335	89.88
276.567	92.88
276.799	115.88
277.031	91.88
277.262	75.88
277.494	82.88
277.726	90.88
277.957	76.88
278.189	91.88
278.421	86.88
278.652	89.88
278.884	95.88
279.115	81.88
279.347	64.88
279.579	84.88
279.81	78.88
280.042	97.88
280.273	84.88
280.505	82.88
280.736	86.88
280.968	98.88
281.199	87.88
281.431	95.88
281.662	90.88
281.894	86.88
282.125	103.88
282.356	133.88
282.588	128.88
282.819	107.88
283.051	94.88
283.282	74.88
283.513	87.88
283.745	87.88
283.976	91.88
284.207	93.88
284.439	78.88
284.67	93.88
284.901	81.88
285.132	89.88
285.364	92.88
285.595	90.88
285.826	96.88
286.057	84.88
286.288	95.88
286.52	93.88
286.751	77.88
286.982	96.88
287.213	82.88
287.444	106.88
287.675	94.88
287.906	88.88
288.138	88.88
288.369	85.88
288.6	83.88
288.831	86.88
289.062	78.88
289.293	88.88
289.524	97.88
289.755	88.88
289.986	86.88
290.217	95.88
290.448	83.88
290.679	92.88
290.91	82.88
291.141	96.88
291.371	80.88
291.602	90.88
291.833	91.88
292.064	95.88
292.295	102.88
292.526	86.88
292.757	93.88
292.987	90.88
293.218	97.88
293.449	86.88
293.68	96.88
293.91	85.88
294.141	91.88
294.372	90.88
294.603	109.88
294.833	82.88
295.064	99.88
295.295	106.88
295.525	94.88
295.756	99.88
295.987	108.88
296.217	128.88
296.448	130.88
296.679	105.88
296.909	97.88
297.14	96.88
297.37	82.88
297.601	96.88
297.831	104.88
298.062	91.88
298.292	86.88
298.523	94.88
298.753	92.88
298.984	86.88
299.214	94.88
299.445	95.88
299.675	96.88
299.905	102.88
300.136	99.88
300.366	86.88
300.597	86.88
300.827	103.88
301.057	99.88
301.288	109.88
301.518	97.88
301.748	74.88
301.979	96.88
302.209	80.88
302.439	86.88
302.669	98.88
302.9	91.88
303.13	88.88
303.36	94.88
303.59	99.88
303.82	99.88
304.051	87.88
304.281	86.88
304.511	85.88
304.741	87.88
304.971	82.88
305.201	88.88
305.431	90.88
305.661	88.88
305.891	98.88
306.121	92.88
306.352	104.88
306.582	102.88
306.812	105.88
307.042	89.88
307.272	82.88
307.502	80.88
307.731	82.88
307.961	76.88
308.191	87.88
308.421	96.88
308.651	99.88
308.881	92.88
309.111	104.88
309.341	104.88
309.571	111.88
309.8	116.88
310.03	89.88
310.26	108.88
310.49	95.88
310.72	94.88
310.949	103.88
311.179	99.88
311.409	89.88
311.639	84.88
311.868	100.88
312.098	90.88
312.328	97.88
312.557	106.88
312.787	102.88
313.017	102.88
313.246	103.88
313.476	90.88
313.706	101.88
313.935	96.88
314.165	96.88
314.394	100.88
314.624	91.88
314.853	99.88
315.083	80.88
315.312	112.88
315.542	100.88
315.771	81.88
316.001	87.88
316.23	89.88
316.46	85.88
316.689	89.88
316.919	95.88
317.148	93.88
317.377	96.88
317.607	92.88
317.836	98.88
318.065	89.88
318.295	85.88
318.524	91.88
318.753	88.88
318.983	94.88
319.212	94.88
319.441	99.88
319.67	110.88
319.9	85.88
320.129	99.88
320.358	86.88
320.587	101.88
320.816	106.88
321.046	110.88
321.275	96.88
321.504	95.88
321.733	101.88
321.962	98.88
322.191	116.88
322.42	104.88
322.649	111.88
322.878	107.88
323.108	115.88
323.337	117.88
323.566	127.88
323.795	142.88
324.024	197.88
324.253	349.88
324.482	711.88
324.71	1382.88
324.939	1802.88
325.168	686.88
325.397	222.88
325.626	143.88
325.855	124.88
326.084	124.88
326.313	118.88
326.542	136.88
326.77	203.88
326.999	386.88
327.228	786.88
327.457	1395.88
327.686	1109.88
327.914	309.88
328.143	158.88
328.372	129.88
328.6	124.88
328.829	125.88
329.058	124.88
329.287	129.88
329.515	110.88
329.744	98.88
329.972	101.88
330.201	101.88
330.43	113.88
330.658	112.88
330.887	138.88
331.115	116.88
331.344	106.88
331.572	101.88
331.801	103.88
332.03	98.88
332.258	88.88
332.486	86.88
332.715	100.88
332.943	107.88
333.172	110.88
333.4	103.88
333.629	106.88
333.857	99.88
334.085	102.88
334.314	96.88
334.542	97.88
334.771	107.88
334.999	94.88
335.227	97.88
335.455	98.88
335.684	98.88
335.912	107.88
336.14	97.88
336.369	102.88
336.597	92.88
336.825	91.88
337.053	90.88
337.281	104.88
337.51	88.88
337.738	79.88
337.966	92.88
338.194	82.88
338.422	88.88
338.65	102.88
338.878	102.88
339.106	87.88
339.334	95.88
339.562	91.88
339.79	87.88
340.018	93.88
340.246	109.88
340.474	97.88
340.702	95.88
340.93	97.88
341.158	102.88
341.386	86.88
341.614	96.88
341.842	89.88
342.07	104.88
342.298	82.88
342.526	96.88
342.754	93.88
342.981	99.88
343.209	93.88
343.437	89.88
343.665	81.88
343.893	90.88
344.12	96.88
344.348	99.88
344.576	96.88
344.804	95.88
345.031	91.88
345.259	96.88
345.487	86.88
345.714	95.88
345.942	100.88
346.17	87.88
346.397	84.88
346.625	92.88
346.853	99.88
347.08	99.88
347.308	101.88
347.535	111.88
347.763	87.88
347.99	80.88
348.218	91.88
348.445	91.88
348.673	108.88
348.9	102.88
349.128	94.88
349.355	99.88
349.583	96.88
349.81	101.88
350.037	97.88
350.265	110.88
350.492	108.88
350.72	102.88
350.947	118.88
351.174	115.88
351.402	103.88
351.629	92.88
351.856	92.88
352.083	101.88
352.311	104.88
352.538	104.88
352.765	98.88
352.992	108.88
353.22	116.88
353.447	101.88
353.674	103.88
353.901	100.88
354.128	86.88
354.355	94.88
354.583	103.88
354.81	104.88
355.037	88.88
355.264	100.88
355.491	98.88
355.718	90.88
355.945	96.88
356.172	81.88
356.399	93.88
356.626	100.88
356.853	94.88
357.08	102.88
357.307	94.88
357.534	86.88
357.761	83.88
357.988	102.88
358.215	96.88
358.441	91.88
358.668	93.88
358.895	98.88
359.122	105.88
359.349	90.88
359.576	86.88
359.802	94.88
360.029	93.88
360.256	106.88
360.483	107.88
360.709	89.88
360.936	95.88
361.163	110.88
361.39	103.88
361.616	101.88
361.843	101.88
362.07	93.88
362.296	94.88
362.523	94.88
362.749	97.88
362.976	89.88
363.203	110.88
363.429	94.88
363.656	100.88
363.882	95.88
364.109	96.88
364.335	92.88
364.562	94.88
364.788	98.88
365.015	84.88
365.241	100.88
365.468	123.88
365.694	97.88
365.92	91.88
366.147	83.88
366.373	87.88
366.599	95.88
366.826	97.88
367.052	93.88
367.278	86.88
367.505	95.88
367.731	97.88
367.957	96.88
368.184	95.88
368.41	97.88
368.636	99.88
368.862	116.88
369.089	111.88
369.315	101.88
369.541	93.88
369.767	91.88
369.993	87.88
370.219	93.88
370.445	96.88
370.672	86.88
370.898	98.88
371.124	101.88
371.35	87.88
371.576	100.88
371.802	94.88
372.028	85.88
372.254	95.88
372.48	86.88
372.706	104.88
372.932	92.88
373.158	90.88
373.384	85.88
373.61	95.88
373.835	86.88
374.061	91.88
374.287	79.88
374.513	82.88
374.739	90.88
374.965	97.88
375.191	94.88
375.416	92.88
375.642	79.88
375.868	94.88
376.094	97.88
376.319	100.88
376.545	96.88
376.771	90.88
376.997	86.88
377.222	92.88
377.448	96.88
377.674	90.88
377.899	84.88
378.125	79.88
378.35	95.88
378.576	92.88
378.802	87.88
379.027	81.88
379.253	100.88
379.478	96.88
379.704	94.88
379.929	92.88
380.155	109.88
380.38	88.88
380.606	94.88
380.831	93.88
381.057	89.88
381.282	94.88
381.507	98.88
381.733	88.88
381.958	90.88
382.184	87.88
382.409	103.88
382.634	97.88
382.86	97.88
383.085	99.88
383.31	104.88
383.535	88.88
383.761	86.88
383.986	95.88
384.211	98.88
384.436	89.88
384.662	110.88
384.887	104.88
385.112	98.88
385.337	92.88
385.562	98.88
385.787	104.88
386.013	92.88
386.238	108.88
386.463	109.88
386.688	116.88
386.913	96.88
387.138	103.88
387.363	109.88
387.588	102.88
387.813	85.88
388.038	114.88
388.263	117.88
388.488	114.88
388.713	105.88
388.938	93.88
389.163	97.88
389.387	95.88
389.612	101.88
389.837	91.88
390.062	93.88
390.287	82.88
390.512	101.88
390.736	105.88
390.961	103.88
391.186	100.88
391.411	104.88
391.636	88.88
391.86	87.88
392.085	87.88
392.31	95.88
392.534	81.88
392.759	92.88
392.984	104.88
393.208	83.88
393.433	96.88
393.658	108.88
393.882	88.88
394.107	85.88
394.331	89.88
394.556	94.88
394.78	108.88
395.005	97.88
395.229	87.88
395.454	83.88
395.678	82.88
395.903	91.88
396.127	94.88
396.352	102.88
396.576	97.88
396.801	100.88
397.025	95.88
397.249	80.88
397.474	93.88
397.698	84.88
397.922	96.88
398.147	85.88
398.371	85.88
398.595	99.88
398.82	68.88
399.044	100.88
399.268	98.88
399.492	80.88
399.717	85.88
399.941	92.88
400.165	104.88
400.389	107.88
400.613	88.88
400.837	92.88
401.062	84.88
401.286	86.88
401.51	90.88
401.734	87.88
401.958	99.88
402.182	105.88
402.406	134.88
402.63	110.88
402.854	82.88
403.078	78.88
403.302	85.88
403.526	95.88
403.75	95.88
403.974	83.88
404.198	90.88
404.422	99.88
404.645	95.88
404.869	93.88
405.093	108.88
405.317	94.88
405.541	97.88
405.765	99.88
405.988	125.88
406.212	154.88
406.436	209.88
406.66	133.88
406.883	107.88
407.107	103.88
407.331	92.88
407.555	95.88
407.778	108.88
408.002	84.88
408.226	90.88
408.449	90.88
408.673	97.88
408.896	88.88
409.12	94.88
409.344	86.88
409.567	84.88
409.791	104.88
410.014	107.88
410.238	109.88
410.461	106.88
410.685	102.88
410.908	108.88
411.132	107.88
411.355	98.88
411.578	103.88
411.802	85.88
412.025	80.88
412.249	100.88
412.472	92.88
412.695	93.88
412.919	78.88
413.142	99.88
413.365	100.88
413.589	94.88
413.812	94.88
414.035	116.88
414.258	88.88
414.482	94.88
414.705	87.88
414.928	71.88
415.151	91.88
415.374	100.88
415.597	90.88
415.821	88.88
416.044	94.88
416.267	98.88
416.49	91.88
416.713	77.88
416.936	84.88
417.159	99.88
417.382	85.88
417.605	87.88
417.828	88.88
418.051	99.88
418.274	78.88
418.497	90.88
418.72	81.88
418.943	80.88
419.166	90.88
419.389	85.88
419.611	100.88
419.834	95.88
420.057	77.88
420.28	93.88
420.503	93.88
420.726	91.88
420.948	88.88
421.171	72.88
421.394	106.88
421.617	97.88
421.839	94.88
422.062	92.88
422.285	87.88
422.507	96.88
422.73	103.88
422.953	98.88
423.175	79.88
423.398	89.88
423.621	96.88
423.843	97.88
424.066	93.88
424.288	86.88
424.511	87.88
424.733	111.88
424.956	94.88
425.178	90.88
425.401	114.88
425.623	91.88
425.846	86.88
426.068	95.88
426.291	82.88
426.513	96.88
426.735	106.88
426.958	88.88
427.18	97.88
427.402	140.88
427.625	150.88
427.847	116.88
428.069	95.88
428.292	87.88
428.514	87.88
428.736	86.88
428.958	80.88
429.181	91.88
429.403	81.88
429.625	100.88
429.847	96.88
430.069	92.88
430.292	86.88
430.514	87.88
430.736	85.88
430.958	83.88
431.18	93.88
431.402	88.88
431.624	86.88
431.846	98.88
432.068	84.88
432.29	80.88
432.512	93.88
432.734	86.88
432.956	90.88
433.178	103.88
433.4	90.88
433.622	108.88
433.844	100.88
434.066	90.88
434.287	94.88
434.509	104.88
434.731	91.88
434.953	74.88
435.175	82.88
435.397	87.88
435.618	98.88
435.84	88.88
436.062	114.88
436.284	111.88
436.505	91.88
436.727	84.88
436.949	84.88
437.17	95.88
437.392	85.88
437.614	101.88
437.835	90.88
438.057	109.88
438.278	101.88
438.5	102.88
438.721	116.88
438.943	110.88
439.165	96.88
439.386	104.88
439.608	94.88
439.829	84.88
440.05	123.88
440.272	125.88
440.493	111.88
440.715	91.88
440.936	89.88
441.158	87.88
441.379	92.88
441.6	95.88
441.822	99.88
442.043	90.88
442.264	112.88
442.486	96.88
442.707	94.88
442.928	96.88
443.149	116.88
443.371	120.88
443.592	101.88
443.813	119.88
444.034	107.88
444.255	97.88
444.476	86.88
444.698	95.88
444.919	85.88
445.14	120.88
445.361	123.88
445.582	109.88
445.803	125.88
446.024	111.88
446.245	125.88
446.466	110.88
446.687	96.88
446.908	98.88
447.129	98.88
447.35	91.88
447.571	94.88
447.792	83.88
448.013	99.88
448.234	113.88
448.455	97.88
448.675	124.88
448.896	114.88
449.117	92.88
449.338	99.88
449.559	130.88
449.779	135.88
450	94.88
450.221	104.88
450.442	93.88
450.662	105.88
450.883	96.88
451.104	123.88
451.324	90.88
451.545	100.88
451.766	97.88
451.986	87.88
452.207	80.88
452.428	108.88
452.648	100.88
452.869	99.88
453.089	106.88
453.31	123.88
453.53	89.88
453.751	99.88
453.971	123.88
454.192	96.88
454.412	98.88
454.633	95.88
454.853	95.88
455.073	88.88
455.294	94.88
455.514	99.88
455.734	81.88
455.955	78.88
456.175	88.88
456.395	87.88
456.616	82.88
456.836	92.88
457.056	91.88
457.276	69.88
457.497	91.88
457.717	89.88
457.937	91.88
458.157	102.88
458.377	104.88
458.598	109.88
458.818	136.88
459.038	146.88
459.258	115.88
459.478	95.88
459.698	89.88
459.918	90.88
460.138	97.88
460.358	74.88
460.578	99.88
460.798	92.88
461.018	100.88
461.238	98.88
461.458	75.88
461.678	81.88
461.898	95.88
462.118	84.88
462.338	71.88
462.558	96.88
462.777	98.88
462.997	89.88
463.217	89.88
463.437	99.88
463.657	93.88
463.876	78.88
464.096	91.88
464.316	94.88
464.536	100.88
464.755	77.88
464.975	108.88
465.195	150.88
465.414	141.88
465.634	94.88
465.854	80.88
466.073	74.88
466.293	86.88
466.512	99.88
466.732	69.88
466.951	79.88
467.171	88.88
467.391	99.88
467.61	96.88
467.829	92.88
468.049	90.88
468.268	93.88
468.488	88.88
468.707	94.88
468.927	72.88
469.146	82.88
469.365	96.88
469.585	84.88
469.804	99.88
470.023	104.88
470.243	95.88
470.462	104.88
470.681	118.88
470.901	92.88
471.12	80.88
471.339	87.88
471.558	101.88
471.777	95.88
471.997	87.88
472.216	99.88
472.435	107.88
472.654	86.88
472.873	78.88
473.092	90.88
473.311	75.88
473.53	81.88
473.749	96.88
473.968	100.88
474.187	95.88
474.406	109.88
474.625	107.88
474.844	104.88
475.063	92.88
475.282	99.88
475.501	97.88
475.72	105.88
475.939	86.88
476.158	69.88
476.377	102.88
476.596	94.88
476.814	87.88
477.033	87.88
477.252	86.88
477.471	100.88
477.69	99.88
477.908	77.88
478.127	89.88
478.346	100.88
478.564	81.88
478.783	100.88
479.002	102.88
479.22	122.88
479.439	101.88
479.658	93.88
479.876	105.88
480.095	90.88
480.313	86.88
480.532	84.88
480.751	94.88
480.969	103.88
481.188	108.88
481.406	101.88
481.624	82.88
481.843	90.88
482.061	79.88
482.28	102.88
482.498	82.88
482.717	75.88
482.935	100.88
483.153	92.88
483.372	88.88
483.59	87.88
483.808	103.88
484.027	84.88
484.245	91.88
484.463	90.88
484.681	94.88
484.9	91.88
485.118	91.88
485.336	85.88
485.554	96.88
485.772	114.88
485.99	103.88
486.209	104.88
486.427	102.88
486.645	106.88
486.863	122.88
487.081	96.88
487.299	106.88
487.517	99.88
487.735	103.88
487.953	102.88
488.171	104.88
488.389	93.88
488.607	91.88
488.825	94.88
489.043	102.88
489.261	110.88
489.479	99.88
489.696	78.88
489.914	90.88
490.132	94.88
490.35	87.88
490.568	82.88
490.786	73.88
491.003	82.88
491.221	83.88
491.439	82.88
491.657	99.88
491.874	92.88
492.092	92.88
492.31	104.88
492.527	95.88
492.745	100.88
492.963	108.88
493.18	96.88
493.398	96.88
493.615	100.88
493.833	95.88
494.05	78.88
494.268	91.88
494.485	86.88
494.703	100.88
494.92	90.88
495.138	103.88
495.355	94.88
495.573	95.88
495.79	93.88
496.008	92.88
496.225	89.88
496.442	94.88
496.66	86.88
496.877	95.88
497.094	102.88
497.312	88.88
497.529	95.88
497.746	95.88
497.963	101.88
498.181	83.88
498.398	96.88
498.615	102.88
498.832	94.88
499.049	90.88
499.267	98.88
499.484	113.88
499.701	89.88
499.918	98.88
500.135	100.88
500.352	89.88
500.569	88.88
500.786	84.88
501.003	89.88
501.22	85.88
501.437	95.88
501.654	88.88
501.871	110.88
502.088	100.88
502.305	84.88
502.522	82.88
502.739	82.88
502.956	90.88
503.172	90.88
503.389	105.88
503.606	105.88
503.823	95.88
504.04	101.88
504.256	100.88
504.473	93.88
504.69	87.88
504.907	111.88
505.123	88.88
505.34	97.88
505.557	91.88
505.773	102.88
505.99	86.88
506.207	94.88
506.423	101.88
506.64	110.88
506.856	104.88
507.073	92.88
507.289	83.88
507.506	99.88
507.722	99.88
507.939	120.88
508.155	90.88
508.372	96.88
508.588	94.88
508.805	95.88
509.021	84.88
509.238	103.88
509.454	97.88
509.67	104.88
509.887	107.88
510.103	142.88
510.319	203.88
510.536	690.88
510.752	2175.88
510.968	592.88
511.184	153.88
511.401	114.88
511.617	92.88
511.833	101.88
512.049	101.88
512.265	99.88
512.481	85.88
512.698	95.88
512.914	86.88
513.13	80.88
513.346	83.88
513.562	96.88
513.778	88.88
513.994	94.88
514.21	95.88
514.426	115.88
514.642	122.88
514.858	137.88
515.074	154.88
515.29	424.88
