Data from Uncirc_1993_H10_HRD10591_00094.txt Node
Date: Wed Jan 03 11:43:11 EST 2024
User: Yrep
Spectrometer: HR+D1059
Trigger mode: 1
Integration Time (sec): 1.000000E-1
Scans to average: 1
Electric dark correction enabled: true
Nonlinearity correction enabled: false
Boxcar width: 0
XAxis mode: Wavelengths
Number of Pixels in Spectrum: 2048
>>>>>Begin Spectral Data<<<<<
223.165	-15.62
223.4	-15.62
223.635	-15.62
223.869	-20.62
224.104	-19.62
224.338	-22.62
224.573	-4.62
224.808	-19.62
225.042	-25.62
225.277	-1.62
225.511	6.38
225.746	5.38
225.98	13.38
226.215	18.38
226.449	21.38
226.683	10.38
226.918	25.38
227.152	29.38
227.387	27.38
227.621	52.38
227.856	59.38
228.09	46.38
228.324	51.38
228.559	44.38
228.793	51.38
229.027	64.38
229.262	71.38
229.496	78.38
229.73	77.38
229.964	84.38
230.199	82.38
230.433	71.38
230.667	85.38
230.901	75.38
231.136	69.38
231.37	90.38
231.604	86.38
231.838	92.38
232.072	88.38
232.306	77.38
232.541	69.38
232.775	75.38
233.009	65.38
233.243	79.38
233.477	86.38
233.711	81.38
233.945	86.38
234.179	67.38
234.413	90.38
234.647	75.38
234.881	68.38
235.115	84.38
235.349	85.38
235.583	78.38
235.817	79.38
236.051	66.38
236.285	66.38
236.519	80.38
236.753	76.38
236.987	76.38
237.221	81.38
237.455	85.38
237.689	80.38
237.922	68.38
238.156	78.38
238.39	68.38
238.624	69.38
238.858	87.38
239.091	65.38
239.325	68.38
239.559	76.38
239.793	83.38
240.027	78.38
240.26	75.38
240.494	81.38
240.728	65.38
240.961	92.38
241.195	90.38
241.429	80.38
241.662	81.38
241.896	85.38
242.13	65.38
242.363	81.38
242.597	99.38
242.83	84.38
243.064	78.38
243.298	59.38
243.531	77.38
243.765	68.38
243.998	80.38
244.232	72.38
244.465	78.38
244.699	84.38
244.932	64.38
245.166	78.38
245.399	86.38
245.633	80.38
245.866	76.38
246.099	64.38
246.333	67.38
246.566	80.38
246.8	68.38
247.033	66.38
247.266	78.38
247.5	70.38
247.733	73.38
247.966	84.38
248.2	92.38
248.433	78.38
248.666	83.38
248.899	84.38
249.133	88.38
249.366	79.38
249.599	98.38
249.832	78.38
250.066	80.38
250.299	86.38
250.532	67.38
250.765	82.38
250.998	68.38
251.231	80.38
251.465	82.38
251.698	79.38
251.931	82.38
252.164	96.38
252.397	88.38
252.63	78.38
252.863	64.38
253.096	80.38
253.329	71.38
253.562	74.38
253.795	81.38
254.028	69.38
254.261	73.38
254.494	92.38
254.727	84.38
254.96	88.38
255.193	81.38
255.426	79.38
255.659	80.38
255.892	85.38
256.124	84.38
256.357	85.38
256.59	78.38
256.823	74.38
257.056	73.38
257.289	101.38
257.521	101.38
257.754	81.38
257.987	78.38
258.22	83.38
258.452	74.38
258.685	69.38
258.918	86.38
259.151	86.38
259.383	77.38
259.616	76.38
259.849	73.38
260.081	80.38
260.314	81.38
260.547	80.38
260.779	88.38
261.012	90.38
261.244	77.38
261.477	94.38
261.71	92.38
261.942	104.38
262.175	112.38
262.407	96.38
262.64	73.38
262.872	87.38
263.105	97.38
263.337	75.38
263.57	89.38
263.802	90.38
264.035	87.38
264.267	76.38
264.499	66.38
264.732	80.38
264.964	83.38
265.197	90.38
265.429	92.38
265.661	76.38
265.894	74.38
266.126	77.38
266.358	84.38
266.591	89.38
266.823	82.38
267.055	74.38
267.287	93.38
267.52	82.38
267.752	82.38
267.984	88.38
268.216	81.38
268.448	77.38
268.681	76.38
268.913	74.38
269.145	82.38
269.377	67.38
269.609	76.38
269.841	86.38
270.073	81.38
270.306	80.38
270.538	86.38
270.77	90.38
271.002	82.38
271.234	70.38
271.466	88.38
271.698	78.38
271.93	77.38
272.162	83.38
272.394	80.38
272.626	86.38
272.858	81.38
273.09	79.38
273.322	94.38
273.553	91.38
273.785	80.38
274.017	81.38
274.249	84.38
274.481	88.38
274.713	83.38
274.945	69.38
275.176	82.38
275.408	78.38
275.64	89.38
275.872	83.38
276.104	74.38
276.335	88.38
276.567	77.38
276.799	106.38
277.031	88.38
277.262	90.38
277.494	89.38
277.726	77.38
277.957	83.38
278.189	73.38
278.421	91.38
278.652	78.38
278.884	89.38
279.115	88.38
279.347	80.38
279.579	64.38
279.81	81.38
280.042	83.38
280.273	83.38
280.505	81.38
280.736	86.38
280.968	99.38
281.199	94.38
281.431	76.38
281.662	99.38
281.894	77.38
282.125	102.38
282.356	117.38
282.588	117.38
282.819	116.38
283.051	73.38
283.282	82.38
283.513	91.38
283.745	93.38
283.976	80.38
284.207	84.38
284.439	89.38
284.67	87.38
284.901	88.38
285.132	74.38
285.364	76.38
285.595	77.38
285.826	88.38
286.057	92.38
286.288	64.38
286.52	73.38
286.751	96.38
286.982	89.38
287.213	71.38
287.444	90.38
287.675	83.38
287.906	84.38
288.138	81.38
288.369	77.38
288.6	91.38
288.831	95.38
289.062	95.38
289.293	89.38
289.524	88.38
289.755	76.38
289.986	92.38
290.217	91.38
290.448	87.38
290.679	89.38
290.91	89.38
291.141	88.38
291.371	92.38
291.602	76.38
291.833	82.38
292.064	92.38
292.295	73.38
292.526	86.38
292.757	93.38
292.987	85.38
293.218	82.38
293.449	82.38
293.68	75.38
293.91	66.38
294.141	85.38
294.372	90.38
294.603	85.38
294.833	90.38
295.064	85.38
295.295	100.38
295.525	95.38
295.756	90.38
295.987	117.38
296.217	129.38
296.448	110.38
296.679	90.38
296.909	107.38
297.14	93.38
297.37	93.38
297.601	83.38
297.831	77.38
298.062	85.38
298.292	96.38
298.523	96.38
298.753	77.38
298.984	86.38
299.214	95.38
299.445	96.38
299.675	99.38
299.905	83.38
300.136	96.38
300.366	81.38
300.597	84.38
300.827	86.38
301.057	91.38
301.288	112.38
301.518	84.38
301.748	88.38
301.979	97.38
302.209	84.38
302.439	105.38
302.669	92.38
302.9	84.38
303.13	86.38
303.36	92.38
303.59	100.38
303.82	103.38
304.051	96.38
304.281	91.38
304.511	87.38
304.741	92.38
304.971	82.38
305.201	92.38
305.431	80.38
305.661	74.38
305.891	76.38
306.121	89.38
306.352	102.38
306.582	90.38
306.812	95.38
307.042	96.38
307.272	89.38
307.502	93.38
307.731	77.38
307.961	96.38
308.191	94.38
308.421	84.38
308.651	98.38
308.881	84.38
309.111	94.38
309.341	99.38
309.571	91.38
309.8	84.38
310.03	86.38
310.26	94.38
310.49	103.38
310.72	97.38
310.949	95.38
311.179	93.38
311.409	85.38
311.639	85.38
311.868	92.38
312.098	102.38
312.328	99.38
312.557	116.38
312.787	97.38
313.017	100.38
313.246	109.38
313.476	92.38
313.706	78.38
313.935	87.38
314.165	92.38
314.394	83.38
314.624	88.38
314.853	97.38
315.083	97.38
315.312	90.38
315.542	89.38
315.771	89.38
316.001	83.38
316.23	97.38
316.46	76.38
316.689	91.38
316.919	89.38
317.148	95.38
317.377	85.38
317.607	97.38
317.836	106.38
318.065	99.38
318.295	102.38
318.524	92.38
318.753	85.38
318.983	92.38
319.212	90.38
319.441	98.38
319.67	106.38
319.9	100.38
320.129	112.38
320.358	97.38
320.587	94.38
320.816	93.38
321.046	105.38
321.275	107.38
321.504	92.38
321.733	95.38
321.962	100.38
322.191	99.38
322.42	105.38
322.649	109.38
322.878	111.38
323.108	110.38
323.337	120.38
323.566	118.38
323.795	158.38
324.024	180.38
324.253	335.38
324.482	652.38
324.71	1301.38
324.939	1677.38
325.168	637.38
325.397	202.38
325.626	140.38
325.855	133.38
326.084	116.38
326.313	131.38
326.542	126.38
326.77	217.38
326.999	377.38
327.228	750.38
327.457	1341.38
327.686	1055.38
327.914	304.38
328.143	170.38
328.372	126.38
328.6	112.38
328.829	112.38
329.058	128.38
329.287	129.38
329.515	109.38
329.744	93.38
329.972	82.38
330.201	95.38
330.43	105.38
330.658	106.38
330.887	132.38
331.115	109.38
331.344	94.38
331.572	101.38
331.801	84.38
332.03	99.38
332.258	92.38
332.486	92.38
332.715	86.38
332.943	102.38
333.172	84.38
333.4	94.38
333.629	103.38
333.857	100.38
334.085	99.38
334.314	84.38
334.542	104.38
334.771	102.38
334.999	95.38
335.227	97.38
335.455	83.38
335.684	93.38
335.912	101.38
336.14	90.38
336.369	111.38
336.597	102.38
336.825	101.38
337.053	93.38
337.281	120.38
337.51	102.38
337.738	103.38
337.966	91.38
338.194	87.38
338.422	97.38
338.65	94.38
338.878	88.38
339.106	94.38
339.334	88.38
339.562	86.38
339.79	85.38
340.018	77.38
340.246	100.38
340.474	87.38
340.702	96.38
340.93	93.38
341.158	96.38
341.386	100.38
341.614	96.38
341.842	94.38
342.07	100.38
342.298	93.38
342.526	88.38
342.754	92.38
342.981	68.38
343.209	99.38
343.437	100.38
343.665	85.38
343.893	91.38
344.12	91.38
344.348	105.38
344.576	81.38
344.804	76.38
345.031	99.38
345.259	100.38
345.487	80.38
345.714	85.38
345.942	84.38
346.17	103.38
346.397	105.38
346.625	104.38
346.853	96.38
347.08	90.38
347.308	80.38
347.535	82.38
347.763	96.38
347.99	97.38
348.218	115.38
348.445	101.38
348.673	93.38
348.9	94.38
349.128	98.38
349.355	91.38
349.583	95.38
349.81	96.38
350.037	98.38
350.265	92.38
350.492	100.38
350.72	89.38
350.947	102.38
351.174	103.38
351.402	111.38
351.629	113.38
351.856	109.38
352.083	109.38
352.311	93.38
352.538	112.38
352.765	102.38
352.992	105.38
353.22	107.38
353.447	92.38
353.674	118.38
353.901	96.38
354.128	85.38
354.355	97.38
354.583	96.38
354.81	102.38
355.037	86.38
355.264	88.38
355.491	91.38
355.718	109.38
355.945	98.38
356.172	88.38
356.399	88.38
356.626	101.38
356.853	88.38
357.08	90.38
357.307	96.38
357.534	88.38
357.761	93.38
357.988	98.38
358.215	84.38
358.441	85.38
358.668	92.38
358.895	81.38
359.122	78.38
359.349	106.38
359.576	93.38
359.802	78.38
360.029	113.38
360.256	104.38
360.483	102.38
360.709	75.38
360.936	83.38
361.163	82.38
361.39	96.38
361.616	86.38
361.843	85.38
362.07	90.38
362.296	88.38
362.523	94.38
362.749	93.38
362.976	86.38
363.203	94.38
363.429	90.38
363.656	93.38
363.882	76.38
364.109	88.38
364.335	91.38
364.562	92.38
364.788	91.38
365.015	91.38
365.241	98.38
365.468	89.38
365.694	87.38
365.92	93.38
366.147	77.38
366.373	79.38
366.599	88.38
366.826	95.38
367.052	92.38
367.278	83.38
367.505	84.38
367.731	88.38
367.957	101.38
368.184	88.38
368.41	102.38
368.636	128.38
368.862	102.38
369.089	106.38
369.315	93.38
369.541	93.38
369.767	83.38
369.993	83.38
370.219	102.38
370.445	88.38
370.672	85.38
370.898	95.38
371.124	85.38
371.35	86.38
371.576	88.38
371.802	83.38
372.028	74.38
372.254	85.38
372.48	95.38
372.706	74.38
372.932	93.38
373.158	98.38
373.384	99.38
373.61	74.38
373.835	85.38
374.061	96.38
374.287	80.38
374.513	94.38
374.739	89.38
374.965	108.38
375.191	86.38
375.416	80.38
375.642	87.38
375.868	86.38
376.094	88.38
376.319	83.38
376.545	75.38
376.771	87.38
376.997	77.38
377.222	84.38
377.448	89.38
377.674	94.38
377.899	95.38
378.125	91.38
378.35	88.38
378.576	92.38
378.802	81.38
379.027	90.38
379.253	103.38
379.478	89.38
379.704	86.38
379.929	82.38
380.155	98.38
380.38	100.38
380.606	94.38
380.831	76.38
381.057	106.38
381.282	97.38
381.507	94.38
381.733	85.38
381.958	70.38
382.184	87.38
382.409	104.38
382.634	115.38
382.86	99.38
383.085	100.38
383.31	101.38
383.535	104.38
383.761	104.38
383.986	102.38
384.211	95.38
384.436	92.38
384.662	86.38
384.887	92.38
385.112	100.38
385.337	94.38
385.562	102.38
385.787	96.38
386.013	97.38
386.238	102.38
386.463	95.38
386.688	103.38
386.913	90.38
387.138	102.38
387.363	91.38
387.588	74.38
387.813	98.38
388.038	102.38
388.263	106.38
388.488	108.38
388.713	99.38
388.938	97.38
389.163	95.38
389.387	102.38
389.612	93.38
389.837	85.38
390.062	93.38
390.287	100.38
390.512	94.38
390.736	89.38
390.961	98.38
391.186	99.38
391.411	89.38
391.636	85.38
391.86	69.38
392.085	90.38
392.31	91.38
392.534	86.38
392.759	80.38
392.984	91.38
393.208	80.38
393.433	92.38
393.658	89.38
393.882	85.38
394.107	81.38
394.331	78.38
394.556	92.38
394.78	91.38
395.005	79.38
395.229	90.38
395.454	88.38
395.678	81.38
395.903	84.38
396.127	88.38
396.352	81.38
396.576	83.38
396.801	88.38
397.025	83.38
397.249	94.38
397.474	90.38
397.698	76.38
397.922	83.38
398.147	96.38
398.371	89.38
398.595	83.38
398.82	82.38
399.044	94.38
399.268	84.38
399.492	80.38
399.717	85.38
399.941	81.38
400.165	89.38
400.389	85.38
400.613	85.38
400.837	77.38
401.062	94.38
401.286	91.38
401.51	87.38
401.734	97.38
401.958	92.38
402.182	116.38
402.406	139.38
402.63	118.38
402.854	74.38
403.078	75.38
403.302	85.38
403.526	82.38
403.75	86.38
403.974	88.38
404.198	107.38
404.422	86.38
404.645	81.38
404.869	100.38
405.093	78.38
405.317	75.38
405.541	91.38
405.765	89.38
405.988	111.38
406.212	162.38
406.436	204.38
406.66	140.38
406.883	102.38
407.107	88.38
407.331	101.38
407.555	97.38
407.778	90.38
408.002	99.38
408.226	91.38
408.449	76.38
408.673	96.38
408.896	90.38
409.12	82.38
409.344	92.38
409.567	79.38
409.791	85.38
410.014	102.38
410.238	91.38
410.461	110.38
410.685	84.38
410.908	92.38
411.132	93.38
411.355	95.38
411.578	93.38
411.802	77.38
412.025	92.38
412.249	91.38
412.472	88.38
412.695	82.38
412.919	77.38
413.142	92.38
413.365	94.38
413.589	90.38
413.812	77.38
414.035	78.38
414.258	99.38
414.482	97.38
414.705	93.38
414.928	102.38
415.151	87.38
415.374	85.38
415.597	97.38
415.821	93.38
416.044	93.38
416.267	85.38
416.49	87.38
416.713	71.38
416.936	80.38
417.159	88.38
417.382	83.38
417.605	78.38
417.828	86.38
418.051	98.38
418.274	86.38
418.497	95.38
418.72	91.38
418.943	91.38
419.166	77.38
419.389	90.38
419.611	89.38
419.834	89.38
420.057	85.38
420.28	90.38
420.503	82.38
420.726	85.38
420.948	95.38
421.171	94.38
421.394	89.38
421.617	102.38
421.839	98.38
422.062	89.38
422.285	106.38
422.507	102.38
422.73	98.38
422.953	77.38
423.175	86.38
423.398	87.38
423.621	84.38
423.843	98.38
424.066	84.38
424.288	94.38
424.511	84.38
424.733	102.38
424.956	104.38
425.178	90.38
425.401	95.38
425.623	91.38
425.846	82.38
426.068	83.38
426.291	94.38
426.513	88.38
426.735	95.38
426.958	90.38
427.18	111.38
427.402	132.38
427.625	132.38
427.847	125.38
428.069	107.38
428.292	79.38
428.514	83.38
428.736	74.38
428.958	83.38
429.181	91.38
429.403	74.38
429.625	78.38
429.847	90.38
430.069	102.38
430.292	93.38
430.514	73.38
430.736	81.38
430.958	89.38
431.18	78.38
431.402	78.38
431.624	95.38
431.846	84.38
432.068	98.38
432.29	98.38
432.512	75.38
432.734	92.38
432.956	83.38
433.178	98.38
433.4	93.38
433.622	89.38
433.844	89.38
434.066	80.38
434.287	84.38
434.509	82.38
434.731	82.38
434.953	77.38
435.175	85.38
435.397	92.38
435.618	79.38
435.84	89.38
436.062	103.38
436.284	111.38
436.505	104.38
436.727	100.38
436.949	85.38
437.17	92.38
437.392	91.38
437.614	107.38
437.835	96.38
438.057	106.38
438.278	110.38
438.5	102.38
438.721	110.38
438.943	88.38
439.165	78.38
439.386	89.38
439.608	95.38
439.829	87.38
440.05	101.38
440.272	117.38
440.493	98.38
440.715	78.38
440.936	80.38
441.158	86.38
441.379	82.38
441.6	97.38
441.822	96.38
442.043	96.38
442.264	88.38
442.486	103.38
442.707	80.38
442.928	99.38
443.149	114.38
443.371	121.38
443.592	93.38
443.813	105.38
444.034	94.38
444.255	83.38
444.476	87.38
444.698	104.38
444.919	97.38
445.14	140.38
445.361	130.38
445.582	101.38
445.803	112.38
446.024	119.38
446.245	114.38
446.466	117.38
446.687	83.38
446.908	96.38
447.129	77.38
447.35	91.38
447.571	85.38
447.792	84.38
448.013	90.38
448.234	111.38
448.455	101.38
448.675	117.38
448.896	120.38
449.117	110.38
449.338	99.38
449.559	115.38
449.779	125.38
450	102.38
450.221	78.38
450.442	84.38
450.662	92.38
450.883	110.38
451.104	115.38
451.324	91.38
451.545	88.38
451.766	89.38
451.986	80.38
452.207	90.38
452.428	96.38
452.648	98.38
452.869	107.38
453.089	97.38
453.31	109.38
453.53	96.38
453.751	85.38
453.971	101.38
454.192	98.38
454.412	100.38
454.633	91.38
454.853	75.38
455.073	83.38
455.294	96.38
455.514	94.38
455.734	83.38
455.955	86.38
456.175	82.38
456.395	83.38
456.616	77.38
456.836	72.38
457.056	82.38
457.276	95.38
457.497	91.38
457.717	77.38
457.937	82.38
458.157	81.38
458.377	77.38
458.598	105.38
458.818	131.38
459.038	144.38
459.258	96.38
459.478	83.38
459.698	84.38
459.918	82.38
460.138	83.38
460.358	86.38
460.578	94.38
460.798	85.38
461.018	95.38
461.238	108.38
461.458	81.38
461.678	76.38
461.898	95.38
462.118	86.38
462.338	94.38
462.558	89.38
462.777	96.38
462.997	88.38
463.217	92.38
463.437	90.38
463.657	96.38
463.876	84.38
464.096	82.38
464.316	97.38
464.536	96.38
464.755	80.38
464.975	93.38
465.195	136.38
465.414	136.38
465.634	86.38
465.854	80.38
466.073	85.38
466.293	94.38
466.512	85.38
466.732	82.38
466.951	86.38
467.171	83.38
467.391	109.38
467.61	98.38
467.829	83.38
468.049	82.38
468.268	94.38
468.488	98.38
468.707	96.38
468.927	93.38
469.146	96.38
469.365	95.38
469.585	84.38
469.804	98.38
470.023	88.38
470.243	89.38
470.462	89.38
470.681	109.38
470.901	81.38
471.12	73.38
471.339	91.38
471.558	90.38
471.777	89.38
471.997	73.38
472.216	91.38
472.435	99.38
472.654	93.38
472.873	77.38
473.092	85.38
473.311	85.38
473.53	91.38
473.749	101.38
473.968	92.38
474.187	113.38
474.406	85.38
474.625	83.38
474.844	86.38
475.063	83.38
475.282	87.38
475.501	80.38
475.72	81.38
475.939	73.38
476.158	84.38
476.377	71.38
476.596	84.38
476.814	103.38
477.033	88.38
477.252	97.38
477.471	86.38
477.69	73.38
477.908	96.38
478.127	100.38
478.346	78.38
478.564	77.38
478.783	99.38
479.002	84.38
479.22	93.38
479.439	95.38
479.658	92.38
479.876	80.38
480.095	86.38
480.313	91.38
480.532	99.38
480.751	102.38
480.969	100.38
481.188	99.38
481.406	107.38
481.624	97.38
481.843	96.38
482.061	114.38
482.28	91.38
482.498	84.38
482.717	96.38
482.935	88.38
483.153	74.38
483.372	93.38
483.59	108.38
483.808	92.38
484.027	97.38
484.245	92.38
484.463	96.38
484.681	93.38
484.9	100.38
485.118	82.38
485.336	108.38
485.554	83.38
485.772	102.38
485.99	97.38
486.209	98.38
486.427	101.38
486.645	115.38
486.863	97.38
487.081	96.38
487.299	84.38
487.517	92.38
487.735	102.38
487.953	97.38
488.171	98.38
488.389	104.38
488.607	107.38
488.825	73.38
489.043	77.38
489.261	83.38
489.479	84.38
489.696	101.38
489.914	92.38
490.132	104.38
490.35	74.38
490.568	77.38
490.786	97.38
491.003	103.38
491.221	101.38
491.439	90.38
491.657	94.38
491.874	90.38
492.092	80.38
492.31	96.38
492.527	95.38
492.745	93.38
492.963	101.38
493.18	83.38
493.398	99.38
493.615	102.38
493.833	99.38
494.05	92.38
494.268	75.38
494.485	86.38
494.703	84.38
494.92	88.38
495.138	82.38
495.355	69.38
495.573	90.38
495.79	78.38
496.008	64.38
496.225	90.38
496.442	86.38
496.66	96.38
496.877	99.38
497.094	91.38
497.312	90.38
497.529	90.38
497.746	93.38
497.963	95.38
498.181	93.38
498.398	94.38
498.615	113.38
498.832	96.38
499.049	96.38
499.267	95.38
499.484	107.38
499.701	97.38
499.918	94.38
500.135	94.38
500.352	91.38
500.569	94.38
500.786	86.38
501.003	81.38
501.22	94.38
501.437	88.38
501.654	102.38
501.871	102.38
502.088	87.38
502.305	94.38
502.522	73.38
502.739	97.38
502.956	99.38
503.172	89.38
503.389	91.38
503.606	94.38
503.823	96.38
504.04	93.38
504.256	83.38
504.473	84.38
504.69	88.38
504.907	99.38
505.123	101.38
505.34	94.38
505.557	96.38
505.773	93.38
505.99	91.38
506.207	99.38
506.423	99.38
506.64	86.38
506.856	97.38
507.073	96.38
507.289	85.38
507.506	83.38
507.722	101.38
507.939	97.38
508.155	79.38
508.372	95.38
508.588	94.38
508.805	80.38
509.021	93.38
509.238	91.38
509.454	93.38
509.67	97.38
509.887	115.38
510.103	117.38
510.319	188.38
510.536	671.38
510.752	2057.38
510.968	564.38
511.184	139.38
511.401	115.38
511.617	88.38
511.833	98.38
512.049	101.38
512.265	95.38
512.481	91.38
512.698	86.38
512.914	84.38
513.13	94.38
513.346	102.38
513.562	98.38
513.778	99.38
513.994	89.38
514.21	106.38
514.426	113.38
514.642	121.38
514.858	115.38
515.074	145.38
515.29	393.38
515.506	1201.38
515.721	432.38
515.937	118.38
516.153	117.38
516.369	98.38
