Data from Uncirc_1993_H10_HRD10591_00090.txt Node
Date: Wed Jan 03 11:43:10 EST 2024
User: Yrep
Spectrometer: HR+D1059
Trigger mode: 1
Integration Time (sec): 1.000000E-1
Scans to average: 1
Electric dark correction enabled: true
Nonlinearity correction enabled: false
Boxcar width: 0
XAxis mode: Wavelengths
Number of Pixels in Spectrum: 2048
>>>>>Begin Spectral Data<<<<<
223.165	-29.19
223.4	-29.19
223.635	-29.19
223.869	-10.19
224.104	-14.19
224.338	-0.19
224.573	-17.19
224.808	-20.19
225.042	-16.19
225.277	-5.19
225.511	-12.19
225.746	7.81
225.98	2.81
226.215	0.81
226.449	17.81
226.683	29.81
226.918	24.81
227.152	40.81
227.387	45.81
227.621	30.81
227.856	51.81
228.09	38.81
228.324	48.81
228.559	57.81
228.793	70.81
229.027	70.81
229.262	63.81
229.496	72.81
229.73	76.81
229.964	68.81
230.199	76.81
230.433	77.81
230.667	81.81
230.901	72.81
231.136	67.81
231.37	92.81
231.604	86.81
231.838	80.81
232.072	82.81
232.306	79.81
232.541	83.81
232.775	80.81
233.009	77.81
233.243	83.81
233.477	84.81
233.711	75.81
233.945	59.81
234.179	52.81
234.413	76.81
234.647	89.81
234.881	81.81
235.115	91.81
235.349	73.81
235.583	82.81
235.817	78.81
236.051	65.81
236.285	83.81
236.519	74.81
236.753	83.81
236.987	76.81
237.221	81.81
237.455	79.81
237.689	62.81
237.922	80.81
238.156	78.81
238.39	86.81
238.624	75.81
238.858	58.81
239.091	71.81
239.325	65.81
239.559	71.81
239.793	88.81
240.027	74.81
240.26	88.81
240.494	55.81
240.728	75.81
240.961	75.81
241.195	77.81
241.429	72.81
241.662	76.81
241.896	72.81
242.13	73.81
242.363	77.81
242.597	87.81
242.83	63.81
243.064	73.81
243.298	67.81
243.531	68.81
243.765	88.81
243.998	67.81
244.232	87.81
244.465	82.81
244.699	94.81
244.932	66.81
245.166	74.81
245.399	72.81
245.633	83.81
245.866	74.81
246.099	87.81
246.333	78.81
246.566	66.81
246.8	85.81
247.033	86.81
247.266	79.81
247.5	85.81
247.733	83.81
247.966	75.81
248.2	79.81
248.433	78.81
248.666	84.81
248.899	74.81
249.133	85.81
249.366	83.81
249.599	100.81
249.832	85.81
250.066	93.81
250.299	76.81
250.532	78.81
250.765	62.81
250.998	75.81
251.231	66.81
251.465	77.81
251.698	70.81
251.931	64.81
252.164	82.81
252.397	80.81
252.63	80.81
252.863	73.81
253.096	56.81
253.329	73.81
253.562	75.81
253.795	81.81
254.028	79.81
254.261	82.81
254.494	74.81
254.727	83.81
254.96	84.81
255.193	70.81
255.426	86.81
255.659	80.81
255.892	67.81
256.124	75.81
256.357	89.81
256.59	75.81
256.823	82.81
257.056	66.81
257.289	77.81
257.521	71.81
257.754	71.81
257.987	80.81
258.22	90.81
258.452	84.81
258.685	83.81
258.918	90.81
259.151	80.81
259.383	88.81
259.616	96.81
259.849	78.81
260.081	84.81
260.314	74.81
260.547	91.81
260.779	78.81
261.012	78.81
261.244	72.81
261.477	97.81
261.71	79.81
261.942	103.81
262.175	105.81
262.407	90.81
262.64	89.81
262.872	71.81
263.105	83.81
263.337	88.81
263.57	82.81
263.802	63.81
264.035	79.81
264.267	75.81
264.499	82.81
264.732	96.81
264.964	79.81
265.197	77.81
265.429	86.81
265.661	86.81
265.894	86.81
266.126	99.81
266.358	82.81
266.591	94.81
266.823	79.81
267.055	79.81
267.287	70.81
267.52	71.81
267.752	83.81
267.984	89.81
268.216	91.81
268.448	81.81
268.681	81.81
268.913	79.81
269.145	83.81
269.377	70.81
269.609	86.81
269.841	78.81
270.073	81.81
270.306	78.81
270.538	74.81
270.77	82.81
271.002	92.81
271.234	77.81
271.466	62.81
271.698	80.81
271.93	80.81
272.162	87.81
272.394	99.81
272.626	76.81
272.858	77.81
273.09	77.81
273.322	74.81
273.553	86.81
273.785	84.81
274.017	82.81
274.249	69.81
274.481	81.81
274.713	74.81
274.945	71.81
275.176	77.81
275.408	80.81
275.64	64.81
275.872	81.81
276.104	85.81
276.335	90.81
276.567	88.81
276.799	106.81
277.031	96.81
277.262	88.81
277.494	79.81
277.726	87.81
277.957	90.81
278.189	98.81
278.421	78.81
278.652	96.81
278.884	80.81
279.115	90.81
279.347	102.81
279.579	93.81
279.81	77.81
280.042	79.81
280.273	90.81
280.505	82.81
280.736	87.81
280.968	76.81
281.199	91.81
281.431	98.81
281.662	87.81
281.894	97.81
282.125	97.81
282.356	102.81
282.588	137.81
282.819	118.81
283.051	91.81
283.282	84.81
283.513	76.81
283.745	89.81
283.976	92.81
284.207	82.81
284.439	81.81
284.67	90.81
284.901	78.81
285.132	83.81
285.364	79.81
285.595	69.81
285.826	80.81
286.057	74.81
286.288	91.81
286.52	90.81
286.751	90.81
286.982	78.81
287.213	82.81
287.444	85.81
287.675	79.81
287.906	82.81
288.138	91.81
288.369	86.81
288.6	78.81
288.831	81.81
289.062	92.81
289.293	80.81
289.524	81.81
289.755	74.81
289.986	81.81
290.217	90.81
290.448	80.81
290.679	87.81
290.91	81.81
291.141	68.81
291.371	93.81
291.602	74.81
291.833	74.81
292.064	94.81
292.295	91.81
292.526	99.81
292.757	91.81
292.987	87.81
293.218	94.81
293.449	82.81
293.68	78.81
293.91	89.81
294.141	90.81
294.372	73.81
294.603	75.81
294.833	92.81
295.064	84.81
295.295	91.81
295.525	88.81
295.756	95.81
295.987	96.81
296.217	131.81
296.448	114.81
296.679	68.81
296.909	92.81
297.14	84.81
297.37	105.81
297.601	78.81
297.831	70.81
298.062	74.81
298.292	93.81
298.523	86.81
298.753	80.81
298.984	94.81
299.214	92.81
299.445	92.81
299.675	81.81
299.905	90.81
300.136	80.81
300.366	87.81
300.597	95.81
300.827	99.81
301.057	102.81
301.288	106.81
301.518	91.81
301.748	81.81
301.979	91.81
302.209	97.81
302.439	76.81
302.669	86.81
302.9	87.81
303.13	95.81
303.36	88.81
303.59	96.81
303.82	93.81
304.051	67.81
304.281	95.81
304.511	67.81
304.741	85.81
304.971	92.81
305.201	87.81
305.431	81.81
305.661	81.81
305.891	108.81
306.121	96.81
306.352	104.81
306.582	88.81
306.812	79.81
307.042	81.81
307.272	94.81
307.502	89.81
307.731	78.81
307.961	98.81
308.191	81.81
308.421	84.81
308.651	87.81
308.881	82.81
309.111	96.81
309.341	78.81
309.571	81.81
309.8	97.81
310.03	89.81
310.26	79.81
310.49	100.81
310.72	89.81
310.949	87.81
311.179	100.81
311.409	102.81
311.639	93.81
311.868	87.81
312.098	81.81
312.328	89.81
312.557	99.81
312.787	89.81
313.017	97.81
313.246	99.81
313.476	67.81
313.706	88.81
313.935	98.81
314.165	106.81
314.394	93.81
314.624	87.81
314.853	92.81
315.083	96.81
315.312	89.81
315.542	93.81
315.771	80.81
316.001	99.81
316.23	91.81
316.46	88.81
316.689	94.81
316.919	85.81
317.148	92.81
317.377	86.81
317.607	95.81
317.836	77.81
318.065	93.81
318.295	78.81
318.524	91.81
318.753	92.81
318.983	105.81
319.212	104.81
319.441	94.81
319.67	106.81
319.9	88.81
320.129	96.81
320.358	80.81
320.587	93.81
320.816	91.81
321.046	106.81
321.275	87.81
321.504	86.81
321.733	101.81
321.962	94.81
322.191	90.81
322.42	105.81
322.649	102.81
322.878	113.81
323.108	105.81
323.337	116.81
323.566	116.81
323.795	135.81
324.024	198.81
324.253	362.81
324.482	707.81
324.71	1445.81
324.939	1851.81
325.168	704.81
325.397	224.81
325.626	138.81
325.855	108.81
326.084	113.81
326.313	124.81
326.542	139.81
326.77	209.81
326.999	409.81
327.228	816.81
327.457	1473.81
327.686	1130.81
327.914	326.81
328.143	171.81
328.372	130.81
328.6	113.81
328.829	93.81
329.058	130.81
329.287	117.81
329.515	107.81
329.744	100.81
329.972	99.81
330.201	95.81
330.43	96.81
330.658	117.81
330.887	125.81
331.115	111.81
331.344	97.81
331.572	99.81
331.801	92.81
332.03	105.81
332.258	100.81
332.486	108.81
332.715	90.81
332.943	90.81
333.172	84.81
333.4	107.81
333.629	109.81
333.857	107.81
334.085	106.81
334.314	105.81
334.542	81.81
334.771	99.81
334.999	99.81
335.227	92.81
335.455	100.81
335.684	91.81
335.912	77.81
336.14	96.81
336.369	89.81
336.597	103.81
336.825	102.81
337.053	90.81
337.281	90.81
337.51	91.81
337.738	97.81
337.966	91.81
338.194	90.81
338.422	94.81
338.65	80.81
338.878	88.81
339.106	84.81
339.334	83.81
339.562	82.81
339.79	94.81
340.018	80.81
340.246	96.81
340.474	99.81
340.702	100.81
340.93	93.81
341.158	98.81
341.386	94.81
341.614	91.81
341.842	96.81
342.07	92.81
342.298	87.81
342.526	100.81
342.754	83.81
342.981	89.81
343.209	100.81
343.437	93.81
343.665	92.81
343.893	98.81
344.12	80.81
344.348	79.81
344.576	102.81
344.804	85.81
345.031	100.81
345.259	103.81
345.487	93.81
345.714	98.81
345.942	74.81
346.17	89.81
346.397	97.81
346.625	98.81
346.853	91.81
347.08	72.81
347.308	100.81
347.535	103.81
347.763	95.81
347.99	94.81
348.218	98.81
348.445	91.81
348.673	99.81
348.9	91.81
349.128	78.81
349.355	102.81
349.583	90.81
349.81	101.81
350.037	99.81
350.265	86.81
350.492	99.81
350.72	79.81
350.947	90.81
351.174	98.81
351.402	110.81
351.629	108.81
351.856	98.81
352.083	91.81
352.311	106.81
352.538	99.81
352.765	111.81
352.992	117.81
353.22	112.81
353.447	104.81
353.674	85.81
353.901	99.81
354.128	104.81
354.355	94.81
354.583	90.81
354.81	97.81
355.037	95.81
355.264	92.81
355.491	95.81
355.718	102.81
355.945	88.81
356.172	85.81
356.399	97.81
356.626	85.81
356.853	80.81
357.08	91.81
357.307	91.81
357.534	98.81
357.761	86.81
357.988	81.81
358.215	92.81
358.441	104.81
358.668	86.81
358.895	86.81
359.122	112.81
359.349	100.81
359.576	82.81
359.802	102.81
360.029	90.81
360.256	110.81
360.483	94.81
360.709	81.81
360.936	96.81
361.163	86.81
361.39	75.81
361.616	81.81
361.843	92.81
362.07	103.81
362.296	94.81
362.523	103.81
362.749	95.81
362.976	98.81
363.203	80.81
363.429	91.81
363.656	88.81
363.882	88.81
364.109	92.81
364.335	89.81
364.562	91.81
364.788	76.81
365.015	86.81
365.241	92.81
365.468	112.81
365.694	101.81
365.92	77.81
366.147	98.81
366.373	93.81
366.599	86.81
366.826	89.81
367.052	82.81
367.278	92.81
367.505	84.81
367.731	92.81
367.957	91.81
368.184	82.81
368.41	78.81
368.636	101.81
368.862	105.81
369.089	96.81
369.315	79.81
369.541	101.81
369.767	96.81
369.993	89.81
370.219	97.81
370.445	86.81
370.672	87.81
370.898	76.81
371.124	89.81
371.35	87.81
371.576	96.81
371.802	78.81
372.028	84.81
372.254	77.81
372.48	75.81
372.706	82.81
372.932	90.81
373.158	91.81
373.384	91.81
373.61	96.81
373.835	90.81
374.061	88.81
374.287	87.81
374.513	98.81
374.739	85.81
374.965	94.81
375.191	97.81
375.416	76.81
375.642	101.81
375.868	96.81
376.094	104.81
376.319	89.81
376.545	98.81
376.771	93.81
376.997	81.81
377.222	106.81
377.448	87.81
377.674	95.81
377.899	86.81
378.125	91.81
378.35	96.81
378.576	97.81
378.802	79.81
379.027	81.81
379.253	88.81
379.478	87.81
379.704	95.81
379.929	91.81
380.155	84.81
380.38	77.81
380.606	94.81
380.831	114.81
381.057	93.81
381.282	94.81
381.507	96.81
381.733	96.81
381.958	86.81
382.184	103.81
382.409	84.81
382.634	95.81
382.86	99.81
383.085	93.81
383.31	93.81
383.535	90.81
383.761	96.81
383.986	110.81
384.211	82.81
384.436	98.81
384.662	100.81
384.887	99.81
385.112	104.81
385.337	109.81
385.562	104.81
385.787	104.81
386.013	108.81
386.238	108.81
386.463	104.81
386.688	100.81
386.913	93.81
387.138	96.81
387.363	96.81
387.588	88.81
387.813	92.81
388.038	103.81
388.263	111.81
388.488	105.81
388.713	80.81
388.938	86.81
389.163	91.81
389.387	82.81
389.612	89.81
389.837	95.81
390.062	91.81
390.287	88.81
390.512	95.81
390.736	88.81
390.961	97.81
391.186	89.81
391.411	91.81
391.636	99.81
391.86	92.81
392.085	75.81
392.31	77.81
392.534	75.81
392.759	85.81
392.984	93.81
393.208	98.81
393.433	76.81
393.658	81.81
393.882	74.81
394.107	79.81
394.331	90.81
394.556	80.81
394.78	100.81
395.005	86.81
395.229	89.81
395.454	93.81
395.678	80.81
395.903	71.81
396.127	88.81
396.352	84.81
396.576	90.81
396.801	78.81
397.025	92.81
397.249	92.81
397.474	70.81
397.698	88.81
397.922	78.81
398.147	89.81
398.371	95.81
398.595	90.81
398.82	87.81
399.044	80.81
399.268	81.81
399.492	84.81
399.717	92.81
399.941	72.81
400.165	76.81
400.389	87.81
400.613	70.81
400.837	76.81
401.062	70.81
401.286	66.81
401.51	87.81
401.734	90.81
401.958	98.81
402.182	113.81
402.406	134.81
402.63	114.81
402.854	86.81
403.078	102.81
403.302	92.81
403.526	92.81
403.75	91.81
403.974	86.81
404.198	87.81
404.422	79.81
404.645	91.81
404.869	66.81
405.093	95.81
405.317	76.81
405.541	84.81
405.765	102.81
405.988	118.81
406.212	146.81
406.436	209.81
406.66	130.81
406.883	91.81
407.107	95.81
407.331	96.81
407.555	107.81
407.778	88.81
408.002	98.81
408.226	93.81
408.449	96.81
408.673	78.81
408.896	95.81
409.12	110.81
409.344	92.81
409.567	99.81
409.791	82.81
410.014	90.81
410.238	86.81
410.461	91.81
410.685	105.81
410.908	100.81
411.132	100.81
411.355	91.81
411.578	87.81
411.802	82.81
412.025	89.81
412.249	90.81
412.472	94.81
412.695	78.81
412.919	92.81
413.142	80.81
413.365	110.81
413.589	93.81
413.812	91.81
414.035	91.81
414.258	80.81
414.482	98.81
414.705	100.81
414.928	96.81
415.151	89.81
415.374	95.81
415.597	76.81
415.821	85.81
416.044	98.81
416.267	94.81
416.49	76.81
416.713	84.81
416.936	87.81
417.159	76.81
417.382	87.81
417.605	87.81
417.828	102.81
418.051	90.81
418.274	79.81
418.497	89.81
418.72	71.81
418.943	80.81
419.166	77.81
419.389	84.81
419.611	79.81
419.834	80.81
420.057	84.81
420.28	91.81
420.503	96.81
420.726	80.81
420.948	71.81
421.171	96.81
421.394	86.81
421.617	74.81
421.839	87.81
422.062	74.81
422.285	97.81
422.507	80.81
422.73	94.81
422.953	83.81
423.175	98.81
423.398	91.81
423.621	87.81
423.843	90.81
424.066	85.81
424.288	94.81
424.511	92.81
424.733	90.81
424.956	112.81
425.178	89.81
425.401	83.81
425.623	92.81
425.846	74.81
426.068	83.81
426.291	89.81
426.513	89.81
426.735	87.81
426.958	92.81
427.18	115.81
427.402	116.81
427.625	140.81
427.847	108.81
428.069	108.81
428.292	86.81
428.514	91.81
428.736	78.81
428.958	76.81
429.181	96.81
429.403	94.81
429.625	94.81
429.847	80.81
430.069	83.81
430.292	93.81
430.514	66.81
430.736	93.81
430.958	81.81
431.18	99.81
431.402	87.81
431.624	85.81
431.846	88.81
432.068	99.81
432.29	72.81
432.512	90.81
432.734	84.81
432.956	97.81
433.178	94.81
433.4	96.81
433.622	83.81
433.844	90.81
434.066	90.81
434.287	88.81
434.509	70.81
434.731	87.81
434.953	90.81
435.175	88.81
435.397	70.81
435.618	83.81
435.84	107.81
436.062	116.81
436.284	91.81
436.505	90.81
436.727	98.81
436.949	93.81
437.17	86.81
437.392	80.81
437.614	86.81
437.835	97.81
438.057	118.81
438.278	95.81
438.5	88.81
438.721	115.81
438.943	91.81
439.165	98.81
439.386	84.81
439.608	97.81
439.829	86.81
440.05	114.81
440.272	131.81
440.493	79.81
440.715	82.81
440.936	73.81
441.158	76.81
441.379	91.81
441.6	83.81
441.822	82.81
442.043	75.81
442.264	90.81
442.486	90.81
442.707	80.81
442.928	99.81
443.149	105.81
443.371	110.81
443.592	94.81
443.813	113.81
444.034	108.81
444.255	82.81
444.476	86.81
444.698	90.81
444.919	88.81
445.14	121.81
445.361	123.81
445.582	108.81
445.803	130.81
446.024	119.81
446.245	126.81
446.466	94.81
446.687	77.81
446.908	80.81
447.129	79.81
447.35	86.81
447.571	90.81
447.792	82.81
448.013	91.81
448.234	94.81
448.455	79.81
448.675	92.81
448.896	112.81
449.117	118.81
449.338	99.81
449.559	120.81
449.779	113.81
450	80.81
450.221	86.81
450.442	97.81
450.662	78.81
450.883	83.81
451.104	108.81
451.324	85.81
451.545	97.81
451.766	90.81
451.986	77.81
452.207	85.81
452.428	78.81
452.648	92.81
452.869	107.81
453.089	106.81
453.31	105.81
453.53	86.81
453.751	74.81
453.971	93.81
454.192	104.81
454.412	98.81
454.633	93.81
454.853	90.81
455.073	100.81
455.294	95.81
455.514	92.81
455.734	91.81
455.955	85.81
456.175	80.81
456.395	84.81
456.616	83.81
456.836	87.81
457.056	78.81
457.276	70.81
457.497	69.81
457.717	90.81
457.937	81.81
458.157	79.81
458.377	84.81
458.598	104.81
458.818	125.81
459.038	140.81
459.258	125.81
459.478	92.81
459.698	88.81
459.918	83.81
460.138	83.81
460.358	90.81
460.578	86.81
460.798	93.81
461.018	90.81
461.238	72.81
461.458	87.81
461.678	79.81
461.898	96.81
462.118	100.81
462.338	75.81
462.558	76.81
462.777	57.81
462.997	78.81
463.217	90.81
463.437	74.81
463.657	80.81
463.876	82.81
464.096	91.81
464.316	90.81
464.536	78.81
464.755	89.81
464.975	114.81
465.195	155.81
465.414	141.81
465.634	96.81
465.854	97.81
466.073	80.81
466.293	92.81
466.512	96.81
466.732	76.81
466.951	97.81
467.171	83.81
467.391	89.81
467.61	94.81
467.829	89.81
468.049	71.81
468.268	85.81
468.488	80.81
468.707	88.81
468.927	83.81
469.146	90.81
469.365	79.81
469.585	76.81
469.804	91.81
470.023	95.81
470.243	92.81
470.462	104.81
470.681	114.81
470.901	73.81
471.12	71.81
471.339	71.81
471.558	76.81
471.777	92.81
471.997	81.81
472.216	85.81
472.435	97.81
472.654	89.81
472.873	95.81
473.092	97.81
473.311	95.81
473.53	74.81
473.749	88.81
473.968	109.81
474.187	95.81
474.406	86.81
474.625	90.81
474.844	102.81
475.063	76.81
475.282	83.81
475.501	73.81
475.72	82.81
475.939	85.81
476.158	82.81
476.377	86.81
476.596	83.81
476.814	103.81
477.033	90.81
477.252	95.81
477.471	86.81
477.69	93.81
477.908	90.81
478.127	101.81
478.346	80.81
478.564	90.81
478.783	86.81
479.002	88.81
479.22	77.81
479.439	86.81
479.658	91.81
479.876	84.81
480.095	80.81
480.313	90.81
480.532	102.81
480.751	92.81
480.969	109.81
481.188	106.81
481.406	96.81
481.624	90.81
481.843	92.81
482.061	82.81
482.28	102.81
482.498	93.81
482.717	81.81
482.935	82.81
483.153	92.81
483.372	94.81
483.59	91.81
483.808	79.81
484.027	91.81
484.245	86.81
484.463	95.81
484.681	86.81
484.9	92.81
485.118	94.81
485.336	93.81
485.554	93.81
485.772	105.81
485.99	97.81
486.209	99.81
486.427	106.81
486.645	104.81
486.863	113.81
487.081	95.81
487.299	102.81
487.517	105.81
487.735	78.81
487.953	72.81
488.171	78.81
488.389	81.81
488.607	103.81
488.825	88.81
489.043	71.81
489.261	103.81
489.479	80.81
489.696	79.81
489.914	94.81
490.132	81.81
490.35	87.81
490.568	87.81
490.786	92.81
491.003	99.81
491.221	90.81
491.439	93.81
491.657	97.81
491.874	91.81
492.092	99.81
492.31	66.81
492.527	86.81
492.745	96.81
492.963	93.81
493.18	80.81
493.398	86.81
493.615	82.81
493.833	102.81
494.05	89.81
494.268	88.81
494.485	83.81
494.703	87.81
494.92	97.81
495.138	97.81
495.355	103.81
495.573	89.81
495.79	83.81
496.008	91.81
496.225	89.81
496.442	99.81
496.66	89.81
496.877	86.81
497.094	92.81
497.312	97.81
497.529	94.81
497.746	86.81
497.963	88.81
498.181	87.81
498.398	92.81
498.615	93.81
498.832	96.81
499.049	110.81
499.267	93.81
499.484	93.81
499.701	87.81
499.918	78.81
500.135	98.81
500.352	104.81
500.569	83.81
500.786	94.81
501.003	84.81
501.22	93.81
501.437	86.81
501.654	83.81
501.871	96.81
502.088	98.81
502.305	94.81
502.522	92.81
502.739	94.81
502.956	88.81
503.172	93.81
503.389	94.81
503.606	95.81
503.823	92.81
504.04	99.81
504.256	82.81
504.473	79.81
504.69	86.81
504.907	92.81
505.123	79.81
505.34	83.81
505.557	85.81
505.773	89.81
505.99	98.81
506.207	84.81
506.423	100.81
506.64	94.81
506.856	92.81
507.073	87.81
507.289	92.81
507.506	87.81
507.722	121.81
507.939	120.81
508.155	96.81
508.372	111.81
508.588	90.81
508.805	105.81
509.021	101.81
509.238	92.81
509.454	106.81
509.67	88.81
509.887	110.81
510.103	112.81
510.319	212.81
510.536	724.81
510.752	2288.81
510.968	606.81
511.184	134.81
511.401	115.81
511.617	92.81
511.833	97.81
512.049	103.81
512.265	98.81
512.481	96.81
512.698	97.81
512.914	89.81
513.13	87.81
513.346	91.81
513.562	101.81
513.778	97.81
513.994	105.81
514.21	90.81
514.426	121.81
514.642	132.81
514.858	111.81
515.074	152.81
515.29	440.81
515.506	1372.81
515.721	510.81
515.937	151.81
516.153	109.81
516.369	102.81
516.585	84.81
516.801	95.81
