Data from Uncirc_1993_H10_HRD10591_00065.txt Node
Date: Wed Jan 03 11:43:05 EST 2024
User: Yrep
Spectrometer: HR+D1059
Trigger mode: 1
Integration Time (sec): 1.000000E-1
Scans to average: 1
Electric dark correction enabled: true
Nonlinearity correction enabled: false
Boxcar width: 0
XAxis mode: Wavelengths
Number of Pixels in Spectrum: 2048
>>>>>Begin Spectral Data<<<<<
223.165	-6.31
223.4	-6.31
223.635	-6.31
223.869	-24.31
224.104	-22.31
224.338	-12.31
224.573	-15.31
224.808	-23.31
225.042	-14.31
225.277	2.69
225.511	-1.31
225.746	-5.31
225.98	6.69
226.215	11.69
226.449	19.69
226.683	31.69
226.918	27.69
227.152	24.69
227.387	28.69
227.621	51.69
227.856	54.69
228.09	43.69
228.324	55.69
228.559	52.69
228.793	59.69
229.027	54.69
229.262	67.69
229.496	71.69
229.73	79.69
229.964	86.69
230.199	78.69
230.433	62.69
230.667	77.69
230.901	79.69
231.136	73.69
231.37	92.69
231.604	83.69
231.838	86.69
232.072	81.69
232.306	84.69
232.541	85.69
232.775	84.69
233.009	88.69
233.243	88.69
233.477	99.69
233.711	76.69
233.945	84.69
234.179	78.69
234.413	65.69
234.647	77.69
234.881	94.69
235.115	99.69
235.349	77.69
235.583	86.69
235.817	87.69
236.051	74.69
236.285	82.69
236.519	83.69
236.753	83.69
236.987	77.69
237.221	69.69
237.455	83.69
237.689	85.69
237.922	81.69
238.156	79.69
238.39	82.69
238.624	75.69
238.858	77.69
239.091	72.69
239.325	63.69
239.559	81.69
239.793	86.69
240.027	92.69
240.26	83.69
240.494	95.69
240.728	79.69
240.961	79.69
241.195	73.69
241.429	80.69
241.662	71.69
241.896	89.69
242.13	83.69
242.363	65.69
242.597	77.69
242.83	71.69
243.064	68.69
243.298	86.69
243.531	84.69
243.765	83.69
243.998	91.69
244.232	87.69
244.465	81.69
244.699	74.69
244.932	76.69
245.166	85.69
245.399	83.69
245.633	84.69
245.866	85.69
246.099	72.69
246.333	81.69
246.566	68.69
246.8	68.69
247.033	74.69
247.266	82.69
247.5	85.69
247.733	85.69
247.966	85.69
248.2	82.69
248.433	76.69
248.666	85.69
248.899	74.69
249.133	86.69
249.366	101.69
249.599	89.69
249.832	92.69
250.066	74.69
250.299	93.69
250.532	77.69
250.765	63.69
250.998	73.69
251.231	86.69
251.465	82.69
251.698	84.69
251.931	89.69
252.164	86.69
252.397	84.69
252.63	82.69
252.863	85.69
253.096	75.69
253.329	78.69
253.562	90.69
253.795	83.69
254.028	86.69
254.261	78.69
254.494	90.69
254.727	86.69
254.96	74.69
255.193	59.69
255.426	62.69
255.659	83.69
255.892	93.69
256.124	81.69
256.357	90.69
256.59	84.69
256.823	81.69
257.056	101.69
257.289	92.69
257.521	88.69
257.754	73.69
257.987	77.69
258.22	91.69
258.452	67.69
258.685	91.69
258.918	95.69
259.151	97.69
259.383	83.69
259.616	87.69
259.849	95.69
260.081	71.69
260.314	83.69
260.547	101.69
260.779	85.69
261.012	94.69
261.244	92.69
261.477	93.69
261.71	94.69
261.942	89.69
262.175	105.69
262.407	98.69
262.64	98.69
262.872	71.69
263.105	95.69
263.337	85.69
263.57	86.69
263.802	92.69
264.035	84.69
264.267	81.69
264.499	86.69
264.732	96.69
264.964	86.69
265.197	80.69
265.429	83.69
265.661	98.69
265.894	75.69
266.126	75.69
266.358	81.69
266.591	91.69
266.823	81.69
267.055	92.69
267.287	93.69
267.52	77.69
267.752	69.69
267.984	91.69
268.216	86.69
268.448	85.69
268.681	103.69
268.913	84.69
269.145	75.69
269.377	79.69
269.609	66.69
269.841	91.69
270.073	92.69
270.306	75.69
270.538	81.69
270.77	78.69
271.002	81.69
271.234	78.69
271.466	104.69
271.698	94.69
271.93	80.69
272.162	88.69
272.394	84.69
272.626	82.69
272.858	93.69
273.09	89.69
273.322	98.69
273.553	85.69
273.785	91.69
274.017	86.69
274.249	76.69
274.481	80.69
274.713	75.69
274.945	82.69
275.176	92.69
275.408	88.69
275.64	85.69
275.872	81.69
276.104	99.69
276.335	80.69
276.567	76.69
276.799	108.69
277.031	96.69
277.262	79.69
277.494	89.69
277.726	98.69
277.957	73.69
278.189	75.69
278.421	95.69
278.652	87.69
278.884	100.69
279.115	95.69
279.347	85.69
279.579	81.69
279.81	76.69
280.042	86.69
280.273	95.69
280.505	92.69
280.736	75.69
280.968	94.69
281.199	86.69
281.431	101.69
281.662	89.69
281.894	94.69
282.125	100.69
282.356	113.69
282.588	143.69
282.819	111.69
283.051	96.69
283.282	88.69
283.513	88.69
283.745	100.69
283.976	90.69
284.207	90.69
284.439	81.69
284.67	91.69
284.901	95.69
285.132	84.69
285.364	79.69
285.595	85.69
285.826	75.69
286.057	95.69
286.288	92.69
286.52	101.69
286.751	84.69
286.982	71.69
287.213	96.69
287.444	96.69
287.675	92.69
287.906	106.69
288.138	86.69
288.369	100.69
288.6	100.69
288.831	96.69
289.062	86.69
289.293	77.69
289.524	96.69
289.755	87.69
289.986	88.69
290.217	86.69
290.448	93.69
290.679	93.69
290.91	86.69
291.141	83.69
291.371	79.69
291.602	89.69
291.833	89.69
292.064	93.69
292.295	105.69
292.526	84.69
292.757	91.69
292.987	97.69
293.218	90.69
293.449	108.69
293.68	93.69
293.91	93.69
294.141	99.69
294.372	78.69
294.603	79.69
294.833	96.69
295.064	103.69
295.295	85.69
295.525	101.69
295.756	102.69
295.987	96.69
296.217	121.69
296.448	117.69
296.679	86.69
296.909	90.69
297.14	95.69
297.37	86.69
297.601	90.69
297.831	82.69
298.062	81.69
298.292	84.69
298.523	93.69
298.753	93.69
298.984	91.69
299.214	107.69
299.445	73.69
299.675	93.69
299.905	102.69
300.136	79.69
300.366	80.69
300.597	99.69
300.827	101.69
301.057	108.69
301.288	97.69
301.518	94.69
301.748	91.69
301.979	109.69
302.209	104.69
302.439	89.69
302.669	88.69
302.9	99.69
303.13	88.69
303.36	91.69
303.59	102.69
303.82	106.69
304.051	87.69
304.281	98.69
304.511	69.69
304.741	87.69
304.971	98.69
305.201	98.69
305.431	81.69
305.661	94.69
305.891	82.69
306.121	100.69
306.352	89.69
306.582	94.69
306.812	97.69
307.042	89.69
307.272	99.69
307.502	99.69
307.731	98.69
307.961	77.69
308.191	107.69
308.421	111.69
308.651	87.69
308.881	85.69
309.111	94.69
309.341	96.69
309.571	103.69
309.8	97.69
310.03	98.69
310.26	92.69
310.49	86.69
310.72	94.69
310.949	93.69
311.179	100.69
311.409	80.69
311.639	85.69
311.868	100.69
312.098	79.69
312.328	83.69
312.557	112.69
312.787	104.69
313.017	103.69
313.246	96.69
313.476	79.69
313.706	102.69
313.935	95.69
314.165	96.69
314.394	97.69
314.624	100.69
314.853	88.69
315.083	108.69
315.312	91.69
315.542	96.69
315.771	85.69
316.001	77.69
316.23	106.69
316.46	79.69
316.689	87.69
316.919	104.69
317.148	106.69
317.377	87.69
317.607	89.69
317.836	107.69
318.065	78.69
318.295	93.69
318.524	96.69
318.753	99.69
318.983	104.69
319.212	94.69
319.441	113.69
319.67	109.69
319.9	76.69
320.129	84.69
320.358	101.69
320.587	107.69
320.816	108.69
321.046	92.69
321.275	106.69
321.504	85.69
321.733	95.69
321.962	106.69
322.191	114.69
322.42	96.69
322.649	97.69
322.878	99.69
323.108	110.69
323.337	116.69
323.566	124.69
323.795	145.69
324.024	202.69
324.253	359.69
324.482	707.69
324.71	1472.69
324.939	1890.69
325.168	691.69
325.397	225.69
325.626	137.69
325.855	123.69
326.084	123.69
326.313	118.69
326.542	143.69
326.77	201.69
326.999	385.69
327.228	807.69
327.457	1422.69
327.686	1151.69
327.914	337.69
328.143	177.69
328.372	140.69
328.6	110.69
328.829	116.69
329.058	125.69
329.287	122.69
329.515	110.69
329.744	96.69
329.972	99.69
330.201	95.69
330.43	112.69
330.658	117.69
330.887	121.69
331.115	119.69
331.344	113.69
331.572	100.69
331.801	103.69
332.03	108.69
332.258	88.69
332.486	97.69
332.715	96.69
332.943	101.69
333.172	90.69
333.4	98.69
333.629	101.69
333.857	107.69
334.085	105.69
334.314	98.69
334.542	96.69
334.771	100.69
334.999	87.69
335.227	98.69
335.455	112.69
335.684	102.69
335.912	103.69
336.14	92.69
336.369	112.69
336.597	103.69
336.825	81.69
337.053	90.69
337.281	94.69
337.51	92.69
337.738	98.69
337.966	86.69
338.194	99.69
338.422	94.69
338.65	95.69
338.878	89.69
339.106	84.69
339.334	74.69
339.562	102.69
339.79	82.69
340.018	86.69
340.246	96.69
340.474	107.69
340.702	90.69
340.93	98.69
341.158	95.69
341.386	92.69
341.614	97.69
341.842	99.69
342.07	81.69
342.298	93.69
342.526	90.69
342.754	86.69
342.981	93.69
343.209	82.69
343.437	113.69
343.665	101.69
343.893	92.69
344.12	98.69
344.348	99.69
344.576	89.69
344.804	90.69
345.031	97.69
345.259	115.69
345.487	103.69
345.714	77.69
345.942	95.69
346.17	82.69
346.397	83.69
346.625	91.69
346.853	92.69
347.08	89.69
347.308	92.69
347.535	90.69
347.763	96.69
347.99	80.69
348.218	88.69
348.445	102.69
348.673	103.69
348.9	95.69
349.128	94.69
349.355	85.69
349.583	101.69
349.81	83.69
350.037	97.69
350.265	102.69
350.492	84.69
350.72	92.69
350.947	98.69
351.174	118.69
351.402	129.69
351.629	97.69
351.856	94.69
352.083	95.69
352.311	100.69
352.538	107.69
352.765	103.69
352.992	114.69
353.22	115.69
353.447	92.69
353.674	108.69
353.901	99.69
354.128	110.69
354.355	98.69
354.583	80.69
354.81	93.69
355.037	97.69
355.264	98.69
355.491	87.69
355.718	81.69
355.945	71.69
356.172	85.69
356.399	93.69
356.626	93.69
356.853	86.69
357.08	99.69
357.307	91.69
357.534	93.69
357.761	87.69
357.988	82.69
358.215	91.69
358.441	100.69
358.668	99.69
358.895	91.69
359.122	98.69
359.349	82.69
359.576	85.69
359.802	103.69
360.029	99.69
360.256	102.69
360.483	95.69
360.709	78.69
360.936	96.69
361.163	85.69
361.39	86.69
361.616	99.69
361.843	80.69
362.07	80.69
362.296	83.69
362.523	99.69
362.749	89.69
362.976	91.69
363.203	77.69
363.429	98.69
363.656	89.69
363.882	77.69
364.109	79.69
364.335	102.69
364.562	79.69
364.788	81.69
365.015	97.69
365.241	92.69
365.468	107.69
365.694	85.69
365.92	86.69
366.147	90.69
366.373	91.69
366.599	83.69
366.826	90.69
367.052	87.69
367.278	93.69
367.505	85.69
367.731	103.69
367.957	101.69
368.184	102.69
368.41	92.69
368.636	114.69
368.862	119.69
369.089	100.69
369.315	85.69
369.541	92.69
369.767	103.69
369.993	86.69
370.219	84.69
370.445	89.69
370.672	80.69
370.898	92.69
371.124	92.69
371.35	80.69
371.576	90.69
371.802	84.69
372.028	87.69
372.254	85.69
372.48	93.69
372.706	86.69
372.932	76.69
373.158	100.69
373.384	87.69
373.61	93.69
373.835	92.69
374.061	83.69
374.287	93.69
374.513	84.69
374.739	79.69
374.965	94.69
375.191	89.69
375.416	74.69
375.642	85.69
375.868	92.69
376.094	90.69
376.319	87.69
376.545	98.69
376.771	85.69
376.997	90.69
377.222	88.69
377.448	97.69
377.674	82.69
377.899	84.69
378.125	93.69
378.35	96.69
378.576	90.69
378.802	98.69
379.027	93.69
379.253	91.69
379.478	96.69
379.704	107.69
379.929	90.69
380.155	91.69
380.38	98.69
380.606	92.69
380.831	110.69
381.057	90.69
381.282	98.69
381.507	95.69
381.733	99.69
381.958	90.69
382.184	96.69
382.409	94.69
382.634	97.69
382.86	97.69
383.085	96.69
383.31	109.69
383.535	91.69
383.761	102.69
383.986	95.69
384.211	89.69
384.436	88.69
384.662	99.69
384.887	98.69
385.112	90.69
385.337	101.69
385.562	86.69
385.787	95.69
386.013	86.69
386.238	108.69
386.463	117.69
386.688	104.69
386.913	97.69
387.138	102.69
387.363	90.69
387.588	101.69
387.813	98.69
388.038	104.69
388.263	100.69
388.488	98.69
388.713	100.69
388.938	99.69
389.163	83.69
389.387	96.69
389.612	85.69
389.837	94.69
390.062	102.69
390.287	91.69
390.512	77.69
390.736	91.69
390.961	103.69
391.186	95.69
391.411	86.69
391.636	83.69
391.86	82.69
392.085	89.69
392.31	89.69
392.534	97.69
392.759	92.69
392.984	85.69
393.208	90.69
393.433	89.69
393.658	89.69
393.882	76.69
394.107	84.69
394.331	76.69
394.556	66.69
394.78	84.69
395.005	100.69
395.229	82.69
395.454	91.69
395.678	87.69
395.903	89.69
396.127	99.69
396.352	70.69
396.576	93.69
396.801	95.69
397.025	77.69
397.249	80.69
397.474	85.69
397.698	97.69
397.922	77.69
398.147	87.69
398.371	103.69
398.595	77.69
398.82	94.69
399.044	80.69
399.268	81.69
399.492	87.69
399.717	81.69
399.941	72.69
400.165	99.69
400.389	101.69
400.613	99.69
400.837	104.69
401.062	82.69
401.286	90.69
401.51	75.69
401.734	109.69
401.958	90.69
402.182	127.69
402.406	149.69
402.63	133.69
402.854	90.69
403.078	95.69
403.302	85.69
403.526	91.69
403.75	92.69
403.974	95.69
404.198	94.69
404.422	86.69
404.645	87.69
404.869	83.69
405.093	112.69
405.317	81.69
405.541	91.69
405.765	92.69
405.988	111.69
406.212	161.69
406.436	213.69
406.66	130.69
406.883	94.69
407.107	98.69
407.331	95.69
407.555	107.69
407.778	94.69
408.002	90.69
408.226	88.69
408.449	91.69
408.673	93.69
408.896	103.69
409.12	93.69
409.344	85.69
409.567	87.69
409.791	91.69
410.014	108.69
410.238	104.69
410.461	88.69
410.685	97.69
410.908	95.69
411.132	102.69
411.355	94.69
411.578	95.69
411.802	82.69
412.025	92.69
412.249	88.69
412.472	85.69
412.695	101.69
412.919	87.69
413.142	86.69
413.365	76.69
413.589	89.69
413.812	87.69
414.035	86.69
414.258	89.69
414.482	93.69
414.705	92.69
414.928	96.69
415.151	103.69
415.374	85.69
415.597	102.69
415.821	90.69
416.044	91.69
416.267	95.69
416.49	93.69
416.713	87.69
416.936	84.69
417.159	99.69
417.382	86.69
417.605	94.69
417.828	103.69
418.051	85.69
418.274	81.69
418.497	84.69
418.72	84.69
418.943	70.69
419.166	96.69
419.389	106.69
419.611	97.69
419.834	82.69
420.057	81.69
420.28	86.69
420.503	89.69
420.726	86.69
420.948	81.69
421.171	82.69
421.394	94.69
421.617	65.69
421.839	94.69
422.062	100.69
422.285	95.69
422.507	107.69
422.73	108.69
422.953	78.69
423.175	95.69
423.398	93.69
423.621	83.69
423.843	84.69
424.066	82.69
424.288	94.69
424.511	99.69
424.733	94.69
424.956	97.69
425.178	104.69
425.401	93.69
425.623	85.69
425.846	87.69
426.068	83.69
426.291	95.69
426.513	83.69
426.735	89.69
426.958	92.69
427.18	100.69
427.402	109.69
427.625	147.69
427.847	125.69
428.069	100.69
428.292	92.69
428.514	89.69
428.736	82.69
428.958	83.69
429.181	83.69
429.403	92.69
429.625	85.69
429.847	87.69
430.069	105.69
430.292	86.69
430.514	88.69
430.736	91.69
430.958	105.69
431.18	83.69
431.402	89.69
431.624	81.69
431.846	81.69
432.068	90.69
432.29	79.69
432.512	81.69
432.734	99.69
432.956	70.69
433.178	92.69
433.4	94.69
433.622	93.69
433.844	80.69
434.066	94.69
434.287	80.69
434.509	82.69
434.731	88.69
434.953	83.69
435.175	91.69
435.397	91.69
435.618	95.69
435.84	88.69
436.062	125.69
436.284	111.69
436.505	94.69
436.727	94.69
436.949	88.69
437.17	83.69
437.392	84.69
437.614	90.69
437.835	99.69
438.057	111.69
438.278	119.69
438.5	92.69
438.721	115.69
438.943	98.69
439.165	93.69
439.386	82.69
439.608	81.69
439.829	84.69
440.05	106.69
440.272	130.69
440.493	99.69
440.715	93.69
440.936	92.69
441.158	85.69
441.379	83.69
441.6	96.69
441.822	87.69
442.043	96.69
442.264	109.69
442.486	87.69
442.707	94.69
442.928	100.69
443.149	110.69
443.371	122.69
443.592	109.69
443.813	98.69
444.034	83.69
444.255	94.69
444.476	81.69
444.698	79.69
444.919	94.69
445.14	132.69
445.361	117.69
445.582	115.69
445.803	133.69
446.024	114.69
446.245	114.69
446.466	98.69
446.687	84.69
446.908	83.69
447.129	87.69
447.35	85.69
447.571	95.69
447.792	83.69
448.013	92.69
448.234	113.69
448.455	101.69
448.675	113.69
448.896	131.69
449.117	100.69
449.338	119.69
449.559	125.69
449.779	125.69
450	89.69
450.221	93.69
450.442	79.69
450.662	85.69
450.883	96.69
451.104	101.69
451.324	91.69
451.545	82.69
451.766	84.69
451.986	81.69
452.207	99.69
452.428	94.69
452.648	93.69
452.869	118.69
453.089	122.69
453.31	111.69
453.53	101.69
453.751	98.69
453.971	80.69
454.192	95.69
454.412	79.69
454.633	79.69
454.853	92.69
455.073	90.69
455.294	83.69
455.514	91.69
455.734	98.69
455.955	86.69
456.175	96.69
456.395	86.69
456.616	76.69
456.836	99.69
457.056	81.69
457.276	84.69
457.497	99.69
457.717	92.69
457.937	84.69
458.157	90.69
458.377	98.69
458.598	108.69
458.818	153.69
459.038	145.69
459.258	99.69
459.478	78.69
459.698	81.69
459.918	93.69
460.138	99.69
460.358	77.69
460.578	102.69
460.798	83.69
461.018	102.69
461.238	92.69
461.458	93.69
461.678	87.69
461.898	92.69
462.118	78.69
462.338	74.69
462.558	69.69
462.777	86.69
462.997	81.69
463.217	99.69
463.437	78.69
463.657	88.69
463.876	81.69
464.096	79.69
464.316	83.69
464.536	97.69
464.755	100.69
464.975	102.69
465.195	160.69
465.414	145.69
465.634	101.69
465.854	102.69
466.073	78.69
466.293	99.69
466.512	83.69
466.732	77.69
466.951	74.69
467.171	103.69
467.391	93.69
467.61	111.69
467.829	81.69
468.049	85.69
468.268	103.69
468.488	89.69
468.707	94.69
468.927	88.69
469.146	78.69
469.365	86.69
469.585	94.69
469.804	81.69
470.023	89.69
470.243	91.69
470.462	98.69
470.681	115.69
470.901	98.69
471.12	84.69
471.339	78.69
471.558	77.69
471.777	92.69
471.997	86.69
472.216	95.69
472.435	98.69
472.654	83.69
472.873	89.69
473.092	80.69
473.311	67.69
473.53	83.69
473.749	81.69
473.968	104.69
474.187	90.69
474.406	86.69
474.625	78.69
474.844	82.69
475.063	81.69
475.282	73.69
475.501	92.69
475.72	86.69
475.939	75.69
476.158	75.69
476.377	97.69
476.596	83.69
476.814	101.69
477.033	76.69
477.252	84.69
477.471	94.69
477.69	96.69
477.908	94.69
478.127	77.69
478.346	82.69
478.564	96.69
478.783	89.69
479.002	89.69
479.22	86.69
479.439	88.69
479.658	96.69
479.876	88.69
480.095	81.69
480.313	93.69
480.532	94.69
480.751	96.69
480.969	88.69
481.188	111.69
481.406	89.69
481.624	96.69
481.843	80.69
482.061	86.69
482.28	96.69
482.498	79.69
482.717	77.69
482.935	94.69
483.153	101.69
483.372	96.69
483.59	92.69
483.808	76.69
484.027	92.69
484.245	88.69
484.463	86.69
484.681	79.69
484.9	96.69
485.118	95.69
485.336	88.69
485.554	98.69
485.772	94.69
485.99	96.69
486.209	100.69
486.427	111.69
486.645	121.69
486.863	117.69
487.081	106.69
487.299	95.69
487.517	86.69
487.735	92.69
487.953	91.69
488.171	92.69
488.389	99.69
488.607	90.69
488.825	89.69
489.043	85.69
489.261	79.69
489.479	91.69
489.696	73.69
489.914	95.69
490.132	92.69
490.35	89.69
490.568	114.69
490.786	99.69
491.003	90.69
491.221	101.69
491.439	87.69
491.657	97.69
491.874	81.69
492.092	98.69
492.31	89.69
492.527	93.69
492.745	88.69
492.963	86.69
493.18	76.69
493.398	96.69
493.615	93.69
493.833	95.69
494.05	71.69
494.268	94.69
494.485	89.69
494.703	96.69
494.92	90.69
495.138	80.69
495.355	80.69
495.573	94.69
495.79	100.69
496.008	108.69
496.225	93.69
496.442	98.69
496.66	96.69
496.877	102.69
497.094	97.69
497.312	85.69
497.529	81.69
497.746	81.69
497.963	89.69
498.181	89.69
498.398	93.69
498.615	99.69
498.832	103.69
499.049	94.69
499.267	100.69
499.484	79.69
499.701	85.69
499.918	79.69
500.135	84.69
500.352	97.69
500.569	89.69
500.786	94.69
501.003	93.69
501.22	99.69
501.437	93.69
501.654	84.69
501.871	112.69
502.088	84.69
502.305	85.69
502.522	104.69
502.739	93.69
502.956	84.69
503.172	84.69
503.389	95.69
503.606	96.69
503.823	100.69
504.04	96.69
504.256	94.69
504.473	92.69
504.69	85.69
504.907	92.69
505.123	92.69
505.34	78.69
505.557	84.69
505.773	93.69
505.99	91.69
506.207	88.69
506.423	91.69
506.64	91.69
506.856	93.69
507.073	77.69
507.289	103.69
507.506	114.69
507.722	115.69
507.939	102.69
508.155	96.69
508.372	82.69
508.588	94.69
508.805	97.69
509.021	95.69
509.238	100.69
509.454	101.69
509.67	110.69
509.887	103.69
510.103	127.69
510.319	212.69
510.536	724.69
510.752	2235.69
510.968	599.69
511.184	144.69
511.401	100.69
511.617	94.69
511.833	88.69
512.049	85.69
512.265	98.69
512.481	98.69
512.698	100.69
512.914	99.69
513.13	94.69
513.346	87.69
513.562	91.69
513.778	95.69
513.994	96.69
514.21	99.69
514.426	124.69
514.642	130.69
514.858	110.69
515.074	153.69
515.29	417.69
515.506	1361.69
515.721	482.69
515.937	143.69
516.153	113.69
