Data from Uncirc_1993_H10_HRD10591_00042.txt Node
Date: Wed Jan 03 11:43:00 EST 2024
User: Yrep
Spectrometer: HR+D1059
Trigger mode: 1
Integration Time (sec): 1.000000E-1
Scans to average: 1
Electric dark correction enabled: true
Nonlinearity correction enabled: false
Boxcar width: 0
XAxis mode: Wavelengths
Number of Pixels in Spectrum: 2048
>>>>>Begin Spectral Data<<<<<
223.165	-16.94
223.4	-16.94
223.635	-16.94
223.869	-8.94
224.104	-24.94
224.338	-12.94
224.573	-13.94
224.808	-11.94
225.042	-10.94
225.277	-1.94
225.511	3.06
225.746	-5.94
225.98	15.06
226.215	10.06
226.449	14.06
226.683	16.06
226.918	19.06
227.152	31.06
227.387	22.06
227.621	42.06
227.856	49.06
228.09	54.06
228.324	51.06
228.559	38.06
228.793	58.06
229.027	52.06
229.262	66.06
229.496	65.06
229.73	80.06
229.964	72.06
230.199	76.06
230.433	93.06
230.667	68.06
230.901	72.06
231.136	77.06
231.37	85.06
231.604	88.06
231.838	88.06
232.072	76.06
232.306	91.06
232.541	76.06
232.775	86.06
233.009	82.06
233.243	73.06
233.477	67.06
233.711	74.06
233.945	88.06
234.179	84.06
234.413	90.06
234.647	69.06
234.881	80.06
235.115	74.06
235.349	74.06
235.583	72.06
235.817	72.06
236.051	81.06
236.285	81.06
236.519	72.06
236.753	80.06
236.987	79.06
237.221	73.06
237.455	85.06
237.689	63.06
237.922	78.06
238.156	81.06
238.39	71.06
238.624	68.06
238.858	76.06
239.091	66.06
239.325	78.06
239.559	75.06
239.793	82.06
240.027	84.06
240.26	71.06
240.494	68.06
240.728	81.06
240.961	66.06
241.195	70.06
241.429	86.06
241.662	77.06
241.896	77.06
242.13	72.06
242.363	76.06
242.597	77.06
242.83	66.06
243.064	67.06
243.298	78.06
243.531	69.06
243.765	84.06
243.998	69.06
244.232	80.06
244.465	73.06
244.699	75.06
244.932	76.06
245.166	88.06
245.399	83.06
245.633	76.06
245.866	85.06
246.099	89.06
246.333	74.06
246.566	74.06
246.8	78.06
247.033	68.06
247.266	76.06
247.5	83.06
247.733	75.06
247.966	86.06
248.2	85.06
248.433	88.06
248.666	74.06
248.899	74.06
249.133	72.06
249.366	96.06
249.599	86.06
249.832	86.06
250.066	96.06
250.299	101.06
250.532	94.06
250.765	84.06
250.998	67.06
251.231	78.06
251.465	83.06
251.698	88.06
251.931	80.06
252.164	77.06
252.397	64.06
252.63	68.06
252.863	66.06
253.096	64.06
253.329	85.06
253.562	61.06
253.795	80.06
254.028	88.06
254.261	75.06
254.494	82.06
254.727	82.06
254.96	65.06
255.193	64.06
255.426	80.06
255.659	84.06
255.892	84.06
256.124	68.06
256.357	73.06
256.59	75.06
256.823	77.06
257.056	82.06
257.289	93.06
257.521	85.06
257.754	85.06
257.987	79.06
258.22	68.06
258.452	74.06
258.685	86.06
258.918	80.06
259.151	79.06
259.383	76.06
259.616	80.06
259.849	78.06
260.081	78.06
260.314	82.06
260.547	83.06
260.779	89.06
261.012	79.06
261.244	76.06
261.477	90.06
261.71	90.06
261.942	105.06
262.175	109.06
262.407	89.06
262.64	90.06
262.872	90.06
263.105	83.06
263.337	82.06
263.57	98.06
263.802	78.06
264.035	95.06
264.267	94.06
264.499	98.06
264.732	90.06
264.964	79.06
265.197	84.06
265.429	67.06
265.661	82.06
265.894	88.06
266.126	93.06
266.358	79.06
266.591	97.06
266.823	91.06
267.055	86.06
267.287	98.06
267.52	91.06
267.752	73.06
267.984	91.06
268.216	82.06
268.448	88.06
268.681	85.06
268.913	88.06
269.145	81.06
269.377	83.06
269.609	73.06
269.841	70.06
270.073	72.06
270.306	88.06
270.538	91.06
270.77	82.06
271.002	81.06
271.234	81.06
271.466	91.06
271.698	81.06
271.93	82.06
272.162	97.06
272.394	90.06
272.626	76.06
272.858	90.06
273.09	90.06
273.322	92.06
273.553	82.06
273.785	81.06
274.017	90.06
274.249	92.06
274.481	82.06
274.713	87.06
274.945	101.06
275.176	87.06
275.408	84.06
275.64	76.06
275.872	88.06
276.104	88.06
276.335	91.06
276.567	101.06
276.799	97.06
277.031	86.06
277.262	88.06
277.494	80.06
277.726	92.06
277.957	75.06
278.189	89.06
278.421	91.06
278.652	98.06
278.884	78.06
279.115	86.06
279.347	89.06
279.579	80.06
279.81	77.06
280.042	82.06
280.273	79.06
280.505	76.06
280.736	83.06
280.968	108.06
281.199	93.06
281.431	74.06
281.662	82.06
281.894	84.06
282.125	91.06
282.356	109.06
282.588	131.06
282.819	97.06
283.051	79.06
283.282	89.06
283.513	87.06
283.745	94.06
283.976	90.06
284.207	96.06
284.439	86.06
284.67	86.06
284.901	90.06
285.132	91.06
285.364	83.06
285.595	86.06
285.826	91.06
286.057	77.06
286.288	94.06
286.52	68.06
286.751	90.06
286.982	80.06
287.213	82.06
287.444	100.06
287.675	93.06
287.906	79.06
288.138	95.06
288.369	81.06
288.6	98.06
288.831	85.06
289.062	96.06
289.293	79.06
289.524	68.06
289.755	80.06
289.986	77.06
290.217	88.06
290.448	76.06
290.679	93.06
290.91	97.06
291.141	82.06
291.371	94.06
291.602	76.06
291.833	84.06
292.064	101.06
292.295	90.06
292.526	74.06
292.757	77.06
292.987	77.06
293.218	90.06
293.449	97.06
293.68	95.06
293.91	83.06
294.141	85.06
294.372	88.06
294.603	93.06
294.833	81.06
295.064	97.06
295.295	96.06
295.525	90.06
295.756	92.06
295.987	112.06
296.217	120.06
296.448	107.06
296.679	83.06
296.909	90.06
297.14	81.06
297.37	100.06
297.601	86.06
297.831	94.06
298.062	79.06
298.292	95.06
298.523	84.06
298.753	86.06
298.984	91.06
299.214	85.06
299.445	83.06
299.675	92.06
299.905	90.06
300.136	85.06
300.366	94.06
300.597	95.06
300.827	90.06
301.057	86.06
301.288	108.06
301.518	83.06
301.748	79.06
301.979	108.06
302.209	92.06
302.439	82.06
302.669	85.06
302.9	81.06
303.13	100.06
303.36	85.06
303.59	86.06
303.82	102.06
304.051	88.06
304.281	90.06
304.511	97.06
304.741	85.06
304.971	78.06
305.201	81.06
305.431	86.06
305.661	89.06
305.891	94.06
306.121	90.06
306.352	108.06
306.582	104.06
306.812	86.06
307.042	94.06
307.272	90.06
307.502	80.06
307.731	82.06
307.961	78.06
308.191	95.06
308.421	84.06
308.651	92.06
308.881	97.06
309.111	95.06
309.341	104.06
309.571	102.06
309.8	89.06
310.03	95.06
310.26	81.06
310.49	99.06
310.72	99.06
310.949	101.06
311.179	108.06
311.409	80.06
311.639	82.06
311.868	94.06
312.098	97.06
312.328	92.06
312.557	90.06
312.787	85.06
313.017	102.06
313.246	96.06
313.476	93.06
313.706	93.06
313.935	90.06
314.165	85.06
314.394	95.06
314.624	86.06
314.853	99.06
315.083	102.06
315.312	96.06
315.542	92.06
315.771	97.06
316.001	105.06
316.23	76.06
316.46	101.06
316.689	93.06
316.919	93.06
317.148	100.06
317.377	106.06
317.607	89.06
317.836	95.06
318.065	86.06
318.295	88.06
318.524	85.06
318.753	84.06
318.983	78.06
319.212	98.06
319.441	114.06
319.67	100.06
319.9	82.06
320.129	93.06
320.358	80.06
320.587	97.06
320.816	109.06
321.046	102.06
321.275	91.06
321.504	84.06
321.733	92.06
321.962	92.06
322.191	97.06
322.42	99.06
322.649	109.06
322.878	100.06
323.108	106.06
323.337	120.06
323.566	118.06
323.795	146.06
324.024	172.06
324.253	335.06
324.482	670.06
324.71	1339.06
324.939	1706.06
325.168	652.06
325.397	212.06
325.626	125.06
325.855	132.06
326.084	118.06
326.313	129.06
326.542	136.06
326.77	208.06
326.999	381.06
327.228	740.06
327.457	1326.06
327.686	1020.06
327.914	296.06
328.143	177.06
328.372	133.06
328.6	114.06
328.829	110.06
329.058	125.06
329.287	114.06
329.515	101.06
329.744	106.06
329.972	85.06
330.201	108.06
330.43	99.06
330.658	97.06
330.887	115.06
331.115	107.06
331.344	109.06
331.572	107.06
331.801	101.06
332.03	87.06
332.258	84.06
332.486	96.06
332.715	92.06
332.943	82.06
333.172	101.06
333.4	88.06
333.629	105.06
333.857	112.06
334.085	109.06
334.314	97.06
334.542	101.06
334.771	114.06
334.999	101.06
335.227	89.06
335.455	94.06
335.684	115.06
335.912	92.06
336.14	94.06
336.369	80.06
336.597	101.06
336.825	97.06
337.053	96.06
337.281	87.06
337.51	91.06
337.738	99.06
337.966	76.06
338.194	88.06
338.422	86.06
338.65	92.06
338.878	104.06
339.106	100.06
339.334	90.06
339.562	101.06
339.79	100.06
340.018	91.06
340.246	93.06
340.474	106.06
340.702	99.06
340.93	78.06
341.158	103.06
341.386	92.06
341.614	106.06
341.842	96.06
342.07	99.06
342.298	90.06
342.526	91.06
342.754	78.06
342.981	77.06
343.209	80.06
343.437	88.06
343.665	93.06
343.893	92.06
344.12	90.06
344.348	89.06
344.576	85.06
344.804	101.06
345.031	107.06
345.259	114.06
345.487	101.06
345.714	103.06
345.942	91.06
346.17	83.06
346.397	86.06
346.625	88.06
346.853	85.06
347.08	89.06
347.308	92.06
347.535	103.06
347.763	89.06
347.99	90.06
348.218	106.06
348.445	102.06
348.673	99.06
348.9	89.06
349.128	103.06
349.355	89.06
349.583	108.06
349.81	101.06
350.037	80.06
350.265	78.06
350.492	84.06
350.72	93.06
350.947	96.06
351.174	110.06
351.402	102.06
351.629	87.06
351.856	102.06
352.083	101.06
352.311	107.06
352.538	110.06
352.765	113.06
352.992	121.06
353.22	122.06
353.447	112.06
353.674	117.06
353.901	105.06
354.128	95.06
354.355	96.06
354.583	99.06
354.81	85.06
355.037	98.06
355.264	102.06
355.491	97.06
355.718	87.06
355.945	100.06
356.172	84.06
356.399	85.06
356.626	90.06
356.853	88.06
357.08	88.06
357.307	81.06
357.534	98.06
357.761	95.06
357.988	93.06
358.215	89.06
358.441	92.06
358.668	85.06
358.895	94.06
359.122	94.06
359.349	96.06
359.576	100.06
359.802	97.06
360.029	97.06
360.256	115.06
360.483	98.06
360.709	81.06
360.936	94.06
361.163	104.06
361.39	93.06
361.616	80.06
361.843	83.06
362.07	94.06
362.296	97.06
362.523	96.06
362.749	98.06
362.976	80.06
363.203	94.06
363.429	83.06
363.656	89.06
363.882	103.06
364.109	96.06
364.335	100.06
364.562	97.06
364.788	90.06
365.015	96.06
365.241	80.06
365.468	93.06
365.694	103.06
365.92	92.06
366.147	100.06
366.373	86.06
366.599	87.06
366.826	96.06
367.052	84.06
367.278	90.06
367.505	88.06
367.731	83.06
367.957	78.06
368.184	89.06
368.41	91.06
368.636	106.06
368.862	115.06
369.089	109.06
369.315	100.06
369.541	74.06
369.767	88.06
369.993	97.06
370.219	82.06
370.445	86.06
370.672	90.06
370.898	97.06
371.124	92.06
371.35	86.06
371.576	89.06
371.802	82.06
372.028	91.06
372.254	91.06
372.48	93.06
372.706	88.06
372.932	99.06
373.158	86.06
373.384	99.06
373.61	84.06
373.835	90.06
374.061	80.06
374.287	75.06
374.513	100.06
374.739	91.06
374.965	100.06
375.191	90.06
375.416	87.06
375.642	97.06
375.868	88.06
376.094	88.06
376.319	85.06
376.545	90.06
376.771	96.06
376.997	75.06
377.222	83.06
377.448	85.06
377.674	78.06
377.899	90.06
378.125	99.06
378.35	88.06
378.576	107.06
378.802	87.06
379.027	87.06
379.253	96.06
379.478	90.06
379.704	89.06
379.929	109.06
380.155	90.06
380.38	90.06
380.606	86.06
380.831	95.06
381.057	97.06
381.282	76.06
381.507	92.06
381.733	85.06
381.958	95.06
382.184	94.06
382.409	97.06
382.634	89.06
382.86	99.06
383.085	95.06
383.31	103.06
383.535	89.06
383.761	117.06
383.986	95.06
384.211	101.06
384.436	91.06
384.662	104.06
384.887	94.06
385.112	105.06
385.337	99.06
385.562	105.06
385.787	96.06
386.013	109.06
386.238	104.06
386.463	108.06
386.688	103.06
386.913	103.06
387.138	106.06
387.363	95.06
387.588	107.06
387.813	114.06
388.038	100.06
388.263	102.06
388.488	110.06
388.713	91.06
388.938	107.06
389.163	108.06
389.387	90.06
389.612	92.06
389.837	88.06
390.062	109.06
390.287	97.06
390.512	87.06
390.736	93.06
390.961	98.06
391.186	102.06
391.411	75.06
391.636	96.06
391.86	88.06
392.085	79.06
392.31	76.06
392.534	85.06
392.759	86.06
392.984	94.06
393.208	88.06
393.433	86.06
393.658	97.06
393.882	85.06
394.107	83.06
394.331	86.06
394.556	91.06
394.78	108.06
395.005	85.06
395.229	82.06
395.454	79.06
395.678	89.06
395.903	81.06
396.127	90.06
396.352	82.06
396.576	101.06
396.801	91.06
397.025	85.06
397.249	102.06
397.474	85.06
397.698	97.06
397.922	98.06
398.147	105.06
398.371	80.06
398.595	92.06
398.82	91.06
399.044	92.06
399.268	92.06
399.492	73.06
399.717	80.06
399.941	85.06
400.165	80.06
400.389	90.06
400.613	84.06
400.837	84.06
401.062	102.06
401.286	88.06
401.51	81.06
401.734	92.06
401.958	104.06
402.182	128.06
402.406	148.06
402.63	114.06
402.854	86.06
403.078	93.06
403.302	95.06
403.526	88.06
403.75	83.06
403.974	97.06
404.198	92.06
404.422	96.06
404.645	84.06
404.869	96.06
405.093	94.06
405.317	87.06
405.541	92.06
405.765	102.06
405.988	127.06
406.212	165.06
406.436	212.06
406.66	133.06
406.883	100.06
407.107	83.06
407.331	80.06
407.555	92.06
407.778	102.06
408.002	95.06
408.226	89.06
408.449	95.06
408.673	93.06
408.896	88.06
409.12	76.06
409.344	90.06
409.567	82.06
409.791	90.06
410.014	90.06
410.238	98.06
410.461	85.06
410.685	90.06
410.908	106.06
411.132	106.06
411.355	109.06
411.578	106.06
411.802	83.06
412.025	76.06
412.249	88.06
412.472	96.06
412.695	72.06
412.919	96.06
413.142	96.06
413.365	95.06
413.589	104.06
413.812	87.06
414.035	97.06
414.258	88.06
414.482	78.06
414.705	89.06
414.928	88.06
415.151	94.06
415.374	97.06
415.597	86.06
415.821	92.06
416.044	99.06
416.267	92.06
416.49	96.06
416.713	115.06
416.936	91.06
417.159	92.06
417.382	97.06
417.605	86.06
417.828	92.06
418.051	98.06
418.274	86.06
418.497	81.06
418.72	92.06
418.943	102.06
419.166	92.06
419.389	93.06
419.611	97.06
419.834	85.06
420.057	89.06
420.28	89.06
420.503	91.06
420.726	78.06
420.948	98.06
421.171	92.06
421.394	83.06
421.617	97.06
421.839	89.06
422.062	89.06
422.285	88.06
422.507	98.06
422.73	88.06
422.953	74.06
423.175	76.06
423.398	101.06
423.621	100.06
423.843	78.06
424.066	80.06
424.288	87.06
424.511	80.06
424.733	97.06
424.956	100.06
425.178	93.06
425.401	96.06
425.623	83.06
425.846	86.06
426.068	95.06
426.291	97.06
426.513	78.06
426.735	84.06
426.958	101.06
427.18	114.06
427.402	126.06
427.625	153.06
427.847	122.06
428.069	89.06
428.292	91.06
428.514	91.06
428.736	88.06
428.958	92.06
429.181	95.06
429.403	82.06
429.625	90.06
429.847	93.06
430.069	98.06
430.292	94.06
430.514	83.06
430.736	80.06
430.958	95.06
431.18	91.06
431.402	92.06
431.624	100.06
431.846	79.06
432.068	93.06
432.29	88.06
432.512	92.06
432.734	91.06
432.956	99.06
433.178	91.06
433.4	94.06
433.622	83.06
433.844	99.06
434.066	93.06
434.287	78.06
434.509	94.06
434.731	79.06
434.953	85.06
435.175	94.06
435.397	97.06
435.618	101.06
435.84	110.06
436.062	109.06
436.284	112.06
436.505	96.06
436.727	99.06
436.949	90.06
437.17	86.06
437.392	79.06
437.614	85.06
437.835	84.06
438.057	106.06
438.278	113.06
438.5	92.06
438.721	103.06
438.943	98.06
439.165	92.06
439.386	95.06
439.608	85.06
439.829	105.06
440.05	99.06
440.272	118.06
440.493	98.06
440.715	97.06
440.936	92.06
441.158	90.06
441.379	86.06
441.6	89.06
441.822	99.06
442.043	94.06
442.264	93.06
442.486	88.06
442.707	98.06
442.928	98.06
443.149	117.06
443.371	113.06
443.592	101.06
443.813	105.06
444.034	79.06
444.255	82.06
444.476	81.06
444.698	95.06
444.919	84.06
445.14	125.06
445.361	116.06
445.582	106.06
445.803	102.06
446.024	118.06
446.245	131.06
446.466	115.06
446.687	76.06
446.908	79.06
447.129	80.06
447.35	87.06
447.571	102.06
447.792	94.06
448.013	99.06
448.234	94.06
448.455	84.06
448.675	97.06
448.896	115.06
449.117	108.06
449.338	101.06
449.559	122.06
449.779	118.06
450	89.06
450.221	104.06
450.442	83.06
450.662	86.06
450.883	91.06
451.104	104.06
451.324	102.06
451.545	93.06
451.766	81.06
451.986	84.06
452.207	87.06
452.428	99.06
452.648	98.06
452.869	102.06
453.089	101.06
453.31	107.06
453.53	87.06
453.751	82.06
453.971	93.06
454.192	88.06
454.412	75.06
454.633	99.06
454.853	101.06
455.073	99.06
455.294	86.06
455.514	92.06
455.734	74.06
455.955	90.06
456.175	93.06
456.395	84.06
456.616	87.06
456.836	90.06
457.056	91.06
457.276	80.06
457.497	85.06
457.717	79.06
457.937	75.06
458.157	94.06
458.377	80.06
458.598	93.06
458.818	114.06
459.038	153.06
459.258	104.06
459.478	92.06
459.698	86.06
459.918	82.06
460.138	89.06
460.358	94.06
460.578	97.06
460.798	93.06
461.018	90.06
461.238	92.06
461.458	90.06
461.678	73.06
461.898	91.06
462.118	85.06
462.338	88.06
462.558	93.06
462.777	84.06
462.997	74.06
463.217	94.06
463.437	96.06
463.657	81.06
463.876	99.06
464.096	102.06
464.316	91.06
464.536	93.06
464.755	89.06
464.975	99.06
465.195	153.06
465.414	131.06
465.634	93.06
465.854	73.06
466.073	81.06
466.293	79.06
466.512	88.06
466.732	91.06
466.951	85.06
467.171	83.06
467.391	92.06
467.61	98.06
467.829	87.06
468.049	100.06
468.268	85.06
468.488	66.06
468.707	96.06
468.927	86.06
469.146	84.06
469.365	81.06
469.585	75.06
469.804	81.06
470.023	92.06
470.243	83.06
470.462	94.06
470.681	100.06
470.901	95.06
471.12	69.06
471.339	93.06
471.558	88.06
471.777	79.06
471.997	68.06
472.216	85.06
472.435	101.06
472.654	89.06
472.873	84.06
473.092	89.06
473.311	106.06
473.53	95.06
473.749	88.06
473.968	102.06
474.187	85.06
474.406	89.06
474.625	73.06
474.844	88.06
475.063	76.06
475.282	84.06
475.501	88.06
475.72	92.06
475.939	93.06
476.158	80.06
476.377	80.06
476.596	97.06
476.814	97.06
477.033	83.06
477.252	94.06
477.471	85.06
477.69	81.06
477.908	96.06
478.127	88.06
478.346	88.06
478.564	78.06
478.783	89.06
479.002	93.06
479.22	97.06
479.439	96.06
479.658	100.06
479.876	101.06
480.095	81.06
480.313	92.06
480.532	85.06
480.751	92.06
480.969	96.06
481.188	102.06
481.406	91.06
481.624	94.06
481.843	83.06
482.061	83.06
482.28	84.06
482.498	88.06
482.717	93.06
482.935	80.06
483.153	78.06
483.372	86.06
483.59	88.06
483.808	80.06
484.027	98.06
484.245	96.06
484.463	84.06
484.681	98.06
484.9	99.06
485.118	96.06
485.336	109.06
485.554	89.06
485.772	108.06
485.99	100.06
486.209	107.06
486.427	104.06
486.645	101.06
486.863	115.06
487.081	102.06
487.299	91.06
487.517	97.06
487.735	99.06
487.953	84.06
488.171	92.06
488.389	93.06
488.607	97.06
488.825	81.06
489.043	79.06
489.261	78.06
489.479	99.06
489.696	95.06
489.914	100.06
490.132	84.06
490.35	77.06
490.568	98.06
490.786	88.06
491.003	85.06
491.221	78.06
491.439	92.06
491.657	99.06
491.874	105.06
492.092	92.06
492.31	83.06
492.527	81.06
492.745	84.06
492.963	89.06
493.18	77.06
493.398	88.06
493.615	80.06
493.833	90.06
494.05	90.06
494.268	89.06
494.485	90.06
494.703	80.06
494.92	85.06
495.138	100.06
495.355	98.06
495.573	79.06
495.79	88.06
496.008	92.06
496.225	93.06
496.442	81.06
496.66	86.06
496.877	104.06
497.094	86.06
497.312	92.06
497.529	99.06
497.746	91.06
497.963	93.06
498.181	100.06
498.398	108.06
498.615	110.06
498.832	89.06
499.049	100.06
499.267	99.06
499.484	85.06
499.701	100.06
499.918	91.06
500.135	80.06
500.352	83.06
500.569	96.06
500.786	88.06
501.003	102.06
501.22	96.06
501.437	95.06
501.654	95.06
501.871	93.06
502.088	100.06
502.305	97.06
502.522	84.06
502.739	90.06
502.956	108.06
503.172	94.06
503.389	104.06
503.606	107.06
503.823	96.06
504.04	93.06
504.256	89.06
504.473	81.06
504.69	86.06
504.907	97.06
505.123	90.06
505.34	94.06
505.557	77.06
505.773	88.06
505.99	85.06
506.207	91.06
506.423	77.06
506.64	90.06
506.856	92.06
507.073	81.06
507.289	96.06
507.506	92.06
507.722	98.06
507.939	104.06
508.155	108.06
508.372	97.06
508.588	94.06
508.805	88.06
509.021	91.06
509.238	99.06
509.454	97.06
509.67	100.06
509.887	109.06
510.103	130.06
510.319	201.06
510.536	707.06
510.752	2098.06
510.968	554.06
511.184	156.06
511.401	103.06
511.617	90.06
511.833	90.06
512.049	97.06
512.265	108.06
512.481	92.06
512.698	83.06
512.914	93.06
513.13	96.06
513.346	96.06
513.562	84.06
513.778	100.06
513.994	94.06
514.21	108.06
514.426	102.06
514.642	123.06
514.858	118.06
515.074	159.06
515.29	395.06
515.506	1214.06
515.721	443.06
515.937	132.06
516.153	100.06
