Data from Uncirc_1993_H10_HRD10591_00016.txt Node
Date: Wed Jan 03 11:42:55 EST 2024
User: Yrep
Spectrometer: HR+D1059
Trigger mode: 1
Integration Time (sec): 1.000000E-1
Scans to average: 1
Electric dark correction enabled: true
Nonlinearity correction enabled: false
Boxcar width: 0
XAxis mode: Wavelengths
Number of Pixels in Spectrum: 2048
>>>>>Begin Spectral Data<<<<<
223.165	-17.62
223.4	-17.62
223.635	-17.62
223.869	-11.62
224.104	-12.62
224.338	-10.62
224.573	-17.62
224.808	-15.62
225.042	-3.62
225.277	-12.62
225.511	-10.62
225.746	12.38
225.98	4.38
226.215	13.38
226.449	9.38
226.683	21.38
226.918	29.38
227.152	22.38
227.387	42.38
227.621	55.38
227.856	48.38
228.09	43.38
228.324	50.38
228.559	49.38
228.793	52.38
229.027	64.38
229.262	72.38
229.496	89.38
229.73	83.38
229.964	70.38
230.199	76.38
230.433	82.38
230.667	67.38
230.901	78.38
231.136	76.38
231.37	81.38
231.604	91.38
231.838	80.38
232.072	83.38
232.306	84.38
232.541	86.38
232.775	91.38
233.009	92.38
233.243	79.38
233.477	87.38
233.711	83.38
233.945	76.38
234.179	81.38
234.413	79.38
234.647	87.38
234.881	77.38
235.115	77.38
235.349	95.38
235.583	87.38
235.817	92.38
236.051	74.38
236.285	69.38
236.519	86.38
236.753	85.38
236.987	78.38
237.221	85.38
237.455	83.38
237.689	85.38
237.922	94.38
238.156	82.38
238.39	78.38
238.624	68.38
238.858	80.38
239.091	87.38
239.325	80.38
239.559	80.38
239.793	74.38
240.027	85.38
240.26	89.38
240.494	94.38
240.728	93.38
240.961	85.38
241.195	87.38
241.429	79.38
241.662	75.38
241.896	78.38
242.13	69.38
242.363	79.38
242.597	78.38
242.83	92.38
243.064	81.38
243.298	72.38
243.531	78.38
243.765	79.38
243.998	90.38
244.232	82.38
244.465	85.38
244.699	86.38
244.932	86.38
245.166	83.38
245.399	75.38
245.633	83.38
245.866	83.38
246.099	80.38
246.333	98.38
246.566	89.38
246.8	94.38
247.033	70.38
247.266	83.38
247.5	84.38
247.733	89.38
247.966	92.38
248.2	84.38
248.433	75.38
248.666	79.38
248.899	81.38
249.133	70.38
249.366	98.38
249.599	101.38
249.832	79.38
250.066	78.38
250.299	65.38
250.532	81.38
250.765	85.38
250.998	77.38
251.231	76.38
251.465	78.38
251.698	80.38
251.931	87.38
252.164	93.38
252.397	83.38
252.63	90.38
252.863	84.38
253.096	86.38
253.329	93.38
253.562	91.38
253.795	71.38
254.028	83.38
254.261	87.38
254.494	87.38
254.727	83.38
254.96	96.38
255.193	85.38
255.426	83.38
255.659	71.38
255.892	82.38
256.124	69.38
256.357	74.38
256.59	90.38
256.823	81.38
257.056	84.38
257.289	83.38
257.521	83.38
257.754	91.38
257.987	85.38
258.22	83.38
258.452	78.38
258.685	95.38
258.918	71.38
259.151	90.38
259.383	108.38
259.616	87.38
259.849	84.38
260.081	84.38
260.314	90.38
260.547	79.38
260.779	92.38
261.012	72.38
261.244	88.38
261.477	91.38
261.71	88.38
261.942	114.38
262.175	117.38
262.407	93.38
262.64	83.38
262.872	75.38
263.105	99.38
263.337	79.38
263.57	84.38
263.802	80.38
264.035	82.38
264.267	94.38
264.499	80.38
264.732	85.38
264.964	75.38
265.197	81.38
265.429	96.38
265.661	91.38
265.894	94.38
266.126	90.38
266.358	77.38
266.591	88.38
266.823	85.38
267.055	101.38
267.287	85.38
267.52	84.38
267.752	77.38
267.984	91.38
268.216	81.38
268.448	93.38
268.681	93.38
268.913	76.38
269.145	89.38
269.377	86.38
269.609	81.38
269.841	83.38
270.073	83.38
270.306	83.38
270.538	94.38
270.77	92.38
271.002	81.38
271.234	72.38
271.466	90.38
271.698	76.38
271.93	89.38
272.162	86.38
272.394	86.38
272.626	84.38
272.858	91.38
273.09	90.38
273.322	84.38
273.553	86.38
273.785	75.38
274.017	89.38
274.249	86.38
274.481	92.38
274.713	91.38
274.945	85.38
275.176	84.38
275.408	83.38
275.64	86.38
275.872	75.38
276.104	78.38
276.335	91.38
276.567	86.38
276.799	94.38
277.031	100.38
277.262	88.38
277.494	107.38
277.726	92.38
277.957	96.38
278.189	92.38
278.421	96.38
278.652	89.38
278.884	84.38
279.115	83.38
279.347	78.38
279.579	94.38
279.81	91.38
280.042	88.38
280.273	95.38
280.505	90.38
280.736	96.38
280.968	81.38
281.199	96.38
281.431	90.38
281.662	79.38
281.894	98.38
282.125	100.38
282.356	101.38
282.588	121.38
282.819	99.38
283.051	96.38
283.282	91.38
283.513	94.38
283.745	78.38
283.976	83.38
284.207	96.38
284.439	90.38
284.67	87.38
284.901	96.38
285.132	94.38
285.364	94.38
285.595	80.38
285.826	92.38
286.057	95.38
286.288	91.38
286.52	93.38
286.751	95.38
286.982	102.38
287.213	101.38
287.444	101.38
287.675	87.38
287.906	88.38
288.138	110.38
288.369	104.38
288.6	94.38
288.831	91.38
289.062	96.38
289.293	91.38
289.524	97.38
289.755	83.38
289.986	84.38
290.217	95.38
290.448	87.38
290.679	98.38
290.91	100.38
291.141	90.38
291.371	99.38
291.602	83.38
291.833	92.38
292.064	90.38
292.295	85.38
292.526	91.38
292.757	76.38
292.987	77.38
293.218	80.38
293.449	71.38
293.68	90.38
293.91	97.38
294.141	85.38
294.372	86.38
294.603	96.38
294.833	94.38
295.064	84.38
295.295	85.38
295.525	84.38
295.756	96.38
295.987	111.38
296.217	134.38
296.448	114.38
296.679	94.38
296.909	98.38
297.14	82.38
297.37	100.38
297.601	87.38
297.831	83.38
298.062	82.38
298.292	88.38
298.523	96.38
298.753	93.38
298.984	97.38
299.214	81.38
299.445	83.38
299.675	92.38
299.905	96.38
300.136	95.38
300.366	93.38
300.597	101.38
300.827	97.38
301.057	91.38
301.288	111.38
301.518	109.38
301.748	83.38
301.979	101.38
302.209	90.38
302.439	79.38
302.669	96.38
302.9	95.38
303.13	109.38
303.36	90.38
303.59	107.38
303.82	112.38
304.051	97.38
304.281	90.38
304.511	107.38
304.741	95.38
304.971	106.38
305.201	89.38
305.431	82.38
305.661	95.38
305.891	95.38
306.121	93.38
306.352	118.38
306.582	106.38
306.812	95.38
307.042	84.38
307.272	87.38
307.502	103.38
307.731	96.38
307.961	85.38
308.191	103.38
308.421	101.38
308.651	83.38
308.881	90.38
309.111	89.38
309.341	88.38
309.571	99.38
309.8	82.38
310.03	104.38
310.26	82.38
310.49	97.38
310.72	91.38
310.949	92.38
311.179	93.38
311.409	95.38
311.639	72.38
311.868	107.38
312.098	106.38
312.328	93.38
312.557	98.38
312.787	93.38
313.017	106.38
313.246	88.38
313.476	93.38
313.706	82.38
313.935	96.38
314.165	100.38
314.394	96.38
314.624	103.38
314.853	95.38
315.083	91.38
315.312	95.38
315.542	100.38
315.771	91.38
316.001	87.38
316.23	91.38
316.46	96.38
316.689	85.38
316.919	112.38
317.148	100.38
317.377	97.38
317.607	93.38
317.836	92.38
318.065	101.38
318.295	107.38
318.524	87.38
318.753	86.38
318.983	96.38
319.212	104.38
319.441	113.38
319.67	104.38
319.9	91.38
320.129	77.38
320.358	85.38
320.587	88.38
320.816	96.38
321.046	94.38
321.275	103.38
321.504	91.38
321.733	95.38
321.962	95.38
322.191	99.38
322.42	100.38
322.649	98.38
322.878	111.38
323.108	107.38
323.337	117.38
323.566	112.38
323.795	146.38
324.024	182.38
324.253	337.38
324.482	670.38
324.71	1311.38
324.939	1671.38
325.168	630.38
325.397	219.38
325.626	140.38
325.855	124.38
326.084	110.38
326.313	112.38
326.542	137.38
326.77	199.38
326.999	387.38
327.228	743.38
327.457	1295.38
327.686	1038.38
327.914	294.38
328.143	173.38
328.372	131.38
328.6	120.38
328.829	104.38
329.058	123.38
329.287	111.38
329.515	101.38
329.744	104.38
329.972	92.38
330.201	108.38
330.43	98.38
330.658	104.38
330.887	118.38
331.115	98.38
331.344	91.38
331.572	99.38
331.801	98.38
332.03	111.38
332.258	94.38
332.486	81.38
332.715	98.38
332.943	104.38
333.172	102.38
333.4	103.38
333.629	108.38
333.857	94.38
334.085	98.38
334.314	88.38
334.542	101.38
334.771	95.38
334.999	99.38
335.227	88.38
335.455	88.38
335.684	99.38
335.912	114.38
336.14	111.38
336.369	109.38
336.597	93.38
336.825	106.38
337.053	96.38
337.281	95.38
337.51	96.38
337.738	79.38
337.966	95.38
338.194	94.38
338.422	102.38
338.65	97.38
338.878	95.38
339.106	87.38
339.334	104.38
339.562	99.38
339.79	104.38
340.018	90.38
340.246	98.38
340.474	100.38
340.702	87.38
340.93	96.38
341.158	108.38
341.386	108.38
341.614	96.38
341.842	88.38
342.07	85.38
342.298	94.38
342.526	96.38
342.754	84.38
342.981	89.38
343.209	100.38
343.437	112.38
343.665	80.38
343.893	71.38
344.12	87.38
344.348	89.38
344.576	78.38
344.804	94.38
345.031	94.38
345.259	91.38
345.487	95.38
345.714	86.38
345.942	95.38
346.17	94.38
346.397	94.38
346.625	105.38
346.853	97.38
347.08	80.38
347.308	92.38
347.535	90.38
347.763	94.38
347.99	81.38
348.218	101.38
348.445	112.38
348.673	103.38
348.9	108.38
349.128	90.38
349.355	82.38
349.583	94.38
349.81	89.38
350.037	98.38
350.265	96.38
350.492	95.38
350.72	103.38
350.947	97.38
351.174	111.38
351.402	117.38
351.629	94.38
351.856	112.38
352.083	119.38
352.311	108.38
352.538	111.38
352.765	114.38
352.992	108.38
353.22	98.38
353.447	99.38
353.674	101.38
353.901	98.38
354.128	98.38
354.355	98.38
354.583	110.38
354.81	92.38
355.037	92.38
355.264	84.38
355.491	96.38
355.718	97.38
355.945	114.38
356.172	92.38
356.399	97.38
356.626	105.38
356.853	99.38
357.08	94.38
357.307	103.38
357.534	89.38
357.761	110.38
357.988	84.38
358.215	106.38
358.441	95.38
358.668	106.38
358.895	84.38
359.122	92.38
359.349	100.38
359.576	96.38
359.802	87.38
360.029	110.38
360.256	103.38
360.483	96.38
360.709	95.38
360.936	91.38
361.163	92.38
361.39	95.38
361.616	82.38
361.843	88.38
362.07	92.38
362.296	91.38
362.523	93.38
362.749	98.38
362.976	82.38
363.203	96.38
363.429	81.38
363.656	94.38
363.882	86.38
364.109	103.38
364.335	98.38
364.562	70.38
364.788	84.38
365.015	99.38
365.241	102.38
365.468	117.38
365.694	95.38
365.92	84.38
366.147	96.38
366.373	95.38
366.599	93.38
366.826	103.38
367.052	98.38
367.278	67.38
367.505	93.38
367.731	102.38
367.957	88.38
368.184	96.38
368.41	102.38
368.636	110.38
368.862	135.38
369.089	93.38
369.315	82.38
369.541	100.38
369.767	91.38
369.993	93.38
370.219	84.38
370.445	87.38
370.672	84.38
370.898	99.38
371.124	86.38
371.35	84.38
371.576	91.38
371.802	100.38
372.028	85.38
372.254	91.38
372.48	105.38
372.706	97.38
372.932	94.38
373.158	98.38
373.384	97.38
373.61	83.38
373.835	89.38
374.061	84.38
374.287	103.38
374.513	84.38
374.739	92.38
374.965	89.38
375.191	96.38
375.416	99.38
375.642	88.38
375.868	82.38
376.094	109.38
376.319	87.38
376.545	105.38
376.771	87.38
376.997	99.38
377.222	92.38
377.448	92.38
377.674	91.38
377.899	86.38
378.125	100.38
378.35	84.38
378.576	71.38
378.802	91.38
379.027	84.38
379.253	91.38
379.478	86.38
379.704	113.38
379.929	94.38
380.155	86.38
380.38	91.38
380.606	99.38
380.831	107.38
381.057	120.38
381.282	89.38
381.507	85.38
381.733	99.38
381.958	89.38
382.184	79.38
382.409	96.38
382.634	97.38
382.86	94.38
383.085	104.38
383.31	104.38
383.535	108.38
383.761	98.38
383.986	103.38
384.211	95.38
384.436	104.38
384.662	102.38
384.887	90.38
385.112	100.38
385.337	103.38
385.562	113.38
385.787	109.38
386.013	108.38
386.238	102.38
386.463	96.38
386.688	106.38
386.913	102.38
387.138	101.38
387.363	95.38
387.588	101.38
387.813	110.38
388.038	110.38
388.263	96.38
388.488	98.38
388.713	96.38
388.938	88.38
389.163	99.38
389.387	76.38
389.612	100.38
389.837	100.38
390.062	103.38
390.287	94.38
390.512	88.38
390.736	95.38
390.961	91.38
391.186	91.38
391.411	94.38
391.636	74.38
391.86	93.38
392.085	99.38
392.31	98.38
392.534	75.38
392.759	101.38
392.984	93.38
393.208	71.38
393.433	91.38
393.658	76.38
393.882	88.38
394.107	88.38
394.331	86.38
394.556	74.38
394.78	85.38
395.005	82.38
395.229	80.38
395.454	94.38
395.678	83.38
395.903	86.38
396.127	80.38
396.352	101.38
396.576	84.38
396.801	93.38
397.025	92.38
397.249	79.38
397.474	103.38
397.698	87.38
397.922	91.38
398.147	75.38
398.371	92.38
398.595	90.38
398.82	80.38
399.044	80.38
399.268	67.38
399.492	103.38
399.717	98.38
399.941	92.38
400.165	91.38
400.389	90.38
400.613	102.38
400.837	87.38
401.062	85.38
401.286	87.38
401.51	96.38
401.734	99.38
401.958	99.38
402.182	125.38
402.406	132.38
402.63	103.38
402.854	81.38
403.078	98.38
403.302	87.38
403.526	86.38
403.75	85.38
403.974	93.38
404.198	102.38
404.422	91.38
404.645	98.38
404.869	102.38
405.093	96.38
405.317	90.38
405.541	100.38
405.765	106.38
405.988	110.38
406.212	162.38
406.436	202.38
406.66	133.38
406.883	99.38
407.107	86.38
407.331	76.38
407.555	94.38
407.778	87.38
408.002	85.38
408.226	85.38
408.449	93.38
408.673	87.38
408.896	92.38
409.12	110.38
409.344	103.38
409.567	90.38
409.791	88.38
410.014	97.38
410.238	88.38
410.461	86.38
410.685	87.38
410.908	87.38
411.132	102.38
411.355	100.38
411.578	92.38
411.802	85.38
412.025	107.38
412.249	103.38
412.472	88.38
412.695	92.38
412.919	96.38
413.142	94.38
413.365	88.38
413.589	87.38
413.812	87.38
414.035	97.38
414.258	104.38
414.482	98.38
414.705	81.38
414.928	88.38
415.151	102.38
415.374	99.38
415.597	98.38
415.821	96.38
416.044	78.38
416.267	86.38
416.49	97.38
416.713	86.38
416.936	90.38
417.159	83.38
417.382	98.38
417.605	90.38
417.828	102.38
418.051	90.38
418.274	91.38
418.497	96.38
418.72	87.38
418.943	82.38
419.166	85.38
419.389	96.38
419.611	91.38
419.834	85.38
420.057	99.38
420.28	81.38
420.503	98.38
420.726	83.38
420.948	88.38
421.171	87.38
421.394	95.38
421.617	110.38
421.839	76.38
422.062	87.38
422.285	123.38
422.507	110.38
422.73	97.38
422.953	98.38
423.175	93.38
423.398	90.38
423.621	89.38
423.843	98.38
424.066	78.38
424.288	82.38
424.511	84.38
424.733	89.38
424.956	112.38
425.178	94.38
425.401	95.38
425.623	101.38
425.846	98.38
426.068	109.38
426.291	99.38
426.513	85.38
426.735	119.38
426.958	100.38
427.18	88.38
427.402	126.38
427.625	150.38
427.847	124.38
428.069	113.38
428.292	82.38
428.514	102.38
428.736	92.38
428.958	88.38
429.181	95.38
429.403	85.38
429.625	101.38
429.847	86.38
430.069	93.38
430.292	95.38
430.514	99.38
430.736	88.38
430.958	96.38
431.18	101.38
431.402	88.38
431.624	99.38
431.846	90.38
432.068	90.38
432.29	108.38
432.512	99.38
432.734	89.38
432.956	88.38
433.178	107.38
433.4	86.38
433.622	92.38
433.844	102.38
434.066	92.38
434.287	100.38
434.509	83.38
434.731	92.38
434.953	105.38
435.175	101.38
435.397	85.38
435.618	95.38
435.84	106.38
436.062	115.38
436.284	120.38
436.505	108.38
436.727	106.38
436.949	98.38
437.17	88.38
437.392	99.38
437.614	92.38
437.835	102.38
438.057	117.38
438.278	114.38
438.5	101.38
438.721	117.38
438.943	95.38
439.165	89.38
439.386	79.38
439.608	86.38
439.829	85.38
440.05	111.38
440.272	128.38
440.493	96.38
440.715	95.38
440.936	91.38
441.158	92.38
441.379	95.38
441.6	84.38
441.822	99.38
442.043	84.38
442.264	100.38
442.486	108.38
442.707	90.38
442.928	102.38
443.149	118.38
443.371	117.38
443.592	113.38
443.813	99.38
444.034	80.38
444.255	86.38
444.476	87.38
444.698	87.38
444.919	89.38
445.14	141.38
445.361	129.38
445.582	116.38
445.803	123.38
446.024	124.38
446.245	111.38
446.466	110.38
446.687	87.38
446.908	91.38
447.129	95.38
447.35	99.38
447.571	98.38
447.792	94.38
448.013	94.38
448.234	103.38
448.455	99.38
448.675	105.38
448.896	104.38
449.117	104.38
449.338	92.38
449.559	122.38
449.779	132.38
450	98.38
450.221	80.38
450.442	95.38
450.662	109.38
450.883	95.38
451.104	113.38
451.324	111.38
451.545	81.38
451.766	85.38
451.986	92.38
452.207	77.38
452.428	87.38
452.648	94.38
452.869	122.38
453.089	110.38
453.31	104.38
453.53	82.38
453.751	90.38
453.971	101.38
454.192	104.38
454.412	95.38
454.633	95.38
454.853	100.38
455.073	98.38
455.294	87.38
455.514	88.38
455.734	84.38
455.955	87.38
456.175	86.38
456.395	78.38
456.616	92.38
456.836	93.38
457.056	79.38
457.276	84.38
457.497	81.38
457.717	94.38
457.937	90.38
458.157	87.38
458.377	86.38
458.598	109.38
458.818	153.38
459.038	136.38
459.258	115.38
459.478	81.38
459.698	92.38
459.918	86.38
460.138	81.38
460.358	83.38
460.578	90.38
460.798	78.38
461.018	70.38
461.238	92.38
461.458	97.38
461.678	90.38
461.898	87.38
462.118	90.38
462.338	89.38
462.558	94.38
462.777	108.38
462.997	84.38
463.217	94.38
463.437	77.38
463.657	91.38
463.876	94.38
464.096	82.38
464.316	100.38
464.536	102.38
464.755	85.38
464.975	105.38
465.195	148.38
465.414	138.38
465.634	109.38
465.854	91.38
466.073	84.38
466.293	91.38
466.512	84.38
466.732	85.38
466.951	87.38
467.171	98.38
467.391	96.38
467.61	99.38
467.829	103.38
468.049	107.38
468.268	76.38
468.488	82.38
468.707	80.38
468.927	78.38
469.146	95.38
469.365	86.38
469.585	103.38
469.804	91.38
470.023	101.38
470.243	96.38
470.462	111.38
470.681	101.38
470.901	92.38
471.12	102.38
471.339	87.38
471.558	88.38
471.777	98.38
471.997	95.38
472.216	89.38
472.435	102.38
472.654	101.38
472.873	87.38
473.092	80.38
473.311	87.38
473.53	87.38
473.749	96.38
473.968	98.38
474.187	114.38
474.406	114.38
474.625	110.38
474.844	88.38
475.063	79.38
475.282	90.38
475.501	83.38
475.72	92.38
475.939	96.38
476.158	96.38
476.377	93.38
476.596	94.38
476.814	95.38
477.033	104.38
477.252	99.38
477.471	88.38
477.69	72.38
477.908	94.38
478.127	97.38
478.346	84.38
478.564	89.38
478.783	93.38
479.002	99.38
479.22	93.38
479.439	99.38
479.658	102.38
479.876	90.38
480.095	91.38
480.313	98.38
480.532	84.38
480.751	101.38
480.969	88.38
481.188	115.38
481.406	115.38
481.624	93.38
481.843	98.38
482.061	96.38
482.28	98.38
482.498	100.38
482.717	87.38
482.935	90.38
483.153	102.38
483.372	87.38
483.59	99.38
483.808	91.38
484.027	91.38
484.245	96.38
484.463	102.38
484.681	107.38
484.9	104.38
485.118	108.38
485.336	89.38
485.554	120.38
485.772	96.38
485.99	108.38
486.209	112.38
486.427	107.38
486.645	114.38
486.863	101.38
487.081	114.38
487.299	94.38
487.517	106.38
487.735	104.38
487.953	98.38
488.171	80.38
488.389	99.38
488.607	90.38
488.825	95.38
489.043	95.38
489.261	102.38
489.479	99.38
489.696	84.38
489.914	89.38
490.132	88.38
490.35	101.38
490.568	101.38
490.786	94.38
491.003	96.38
491.221	93.38
491.439	94.38
491.657	109.38
491.874	91.38
492.092	84.38
492.31	95.38
492.527	84.38
492.745	94.38
492.963	103.38
493.18	103.38
493.398	88.38
493.615	107.38
493.833	110.38
494.05	82.38
494.268	92.38
494.485	101.38
494.703	95.38
494.92	88.38
495.138	112.38
495.355	100.38
495.573	96.38
495.79	81.38
496.008	91.38
496.225	92.38
496.442	83.38
496.66	97.38
496.877	95.38
497.094	100.38
497.312	95.38
497.529	102.38
497.746	103.38
497.963	87.38
498.181	83.38
498.398	100.38
498.615	126.38
498.832	116.38
499.049	85.38
499.267	84.38
499.484	90.38
499.701	87.38
499.918	90.38
500.135	91.38
500.352	84.38
500.569	89.38
500.786	91.38
501.003	88.38
501.22	91.38
501.437	80.38
501.654	101.38
501.871	94.38
502.088	80.38
502.305	97.38
502.522	94.38
502.739	90.38
502.956	113.38
503.172	96.38
503.389	91.38
503.606	111.38
503.823	101.38
504.04	98.38
504.256	94.38
504.473	90.38
504.69	80.38
504.907	95.38
505.123	96.38
505.34	90.38
505.557	96.38
505.773	94.38
505.99	97.38
506.207	79.38
506.423	91.38
506.64	99.38
506.856	111.38
507.073	100.38
507.289	90.38
507.506	78.38
507.722	112.38
507.939	110.38
508.155	91.38
508.372	108.38
508.588	100.38
508.805	86.38
509.021	98.38
509.238	91.38
509.454	92.38
509.67	102.38
509.887	100.38
510.103	125.38
510.319	197.38
510.536	679.38
510.752	2003.38
510.968	551.38
511.184	155.38
511.401	106.38
511.617	94.38
511.833	108.38
512.049	94.38
512.265	96.38
512.481	94.38
512.698	88.38
512.914	75.38
513.13	98.38
513.346	100.38
513.562	94.38
513.778	108.38
513.994	94.38
514.21	102.38
514.426	114.38
514.642	123.38
514.858	125.38
515.074	145.38
515.29	382.38
