Data from Uncirc_1993_H10_HRD10591_00006.txt Node
Date: Wed Jan 03 11:42:53 EST 2024
User: Yrep
Spectrometer: HR+D1059
Trigger mode: 1
Integration Time (sec): 1.000000E-1
Scans to average: 1
Electric dark correction enabled: true
Nonlinearity correction enabled: false
Boxcar width: 0
XAxis mode: Wavelengths
Number of Pixels in Spectrum: 2048
>>>>>Begin Spectral Data<<<<<
223.165	-12.88
223.4	-12.88
223.635	-12.88
223.869	-23.88
224.104	-25.88
224.338	-11.88
224.573	-7.88
224.808	-20.88
225.042	-3.88
225.277	-8.88
225.511	-1.88
225.746	10.12
225.98	-13.88
226.215	7.12
226.449	25.12
226.683	20.12
226.918	33.12
227.152	36.12
227.387	28.12
227.621	42.12
227.856	39.12
228.09	42.12
228.324	52.12
228.559	51.12
228.793	139.12
229.027	421.12
229.262	487.12
229.496	588.12
229.73	722.12
229.964	761.12
230.199	519.12
230.433	437.12
230.667	463.12
230.901	455.12
231.136	411.12
231.37	438.12
231.604	433.12
231.838	437.12
232.072	419.12
232.306	431.12
232.541	436.12
232.775	453.12
233.009	448.12
233.243	439.12
233.477	458.12
233.711	472.12
233.945	480.12
234.179	491.12
234.413	488.12
234.647	491.12
234.881	511.12
235.115	508.12
235.349	521.12
235.583	542.12
235.817	560.12
236.051	595.12
236.285	576.12
236.519	570.12
236.753	651.12
236.987	862.12
237.221	1257.12
237.455	1385.12
237.689	847.12
237.922	693.12
238.156	689.12
238.39	650.12
238.624	618.12
238.858	614.12
239.091	653.12
239.325	634.12
239.559	654.12
239.793	679.12
240.027	739.12
240.26	858.12
240.494	909.12
240.728	892.12
240.961	863.12
241.195	782.12
241.429	746.12
241.662	730.12
241.896	737.12
242.13	752.12
242.363	731.12
242.597	761.12
242.83	802.12
243.064	781.12
243.298	787.12
243.531	792.12
243.765	817.12
243.998	821.12
244.232	832.12
244.465	848.12
244.699	862.12
244.932	886.12
245.166	868.12
245.399	900.12
245.633	904.12
245.866	904.12
246.099	874.12
246.333	914.12
246.566	936.12
246.8	943.12
247.033	1005.12
247.266	1035.12
247.5	1047.12
247.733	1098.12
247.966	1103.12
248.2	1099.12
248.433	1139.12
248.666	1170.12
248.899	1247.12
249.133	1373.12
249.366	1341.12
249.599	1258.12
249.832	1141.12
250.066	1158.12
250.299	1187.12
250.532	1259.12
250.765	1409.12
250.998	1595.12
251.231	1584.12
251.465	1409.12
251.698	1358.12
251.931	1367.12
252.164	1370.12
252.397	1347.12
252.63	1416.12
252.863	1523.12
253.096	1552.12
253.329	1685.12
253.562	1556.12
253.795	1506.12
254.028	1522.12
254.261	1559.12
254.494	1734.12
254.727	2023.12
254.96	2053.12
255.193	1844.12
255.426	1650.12
255.659	1579.12
255.892	1513.12
256.124	1493.12
256.357	1507.12
256.59	1487.12
256.823	1417.12
257.056	1449.12
257.289	1437.12
257.521	1496.12
257.754	1493.12
257.987	1489.12
258.22	1482.12
258.452	1485.12
258.685	1483.12
258.918	1524.12
259.151	1579.12
259.383	1637.12
259.616	1677.12
259.849	1730.12
260.081	1867.12
260.314	1991.12
260.547	1926.12
260.779	1783.12
261.012	1716.12
261.244	1651.12
261.477	1629.12
261.71	1622.12
261.942	1712.12
262.175	1728.12
262.407	1634.12
262.64	1581.12
262.872	1616.12
263.105	1617.12
263.337	1596.12
263.57	1588.12
263.802	1641.12
264.035	1647.12
264.267	1622.12
264.499	1632.12
264.732	1632.12
264.964	1637.12
265.197	1669.12
265.429	1673.12
265.661	1655.12
265.894	1691.12
266.126	1687.12
266.358	1744.12
266.591	1725.12
266.823	1817.12
267.055	1833.12
267.287	1828.12
267.52	1785.12
267.752	1779.12
267.984	1810.12
268.216	1832.12
268.448	1869.12
268.681	1945.12
268.913	2037.12
269.145	2275.12
269.377	2309.12
269.609	2198.12
269.841	2187.12
270.073	2263.12
270.306	2503.12
270.538	2654.12
270.77	2509.12
271.002	2378.12
271.234	2337.12
271.466	2506.12
271.698	2683.12
271.93	2619.12
272.162	2619.12
272.394	2564.12
272.626	2379.12
272.858	2275.12
273.09	2261.12
273.322	2188.12
273.553	2181.12
273.785	2188.12
274.017	2145.12
274.249	2150.12
274.481	2197.12
274.713	2195.12
274.945	2215.12
275.176	2205.12
275.408	2171.12
275.64	2178.12
275.872	2157.12
276.104	2248.12
276.335	2266.12
276.567	2315.12
276.799	2417.12
277.031	2655.12
277.262	2753.12
277.494	2653.12
277.726	2501.12
277.957	2425.12
278.189	2322.12
278.421	2345.12
278.652	2347.12
278.884	2366.12
279.115	2325.12
279.347	2343.12
279.579	2318.12
279.81	2326.12
280.042	2332.12
280.273	2325.12
280.505	2362.12
280.736	2329.12
280.968	2352.12
281.199	2353.12
281.431	2387.12
281.662	2410.12
281.894	2371.12
282.125	2464.12
282.356	2593.12
282.588	2734.12
282.819	2621.12
283.051	2496.12
283.282	2423.12
283.513	2542.12
283.745	2543.12
283.976	2579.12
284.207	2595.12
284.439	2557.12
284.67	2553.12
284.901	2575.12
285.132	2575.12
285.364	2541.12
285.595	2624.12
285.826	2598.12
286.057	2628.12
286.288	2625.12
286.52	2614.12
286.751	2635.12
286.982	2625.12
287.213	2658.12
287.444	2669.12
287.675	2715.12
287.906	2855.12
288.138	2874.12
288.369	2865.12
288.6	2859.12
288.831	2781.12
289.062	2741.12
289.293	2785.12
289.524	2750.12
289.755	2735.12
289.986	2751.12
290.217	2734.12
290.448	2742.12
290.679	2752.12
290.91	2789.12
291.141	2744.12
291.371	2792.12
291.602	2761.12
291.833	2735.12
292.064	2801.12
292.295	2775.12
292.526	2768.12
292.757	2770.12
292.987	2753.12
293.218	2753.12
293.449	2835.12
293.68	2805.12
293.91	2734.12
294.141	2803.12
294.372	2800.12
294.603	2845.12
294.833	2840.12
295.064	2825.12
295.295	2850.12
295.525	2848.12
295.756	2918.12
295.987	2969.12
296.217	3119.12
296.448	3070.12
296.679	2865.12
296.909	2919.12
297.14	2928.12
297.37	2979.12
297.601	3031.12
297.831	2984.12
298.062	2983.12
298.292	3037.12
298.523	3049.12
298.753	3079.12
298.984	3045.12
299.214	3024.12
299.445	3053.12
299.675	3062.12
299.905	3105.12
300.136	3047.12
300.366	3152.12
300.597	3141.12
300.827	3234.12
301.057	3250.12
301.288	3289.12
301.518	3239.12
301.748	3297.12
301.979	3290.12
302.209	3307.12
302.439	3359.12
302.669	3266.12
302.9	3238.12
303.13	3265.12
303.36	3229.12
303.59	3304.12
303.82	3299.12
304.051	3297.12
304.281	3303.12
304.511	3244.12
304.741	3184.12
304.971	3213.12
305.201	3205.12
305.431	3249.12
305.661	3278.12
305.891	3190.12
306.121	3220.12
306.352	3256.12
306.582	3214.12
306.812	3111.12
307.042	3176.12
307.272	3219.12
307.502	3225.12
307.731	3195.12
307.961	3250.12
308.191	3194.12
308.421	3227.12
308.651	3249.12
308.881	3273.12
309.111	3252.12
309.341	3316.12
309.571	3341.12
309.8	3425.12
310.03	3487.12
310.26	3520.12
310.49	3460.12
310.72	3593.12
310.949	3620.12
311.179	3613.12
311.409	3568.12
311.639	3537.12
311.868	3622.12
312.098	3555.12
312.328	3648.12
312.557	3793.12
312.787	3851.12
313.017	3727.12
313.246	3691.12
313.476	3658.12
313.706	3652.12
313.935	3775.12
314.165	3837.12
314.394	3825.12
314.624	3765.12
314.853	3640.12
315.083	3677.12
315.312	3666.12
315.542	3643.12
315.771	3602.12
316.001	3611.12
316.23	3637.12
316.46	3629.12
316.689	3647.12
316.919	3687.12
317.148	3705.12
317.377	3686.12
317.607	3673.12
317.836	3578.12
318.065	3623.12
318.295	3605.12
318.524	3581.12
318.753	3584.12
318.983	3639.12
319.212	3626.12
319.441	3614.12
319.67	3660.12
319.9	3568.12
320.129	3682.12
320.358	3602.12
320.587	3643.12
320.816	3739.12
321.046	3735.12
321.275	3687.12
321.504	3676.12
321.733	3768.12
321.962	3811.12
322.191	3899.12
322.42	3931.12
322.649	4024.12
322.878	4075.12
323.108	4091.12
323.337	4312.12
323.566	4539.12
323.795	4716.12
324.024	5206.12
324.253	6721.12
324.482	9916.12
324.71	14435.12
324.939	15619.12
325.168	11032.12
325.397	6063.12
325.626	4984.12
325.855	4629.12
326.084	4589.12
326.313	4563.12
326.542	4705.12
326.77	5164.12
326.999	6509.12
327.228	9394.12
327.457	13384.12
327.686	12501.12
327.914	6691.12
328.143	5352.12
328.372	5153.12
328.6	4977.12
328.829	4878.12
329.058	5039.12
329.287	5025.12
329.515	4766.12
329.744	4540.12
329.972	4602.12
330.201	4672.12
330.43	4904.12
330.658	5185.12
330.887	5463.12
331.115	5047.12
331.344	4787.12
331.572	4691.12
331.801	4827.12
332.03	4827.12
332.258	4700.12
332.486	4818.12
332.715	4881.12
332.943	5101.12
333.172	5205.12
333.4	5335.12
333.629	5450.12
333.857	5480.12
334.085	5412.12
334.314	5291.12
334.542	5262.12
334.771	5253.12
334.999	5083.12
335.227	5074.12
335.455	5061.12
335.684	4939.12
335.912	4912.12
336.14	4836.12
336.369	4871.12
336.597	4890.12
336.825	4824.12
337.053	4777.12
337.281	4661.12
337.51	4649.12
337.738	4657.12
337.966	4606.12
338.194	4675.12
338.422	4494.12
338.65	4458.12
338.878	4487.12
339.106	4425.12
339.334	4445.12
339.562	4394.12
339.79	4311.12
340.018	4305.12
340.246	4361.12
340.474	4350.12
340.702	4326.12
340.93	4314.12
341.158	4258.12
341.386	4320.12
341.614	4346.12
341.842	4276.12
342.07	4160.12
342.298	4207.12
342.526	4245.12
342.754	4176.12
342.981	4273.12
343.209	4352.12
343.437	4550.12
343.665	4817.12
343.893	5118.12
344.12	5065.12
344.348	4880.12
344.576	4641.12
344.804	4576.12
345.031	4501.12
345.259	4488.12
345.487	4349.12
345.714	4235.12
345.942	4173.12
346.17	4127.12
346.397	4101.12
346.625	4151.12
346.853	4117.12
347.08	4081.12
347.308	4114.12
347.535	4172.12
347.763	4189.12
347.99	4122.12
348.218	4163.12
348.445	4277.12
348.673	4127.12
348.9	4098.12
349.128	4058.12
349.355	3938.12
349.583	3937.12
349.81	3944.12
350.037	3973.12
350.265	3978.12
350.492	4019.12
350.72	3967.12
350.947	4029.12
351.174	4082.12
351.402	4157.12
351.629	4049.12
351.856	4106.12
352.083	4141.12
352.311	4109.12
352.538	4113.12
352.765	4082.12
352.992	3975.12
353.22	4007.12
353.447	3984.12
353.674	3951.12
353.901	3870.12
354.128	3855.12
354.355	3928.12
354.583	3865.12
354.81	3882.12
355.037	3906.12
355.264	3843.12
355.491	3887.12
355.718	3871.12
355.945	3846.12
356.172	3934.12
356.399	3834.12
356.626	3816.12
356.853	3925.12
357.08	3893.12
357.307	3893.12
357.534	3879.12
357.761	3900.12
357.988	3933.12
358.215	3939.12
358.441	3916.12
358.668	3951.12
358.895	4003.12
359.122	3934.12
359.349	4049.12
359.576	4127.12
359.802	4274.12
360.029	4453.12
360.256	4435.12
360.483	4288.12
360.709	4117.12
360.936	4067.12
361.163	4054.12
361.39	4153.12
361.616	4110.12
361.843	4110.12
362.07	4007.12
362.296	4102.12
362.523	4086.12
362.749	4082.12
362.976	4019.12
363.203	4025.12
363.429	3999.12
363.656	3989.12
363.882	4013.12
364.109	3952.12
364.335	3922.12
364.562	3956.12
364.788	3933.12
365.015	3924.12
365.241	3923.12
365.468	3977.12
365.694	4041.12
365.92	4032.12
366.147	3957.12
366.373	3935.12
366.599	3997.12
366.826	3959.12
367.052	3912.12
367.278	3973.12
367.505	3999.12
367.731	4008.12
367.957	4023.12
368.184	4019.12
368.41	4109.12
368.636	4177.12
368.862	4177.12
369.089	4078.12
369.315	4079.12
369.541	4086.12
369.767	4108.12
369.993	4111.12
370.219	4061.12
370.445	4099.12
370.672	4086.12
370.898	4129.12
371.124	4184.12
371.35	4279.12
371.576	4220.12
371.802	4215.12
372.028	4211.12
372.254	4267.12
372.48	4372.12
372.706	4411.12
372.932	4369.12
373.158	4389.12
373.384	4319.12
373.61	4216.12
373.835	4297.12
374.061	4307.12
374.287	4434.12
374.513	4455.12
374.739	4603.12
374.965	4663.12
375.191	4653.12
375.416	4569.12
375.642	4446.12
375.868	4463.12
376.094	4369.12
376.319	4314.12
376.545	4355.12
376.771	4277.12
376.997	4269.12
377.222	4288.12
377.448	4262.12
377.674	4251.12
377.899	4204.12
378.125	4265.12
378.35	4271.12
378.576	4217.12
378.802	4237.12
379.027	4246.12
379.253	4206.12
379.478	4139.12
379.704	4161.12
379.929	4246.12
380.155	4225.12
380.38	4290.12
380.606	4336.12
380.831	4270.12
381.057	4326.12
381.282	4254.12
381.507	4301.12
381.733	4405.12
381.958	4360.12
382.184	4434.12
382.409	4501.12
382.634	4498.12
382.86	4544.12
383.085	4537.12
383.31	4623.12
383.535	4665.12
383.761	4748.12
383.986	4814.12
384.211	4951.12
384.436	4942.12
384.662	5040.12
384.887	5067.12
385.112	5063.12
385.337	5139.12
385.562	5139.12
385.787	5227.12
386.013	5278.12
386.238	5279.12
386.463	5263.12
386.688	5177.12
386.913	5099.12
387.138	5079.12
387.363	5077.12
387.588	5097.12
387.813	5087.12
388.038	5013.12
388.263	5079.12
388.488	5115.12
388.713	5073.12
388.938	5070.12
389.163	5049.12
389.387	5042.12
389.612	4987.12
389.837	4977.12
390.062	4993.12
390.287	4993.12
390.512	4990.12
390.736	5138.12
390.961	5150.12
391.186	5282.12
391.411	5430.12
391.636	5602.12
391.86	5671.12
392.085	5757.12
392.31	5612.12
392.534	5512.12
392.759	5434.12
392.984	5289.12
393.208	5339.12
393.433	5353.12
393.658	5387.12
393.882	5292.12
394.107	5281.12
394.331	5375.12
394.556	5363.12
394.78	5381.12
395.005	5495.12
395.229	5406.12
395.454	5620.12
395.678	5766.12
395.903	5771.12
396.127	5759.12
396.352	5588.12
396.576	5470.12
396.801	5319.12
397.025	5458.12
397.249	5584.12
397.474	5775.12
397.698	5771.12
397.922	5905.12
398.147	6021.12
398.371	6072.12
398.595	6268.12
398.82	6515.12
399.044	7069.12
399.268	7717.12
399.492	8898.12
399.717	9557.12
399.941	9190.12
400.165	8583.12
400.389	7953.12
400.613	7138.12
400.837	6743.12
401.062	6512.12
401.286	6422.12
401.51	6445.12
401.734	6430.12
401.958	6585.12
402.182	6598.12
402.406	6846.12
402.63	6817.12
402.854	6937.12
403.078	7037.12
403.302	7077.12
403.526	7327.12
403.75	7211.12
403.974	7390.12
404.198	7248.12
404.422	7345.12
404.645	7273.12
404.869	7244.12
405.093	7356.12
405.317	7394.12
405.541	7427.12
405.765	7152.12
405.988	7071.12
406.212	7262.12
406.436	7413.12
406.66	7581.12
406.883	7565.12
407.107	8152.12
407.331	8692.12
407.555	9244.12
407.778	8889.12
408.002	8099.12
408.226	7762.12
408.449	7648.12
408.673	7526.12
408.896	7651.12
409.12	7777.12
409.344	7352.12
409.567	7045.12
409.791	6962.12
410.014	6966.12
410.238	6834.12
410.461	6864.12
410.685	6994.12
410.908	6994.12
411.132	7189.12
411.355	7256.12
411.578	6873.12
411.802	6691.12
412.025	6649.12
412.249	6687.12
412.472	6668.12
412.695	6664.12
412.919	6428.12
413.142	6307.12
413.365	6328.12
413.589	6369.12
413.812	6298.12
414.035	6200.12
414.258	6225.12
414.482	6329.12
414.705	6441.12
414.928	6260.12
415.151	6329.12
415.374	6367.12
415.597	6256.12
415.821	6116.12
416.044	6201.12
416.267	6231.12
416.49	6138.12
416.713	6103.12
416.936	6174.12
417.159	6240.12
417.382	6284.12
417.605	6179.12
417.828	6378.12
418.051	6509.12
418.274	6413.12
418.497	6323.12
418.72	6380.12
418.943	6424.12
419.166	6796.12
419.389	7262.12
419.611	7023.12
419.834	6809.12
420.057	6741.12
420.28	6572.12
420.503	6209.12
420.726	6371.12
420.948	6513.12
421.171	6911.12
421.394	6838.12
421.617	6458.12
421.839	6436.12
422.062	6509.12
422.285	6702.12
422.507	7267.12
422.73	7779.12
422.953	7212.12
423.175	6842.12
423.398	6959.12
423.621	6853.12
423.843	7076.12
424.066	7111.12
424.288	6978.12
424.511	7219.12
424.733	7669.12
424.956	8089.12
425.178	7553.12
425.401	7717.12
425.623	7555.12
425.846	6630.12
426.068	6515.12
426.291	6446.12
426.513	6433.12
426.735	6504.12
426.958	6939.12
427.18	7655.12
427.402	8708.12
427.625	8611.12
427.847	7261.12
428.069	6614.12
428.292	6264.12
428.514	5897.12
428.736	5785.12
428.958	5837.12
429.181	5661.12
429.403	5735.12
429.625	5882.12
429.847	6170.12
430.069	6597.12
430.292	6229.12
430.514	5725.12
430.736	5720.12
430.958	5578.12
431.18	5590.12
431.402	5575.12
431.624	5529.12
431.846	5599.12
432.068	5583.12
432.29	5731.12
432.512	5642.12
432.734	5789.12
432.956	5653.12
433.178	5764.12
433.4	5712.12
433.622	5635.12
433.844	5677.12
434.066	5768.12
434.287	5794.12
434.509	5980.12
434.731	6160.12
434.953	6364.12
435.175	6503.12
435.397	6576.12
435.618	6370.12
435.84	6833.12
436.062	7614.12
436.284	7465.12
436.505	6334.12
436.727	6093.12
436.949	5864.12
437.17	5720.12
437.392	5717.12
437.614	5861.12
437.835	6145.12
438.057	7180.12
438.278	7669.12
438.5	7597.12
438.721	8368.12
438.943	7403.12
439.165	6221.12
439.386	6098.12
439.608	6105.12
439.829	6248.12
440.05	6556.12
440.272	6768.12
440.493	6283.12
440.715	5990.12
440.936	6029.12
441.158	6058.12
441.379	6150.12
441.6	6479.12
441.822	6673.12
442.043	7043.12
442.264	7855.12
442.486	7485.12
442.707	6794.12
442.928	6549.12
443.149	6775.12
443.371	6989.12
443.592	7537.12
443.813	8438.12
444.034	8408.12
444.255	7357.12
444.476	7210.12
444.698	7395.12
444.919	7486.12
445.14	7327.12
445.361	7149.12
445.582	7255.12
445.803	7790.12
446.024	8324.12
446.245	7938.12
446.466	7210.12
446.687	6370.12
446.908	5996.12
447.129	5693.12
447.35	5610.12
447.571	5582.12
447.792	5483.12
448.013	5537.12
448.234	5740.12
448.455	6379.12
448.675	7493.12
448.896	7879.12
449.117	6535.12
449.338	6757.12
449.559	8023.12
449.779	8087.12
450	6187.12
450.221	5599.12
450.442	5397.12
450.662	5348.12
450.883	5381.12
451.104	5432.12
451.324	5346.12
451.545	5218.12
451.766	5126.12
451.986	5036.12
452.207	4905.12
452.428	4933.12
452.648	4975.12
452.869	4983.12
453.089	5041.12
453.31	5129.12
453.53	4992.12
453.751	4915.12
453.971	4980.12
454.192	5043.12
454.412	4865.12
454.633	4810.12
454.853	4817.12
455.073	4885.12
455.294	5256.12
455.514	5703.12
455.734	5189.12
455.955	4752.12
456.175	4652.12
456.395	4606.12
456.616	4529.12
456.836	4600.12
457.056	4600.12
457.276	4506.12
457.497	4684.12
457.717	4624.12
457.937	4681.12
458.157	4772.12
458.377	4905.12
458.598	5233.12
458.818	5804.12
459.038	6529.12
459.258	6421.12
459.478	5800.12
459.698	5722.12
459.918	5846.12
460.138	5930.12
460.358	6201.12
460.578	6227.12
460.798	6332.12
461.018	6291.12
461.238	6072.12
461.458	6142.12
461.678	6128.12
461.898	6254.12
462.118	6344.12
462.338	6596.12
462.558	6703.12
462.777	7100.12
462.997	7645.12
463.217	8085.12
463.437	7823.12
463.657	7180.12
463.876	7058.12
464.096	7096.12
464.316	7059.12
464.536	7167.12
464.755	6854.12
464.975	6811.12
465.195	6853.12
465.414	6761.12
465.634	6137.12
465.854	5709.12
466.073	5630.12
466.293	5363.12
466.512	5260.12
466.732	5112.12
466.951	5146.12
467.171	5141.12
467.391	5170.12
467.61	5235.12
467.829	5305.12
468.049	5131.12
468.268	4961.12
468.488	4896.12
468.707	4835.12
468.927	4937.12
469.146	4943.12
469.365	5067.12
469.585	5055.12
469.804	5233.12
470.023	5279.12
470.243	5312.12
470.462	5374.12
470.681	5470.12
470.901	5417.12
471.12	5239.12
471.339	5191.12
471.558	5223.12
471.777	5092.12
471.997	4962.12
472.216	4938.12
472.435	4916.12
472.654	4943.12
472.873	4844.12
473.092	4847.12
473.311	4844.12
473.53	4874.12
473.749	4988.12
473.968	5522.12
474.187	6469.12
474.406	5945.12
474.625	5177.12
474.844	4972.12
475.063	4937.12
475.282	4969.12
475.501	5000.12
475.72	5073.12
475.939	5030.12
476.158	5014.12
476.377	5136.12
476.596	5131.12
476.814	5259.12
477.033	5269.12
477.252	5358.12
477.471	5455.12
477.69	5650.12
477.908	5714.12
478.127	5796.12
478.346	5936.12
478.564	6071.12
478.783	6059.12
479.002	6242.12
479.22	6156.12
479.439	6200.12
479.658	6381.12
479.876	6442.12
480.095	6622.12
480.313	7042.12
480.532	6918.12
480.751	6802.12
480.969	6562.12
481.188	6505.12
481.406	6331.12
481.624	6188.12
481.843	6045.12
482.061	5857.12
482.28	5850.12
482.498	5750.12
482.717	5738.12
482.935	5766.12
483.153	5722.12
483.372	5685.12
483.59	5765.12
483.808	5784.12
484.027	5870.12
484.245	5824.12
484.463	5795.12
484.681	5967.12
484.9	5999.12
485.118	5977.12
485.336	6056.12
485.554	6123.12
485.772	6086.12
485.99	6183.12
486.209	6169.12
486.427	6210.12
486.645	6195.12
486.863	6268.12
487.081	6198.12
487.299	6213.12
487.517	6165.12
487.735	6185.12
487.953	6119.12
