Data from Uncirc_1993_H10_HRD10591_00002.txt Node
Date: Wed Jan 03 11:42:52 EST 2024
User: Yrep
Spectrometer: HR+D1059
Trigger mode: 1
Integration Time (sec): 1.000000E-1
Scans to average: 1
Electric dark correction enabled: true
Nonlinearity correction enabled: false
Boxcar width: 0
XAxis mode: Wavelengths
Number of Pixels in Spectrum: 2048
>>>>>Begin Spectral Data<<<<<
223.165	-15.31
223.4	-15.31
223.635	-15.31
223.869	-17.31
224.104	-27.31
224.338	-15.31
224.573	-17.31
224.808	-3.31
225.042	1.69
225.277	-12.31
225.511	-8.31
225.746	7.69
225.98	7.69
226.215	8.69
226.449	10.69
226.683	21.69
226.918	29.69
227.152	28.69
227.387	37.69
227.621	42.69
227.856	42.69
228.09	40.69
228.324	55.69
228.559	71.69
228.793	68.69
229.027	67.69
229.262	79.69
229.496	86.69
229.73	92.69
229.964	95.69
230.199	84.69
230.433	78.69
230.667	80.69
230.901	71.69
231.136	65.69
231.37	89.69
231.604	78.69
231.838	80.69
232.072	81.69
232.306	80.69
232.541	100.69
232.775	88.69
233.009	85.69
233.243	72.69
233.477	72.69
233.711	94.69
233.945	93.69
234.179	79.69
234.413	83.69
234.647	98.69
234.881	86.69
235.115	73.69
235.349	79.69
235.583	88.69
235.817	73.69
236.051	88.69
236.285	91.69
236.519	94.69
236.753	86.69
236.987	87.69
237.221	80.69
237.455	80.69
237.689	83.69
237.922	72.69
238.156	91.69
238.39	61.69
238.624	80.69
238.858	83.69
239.091	89.69
239.325	76.69
239.559	79.69
239.793	83.69
240.027	78.69
240.26	88.69
240.494	81.69
240.728	93.69
240.961	76.69
241.195	66.69
241.429	83.69
241.662	83.69
241.896	62.69
242.13	78.69
242.363	76.69
242.597	73.69
242.83	64.69
243.064	82.69
243.298	86.69
243.531	80.69
243.765	65.69
243.998	76.69
244.232	97.69
244.465	92.69
244.699	71.69
244.932	89.69
245.166	83.69
245.399	85.69
245.633	84.69
245.866	79.69
246.099	74.69
246.333	91.69
246.566	84.69
246.8	83.69
247.033	85.69
247.266	80.69
247.5	81.69
247.733	85.69
247.966	82.69
248.2	73.69
248.433	79.69
248.666	85.69
248.899	77.69
249.133	90.69
249.366	100.69
249.599	100.69
249.832	83.69
250.066	72.69
250.299	83.69
250.532	69.69
250.765	83.69
250.998	87.69
251.231	102.69
251.465	86.69
251.698	69.69
251.931	83.69
252.164	79.69
252.397	68.69
252.63	85.69
252.863	88.69
253.096	94.69
253.329	76.69
253.562	91.69
253.795	82.69
254.028	88.69
254.261	86.69
254.494	83.69
254.727	91.69
254.96	84.69
255.193	86.69
255.426	77.69
255.659	84.69
255.892	63.69
256.124	109.69
256.357	83.69
256.59	94.69
256.823	85.69
257.056	77.69
257.289	81.69
257.521	71.69
257.754	79.69
257.987	91.69
258.22	81.69
258.452	84.69
258.685	66.69
258.918	85.69
259.151	91.69
259.383	95.69
259.616	90.69
259.849	90.69
260.081	79.69
260.314	83.69
260.547	83.69
260.779	79.69
261.012	85.69
261.244	94.69
261.477	84.69
261.71	92.69
261.942	107.69
262.175	101.69
262.407	94.69
262.64	93.69
262.872	80.69
263.105	93.69
263.337	94.69
263.57	101.69
263.802	94.69
264.035	98.69
264.267	81.69
264.499	93.69
264.732	82.69
264.964	89.69
265.197	92.69
265.429	88.69
265.661	79.69
265.894	92.69
266.126	83.69
266.358	96.69
266.591	95.69
266.823	88.69
267.055	79.69
267.287	84.69
267.52	92.69
267.752	88.69
267.984	84.69
268.216	80.69
268.448	93.69
268.681	91.69
268.913	105.69
269.145	81.69
269.377	103.69
269.609	87.69
269.841	82.69
270.073	97.69
270.306	84.69
270.538	80.69
270.77	78.69
271.002	91.69
271.234	84.69
271.466	83.69
271.698	85.69
271.93	87.69
272.162	75.69
272.394	84.69
272.626	79.69
272.858	80.69
273.09	98.69
273.322	90.69
273.553	81.69
273.785	81.69
274.017	94.69
274.249	77.69
274.481	87.69
274.713	85.69
274.945	84.69
275.176	77.69
275.408	93.69
275.64	92.69
275.872	86.69
276.104	94.69
276.335	98.69
276.567	96.69
276.799	99.69
277.031	95.69
277.262	79.69
277.494	87.69
277.726	81.69
277.957	96.69
278.189	94.69
278.421	88.69
278.652	77.69
278.884	77.69
279.115	80.69
279.347	88.69
279.579	81.69
279.81	91.69
280.042	100.69
280.273	96.69
280.505	98.69
280.736	92.69
280.968	93.69
281.199	87.69
281.431	86.69
281.662	79.69
281.894	103.69
282.125	104.69
282.356	100.69
282.588	116.69
282.819	100.69
283.051	90.69
283.282	92.69
283.513	89.69
283.745	97.69
283.976	93.69
284.207	101.69
284.439	95.69
284.67	85.69
284.901	89.69
285.132	86.69
285.364	82.69
285.595	97.69
285.826	78.69
286.057	91.69
286.288	95.69
286.52	96.69
286.751	86.69
286.982	92.69
287.213	77.69
287.444	92.69
287.675	91.69
287.906	94.69
288.138	83.69
288.369	84.69
288.6	91.69
288.831	101.69
289.062	99.69
289.293	92.69
289.524	105.69
289.755	79.69
289.986	96.69
290.217	96.69
290.448	88.69
290.679	78.69
290.91	83.69
291.141	89.69
291.371	115.69
291.602	91.69
291.833	84.69
292.064	90.69
292.295	80.69
292.526	83.69
292.757	90.69
292.987	80.69
293.218	87.69
293.449	95.69
293.68	81.69
293.91	88.69
294.141	83.69
294.372	89.69
294.603	99.69
294.833	91.69
295.064	88.69
295.295	86.69
295.525	109.69
295.756	100.69
295.987	106.69
296.217	119.69
296.448	123.69
296.679	95.69
296.909	92.69
297.14	96.69
297.37	88.69
297.601	82.69
297.831	94.69
298.062	87.69
298.292	91.69
298.523	88.69
298.753	86.69
298.984	92.69
299.214	81.69
299.445	95.69
299.675	101.69
299.905	103.69
300.136	94.69
300.366	101.69
300.597	92.69
300.827	80.69
301.057	106.69
301.288	101.69
301.518	99.69
301.748	85.69
301.979	93.69
302.209	98.69
302.439	78.69
302.669	116.69
302.9	98.69
303.13	83.69
303.36	107.69
303.59	95.69
303.82	113.69
304.051	104.69
304.281	89.69
304.511	91.69
304.741	79.69
304.971	83.69
305.201	105.69
305.431	103.69
305.661	94.69
305.891	93.69
306.121	97.69
306.352	97.69
306.582	95.69
306.812	97.69
307.042	95.69
307.272	95.69
307.502	105.69
307.731	89.69
307.961	96.69
308.191	90.69
308.421	98.69
308.651	86.69
308.881	105.69
309.111	105.69
309.341	110.69
309.571	92.69
309.8	101.69
310.03	83.69
310.26	97.69
310.49	92.69
310.72	88.69
310.949	93.69
311.179	99.69
311.409	94.69
311.639	94.69
311.868	97.69
312.098	95.69
312.328	99.69
312.557	110.69
312.787	113.69
313.017	108.69
313.246	87.69
313.476	95.69
313.706	96.69
313.935	92.69
314.165	110.69
314.394	98.69
314.624	90.69
314.853	86.69
315.083	91.69
315.312	93.69
315.542	95.69
315.771	104.69
316.001	87.69
316.23	102.69
316.46	97.69
316.689	92.69
316.919	104.69
317.148	92.69
317.377	104.69
317.607	102.69
317.836	96.69
318.065	99.69
318.295	88.69
318.524	100.69
318.753	92.69
318.983	100.69
319.212	111.69
319.441	115.69
319.67	103.69
319.9	107.69
320.129	110.69
320.358	102.69
320.587	85.69
320.816	92.69
321.046	105.69
321.275	107.69
321.504	96.69
321.733	99.69
321.962	93.69
322.191	103.69
322.42	99.69
322.649	100.69
322.878	105.69
323.108	106.69
323.337	112.69
323.566	124.69
323.795	139.69
324.024	170.69
324.253	298.69
324.482	625.69
324.71	1248.69
324.939	1580.69
325.168	588.69
325.397	203.69
325.626	134.69
325.855	123.69
326.084	111.69
326.313	132.69
326.542	155.69
326.77	209.69
326.999	353.69
327.228	735.69
327.457	1242.69
327.686	985.69
327.914	298.69
328.143	178.69
328.372	125.69
328.6	110.69
328.829	111.69
329.058	115.69
329.287	101.69
329.515	111.69
329.744	113.69
329.972	105.69
330.201	107.69
330.43	103.69
330.658	131.69
330.887	117.69
331.115	111.69
331.344	97.69
331.572	97.69
331.801	100.69
332.03	98.69
332.258	101.69
332.486	102.69
332.715	86.69
332.943	92.69
333.172	98.69
333.4	101.69
333.629	112.69
333.857	91.69
334.085	108.69
334.314	104.69
334.542	105.69
334.771	99.69
334.999	98.69
335.227	100.69
335.455	101.69
335.684	101.69
335.912	103.69
336.14	108.69
336.369	83.69
336.597	99.69
336.825	83.69
337.053	102.69
337.281	103.69
337.51	105.69
337.738	102.69
337.966	105.69
338.194	101.69
338.422	84.69
338.65	101.69
338.878	113.69
339.106	104.69
339.334	89.69
339.562	89.69
339.79	97.69
340.018	97.69
340.246	106.69
340.474	91.69
340.702	87.69
340.93	89.69
341.158	100.69
341.386	94.69
341.614	79.69
341.842	109.69
342.07	104.69
342.298	98.69
342.526	98.69
342.754	88.69
342.981	87.69
343.209	88.69
343.437	112.69
343.665	92.69
343.893	100.69
344.12	93.69
344.348	94.69
344.576	100.69
344.804	89.69
345.031	101.69
345.259	89.69
345.487	89.69
345.714	90.69
345.942	101.69
346.17	87.69
346.397	87.69
346.625	83.69
346.853	98.69
347.08	100.69
347.308	107.69
347.535	101.69
347.763	101.69
347.99	119.69
348.218	98.69
348.445	85.69
348.673	107.69
348.9	102.69
349.128	94.69
349.355	95.69
349.583	97.69
349.81	98.69
350.037	85.69
350.265	91.69
350.492	107.69
350.72	93.69
350.947	102.69
351.174	127.69
351.402	112.69
351.629	103.69
351.856	120.69
352.083	108.69
352.311	109.69
352.538	102.69
352.765	104.69
352.992	108.69
353.22	105.69
353.447	95.69
353.674	103.69
353.901	114.69
354.128	85.69
354.355	98.69
354.583	93.69
354.81	113.69
355.037	119.69
355.264	91.69
355.491	103.69
355.718	90.69
355.945	102.69
356.172	107.69
356.399	106.69
356.626	93.69
356.853	88.69
357.08	87.69
357.307	111.69
357.534	104.69
357.761	97.69
357.988	101.69
358.215	88.69
358.441	102.69
358.668	100.69
358.895	96.69
359.122	99.69
359.349	94.69
359.576	87.69
359.802	108.69
360.029	108.69
360.256	109.69
360.483	113.69
360.709	92.69
360.936	96.69
361.163	106.69
361.39	97.69
361.616	96.69
361.843	112.69
362.07	100.69
362.296	81.69
362.523	92.69
362.749	75.69
362.976	91.69
363.203	86.69
363.429	84.69
363.656	77.69
363.882	73.69
364.109	80.69
364.335	105.69
364.562	93.69
364.788	94.69
365.015	92.69
365.241	95.69
365.468	95.69
365.694	86.69
365.92	91.69
366.147	93.69
366.373	96.69
366.599	87.69
366.826	88.69
367.052	81.69
367.278	99.69
367.505	108.69
367.731	87.69
367.957	95.69
368.184	96.69
368.41	108.69
368.636	119.69
368.862	115.69
369.089	112.69
369.315	107.69
369.541	99.69
369.767	89.69
369.993	101.69
370.219	86.69
370.445	91.69
370.672	105.69
370.898	101.69
371.124	99.69
371.35	87.69
371.576	97.69
371.802	77.69
372.028	101.69
372.254	110.69
372.48	94.69
372.706	92.69
372.932	90.69
373.158	93.69
373.384	105.69
373.61	96.69
373.835	90.69
374.061	85.69
374.287	103.69
374.513	95.69
374.739	83.69
374.965	77.69
375.191	94.69
375.416	100.69
375.642	111.69
375.868	98.69
376.094	91.69
376.319	100.69
376.545	87.69
376.771	90.69
376.997	101.69
377.222	88.69
377.448	95.69
377.674	99.69
377.899	111.69
378.125	74.69
378.35	98.69
378.576	95.69
378.802	92.69
379.027	92.69
379.253	109.69
379.478	86.69
379.704	101.69
379.929	93.69
380.155	96.69
380.38	96.69
380.606	99.69
380.831	83.69
381.057	97.69
381.282	93.69
381.507	105.69
381.733	105.69
381.958	99.69
382.184	90.69
382.409	103.69
382.634	109.69
382.86	94.69
383.085	107.69
383.31	107.69
383.535	93.69
383.761	107.69
383.986	97.69
384.211	104.69
384.436	95.69
384.662	105.69
384.887	112.69
385.112	119.69
385.337	118.69
385.562	108.69
385.787	105.69
386.013	116.69
386.238	102.69
386.463	123.69
386.688	111.69
386.913	121.69
387.138	105.69
387.363	119.69
387.588	105.69
387.813	101.69
388.038	104.69
388.263	92.69
388.488	121.69
388.713	102.69
388.938	98.69
389.163	105.69
389.387	92.69
389.612	89.69
389.837	103.69
390.062	96.69
390.287	87.69
390.512	104.69
390.736	84.69
390.961	101.69
391.186	108.69
391.411	101.69
391.636	90.69
391.86	83.69
392.085	82.69
392.31	91.69
392.534	82.69
392.759	101.69
392.984	96.69
393.208	94.69
393.433	114.69
393.658	97.69
393.882	86.69
394.107	92.69
394.331	101.69
394.556	100.69
394.78	92.69
395.005	93.69
395.229	91.69
395.454	73.69
395.678	88.69
395.903	83.69
396.127	91.69
396.352	89.69
396.576	81.69
396.801	93.69
397.025	89.69
397.249	91.69
397.474	106.69
397.698	94.69
397.922	78.69
398.147	99.69
398.371	92.69
398.595	92.69
398.82	85.69
399.044	83.69
399.268	101.69
399.492	88.69
399.717	91.69
399.941	85.69
400.165	112.69
400.389	79.69
400.613	97.69
400.837	87.69
401.062	91.69
401.286	86.69
401.51	97.69
401.734	100.69
401.958	99.69
402.182	121.69
402.406	120.69
402.63	120.69
402.854	100.69
403.078	90.69
403.302	95.69
403.526	95.69
403.75	85.69
403.974	84.69
404.198	100.69
404.422	92.69
404.645	86.69
404.869	83.69
405.093	98.69
405.317	100.69
405.541	97.69
405.765	94.69
405.988	99.69
406.212	160.69
406.436	184.69
406.66	125.69
406.883	104.69
407.107	117.69
407.331	101.69
407.555	93.69
407.778	102.69
408.002	95.69
408.226	96.69
408.449	94.69
408.673	89.69
408.896	87.69
409.12	101.69
409.344	97.69
409.567	98.69
409.791	83.69
410.014	96.69
410.238	102.69
410.461	87.69
410.685	94.69
410.908	103.69
411.132	110.69
411.355	110.69
411.578	97.69
411.802	97.69
412.025	95.69
412.249	97.69
412.472	84.69
412.695	89.69
412.919	86.69
413.142	103.69
413.365	82.69
413.589	84.69
413.812	79.69
414.035	96.69
414.258	96.69
414.482	93.69
414.705	83.69
414.928	100.69
415.151	101.69
415.374	101.69
415.597	100.69
415.821	79.69
416.044	84.69
416.267	79.69
416.49	94.69
416.713	89.69
416.936	79.69
417.159	82.69
417.382	86.69
417.605	103.69
417.828	78.69
418.051	85.69
418.274	98.69
418.497	91.69
418.72	93.69
418.943	98.69
419.166	83.69
419.389	99.69
419.611	94.69
419.834	97.69
420.057	76.69
420.28	94.69
420.503	79.69
420.726	91.69
420.948	96.69
421.171	93.69
421.394	92.69
421.617	91.69
421.839	87.69
422.062	100.69
422.285	92.69
422.507	94.69
422.73	104.69
422.953	83.69
423.175	100.69
423.398	83.69
423.621	90.69
423.843	86.69
424.066	95.69
424.288	90.69
424.511	98.69
424.733	103.69
424.956	111.69
425.178	103.69
425.401	105.69
425.623	108.69
425.846	95.69
426.068	99.69
426.291	93.69
426.513	97.69
426.735	100.69
426.958	96.69
427.18	102.69
427.402	132.69
427.625	162.69
427.847	128.69
428.069	112.69
428.292	79.69
428.514	93.69
428.736	91.69
428.958	93.69
429.181	90.69
429.403	81.69
429.625	89.69
429.847	87.69
430.069	94.69
430.292	100.69
430.514	92.69
430.736	89.69
430.958	91.69
431.18	74.69
431.402	103.69
431.624	95.69
431.846	84.69
432.068	101.69
432.29	93.69
432.512	93.69
432.734	100.69
432.956	94.69
433.178	87.69
433.4	91.69
433.622	93.69
433.844	90.69
434.066	92.69
434.287	95.69
434.509	96.69
434.731	91.69
434.953	96.69
435.175	87.69
435.397	91.69
435.618	92.69
435.84	107.69
436.062	111.69
436.284	109.69
436.505	115.69
436.727	99.69
436.949	96.69
437.17	72.69
437.392	72.69
437.614	77.69
437.835	107.69
438.057	110.69
438.278	110.69
438.5	108.69
438.721	99.69
438.943	108.69
439.165	95.69
439.386	76.69
439.608	100.69
439.829	87.69
440.05	99.69
440.272	134.69
440.493	96.69
440.715	86.69
440.936	72.69
441.158	87.69
441.379	99.69
441.6	98.69
441.822	91.69
442.043	91.69
442.264	97.69
442.486	92.69
442.707	87.69
442.928	84.69
443.149	110.69
443.371	110.69
443.592	98.69
443.813	111.69
444.034	111.69
444.255	97.69
444.476	71.69
444.698	88.69
444.919	87.69
445.14	124.69
445.361	123.69
445.582	95.69
445.803	123.69
446.024	131.69
446.245	124.69
446.466	101.69
446.687	88.69
446.908	80.69
447.129	91.69
447.35	108.69
447.571	94.69
447.792	89.69
448.013	98.69
448.234	105.69
448.455	100.69
448.675	111.69
448.896	108.69
449.117	94.69
449.338	91.69
449.559	127.69
449.779	120.69
450	98.69
450.221	90.69
450.442	84.69
450.662	85.69
450.883	103.69
451.104	104.69
451.324	104.69
451.545	91.69
451.766	84.69
451.986	100.69
452.207	91.69
452.428	91.69
452.648	95.69
452.869	81.69
453.089	101.69
453.31	116.69
453.53	93.69
453.751	91.69
453.971	107.69
454.192	102.69
454.412	82.69
454.633	67.69
454.853	82.69
455.073	99.69
455.294	77.69
455.514	102.69
455.734	95.69
455.955	80.69
456.175	89.69
456.395	83.69
456.616	101.69
456.836	73.69
457.056	88.69
457.276	71.69
457.497	77.69
457.717	97.69
457.937	85.69
458.157	80.69
458.377	82.69
458.598	102.69
458.818	131.69
459.038	129.69
459.258	108.69
459.478	85.69
459.698	96.69
459.918	87.69
460.138	95.69
460.358	85.69
460.578	84.69
460.798	85.69
461.018	88.69
461.238	85.69
461.458	76.69
461.678	100.69
461.898	99.69
462.118	100.69
462.338	83.69
462.558	81.69
462.777	83.69
462.997	96.69
463.217	89.69
463.437	80.69
463.657	96.69
463.876	96.69
464.096	82.69
464.316	91.69
464.536	99.69
464.755	84.69
464.975	113.69
465.195	143.69
465.414	130.69
465.634	96.69
465.854	71.69
466.073	75.69
466.293	95.69
466.512	85.69
466.732	108.69
466.951	90.69
467.171	95.69
467.391	92.69
467.61	107.69
467.829	89.69
468.049	82.69
468.268	82.69
468.488	86.69
468.707	102.69
468.927	85.69
469.146	91.69
469.365	84.69
469.585	87.69
469.804	89.69
470.023	97.69
470.243	84.69
470.462	105.69
470.681	115.69
470.901	87.69
471.12	80.69
471.339	89.69
471.558	91.69
471.777	99.69
471.997	82.69
472.216	110.69
472.435	100.69
472.654	107.69
472.873	100.69
473.092	96.69
473.311	96.69
473.53	100.69
473.749	89.69
473.968	75.69
474.187	105.69
474.406	89.69
474.625	99.69
474.844	83.69
475.063	78.69
475.282	96.69
475.501	97.69
475.72	94.69
475.939	83.69
476.158	97.69
476.377	100.69
476.596	95.69
476.814	98.69
477.033	108.69
477.252	93.69
477.471	77.69
477.69	79.69
477.908	95.69
478.127	86.69
478.346	100.69
478.564	95.69
478.783	90.69
479.002	98.69
479.22	95.69
479.439	103.69
479.658	88.69
479.876	98.69
480.095	88.69
480.313	98.69
480.532	98.69
480.751	110.69
480.969	97.69
481.188	95.69
481.406	87.69
481.624	103.69
481.843	96.69
482.061	93.69
482.28	92.69
482.498	91.69
482.717	98.69
482.935	85.69
483.153	98.69
483.372	86.69
483.59	91.69
483.808	73.69
484.027	96.69
484.245	93.69
484.463	94.69
484.681	99.69
484.9	77.69
485.118	108.69
485.336	95.69
485.554	105.69
485.772	90.69
485.99	98.69
486.209	105.69
486.427	100.69
486.645	110.69
486.863	129.69
487.081	103.69
487.299	103.69
487.517	96.69
487.735	100.69
487.953	94.69
488.171	117.69
488.389	101.69
488.607	105.69
488.825	81.69
489.043	97.69
489.261	83.69
489.479	96.69
489.696	72.69
489.914	95.69
490.132	103.69
490.35	108.69
490.568	99.69
490.786	96.69
491.003	104.69
491.221	98.69
491.439	100.69
491.657	107.69
491.874	91.69
492.092	96.69
492.31	91.69
492.527	94.69
492.745	99.69
492.963	88.69
493.18	95.69
493.398	116.69
493.615	98.69
493.833	98.69
494.05	84.69
494.268	97.69
494.485	83.69
494.703	77.69
494.92	84.69
495.138	98.69
495.355	103.69
495.573	95.69
495.79	91.69
496.008	98.69
496.225	83.69
496.442	90.69
496.66	96.69
496.877	97.69
497.094	115.69
497.312	99.69
497.529	76.69
497.746	91.69
497.963	98.69
498.181	95.69
498.398	91.69
498.615	106.69
498.832	101.69
499.049	88.69
499.267	111.69
499.484	91.69
499.701	101.69
499.918	96.69
500.135	89.69
500.352	88.69
500.569	79.69
500.786	91.69
501.003	94.69
501.22	100.69
501.437	83.69
501.654	81.69
501.871	103.69
502.088	83.69
502.305	89.69
502.522	91.69
502.739	77.69
502.956	69.69
503.172	100.69
503.389	93.69
503.606	88.69
503.823	91.69
504.04	96.69
504.256	101.69
504.473	90.69
504.69	101.69
504.907	96.69
505.123	93.69
505.34	102.69
505.557	104.69
505.773	93.69
505.99	79.69
506.207	88.69
506.423	94.69
506.64	91.69
506.856	86.69
507.073	99.69
507.289	96.69
507.506	104.69
507.722	100.69
507.939	112.69
508.155	101.69
508.372	81.69
508.588	91.69
508.805	110.69
509.021	99.69
509.238	93.69
509.454	111.69
509.67	89.69
509.887	111.69
510.103	128.69
510.319	188.69
510.536	631.69
510.752	1862.69
510.968	536.69
511.184	139.69
511.401	111.69
511.617	97.69
511.833	85.69
512.049	94.69
512.265	93.69
512.481	92.69
512.698	95.69
512.914	87.69
513.13	72.69
513.346	91.69
513.562	101.69
513.778	99.69
513.994	98.69
514.21	119.69
514.426	126.69
514.642	127.69
