Data from Uncirc_1993_H10_HRD10591_00025.txt Node
Date: Wed Jan 03 11:42:57 EST 2024
User: Yrep
Spectrometer: HR+D1059
Trigger mode: 1
Integration Time (sec): 1.000000E-1
Scans to average: 1
Electric dark correction enabled: true
Nonlinearity correction enabled: false
Boxcar width: 0
XAxis mode: Wavelengths
Number of Pixels in Spectrum: 2048
>>>>>Begin Spectral Data<<<<<
223.165	-12.38
223.4	-12.38
223.635	-12.38
223.869	-13.38
224.104	-19.38
224.338	-3.38
224.573	-23.38
224.808	-16.38
225.042	-18.38
225.277	-10.38
225.511	3.62
225.746	1.62
225.98	-2.38
226.215	5.62
226.449	26.62
226.683	21.62
226.918	27.62
227.152	32.62
227.387	34.62
227.621	45.62
227.856	18.62
228.09	31.62
228.324	39.62
228.559	46.62
228.793	61.62
229.027	72.62
229.262	58.62
229.496	58.62
229.73	76.62
229.964	95.62
230.199	77.62
230.433	61.62
230.667	78.62
230.901	68.62
231.136	79.62
231.37	68.62
231.604	74.62
231.838	83.62
232.072	76.62
232.306	78.62
232.541	80.62
232.775	70.62
233.009	84.62
233.243	84.62
233.477	85.62
233.711	96.62
233.945	77.62
234.179	69.62
234.413	91.62
234.647	97.62
234.881	69.62
235.115	72.62
235.349	86.62
235.583	78.62
235.817	75.62
236.051	72.62
236.285	65.62
236.519	76.62
236.753	90.62
236.987	87.62
237.221	75.62
237.455	74.62
237.689	74.62
237.922	69.62
238.156	60.62
238.39	84.62
238.624	77.62
238.858	80.62
239.091	65.62
239.325	61.62
239.559	72.62
239.793	82.62
240.027	77.62
240.26	77.62
240.494	78.62
240.728	75.62
240.961	84.62
241.195	67.62
241.429	77.62
241.662	69.62
241.896	76.62
242.13	89.62
242.363	88.62
242.597	78.62
242.83	82.62
243.064	80.62
243.298	73.62
243.531	72.62
243.765	81.62
243.998	73.62
244.232	91.62
244.465	91.62
244.699	77.62
244.932	74.62
245.166	67.62
245.399	75.62
245.633	77.62
245.866	81.62
246.099	72.62
246.333	91.62
246.566	84.62
246.8	75.62
247.033	80.62
247.266	86.62
247.5	73.62
247.733	77.62
247.966	88.62
248.2	65.62
248.433	83.62
248.666	69.62
248.899	66.62
249.133	86.62
249.366	93.62
249.599	99.62
249.832	82.62
250.066	73.62
250.299	82.62
250.532	68.62
250.765	74.62
250.998	74.62
251.231	89.62
251.465	77.62
251.698	81.62
251.931	82.62
252.164	71.62
252.397	86.62
252.63	75.62
252.863	87.62
253.096	88.62
253.329	76.62
253.562	67.62
253.795	85.62
254.028	73.62
254.261	82.62
254.494	84.62
254.727	81.62
254.96	73.62
255.193	83.62
255.426	72.62
255.659	95.62
255.892	87.62
256.124	77.62
256.357	81.62
256.59	84.62
256.823	88.62
257.056	87.62
257.289	73.62
257.521	69.62
257.754	82.62
257.987	67.62
258.22	87.62
258.452	75.62
258.685	85.62
258.918	81.62
259.151	82.62
259.383	88.62
259.616	75.62
259.849	75.62
260.081	78.62
260.314	81.62
260.547	78.62
260.779	67.62
261.012	78.62
261.244	82.62
261.477	95.62
261.71	83.62
261.942	97.62
262.175	96.62
262.407	98.62
262.64	94.62
262.872	83.62
263.105	81.62
263.337	80.62
263.57	84.62
263.802	80.62
264.035	73.62
264.267	69.62
264.499	83.62
264.732	84.62
264.964	88.62
265.197	83.62
265.429	86.62
265.661	78.62
265.894	76.62
266.126	87.62
266.358	92.62
266.591	81.62
266.823	81.62
267.055	86.62
267.287	76.62
267.52	92.62
267.752	94.62
267.984	75.62
268.216	99.62
268.448	83.62
268.681	81.62
268.913	77.62
269.145	90.62
269.377	87.62
269.609	79.62
269.841	83.62
270.073	94.62
270.306	83.62
270.538	93.62
270.77	88.62
271.002	80.62
271.234	91.62
271.466	80.62
271.698	81.62
271.93	85.62
272.162	91.62
272.394	70.62
272.626	82.62
272.858	77.62
273.09	83.62
273.322	77.62
273.553	80.62
273.785	92.62
274.017	76.62
274.249	88.62
274.481	86.62
274.713	90.62
274.945	96.62
275.176	93.62
275.408	77.62
275.64	84.62
275.872	92.62
276.104	77.62
276.335	94.62
276.567	107.62
276.799	96.62
277.031	102.62
277.262	75.62
277.494	88.62
277.726	68.62
277.957	79.62
278.189	74.62
278.421	89.62
278.652	95.62
278.884	95.62
279.115	73.62
279.347	95.62
279.579	87.62
279.81	94.62
280.042	77.62
280.273	93.62
280.505	77.62
280.736	73.62
280.968	93.62
281.199	75.62
281.431	74.62
281.662	78.62
281.894	87.62
282.125	84.62
282.356	99.62
282.588	128.62
282.819	98.62
283.051	101.62
283.282	95.62
283.513	101.62
283.745	86.62
283.976	69.62
284.207	101.62
284.439	112.62
284.67	99.62
284.901	88.62
285.132	79.62
285.364	82.62
285.595	92.62
285.826	80.62
286.057	85.62
286.288	71.62
286.52	77.62
286.751	96.62
286.982	69.62
287.213	85.62
287.444	90.62
287.675	99.62
287.906	109.62
288.138	98.62
288.369	97.62
288.6	101.62
288.831	81.62
289.062	91.62
289.293	85.62
289.524	86.62
289.755	105.62
289.986	98.62
290.217	78.62
290.448	98.62
290.679	88.62
290.91	92.62
291.141	81.62
291.371	92.62
291.602	84.62
291.833	64.62
292.064	94.62
292.295	82.62
292.526	81.62
292.757	100.62
292.987	90.62
293.218	86.62
293.449	96.62
293.68	98.62
293.91	82.62
294.141	78.62
294.372	81.62
294.603	89.62
294.833	96.62
295.064	84.62
295.295	93.62
295.525	85.62
295.756	85.62
295.987	99.62
296.217	126.62
296.448	110.62
296.679	98.62
296.909	91.62
297.14	72.62
297.37	96.62
297.601	93.62
297.831	85.62
298.062	96.62
298.292	77.62
298.523	89.62
298.753	66.62
298.984	100.62
299.214	96.62
299.445	100.62
299.675	107.62
299.905	92.62
300.136	95.62
300.366	96.62
300.597	98.62
300.827	91.62
301.057	93.62
301.288	96.62
301.518	93.62
301.748	98.62
301.979	102.62
302.209	82.62
302.439	86.62
302.669	90.62
302.9	86.62
303.13	100.62
303.36	92.62
303.59	110.62
303.82	90.62
304.051	94.62
304.281	88.62
304.511	97.62
304.741	94.62
304.971	82.62
305.201	91.62
305.431	102.62
305.661	76.62
305.891	92.62
306.121	90.62
306.352	97.62
306.582	89.62
306.812	92.62
307.042	106.62
307.272	96.62
307.502	92.62
307.731	87.62
307.961	100.62
308.191	87.62
308.421	82.62
308.651	98.62
308.881	102.62
309.111	100.62
309.341	89.62
309.571	106.62
309.8	87.62
310.03	105.62
310.26	98.62
310.49	85.62
310.72	88.62
310.949	108.62
311.179	97.62
311.409	98.62
311.639	88.62
311.868	77.62
312.098	93.62
312.328	92.62
312.557	114.62
312.787	110.62
313.017	91.62
313.246	82.62
313.476	88.62
313.706	81.62
313.935	87.62
314.165	109.62
314.394	95.62
314.624	98.62
314.853	84.62
315.083	92.62
315.312	90.62
315.542	91.62
315.771	82.62
316.001	82.62
316.23	91.62
316.46	90.62
316.689	79.62
316.919	96.62
317.148	86.62
317.377	105.62
317.607	100.62
317.836	95.62
318.065	97.62
318.295	98.62
318.524	81.62
318.753	84.62
318.983	105.62
319.212	96.62
319.441	91.62
319.67	100.62
319.9	99.62
320.129	91.62
320.358	89.62
320.587	89.62
320.816	107.62
321.046	98.62
321.275	109.62
321.504	97.62
321.733	86.62
321.962	86.62
322.191	105.62
322.42	84.62
322.649	102.62
322.878	105.62
323.108	114.62
323.337	111.62
323.566	119.62
323.795	136.62
324.024	170.62
324.253	301.62
324.482	617.62
324.71	1242.62
324.939	1573.62
325.168	586.62
325.397	186.62
325.626	131.62
325.855	106.62
326.084	108.62
326.313	124.62
326.542	110.62
326.77	197.62
326.999	356.62
327.228	678.62
327.457	1249.62
327.686	982.62
327.914	282.62
328.143	155.62
328.372	137.62
328.6	120.62
328.829	110.62
329.058	116.62
329.287	98.62
329.515	110.62
329.744	95.62
329.972	100.62
330.201	107.62
330.43	99.62
330.658	108.62
330.887	116.62
331.115	102.62
331.344	104.62
331.572	98.62
331.801	89.62
332.03	98.62
332.258	95.62
332.486	100.62
332.715	96.62
332.943	100.62
333.172	103.62
333.4	93.62
333.629	89.62
333.857	105.62
334.085	103.62
334.314	98.62
334.542	92.62
334.771	94.62
334.999	89.62
335.227	107.62
335.455	79.62
335.684	116.62
335.912	110.62
336.14	89.62
336.369	98.62
336.597	101.62
336.825	96.62
337.053	96.62
337.281	93.62
337.51	92.62
337.738	93.62
337.966	88.62
338.194	89.62
338.422	93.62
338.65	89.62
338.878	94.62
339.106	84.62
339.334	99.62
339.562	96.62
339.79	93.62
340.018	84.62
340.246	88.62
340.474	90.62
340.702	97.62
340.93	86.62
341.158	88.62
341.386	92.62
341.614	100.62
341.842	92.62
342.07	91.62
342.298	85.62
342.526	85.62
342.754	84.62
342.981	89.62
343.209	80.62
343.437	107.62
343.665	96.62
343.893	106.62
344.12	97.62
344.348	99.62
344.576	80.62
344.804	90.62
345.031	82.62
345.259	100.62
345.487	100.62
345.714	103.62
345.942	90.62
346.17	87.62
346.397	72.62
346.625	74.62
346.853	101.62
347.08	99.62
347.308	95.62
347.535	112.62
347.763	99.62
347.99	94.62
348.218	95.62
348.445	112.62
348.673	90.62
348.9	92.62
349.128	109.62
349.355	98.62
349.583	90.62
349.81	101.62
350.037	90.62
350.265	89.62
350.492	101.62
350.72	90.62
350.947	97.62
351.174	97.62
351.402	113.62
351.629	98.62
351.856	88.62
352.083	92.62
352.311	96.62
352.538	114.62
352.765	110.62
352.992	105.62
353.22	100.62
353.447	94.62
353.674	79.62
353.901	92.62
354.128	89.62
354.355	91.62
354.583	92.62
354.81	98.62
355.037	97.62
355.264	99.62
355.491	96.62
355.718	91.62
355.945	93.62
356.172	99.62
356.399	90.62
356.626	99.62
356.853	88.62
357.08	89.62
357.307	92.62
357.534	101.62
357.761	86.62
357.988	84.62
358.215	83.62
358.441	96.62
358.668	87.62
358.895	80.62
359.122	92.62
359.349	94.62
359.576	89.62
359.802	78.62
360.029	100.62
360.256	94.62
360.483	101.62
360.709	95.62
360.936	96.62
361.163	87.62
361.39	90.62
361.616	101.62
361.843	89.62
362.07	91.62
362.296	92.62
362.523	85.62
362.749	100.62
362.976	89.62
363.203	99.62
363.429	98.62
363.656	91.62
363.882	84.62
364.109	77.62
364.335	89.62
364.562	81.62
364.788	100.62
365.015	96.62
365.241	94.62
365.468	111.62
365.694	115.62
365.92	97.62
366.147	85.62
366.373	78.62
366.599	78.62
366.826	76.62
367.052	96.62
367.278	90.62
367.505	90.62
367.731	81.62
367.957	74.62
368.184	91.62
368.41	105.62
368.636	110.62
368.862	125.62
369.089	95.62
369.315	80.62
369.541	86.62
369.767	91.62
369.993	86.62
370.219	89.62
370.445	86.62
370.672	84.62
370.898	76.62
371.124	90.62
371.35	88.62
371.576	84.62
371.802	77.62
372.028	80.62
372.254	76.62
372.48	89.62
372.706	78.62
372.932	91.62
373.158	84.62
373.384	96.62
373.61	93.62
373.835	99.62
374.061	103.62
374.287	88.62
374.513	105.62
374.739	92.62
374.965	85.62
375.191	86.62
375.416	90.62
375.642	87.62
375.868	87.62
376.094	92.62
376.319	69.62
376.545	91.62
376.771	89.62
376.997	92.62
377.222	92.62
377.448	88.62
377.674	93.62
377.899	84.62
378.125	83.62
378.35	83.62
378.576	105.62
378.802	79.62
379.027	91.62
379.253	93.62
379.478	96.62
379.704	107.62
379.929	89.62
380.155	79.62
380.38	93.62
380.606	106.62
380.831	94.62
381.057	89.62
381.282	89.62
381.507	86.62
381.733	106.62
381.958	89.62
382.184	95.62
382.409	85.62
382.634	79.62
382.86	101.62
383.085	93.62
383.31	99.62
383.535	98.62
383.761	89.62
383.986	90.62
384.211	94.62
384.436	86.62
384.662	98.62
384.887	109.62
385.112	88.62
385.337	100.62
385.562	103.62
385.787	95.62
386.013	101.62
386.238	90.62
386.463	94.62
386.688	110.62
386.913	105.62
387.138	78.62
387.363	89.62
387.588	98.62
387.813	92.62
388.038	103.62
388.263	99.62
388.488	112.62
388.713	85.62
388.938	106.62
389.163	95.62
389.387	108.62
389.612	96.62
389.837	81.62
390.062	88.62
390.287	86.62
390.512	100.62
390.736	83.62
390.961	98.62
391.186	102.62
391.411	99.62
391.636	82.62
391.86	85.62
392.085	78.62
392.31	84.62
392.534	86.62
392.759	86.62
392.984	83.62
393.208	97.62
393.433	88.62
393.658	84.62
393.882	88.62
394.107	93.62
394.331	79.62
394.556	94.62
394.78	84.62
395.005	102.62
395.229	92.62
395.454	85.62
395.678	92.62
395.903	96.62
396.127	84.62
396.352	92.62
396.576	97.62
396.801	92.62
397.025	77.62
397.249	101.62
397.474	88.62
397.698	94.62
397.922	106.62
398.147	78.62
398.371	76.62
398.595	81.62
398.82	80.62
399.044	88.62
399.268	90.62
399.492	85.62
399.717	84.62
399.941	92.62
400.165	82.62
400.389	86.62
400.613	93.62
400.837	65.62
401.062	68.62
401.286	76.62
401.51	83.62
401.734	91.62
401.958	84.62
402.182	109.62
402.406	141.62
402.63	115.62
402.854	89.62
403.078	90.62
403.302	90.62
403.526	101.62
403.75	89.62
403.974	67.62
404.198	101.62
404.422	83.62
404.645	81.62
404.869	85.62
405.093	88.62
405.317	100.62
405.541	92.62
405.765	99.62
405.988	106.62
406.212	154.62
406.436	181.62
406.66	138.62
406.883	87.62
407.107	102.62
407.331	108.62
407.555	110.62
407.778	79.62
408.002	78.62
408.226	73.62
408.449	85.62
408.673	80.62
408.896	102.62
409.12	86.62
409.344	90.62
409.567	81.62
409.791	96.62
410.014	96.62
410.238	89.62
410.461	101.62
410.685	94.62
410.908	89.62
411.132	107.62
411.355	90.62
411.578	97.62
411.802	92.62
412.025	88.62
412.249	92.62
412.472	91.62
412.695	96.62
412.919	82.62
413.142	93.62
413.365	101.62
413.589	101.62
413.812	92.62
414.035	89.62
414.258	89.62
414.482	96.62
414.705	81.62
414.928	74.62
415.151	99.62
415.374	98.62
415.597	77.62
415.821	76.62
416.044	83.62
416.267	92.62
416.49	104.62
416.713	91.62
416.936	92.62
417.159	89.62
417.382	79.62
417.605	93.62
417.828	89.62
418.051	84.62
418.274	83.62
418.497	93.62
418.72	90.62
418.943	100.62
419.166	98.62
419.389	84.62
419.611	83.62
419.834	85.62
420.057	91.62
420.28	69.62
420.503	95.62
420.726	92.62
420.948	91.62
421.171	84.62
421.394	67.62
421.617	101.62
421.839	92.62
422.062	103.62
422.285	96.62
422.507	90.62
422.73	93.62
422.953	92.62
423.175	89.62
423.398	93.62
423.621	85.62
423.843	86.62
424.066	85.62
424.288	84.62
424.511	100.62
424.733	91.62
424.956	95.62
425.178	85.62
425.401	92.62
425.623	102.62
425.846	83.62
426.068	97.62
426.291	91.62
426.513	97.62
426.735	84.62
426.958	86.62
427.18	117.62
427.402	120.62
427.625	145.62
427.847	106.62
428.069	94.62
428.292	80.62
428.514	82.62
428.736	94.62
428.958	88.62
429.181	81.62
429.403	78.62
429.625	89.62
429.847	78.62
430.069	91.62
430.292	100.62
430.514	78.62
430.736	92.62
430.958	80.62
431.18	86.62
431.402	91.62
431.624	86.62
431.846	81.62
432.068	78.62
432.29	67.62
432.512	103.62
432.734	82.62
432.956	81.62
433.178	91.62
433.4	84.62
433.622	80.62
433.844	98.62
434.066	92.62
434.287	88.62
434.509	80.62
434.731	95.62
434.953	86.62
435.175	83.62
435.397	91.62
435.618	85.62
435.84	95.62
436.062	106.62
436.284	106.62
436.505	88.62
436.727	99.62
436.949	89.62
437.17	102.62
437.392	88.62
437.614	94.62
437.835	104.62
438.057	94.62
438.278	98.62
438.5	98.62
438.721	97.62
438.943	96.62
439.165	90.62
439.386	75.62
439.608	90.62
439.829	103.62
440.05	108.62
440.272	125.62
440.493	94.62
440.715	98.62
440.936	80.62
441.158	92.62
441.379	94.62
441.6	91.62
441.822	92.62
442.043	84.62
442.264	103.62
442.486	97.62
442.707	104.62
442.928	98.62
443.149	109.62
443.371	113.62
443.592	105.62
443.813	97.62
444.034	100.62
444.255	89.62
444.476	80.62
444.698	84.62
444.919	94.62
445.14	121.62
445.361	125.62
445.582	127.62
445.803	119.62
446.024	103.62
446.245	129.62
446.466	112.62
446.687	93.62
446.908	94.62
447.129	105.62
447.35	94.62
447.571	92.62
447.792	90.62
448.013	101.62
448.234	99.62
448.455	101.62
448.675	89.62
448.896	92.62
449.117	97.62
449.338	99.62
449.559	105.62
449.779	112.62
450	105.62
450.221	88.62
450.442	101.62
450.662	93.62
450.883	95.62
451.104	95.62
451.324	87.62
451.545	83.62
451.766	105.62
451.986	85.62
452.207	76.62
452.428	84.62
452.648	89.62
452.869	105.62
453.089	112.62
453.31	94.62
453.53	91.62
453.751	95.62
453.971	108.62
454.192	102.62
454.412	91.62
454.633	85.62
454.853	76.62
455.073	89.62
455.294	84.62
455.514	86.62
455.734	76.62
455.955	70.62
456.175	86.62
456.395	80.62
456.616	85.62
456.836	85.62
457.056	90.62
457.276	85.62
457.497	86.62
457.717	73.62
457.937	89.62
458.157	84.62
458.377	88.62
458.598	99.62
458.818	125.62
459.038	137.62
459.258	108.62
459.478	102.62
459.698	86.62
459.918	85.62
460.138	86.62
460.358	79.62
460.578	83.62
460.798	86.62
461.018	90.62
461.238	84.62
461.458	100.62
461.678	92.62
461.898	83.62
462.118	89.62
462.338	76.62
462.558	99.62
462.777	90.62
462.997	79.62
463.217	94.62
463.437	89.62
463.657	91.62
463.876	82.62
464.096	105.62
464.316	97.62
464.536	79.62
464.755	88.62
464.975	98.62
465.195	142.62
465.414	140.62
465.634	90.62
465.854	100.62
466.073	74.62
466.293	83.62
466.512	77.62
466.732	76.62
466.951	86.62
467.171	91.62
467.391	100.62
467.61	100.62
467.829	107.62
468.049	80.62
468.268	96.62
468.488	92.62
468.707	77.62
468.927	88.62
469.146	95.62
469.365	80.62
469.585	85.62
469.804	75.62
470.023	91.62
470.243	102.62
470.462	97.62
470.681	93.62
470.901	91.62
471.12	84.62
471.339	92.62
471.558	79.62
471.777	84.62
471.997	80.62
472.216	97.62
472.435	98.62
472.654	81.62
472.873	99.62
473.092	98.62
473.311	73.62
473.53	89.62
473.749	79.62
473.968	81.62
474.187	97.62
474.406	93.62
474.625	86.62
474.844	90.62
475.063	76.62
475.282	93.62
475.501	82.62
475.72	86.62
475.939	90.62
476.158	82.62
476.377	79.62
476.596	94.62
476.814	90.62
477.033	88.62
477.252	97.62
477.471	95.62
477.69	82.62
477.908	85.62
478.127	74.62
478.346	88.62
478.564	90.62
478.783	92.62
479.002	96.62
479.22	75.62
479.439	101.62
479.658	90.62
479.876	90.62
480.095	75.62
480.313	98.62
480.532	88.62
480.751	102.62
480.969	88.62
481.188	95.62
481.406	111.62
481.624	102.62
481.843	90.62
482.061	92.62
482.28	85.62
482.498	72.62
482.717	102.62
482.935	84.62
483.153	92.62
483.372	94.62
483.59	77.62
483.808	88.62
484.027	88.62
484.245	105.62
484.463	83.62
484.681	105.62
484.9	85.62
485.118	93.62
485.336	99.62
485.554	95.62
485.772	106.62
485.99	111.62
486.209	97.62
486.427	98.62
486.645	109.62
486.863	114.62
487.081	100.62
487.299	96.62
487.517	96.62
487.735	97.62
487.953	97.62
488.171	103.62
488.389	95.62
488.607	82.62
488.825	89.62
489.043	102.62
489.261	90.62
489.479	106.62
489.696	93.62
489.914	81.62
490.132	107.62
490.35	98.62
490.568	73.62
490.786	82.62
491.003	88.62
491.221	85.62
491.439	104.62
491.657	106.62
491.874	101.62
492.092	88.62
492.31	100.62
492.527	82.62
492.745	89.62
492.963	91.62
493.18	90.62
493.398	96.62
493.615	104.62
493.833	83.62
494.05	93.62
494.268	82.62
494.485	88.62
494.703	74.62
494.92	83.62
495.138	76.62
495.355	83.62
495.573	97.62
495.79	96.62
496.008	96.62
496.225	92.62
496.442	89.62
496.66	90.62
496.877	85.62
497.094	77.62
497.312	94.62
497.529	90.62
497.746	93.62
497.963	93.62
498.181	103.62
498.398	99.62
498.615	110.62
498.832	99.62
499.049	76.62
499.267	85.62
499.484	100.62
499.701	71.62
499.918	100.62
500.135	82.62
500.352	79.62
500.569	83.62
500.786	88.62
501.003	92.62
501.22	93.62
501.437	102.62
501.654	110.62
501.871	103.62
502.088	96.62
502.305	100.62
502.522	91.62
502.739	92.62
502.956	96.62
503.172	88.62
503.389	85.62
503.606	99.62
503.823	76.62
504.04	89.62
504.256	98.62
504.473	90.62
504.69	86.62
504.907	92.62
505.123	93.62
505.34	93.62
505.557	81.62
505.773	96.62
505.99	77.62
506.207	98.62
506.423	79.62
506.64	84.62
506.856	84.62
507.073	82.62
507.289	100.62
507.506	102.62
507.722	102.62
507.939	96.62
508.155	90.62
508.372	97.62
508.588	88.62
508.805	88.62
509.021	79.62
509.238	104.62
509.454	92.62
509.67	92.62
509.887	110.62
510.103	123.62
510.319	193.62
510.536	652.62
510.752	1890.62
510.968	532.62
511.184	150.62
511.401	109.62
511.617	116.62
511.833	83.62
512.049	90.62
512.265	100.62
512.481	105.62
512.698	89.62
512.914	86.62
513.13	100.62
513.346	101.62
513.562	92.62
513.778	90.62
513.994	101.62
514.21	114.62
514.426	101.62
514.642	118.62
514.858	110.62
515.074	157.62
515.29	378.62
515.506	1138.62
515.721	419.62
515.937	136.62
516.153	111.62
516.369	96.62
