Data from Uncirc_1993_H10_HRD10591_00063.txt Node
Date: Wed Jan 03 11:43:04 EST 2024
User: Yrep
Spectrometer: HR+D1059
Trigger mode: 1
Integration Time (sec): 1.000000E-1
Scans to average: 1
Electric dark correction enabled: true
Nonlinearity correction enabled: false
Boxcar width: 0
XAxis mode: Wavelengths
Number of Pixels in Spectrum: 2048
>>>>>Begin Spectral Data<<<<<
223.165	-22.62
223.4	-22.62
223.635	-22.62
223.869	-17.62
224.104	-21.62
224.338	-14.62
224.573	-11.62
224.808	-17.62
225.042	5.38
225.277	-3.62
225.511	-5.62
225.746	3.38
225.98	8.38
226.215	-19.62
226.449	31.38
226.683	20.38
226.918	31.38
227.152	34.38
227.387	45.38
227.621	31.38
227.856	28.38
228.09	40.38
228.324	41.38
228.559	52.38
228.793	50.38
229.027	58.38
229.262	74.38
229.496	74.38
229.73	87.38
229.964	76.38
230.199	57.38
230.433	61.38
230.667	62.38
230.901	71.38
231.136	72.38
231.37	85.38
231.604	82.38
231.838	84.38
232.072	89.38
232.306	89.38
232.541	84.38
232.775	85.38
233.009	91.38
233.243	76.38
233.477	87.38
233.711	78.38
233.945	82.38
234.179	75.38
234.413	86.38
234.647	63.38
234.881	91.38
235.115	70.38
235.349	75.38
235.583	81.38
235.817	77.38
236.051	66.38
236.285	70.38
236.519	72.38
236.753	64.38
236.987	79.38
237.221	81.38
237.455	83.38
237.689	67.38
237.922	73.38
238.156	64.38
238.39	77.38
238.624	78.38
238.858	90.38
239.091	70.38
239.325	55.38
239.559	71.38
239.793	83.38
240.027	95.38
240.26	89.38
240.494	78.38
240.728	80.38
240.961	84.38
241.195	81.38
241.429	79.38
241.662	78.38
241.896	63.38
242.13	70.38
242.363	73.38
242.597	74.38
242.83	76.38
243.064	88.38
243.298	76.38
243.531	85.38
243.765	74.38
243.998	73.38
244.232	81.38
244.465	92.38
244.699	77.38
244.932	63.38
245.166	68.38
245.399	79.38
245.633	79.38
245.866	93.38
246.099	87.38
246.333	74.38
246.566	72.38
246.8	69.38
247.033	80.38
247.266	96.38
247.5	79.38
247.733	73.38
247.966	82.38
248.2	71.38
248.433	87.38
248.666	68.38
248.899	68.38
249.133	80.38
249.366	107.38
249.599	96.38
249.832	86.38
250.066	71.38
250.299	79.38
250.532	83.38
250.765	65.38
250.998	70.38
251.231	82.38
251.465	89.38
251.698	74.38
251.931	52.38
252.164	74.38
252.397	86.38
252.63	84.38
252.863	76.38
253.096	80.38
253.329	86.38
253.562	86.38
253.795	71.38
254.028	80.38
254.261	76.38
254.494	74.38
254.727	76.38
254.96	84.38
255.193	81.38
255.426	64.38
255.659	72.38
255.892	87.38
256.124	73.38
256.357	79.38
256.59	68.38
256.823	78.38
257.056	78.38
257.289	71.38
257.521	76.38
257.754	66.38
257.987	74.38
258.22	82.38
258.452	81.38
258.685	73.38
258.918	86.38
259.151	78.38
259.383	91.38
259.616	68.38
259.849	81.38
260.081	88.38
260.314	76.38
260.547	71.38
260.779	80.38
261.012	83.38
261.244	86.38
261.477	84.38
261.71	81.38
261.942	104.38
262.175	121.38
262.407	90.38
262.64	68.38
262.872	68.38
263.105	68.38
263.337	79.38
263.57	80.38
263.802	86.38
264.035	72.38
264.267	82.38
264.499	90.38
264.732	75.38
264.964	82.38
265.197	82.38
265.429	71.38
265.661	94.38
265.894	74.38
266.126	87.38
266.358	82.38
266.591	78.38
266.823	82.38
267.055	80.38
267.287	76.38
267.52	74.38
267.752	81.38
267.984	81.38
268.216	83.38
268.448	92.38
268.681	86.38
268.913	80.38
269.145	95.38
269.377	92.38
269.609	78.38
269.841	94.38
270.073	91.38
270.306	85.38
270.538	87.38
270.77	76.38
271.002	81.38
271.234	95.38
271.466	76.38
271.698	81.38
271.93	62.38
272.162	82.38
272.394	77.38
272.626	68.38
272.858	62.38
273.09	86.38
273.322	94.38
273.553	75.38
273.785	87.38
274.017	91.38
274.249	83.38
274.481	83.38
274.713	82.38
274.945	90.38
275.176	90.38
275.408	87.38
275.64	75.38
275.872	87.38
276.104	91.38
276.335	90.38
276.567	88.38
276.799	108.38
277.031	94.38
277.262	100.38
277.494	86.38
277.726	84.38
277.957	81.38
278.189	77.38
278.421	79.38
278.652	93.38
278.884	74.38
279.115	86.38
279.347	89.38
279.579	81.38
279.81	82.38
280.042	84.38
280.273	91.38
280.505	96.38
280.736	83.38
280.968	82.38
281.199	81.38
281.431	97.38
281.662	67.38
281.894	79.38
282.125	89.38
282.356	104.38
282.588	128.38
282.819	103.38
283.051	90.38
283.282	80.38
283.513	93.38
283.745	84.38
283.976	84.38
284.207	86.38
284.439	84.38
284.67	106.38
284.901	90.38
285.132	99.38
285.364	78.38
285.595	88.38
285.826	80.38
286.057	91.38
286.288	83.38
286.52	73.38
286.751	89.38
286.982	87.38
287.213	82.38
287.444	77.38
287.675	81.38
287.906	80.38
288.138	75.38
288.369	97.38
288.6	91.38
288.831	79.38
289.062	96.38
289.293	95.38
289.524	82.38
289.755	80.38
289.986	74.38
290.217	90.38
290.448	80.38
290.679	94.38
290.91	94.38
291.141	79.38
291.371	80.38
291.602	88.38
291.833	83.38
292.064	91.38
292.295	76.38
292.526	86.38
292.757	92.38
292.987	72.38
293.218	78.38
293.449	80.38
293.68	87.38
293.91	83.38
294.141	81.38
294.372	81.38
294.603	78.38
294.833	90.38
295.064	82.38
295.295	91.38
295.525	76.38
295.756	96.38
295.987	112.38
296.217	121.38
296.448	113.38
296.679	64.38
296.909	86.38
297.14	97.38
297.37	96.38
297.601	86.38
297.831	78.38
298.062	86.38
298.292	93.38
298.523	85.38
298.753	105.38
298.984	88.38
299.214	84.38
299.445	87.38
299.675	75.38
299.905	72.38
300.136	82.38
300.366	85.38
300.597	95.38
300.827	87.38
301.057	94.38
301.288	103.38
301.518	91.38
301.748	86.38
301.979	87.38
302.209	86.38
302.439	87.38
302.669	79.38
302.9	84.38
303.13	88.38
303.36	97.38
303.59	83.38
303.82	93.38
304.051	77.38
304.281	97.38
304.511	76.38
304.741	94.38
304.971	82.38
305.201	90.38
305.431	78.38
305.661	87.38
305.891	82.38
306.121	92.38
306.352	94.38
306.582	96.38
306.812	89.38
307.042	91.38
307.272	90.38
307.502	97.38
307.731	94.38
307.961	86.38
308.191	81.38
308.421	94.38
308.651	96.38
308.881	86.38
309.111	90.38
309.341	81.38
309.571	96.38
309.8	101.38
310.03	94.38
310.26	91.38
310.49	85.38
310.72	99.38
310.949	110.38
311.179	99.38
311.409	96.38
311.639	97.38
311.868	89.38
312.098	90.38
312.328	86.38
312.557	106.38
312.787	86.38
313.017	92.38
313.246	91.38
313.476	98.38
313.706	86.38
313.935	98.38
314.165	101.38
314.394	70.38
314.624	96.38
314.853	106.38
315.083	91.38
315.312	98.38
315.542	90.38
315.771	93.38
316.001	96.38
316.23	92.38
316.46	94.38
316.689	88.38
316.919	91.38
317.148	84.38
317.377	84.38
317.607	99.38
317.836	84.38
318.065	83.38
318.295	98.38
318.524	103.38
318.753	94.38
318.983	92.38
319.212	101.38
319.441	101.38
319.67	98.38
319.9	83.38
320.129	82.38
320.358	96.38
320.587	84.38
320.816	86.38
321.046	87.38
321.275	102.38
321.504	83.38
321.733	100.38
321.962	98.38
322.191	85.38
322.42	89.38
322.649	102.38
322.878	104.38
323.108	103.38
323.337	100.38
323.566	123.38
323.795	132.38
324.024	175.38
324.253	316.38
324.482	666.38
324.71	1290.38
324.939	1654.38
325.168	640.38
325.397	203.38
325.626	125.38
325.855	112.38
326.084	124.38
326.313	116.38
326.542	143.38
326.77	188.38
326.999	370.38
327.228	716.38
327.457	1296.38
327.686	1033.38
327.914	318.38
328.143	180.38
328.372	148.38
328.6	119.38
328.829	106.38
329.058	113.38
329.287	129.38
329.515	99.38
329.744	104.38
329.972	98.38
330.201	106.38
330.43	104.38
330.658	113.38
330.887	113.38
331.115	123.38
331.344	95.38
331.572	93.38
331.801	100.38
332.03	90.38
332.258	92.38
332.486	89.38
332.715	101.38
332.943	88.38
333.172	98.38
333.4	88.38
333.629	102.38
333.857	103.38
334.085	104.38
334.314	105.38
334.542	90.38
334.771	95.38
334.999	106.38
335.227	110.38
335.455	94.38
335.684	103.38
335.912	96.38
336.14	65.38
336.369	80.38
336.597	96.38
336.825	82.38
337.053	89.38
337.281	88.38
337.51	84.38
337.738	82.38
337.966	79.38
338.194	74.38
338.422	79.38
338.65	88.38
338.878	97.38
339.106	97.38
339.334	94.38
339.562	84.38
339.79	87.38
340.018	87.38
340.246	98.38
340.474	91.38
340.702	88.38
340.93	90.38
341.158	87.38
341.386	98.38
341.614	103.38
341.842	104.38
342.07	88.38
342.298	82.38
342.526	94.38
342.754	87.38
342.981	77.38
343.209	94.38
343.437	95.38
343.665	98.38
343.893	75.38
344.12	89.38
344.348	84.38
344.576	73.38
344.804	84.38
345.031	89.38
345.259	98.38
345.487	94.38
345.714	84.38
345.942	103.38
346.17	84.38
346.397	80.38
346.625	94.38
346.853	91.38
347.08	95.38
347.308	87.38
347.535	92.38
347.763	80.38
347.99	84.38
348.218	87.38
348.445	108.38
348.673	90.38
348.9	96.38
349.128	76.38
349.355	86.38
349.583	99.38
349.81	77.38
350.037	93.38
350.265	87.38
350.492	99.38
350.72	89.38
350.947	99.38
351.174	91.38
351.402	88.38
351.629	102.38
351.856	101.38
352.083	110.38
352.311	87.38
352.538	106.38
352.765	92.38
352.992	119.38
353.22	109.38
353.447	95.38
353.674	109.38
353.901	82.38
354.128	87.38
354.355	93.38
354.583	84.38
354.81	80.38
355.037	67.38
355.264	99.38
355.491	86.38
355.718	96.38
355.945	87.38
356.172	98.38
356.399	94.38
356.626	104.38
356.853	84.38
357.08	81.38
357.307	78.38
357.534	91.38
357.761	91.38
357.988	92.38
358.215	88.38
358.441	93.38
358.668	103.38
358.895	74.38
359.122	92.38
359.349	91.38
359.576	92.38
359.802	106.38
360.029	115.38
360.256	98.38
360.483	100.38
360.709	75.38
360.936	91.38
361.163	103.38
361.39	81.38
361.616	94.38
361.843	94.38
362.07	94.38
362.296	89.38
362.523	91.38
362.749	93.38
362.976	92.38
363.203	80.38
363.429	94.38
363.656	85.38
363.882	96.38
364.109	94.38
364.335	92.38
364.562	82.38
364.788	98.38
365.015	92.38
365.241	85.38
365.468	114.38
365.694	107.38
365.92	95.38
366.147	99.38
366.373	95.38
366.599	89.38
366.826	74.38
367.052	77.38
367.278	84.38
367.505	105.38
367.731	87.38
367.957	81.38
368.184	94.38
368.41	93.38
368.636	118.38
368.862	107.38
369.089	93.38
369.315	78.38
369.541	76.38
369.767	90.38
369.993	88.38
370.219	94.38
370.445	99.38
370.672	95.38
370.898	87.38
371.124	87.38
371.35	82.38
371.576	77.38
371.802	75.38
372.028	86.38
372.254	89.38
372.48	76.38
372.706	81.38
372.932	93.38
373.158	92.38
373.384	94.38
373.61	81.38
373.835	87.38
374.061	85.38
374.287	89.38
374.513	88.38
374.739	96.38
374.965	80.38
375.191	100.38
375.416	82.38
375.642	101.38
375.868	96.38
376.094	74.38
376.319	84.38
376.545	83.38
376.771	86.38
376.997	87.38
377.222	94.38
377.448	104.38
377.674	74.38
377.899	89.38
378.125	89.38
378.35	83.38
378.576	88.38
378.802	84.38
379.027	87.38
379.253	91.38
379.478	75.38
379.704	76.38
379.929	102.38
380.155	90.38
380.38	80.38
380.606	83.38
380.831	97.38
381.057	93.38
381.282	96.38
381.507	106.38
381.733	97.38
381.958	91.38
382.184	99.38
382.409	96.38
382.634	90.38
382.86	92.38
383.085	95.38
383.31	100.38
383.535	96.38
383.761	92.38
383.986	92.38
384.211	96.38
384.436	95.38
384.662	92.38
384.887	92.38
385.112	108.38
385.337	107.38
385.562	95.38
385.787	92.38
386.013	99.38
386.238	96.38
386.463	96.38
386.688	107.38
386.913	93.38
387.138	95.38
387.363	96.38
387.588	99.38
387.813	92.38
388.038	95.38
388.263	91.38
388.488	97.38
388.713	93.38
388.938	91.38
389.163	102.38
389.387	108.38
389.612	87.38
389.837	96.38
390.062	81.38
390.287	95.38
390.512	97.38
390.736	98.38
390.961	106.38
391.186	79.38
391.411	90.38
391.636	80.38
391.86	82.38
392.085	78.38
392.31	80.38
392.534	85.38
392.759	89.38
392.984	88.38
393.208	86.38
393.433	81.38
393.658	88.38
393.882	72.38
394.107	87.38
394.331	66.38
394.556	89.38
394.78	91.38
395.005	93.38
395.229	85.38
395.454	80.38
395.678	82.38
395.903	90.38
396.127	88.38
396.352	83.38
396.576	85.38
396.801	74.38
397.025	95.38
397.249	84.38
397.474	90.38
397.698	100.38
397.922	89.38
398.147	81.38
398.371	80.38
398.595	82.38
398.82	82.38
399.044	88.38
399.268	72.38
399.492	78.38
399.717	96.38
399.941	96.38
400.165	97.38
400.389	89.38
400.613	94.38
400.837	78.38
401.062	81.38
401.286	91.38
401.51	84.38
401.734	98.38
401.958	81.38
402.182	109.38
402.406	147.38
402.63	108.38
402.854	90.38
403.078	74.38
403.302	68.38
403.526	98.38
403.75	90.38
403.974	91.38
404.198	81.38
404.422	99.38
404.645	87.38
404.869	94.38
405.093	89.38
405.317	80.38
405.541	77.38
405.765	99.38
405.988	113.38
406.212	161.38
406.436	199.38
406.66	115.38
406.883	99.38
407.107	79.38
407.331	92.38
407.555	86.38
407.778	78.38
408.002	98.38
408.226	92.38
408.449	90.38
408.673	94.38
408.896	104.38
409.12	84.38
409.344	94.38
409.567	66.38
409.791	96.38
410.014	83.38
410.238	88.38
410.461	99.38
410.685	89.38
410.908	102.38
411.132	86.38
411.355	99.38
411.578	107.38
411.802	86.38
412.025	74.38
412.249	86.38
412.472	86.38
412.695	67.38
412.919	83.38
413.142	79.38
413.365	79.38
413.589	96.38
413.812	91.38
414.035	78.38
414.258	83.38
414.482	98.38
414.705	86.38
414.928	86.38
415.151	83.38
415.374	82.38
415.597	94.38
415.821	85.38
416.044	88.38
416.267	93.38
416.49	74.38
416.713	90.38
416.936	84.38
417.159	67.38
417.382	79.38
417.605	98.38
417.828	90.38
418.051	95.38
418.274	83.38
418.497	77.38
418.72	85.38
418.943	85.38
419.166	66.38
419.389	91.38
419.611	81.38
419.834	88.38
420.057	80.38
420.28	82.38
420.503	108.38
420.726	89.38
420.948	96.38
421.171	91.38
421.394	87.38
421.617	89.38
421.839	88.38
422.062	84.38
422.285	86.38
422.507	88.38
422.73	106.38
422.953	97.38
423.175	96.38
423.398	90.38
423.621	89.38
423.843	85.38
424.066	80.38
424.288	88.38
424.511	89.38
424.733	87.38
424.956	98.38
425.178	96.38
425.401	96.38
425.623	100.38
425.846	85.38
426.068	85.38
426.291	86.38
426.513	79.38
426.735	80.38
426.958	77.38
427.18	99.38
427.402	133.38
427.625	130.38
427.847	120.38
428.069	102.38
428.292	87.38
428.514	93.38
428.736	71.38
428.958	82.38
429.181	65.38
429.403	82.38
429.625	87.38
429.847	94.38
430.069	98.38
430.292	97.38
430.514	86.38
430.736	74.38
430.958	87.38
431.18	91.38
431.402	91.38
431.624	76.38
431.846	88.38
432.068	74.38
432.29	87.38
432.512	85.38
432.734	82.38
432.956	83.38
433.178	92.38
433.4	87.38
433.622	87.38
433.844	83.38
434.066	82.38
434.287	77.38
434.509	82.38
434.731	89.38
434.953	99.38
435.175	82.38
435.397	88.38
435.618	91.38
435.84	93.38
436.062	97.38
436.284	102.38
436.505	104.38
436.727	79.38
436.949	93.38
437.17	87.38
437.392	80.38
437.614	94.38
437.835	97.38
438.057	114.38
438.278	112.38
438.5	110.38
438.721	91.38
438.943	90.38
439.165	75.38
439.386	91.38
439.608	90.38
439.829	86.38
440.05	107.38
440.272	123.38
440.493	100.38
440.715	84.38
440.936	87.38
441.158	81.38
441.379	79.38
441.6	85.38
441.822	84.38
442.043	95.38
442.264	103.38
442.486	92.38
442.707	87.38
442.928	100.38
443.149	114.38
443.371	126.38
443.592	95.38
443.813	120.38
444.034	97.38
444.255	96.38
444.476	86.38
444.698	89.38
444.919	93.38
445.14	131.38
445.361	113.38
445.582	107.38
445.803	119.38
446.024	119.38
446.245	123.38
446.466	87.38
446.687	77.38
446.908	77.38
447.129	87.38
447.35	86.38
447.571	86.38
447.792	95.38
448.013	96.38
448.234	94.38
448.455	96.38
448.675	118.38
448.896	110.38
449.117	95.38
449.338	86.38
449.559	115.38
449.779	127.38
450	90.38
450.221	86.38
450.442	77.38
450.662	87.38
450.883	104.38
451.104	104.38
451.324	90.38
451.545	87.38
451.766	87.38
451.986	87.38
452.207	81.38
452.428	96.38
452.648	97.38
452.869	105.38
453.089	100.38
453.31	104.38
453.53	81.38
453.751	81.38
453.971	96.38
454.192	105.38
454.412	95.38
454.633	88.38
454.853	90.38
455.073	92.38
455.294	87.38
455.514	94.38
455.734	92.38
455.955	93.38
456.175	71.38
456.395	83.38
456.616	67.38
456.836	90.38
457.056	86.38
457.276	91.38
457.497	79.38
457.717	94.38
457.937	81.38
458.157	83.38
458.377	88.38
458.598	98.38
458.818	136.38
459.038	144.38
459.258	102.38
459.478	89.38
459.698	84.38
459.918	86.38
460.138	67.38
460.358	80.38
460.578	86.38
460.798	86.38
461.018	86.38
461.238	72.38
461.458	85.38
461.678	99.38
461.898	79.38
462.118	84.38
462.338	65.38
462.558	90.38
462.777	83.38
462.997	73.38
463.217	81.38
463.437	82.38
463.657	72.38
463.876	98.38
464.096	93.38
464.316	79.38
464.536	99.38
464.755	89.38
464.975	101.38
465.195	163.38
465.414	134.38
465.634	94.38
465.854	91.38
466.073	81.38
466.293	71.38
466.512	87.38
466.732	98.38
466.951	86.38
467.171	93.38
467.391	106.38
467.61	93.38
467.829	94.38
468.049	82.38
468.268	84.38
468.488	95.38
468.707	91.38
468.927	95.38
469.146	86.38
469.365	94.38
469.585	89.38
469.804	99.38
470.023	99.38
470.243	89.38
470.462	100.38
470.681	111.38
470.901	84.38
471.12	65.38
471.339	83.38
471.558	86.38
471.777	77.38
471.997	86.38
472.216	79.38
472.435	88.38
472.654	98.38
472.873	89.38
473.092	84.38
473.311	82.38
473.53	84.38
473.749	97.38
473.968	104.38
474.187	86.38
474.406	100.38
474.625	93.38
474.844	77.38
475.063	85.38
475.282	72.38
475.501	80.38
475.72	103.38
475.939	88.38
476.158	87.38
476.377	76.38
476.596	76.38
476.814	78.38
477.033	91.38
477.252	92.38
477.471	92.38
477.69	82.38
477.908	84.38
478.127	88.38
478.346	89.38
478.564	84.38
478.783	88.38
479.002	98.38
479.22	91.38
479.439	96.38
479.658	86.38
479.876	101.38
480.095	86.38
480.313	100.38
480.532	91.38
480.751	103.38
480.969	92.38
481.188	105.38
481.406	83.38
481.624	92.38
481.843	93.38
482.061	85.38
482.28	98.38
482.498	102.38
482.717	72.38
482.935	81.38
483.153	83.38
483.372	88.38
483.59	83.38
483.808	93.38
484.027	96.38
484.245	91.38
484.463	88.38
484.681	88.38
484.9	86.38
485.118	96.38
485.336	97.38
485.554	103.38
485.772	96.38
485.99	106.38
486.209	101.38
486.427	92.38
486.645	109.38
486.863	110.38
487.081	94.38
487.299	90.38
487.517	112.38
487.735	94.38
487.953	106.38
488.171	89.38
488.389	92.38
488.607	95.38
488.825	83.38
489.043	92.38
489.261	83.38
489.479	87.38
489.696	84.38
489.914	86.38
490.132	86.38
490.35	73.38
490.568	89.38
490.786	90.38
491.003	78.38
491.221	78.38
491.439	84.38
491.657	93.38
491.874	99.38
492.092	88.38
492.31	94.38
492.527	75.38
492.745	86.38
492.963	79.38
493.18	73.38
493.398	83.38
493.615	92.38
493.833	99.38
494.05	95.38
494.268	96.38
494.485	97.38
494.703	78.38
494.92	88.38
495.138	96.38
495.355	78.38
495.573	93.38
495.79	105.38
496.008	93.38
496.225	87.38
496.442	81.38
496.66	89.38
496.877	98.38
497.094	96.38
497.312	79.38
497.529	85.38
497.746	74.38
497.963	84.38
498.181	87.38
498.398	95.38
498.615	111.38
498.832	86.38
499.049	92.38
499.267	83.38
499.484	84.38
499.701	94.38
499.918	90.38
500.135	86.38
500.352	82.38
500.569	79.38
500.786	75.38
501.003	94.38
501.22	95.38
501.437	84.38
501.654	86.38
501.871	105.38
502.088	98.38
502.305	95.38
502.522	82.38
502.739	98.38
502.956	97.38
503.172	82.38
503.389	91.38
503.606	88.38
503.823	91.38
504.04	80.38
504.256	87.38
504.473	75.38
504.69	77.38
504.907	91.38
505.123	102.38
505.34	88.38
505.557	83.38
505.773	88.38
505.99	94.38
506.207	94.38
506.423	84.38
506.64	68.38
506.856	77.38
507.073	101.38
507.289	82.38
507.506	101.38
507.722	94.38
507.939	104.38
508.155	88.38
508.372	91.38
508.588	88.38
508.805	111.38
509.021	107.38
509.238	89.38
509.454	100.38
509.67	92.38
509.887	107.38
510.103	134.38
510.319	193.38
510.536	671.38
510.752	2006.38
510.968	552.38
511.184	146.38
511.401	117.38
511.617	101.38
511.833	107.38
512.049	99.38
512.265	87.38
512.481	87.38
512.698	83.38
512.914	91.38
513.13	86.38
513.346	84.38
513.562	87.38
513.778	78.38
513.994	105.38
514.21	104.38
514.426	107.38
514.642	119.38
514.858	88.38
515.074	156.38
515.29	381.38
515.506	1214.38
515.721	454.38
515.937	150.38
516.153	98.38
516.369	87.38
516.585	79.38
516.801	88.38
517.016	89.38
517.232	89.38
