Data from Uncirc_1993_H10_HRD10591_00037.txt Node
Date: Wed Jan 03 11:42:59 EST 2024
User: Yrep
Spectrometer: HR+D1059
Trigger mode: 1
Integration Time (sec): 1.000000E-1
Scans to average: 1
Electric dark correction enabled: true
Nonlinearity correction enabled: false
Boxcar width: 0
XAxis mode: Wavelengths
Number of Pixels in Spectrum: 2048
>>>>>Begin Spectral Data<<<<<
223.165	-6.25
223.4	-6.25
223.635	-6.25
223.869	-11.25
224.104	-31.25
224.338	-18.25
224.573	-13.25
224.808	-16.25
225.042	-22.25
225.277	-11.25
225.511	-6.25
225.746	-0.25
225.98	14.75
226.215	18.75
226.449	25.75
226.683	10.75
226.918	29.75
227.152	36.75
227.387	23.75
227.621	25.75
227.856	35.75
228.09	49.75
228.324	52.75
228.559	63.75
228.793	63.75
229.027	65.75
229.262	88.75
229.496	76.75
229.73	61.75
229.964	75.75
230.199	80.75
230.433	70.75
230.667	73.75
230.901	80.75
231.136	73.75
231.37	87.75
231.604	80.75
231.838	77.75
232.072	58.75
232.306	83.75
232.541	86.75
232.775	89.75
233.009	75.75
233.243	77.75
233.477	89.75
233.711	81.75
233.945	89.75
234.179	72.75
234.413	71.75
234.647	68.75
234.881	82.75
235.115	83.75
235.349	72.75
235.583	76.75
235.817	70.75
236.051	92.75
236.285	97.75
236.519	71.75
236.753	88.75
236.987	80.75
237.221	79.75
237.455	82.75
237.689	83.75
237.922	75.75
238.156	68.75
238.39	81.75
238.624	82.75
238.858	81.75
239.091	64.75
239.325	88.75
239.559	87.75
239.793	85.75
240.027	89.75
240.26	61.75
240.494	69.75
240.728	67.75
240.961	83.75
241.195	69.75
241.429	81.75
241.662	76.75
241.896	72.75
242.13	51.75
242.363	81.75
242.597	76.75
242.83	65.75
243.064	85.75
243.298	76.75
243.531	85.75
243.765	85.75
243.998	73.75
244.232	81.75
244.465	72.75
244.699	65.75
244.932	66.75
245.166	82.75
245.399	78.75
245.633	77.75
245.866	66.75
246.099	76.75
246.333	81.75
246.566	83.75
246.8	97.75
247.033	76.75
247.266	69.75
247.5	75.75
247.733	93.75
247.966	84.75
248.2	78.75
248.433	65.75
248.666	97.75
248.899	74.75
249.133	98.75
249.366	98.75
249.599	95.75
249.832	81.75
250.066	69.75
250.299	74.75
250.532	78.75
250.765	78.75
250.998	88.75
251.231	97.75
251.465	75.75
251.698	81.75
251.931	88.75
252.164	89.75
252.397	77.75
252.63	77.75
252.863	67.75
253.096	79.75
253.329	67.75
253.562	85.75
253.795	91.75
254.028	99.75
254.261	79.75
254.494	77.75
254.727	86.75
254.96	101.75
255.193	80.75
255.426	67.75
255.659	89.75
255.892	82.75
256.124	85.75
256.357	85.75
256.59	89.75
256.823	76.75
257.056	72.75
257.289	99.75
257.521	72.75
257.754	80.75
257.987	82.75
258.22	87.75
258.452	66.75
258.685	74.75
258.918	70.75
259.151	86.75
259.383	85.75
259.616	78.75
259.849	85.75
260.081	86.75
260.314	72.75
260.547	79.75
260.779	72.75
261.012	83.75
261.244	82.75
261.477	83.75
261.71	85.75
261.942	102.75
262.175	101.75
262.407	80.75
262.64	74.75
262.872	94.75
263.105	78.75
263.337	87.75
263.57	97.75
263.802	77.75
264.035	86.75
264.267	91.75
264.499	84.75
264.732	85.75
264.964	102.75
265.197	77.75
265.429	86.75
265.661	89.75
265.894	91.75
266.126	82.75
266.358	92.75
266.591	82.75
266.823	94.75
267.055	83.75
267.287	83.75
267.52	75.75
267.752	88.75
267.984	89.75
268.216	85.75
268.448	75.75
268.681	83.75
268.913	82.75
269.145	82.75
269.377	90.75
269.609	93.75
269.841	80.75
270.073	77.75
270.306	83.75
270.538	80.75
270.77	76.75
271.002	91.75
271.234	92.75
271.466	83.75
271.698	95.75
271.93	95.75
272.162	80.75
272.394	77.75
272.626	77.75
272.858	76.75
273.09	99.75
273.322	75.75
273.553	74.75
273.785	76.75
274.017	82.75
274.249	74.75
274.481	90.75
274.713	86.75
274.945	76.75
275.176	83.75
275.408	101.75
275.64	87.75
275.872	78.75
276.104	98.75
276.335	102.75
276.567	96.75
276.799	99.75
277.031	87.75
277.262	81.75
277.494	85.75
277.726	75.75
277.957	86.75
278.189	82.75
278.421	83.75
278.652	78.75
278.884	76.75
279.115	84.75
279.347	76.75
279.579	75.75
279.81	94.75
280.042	87.75
280.273	84.75
280.505	77.75
280.736	84.75
280.968	73.75
281.199	86.75
281.431	103.75
281.662	90.75
281.894	94.75
282.125	93.75
282.356	126.75
282.588	134.75
282.819	104.75
283.051	93.75
283.282	79.75
283.513	96.75
283.745	82.75
283.976	81.75
284.207	80.75
284.439	83.75
284.67	96.75
284.901	84.75
285.132	83.75
285.364	96.75
285.595	88.75
285.826	75.75
286.057	87.75
286.288	94.75
286.52	94.75
286.751	93.75
286.982	86.75
287.213	84.75
287.444	82.75
287.675	82.75
287.906	91.75
288.138	92.75
288.369	100.75
288.6	96.75
288.831	80.75
289.062	98.75
289.293	68.75
289.524	88.75
289.755	88.75
289.986	85.75
290.217	75.75
290.448	78.75
290.679	94.75
290.91	95.75
291.141	80.75
291.371	78.75
291.602	70.75
291.833	77.75
292.064	84.75
292.295	96.75
292.526	95.75
292.757	97.75
292.987	77.75
293.218	83.75
293.449	83.75
293.68	74.75
293.91	88.75
294.141	88.75
294.372	96.75
294.603	69.75
294.833	91.75
295.064	76.75
295.295	84.75
295.525	76.75
295.756	92.75
295.987	112.75
296.217	146.75
296.448	129.75
296.679	110.75
296.909	89.75
297.14	89.75
297.37	91.75
297.601	97.75
297.831	79.75
298.062	90.75
298.292	94.75
298.523	95.75
298.753	89.75
298.984	88.75
299.214	97.75
299.445	92.75
299.675	95.75
299.905	87.75
300.136	100.75
300.366	90.75
300.597	86.75
300.827	98.75
301.057	86.75
301.288	92.75
301.518	103.75
301.748	88.75
301.979	88.75
302.209	96.75
302.439	97.75
302.669	85.75
302.9	90.75
303.13	86.75
303.36	94.75
303.59	109.75
303.82	97.75
304.051	89.75
304.281	90.75
304.511	101.75
304.741	83.75
304.971	92.75
305.201	81.75
305.431	91.75
305.661	85.75
305.891	93.75
306.121	88.75
306.352	116.75
306.582	96.75
306.812	96.75
307.042	89.75
307.272	90.75
307.502	67.75
307.731	97.75
307.961	93.75
308.191	91.75
308.421	96.75
308.651	94.75
308.881	88.75
309.111	99.75
309.341	100.75
309.571	79.75
309.8	100.75
310.03	97.75
310.26	92.75
310.49	88.75
310.72	91.75
310.949	94.75
311.179	83.75
311.409	100.75
311.639	85.75
311.868	100.75
312.098	90.75
312.328	97.75
312.557	97.75
312.787	111.75
313.017	94.75
313.246	89.75
313.476	96.75
313.706	91.75
313.935	99.75
314.165	96.75
314.394	92.75
314.624	103.75
314.853	81.75
315.083	80.75
315.312	89.75
315.542	90.75
315.771	101.75
316.001	100.75
316.23	90.75
316.46	84.75
316.689	86.75
316.919	76.75
317.148	106.75
317.377	97.75
317.607	100.75
317.836	94.75
318.065	92.75
318.295	102.75
318.524	87.75
318.753	109.75
318.983	104.75
319.212	87.75
319.441	95.75
319.67	98.75
319.9	85.75
320.129	86.75
320.358	93.75
320.587	84.75
320.816	109.75
321.046	91.75
321.275	98.75
321.504	89.75
321.733	105.75
321.962	100.75
322.191	101.75
322.42	96.75
322.649	109.75
322.878	112.75
323.108	118.75
323.337	133.75
323.566	118.75
323.795	163.75
324.024	200.75
324.253	352.75
324.482	746.75
324.71	1458.75
324.939	1826.75
325.168	689.75
325.397	212.75
325.626	140.75
325.855	110.75
326.084	108.75
326.313	132.75
326.542	130.75
326.77	200.75
326.999	412.75
327.228	825.75
327.457	1426.75
327.686	1120.75
327.914	326.75
328.143	188.75
328.372	129.75
328.6	131.75
328.829	126.75
329.058	103.75
329.287	139.75
329.515	117.75
329.744	99.75
329.972	105.75
330.201	92.75
330.43	97.75
330.658	110.75
330.887	130.75
331.115	118.75
331.344	97.75
331.572	108.75
331.801	100.75
332.03	105.75
332.258	92.75
332.486	102.75
332.715	91.75
332.943	90.75
333.172	94.75
333.4	82.75
333.629	108.75
333.857	110.75
334.085	106.75
334.314	102.75
334.542	97.75
334.771	99.75
334.999	85.75
335.227	98.75
335.455	92.75
335.684	91.75
335.912	109.75
336.14	106.75
336.369	99.75
336.597	96.75
336.825	108.75
337.053	87.75
337.281	78.75
337.51	79.75
337.738	91.75
337.966	88.75
338.194	100.75
338.422	92.75
338.65	81.75
338.878	96.75
339.106	85.75
339.334	84.75
339.562	102.75
339.79	91.75
340.018	75.75
340.246	106.75
340.474	92.75
340.702	89.75
340.93	91.75
341.158	90.75
341.386	85.75
341.614	91.75
341.842	101.75
342.07	91.75
342.298	89.75
342.526	98.75
342.754	108.75
342.981	94.75
343.209	83.75
343.437	110.75
343.665	87.75
343.893	97.75
344.12	80.75
344.348	92.75
344.576	77.75
344.804	85.75
345.031	83.75
345.259	96.75
345.487	100.75
345.714	97.75
345.942	89.75
346.17	89.75
346.397	79.75
346.625	95.75
346.853	100.75
347.08	93.75
347.308	90.75
347.535	95.75
347.763	89.75
347.99	96.75
348.218	111.75
348.445	99.75
348.673	102.75
348.9	89.75
349.128	86.75
349.355	97.75
349.583	105.75
349.81	94.75
350.037	100.75
350.265	108.75
350.492	94.75
350.72	107.75
350.947	100.75
351.174	89.75
351.402	107.75
351.629	95.75
351.856	99.75
352.083	105.75
352.311	105.75
352.538	98.75
352.765	112.75
352.992	109.75
353.22	110.75
353.447	106.75
353.674	101.75
353.901	91.75
354.128	98.75
354.355	85.75
354.583	100.75
354.81	101.75
355.037	96.75
355.264	91.75
355.491	91.75
355.718	90.75
355.945	89.75
356.172	105.75
356.399	100.75
356.626	88.75
356.853	98.75
357.08	94.75
357.307	100.75
357.534	93.75
357.761	107.75
357.988	91.75
358.215	101.75
358.441	100.75
358.668	102.75
358.895	110.75
359.122	102.75
359.349	101.75
359.576	81.75
359.802	93.75
360.029	108.75
360.256	107.75
360.483	106.75
360.709	98.75
360.936	100.75
361.163	92.75
361.39	96.75
361.616	92.75
361.843	98.75
362.07	96.75
362.296	89.75
362.523	81.75
362.749	98.75
362.976	92.75
363.203	88.75
363.429	93.75
363.656	96.75
363.882	91.75
364.109	81.75
364.335	97.75
364.562	80.75
364.788	81.75
365.015	89.75
365.241	102.75
365.468	99.75
365.694	109.75
365.92	88.75
366.147	81.75
366.373	85.75
366.599	87.75
366.826	90.75
367.052	89.75
367.278	88.75
367.505	100.75
367.731	89.75
367.957	100.75
368.184	92.75
368.41	96.75
368.636	94.75
368.862	120.75
369.089	109.75
369.315	90.75
369.541	92.75
369.767	101.75
369.993	86.75
370.219	93.75
370.445	82.75
370.672	83.75
370.898	84.75
371.124	97.75
371.35	88.75
371.576	79.75
371.802	100.75
372.028	83.75
372.254	101.75
372.48	97.75
372.706	103.75
372.932	93.75
373.158	89.75
373.384	85.75
373.61	83.75
373.835	77.75
374.061	98.75
374.287	109.75
374.513	103.75
374.739	83.75
374.965	88.75
375.191	94.75
375.416	90.75
375.642	78.75
375.868	90.75
376.094	88.75
376.319	88.75
376.545	93.75
376.771	87.75
376.997	97.75
377.222	91.75
377.448	85.75
377.674	76.75
377.899	85.75
378.125	91.75
378.35	82.75
378.576	81.75
378.802	97.75
379.027	100.75
379.253	103.75
379.478	84.75
379.704	97.75
379.929	91.75
380.155	92.75
380.38	97.75
380.606	97.75
380.831	89.75
381.057	100.75
381.282	81.75
381.507	75.75
381.733	102.75
381.958	99.75
382.184	98.75
382.409	95.75
382.634	99.75
382.86	90.75
383.085	92.75
383.31	109.75
383.535	96.75
383.761	90.75
383.986	94.75
384.211	100.75
384.436	105.75
384.662	96.75
384.887	89.75
385.112	93.75
385.337	105.75
385.562	111.75
385.787	92.75
386.013	116.75
386.238	100.75
386.463	89.75
386.688	122.75
386.913	98.75
387.138	109.75
387.363	98.75
387.588	86.75
387.813	88.75
388.038	94.75
388.263	109.75
388.488	86.75
388.713	109.75
388.938	98.75
389.163	97.75
389.387	95.75
389.612	94.75
389.837	94.75
390.062	95.75
390.287	85.75
390.512	95.75
390.736	93.75
390.961	100.75
391.186	96.75
391.411	102.75
391.636	92.75
391.86	98.75
392.085	101.75
392.31	96.75
392.534	80.75
392.759	77.75
392.984	88.75
393.208	80.75
393.433	80.75
393.658	101.75
393.882	84.75
394.107	76.75
394.331	93.75
394.556	93.75
394.78	81.75
395.005	93.75
395.229	80.75
395.454	82.75
395.678	85.75
395.903	102.75
396.127	85.75
396.352	85.75
396.576	85.75
396.801	91.75
397.025	91.75
397.249	83.75
397.474	93.75
397.698	75.75
397.922	86.75
398.147	91.75
398.371	84.75
398.595	80.75
398.82	96.75
399.044	83.75
399.268	90.75
399.492	82.75
399.717	92.75
399.941	92.75
400.165	89.75
400.389	97.75
400.613	94.75
400.837	63.75
401.062	93.75
401.286	93.75
401.51	86.75
401.734	106.75
401.958	98.75
402.182	107.75
402.406	156.75
402.63	117.75
402.854	86.75
403.078	99.75
403.302	102.75
403.526	90.75
403.75	95.75
403.974	90.75
404.198	87.75
404.422	92.75
404.645	95.75
404.869	90.75
405.093	86.75
405.317	105.75
405.541	90.75
405.765	98.75
405.988	122.75
406.212	157.75
406.436	222.75
406.66	125.75
406.883	102.75
407.107	93.75
407.331	94.75
407.555	98.75
407.778	100.75
408.002	94.75
408.226	103.75
408.449	76.75
408.673	91.75
408.896	81.75
409.12	88.75
409.344	75.75
409.567	93.75
409.791	105.75
410.014	91.75
410.238	94.75
410.461	81.75
410.685	97.75
410.908	93.75
411.132	91.75
411.355	93.75
411.578	107.75
411.802	106.75
412.025	94.75
412.249	90.75
412.472	82.75
412.695	74.75
412.919	82.75
413.142	90.75
413.365	96.75
413.589	82.75
413.812	82.75
414.035	85.75
414.258	89.75
414.482	97.75
414.705	83.75
414.928	84.75
415.151	90.75
415.374	97.75
415.597	94.75
415.821	101.75
416.044	95.75
416.267	83.75
416.49	86.75
416.713	94.75
416.936	97.75
417.159	102.75
417.382	77.75
417.605	86.75
417.828	89.75
418.051	77.75
418.274	88.75
418.497	78.75
418.72	86.75
418.943	76.75
419.166	96.75
419.389	90.75
419.611	88.75
419.834	87.75
420.057	96.75
420.28	74.75
420.503	84.75
420.726	90.75
420.948	82.75
421.171	82.75
421.394	97.75
421.617	100.75
421.839	92.75
422.062	93.75
422.285	104.75
422.507	88.75
422.73	94.75
422.953	95.75
423.175	82.75
423.398	91.75
423.621	96.75
423.843	86.75
424.066	81.75
424.288	89.75
424.511	85.75
424.733	95.75
424.956	107.75
425.178	100.75
425.401	91.75
425.623	84.75
425.846	91.75
426.068	89.75
426.291	91.75
426.513	81.75
426.735	80.75
426.958	94.75
427.18	113.75
427.402	115.75
427.625	145.75
427.847	128.75
428.069	97.75
428.292	88.75
428.514	105.75
428.736	78.75
428.958	81.75
429.181	92.75
429.403	87.75
429.625	77.75
429.847	88.75
430.069	99.75
430.292	87.75
430.514	82.75
430.736	91.75
430.958	90.75
431.18	80.75
431.402	91.75
431.624	85.75
431.846	88.75
432.068	90.75
432.29	87.75
432.512	85.75
432.734	94.75
432.956	91.75
433.178	99.75
433.4	100.75
433.622	100.75
433.844	101.75
434.066	103.75
434.287	95.75
434.509	112.75
434.731	92.75
434.953	94.75
435.175	84.75
435.397	80.75
435.618	116.75
435.84	92.75
436.062	117.75
436.284	95.75
436.505	100.75
436.727	83.75
436.949	86.75
437.17	87.75
437.392	82.75
437.614	91.75
437.835	100.75
438.057	115.75
438.278	101.75
438.5	108.75
438.721	127.75
438.943	107.75
439.165	89.75
439.386	97.75
439.608	94.75
439.829	74.75
440.05	101.75
440.272	134.75
440.493	103.75
440.715	80.75
440.936	98.75
441.158	93.75
441.379	76.75
441.6	88.75
441.822	95.75
442.043	89.75
442.264	99.75
442.486	92.75
442.707	94.75
442.928	98.75
443.149	110.75
443.371	113.75
443.592	90.75
443.813	114.75
444.034	109.75
444.255	83.75
444.476	88.75
444.698	89.75
444.919	84.75
445.14	136.75
445.361	109.75
445.582	104.75
445.803	116.75
446.024	136.75
446.245	118.75
446.466	121.75
446.687	82.75
446.908	84.75
447.129	94.75
447.35	88.75
447.571	87.75
447.792	94.75
448.013	95.75
448.234	90.75
448.455	92.75
448.675	112.75
448.896	112.75
449.117	94.75
449.338	99.75
449.559	117.75
449.779	125.75
450	95.75
450.221	89.75
450.442	100.75
450.662	75.75
450.883	94.75
451.104	104.75
451.324	75.75
451.545	96.75
451.766	84.75
451.986	80.75
452.207	98.75
452.428	92.75
452.648	104.75
452.869	110.75
453.089	119.75
453.31	123.75
453.53	88.75
453.751	88.75
453.971	89.75
454.192	103.75
454.412	97.75
454.633	90.75
454.853	79.75
455.073	89.75
455.294	96.75
455.514	92.75
455.734	89.75
455.955	81.75
456.175	86.75
456.395	73.75
456.616	82.75
456.836	89.75
457.056	91.75
457.276	81.75
457.497	86.75
457.717	82.75
457.937	91.75
458.157	96.75
458.377	88.75
458.598	98.75
458.818	137.75
459.038	147.75
459.258	114.75
459.478	80.75
459.698	84.75
459.918	76.75
460.138	81.75
460.358	82.75
460.578	97.75
460.798	107.75
461.018	85.75
461.238	95.75
461.458	85.75
461.678	83.75
461.898	80.75
462.118	80.75
462.338	72.75
462.558	81.75
462.777	83.75
462.997	73.75
463.217	85.75
463.437	90.75
463.657	97.75
463.876	91.75
464.096	88.75
464.316	82.75
464.536	102.75
464.755	108.75
464.975	113.75
465.195	157.75
465.414	144.75
465.634	77.75
465.854	105.75
466.073	91.75
466.293	78.75
466.512	109.75
466.732	85.75
466.951	90.75
467.171	79.75
467.391	98.75
467.61	90.75
467.829	96.75
468.049	92.75
468.268	83.75
468.488	90.75
468.707	81.75
468.927	87.75
469.146	85.75
469.365	95.75
469.585	84.75
469.804	98.75
470.023	110.75
470.243	89.75
470.462	82.75
470.681	113.75
470.901	69.75
471.12	90.75
471.339	94.75
471.558	91.75
471.777	82.75
471.997	76.75
472.216	102.75
472.435	90.75
472.654	99.75
472.873	89.75
473.092	79.75
473.311	94.75
473.53	90.75
473.749	84.75
473.968	89.75
474.187	105.75
474.406	88.75
474.625	98.75
474.844	85.75
475.063	81.75
475.282	68.75
475.501	78.75
475.72	98.75
475.939	73.75
476.158	84.75
476.377	84.75
476.596	70.75
476.814	76.75
477.033	101.75
477.252	87.75
477.471	92.75
477.69	85.75
477.908	93.75
478.127	93.75
478.346	102.75
478.564	86.75
478.783	96.75
479.002	92.75
479.22	88.75
479.439	107.75
479.658	87.75
479.876	91.75
480.095	97.75
480.313	95.75
480.532	94.75
480.751	94.75
480.969	98.75
481.188	97.75
481.406	84.75
481.624	95.75
481.843	78.75
482.061	92.75
482.28	65.75
482.498	80.75
482.717	76.75
482.935	89.75
483.153	92.75
483.372	91.75
483.59	79.75
483.808	93.75
484.027	100.75
484.245	83.75
484.463	76.75
484.681	98.75
484.9	81.75
485.118	90.75
485.336	91.75
485.554	91.75
485.772	112.75
485.99	88.75
486.209	96.75
486.427	110.75
486.645	131.75
486.863	99.75
487.081	99.75
487.299	93.75
487.517	104.75
487.735	99.75
487.953	113.75
488.171	87.75
488.389	97.75
488.607	94.75
488.825	86.75
489.043	87.75
489.261	80.75
489.479	94.75
489.696	100.75
489.914	85.75
490.132	92.75
490.35	96.75
490.568	103.75
490.786	100.75
491.003	93.75
491.221	94.75
491.439	99.75
491.657	96.75
491.874	95.75
492.092	106.75
492.31	89.75
492.527	80.75
492.745	85.75
492.963	94.75
493.18	86.75
493.398	89.75
493.615	100.75
493.833	98.75
494.05	81.75
494.268	82.75
494.485	78.75
494.703	93.75
494.92	86.75
495.138	86.75
495.355	96.75
495.573	92.75
495.79	86.75
496.008	95.75
496.225	94.75
496.442	96.75
496.66	93.75
496.877	94.75
497.094	92.75
497.312	77.75
497.529	65.75
497.746	86.75
497.963	89.75
498.181	97.75
498.398	91.75
498.615	93.75
498.832	95.75
499.049	91.75
499.267	95.75
499.484	94.75
499.701	86.75
499.918	85.75
500.135	84.75
500.352	90.75
500.569	78.75
500.786	88.75
501.003	100.75
501.22	98.75
501.437	83.75
501.654	76.75
501.871	100.75
502.088	96.75
502.305	101.75
502.522	88.75
502.739	88.75
502.956	94.75
503.172	94.75
503.389	86.75
503.606	102.75
503.823	102.75
504.04	90.75
504.256	97.75
504.473	91.75
504.69	94.75
504.907	91.75
505.123	96.75
505.34	91.75
505.557	101.75
505.773	85.75
505.99	76.75
506.207	88.75
506.423	89.75
506.64	83.75
506.856	86.75
507.073	76.75
507.289	93.75
507.506	107.75
507.722	114.75
507.939	101.75
508.155	91.75
508.372	106.75
508.588	100.75
508.805	91.75
509.021	91.75
509.238	103.75
509.454	110.75
509.67	94.75
509.887	107.75
510.103	144.75
510.319	206.75
510.536	759.75
510.752	2282.75
510.968	634.75
511.184	152.75
511.401	111.75
511.617	99.75
511.833	101.75
512.049	90.75
512.265	94.75
512.481	89.75
512.698	98.75
512.914	93.75
513.13	90.75
513.346	97.75
513.562	112.75
513.778	92.75
513.994	86.75
514.21	87.75
514.426	99.75
514.642	130.75
514.858	124.75
515.074	158.75
515.29	458.75
515.506	1421.75
515.721	495.75
515.937	145.75
516.153	111.75
