Data from Uncirc_1993_H10_HRD10591_00049.txt Node
Date: Wed Jan 03 11:43:02 EST 2024
User: Yrep
Spectrometer: HR+D1059
Trigger mode: 1
Integration Time (sec): 1.000000E-1
Scans to average: 1
Electric dark correction enabled: true
Nonlinearity correction enabled: false
Boxcar width: 0
XAxis mode: Wavelengths
Number of Pixels in Spectrum: 2048
>>>>>Begin Spectral Data<<<<<
223.165	-23
223.4	-23
223.635	-23
223.869	-10
224.104	-24
224.338	-17
224.573	-29
224.808	-3
225.042	-3
225.277	-18
225.511	3
225.746	6
225.98	0
226.215	22
226.449	21
226.683	26
226.918	21
227.152	28
227.387	40
227.621	34
227.856	47
228.09	56
228.324	48
228.559	53
228.793	53
229.027	46
229.262	72
229.496	68
229.73	86
229.964	77
230.199	81
230.433	70
230.667	82
230.901	65
231.136	77
231.37	76
231.604	74
231.838	77
232.072	73
232.306	81
232.541	77
232.775	82
233.009	72
233.243	83
233.477	79
233.711	85
233.945	80
234.179	74
234.413	85
234.647	80
234.881	76
235.115	93
235.349	83
235.583	74
235.817	84
236.051	64
236.285	84
236.519	80
236.753	89
236.987	80
237.221	74
237.455	76
237.689	70
237.922	83
238.156	69
238.39	75
238.624	74
238.858	60
239.091	67
239.325	79
239.559	77
239.793	64
240.027	74
240.26	85
240.494	78
240.728	90
240.961	76
241.195	76
241.429	81
241.662	70
241.896	63
242.13	77
242.363	61
242.597	76
242.83	78
243.064	86
243.298	89
243.531	76
243.765	88
243.998	80
244.232	87
244.465	77
244.699	72
244.932	65
245.166	82
245.399	95
245.633	74
245.866	68
246.099	76
246.333	84
246.566	87
246.8	77
247.033	75
247.266	81
247.5	78
247.733	92
247.966	80
248.2	87
248.433	82
248.666	90
248.899	80
249.133	85
249.366	85
249.599	77
249.832	83
250.066	81
250.299	68
250.532	73
250.765	63
250.998	83
251.231	85
251.465	86
251.698	81
251.931	68
252.164	74
252.397	79
252.63	98
252.863	81
253.096	75
253.329	78
253.562	64
253.795	82
254.028	82
254.261	74
254.494	67
254.727	83
254.96	84
255.193	80
255.426	76
255.659	65
255.892	85
256.124	90
256.357	73
256.59	86
256.823	91
257.056	84
257.289	82
257.521	82
257.754	73
257.987	84
258.22	93
258.452	99
258.685	84
258.918	78
259.151	70
259.383	87
259.616	80
259.849	73
260.081	92
260.314	88
260.547	66
260.779	78
261.012	85
261.244	84
261.477	95
261.71	76
261.942	101
262.175	99
262.407	79
262.64	83
262.872	82
263.105	65
263.337	99
263.57	103
263.802	100
264.035	92
264.267	76
264.499	104
264.732	84
264.964	76
265.197	74
265.429	81
265.661	87
265.894	80
266.126	78
266.358	92
266.591	81
266.823	88
267.055	84
267.287	65
267.52	90
267.752	76
267.984	88
268.216	78
268.448	84
268.681	59
268.913	78
269.145	81
269.377	84
269.609	93
269.841	92
270.073	82
270.306	92
270.538	88
270.77	66
271.002	93
271.234	74
271.466	76
271.698	90
271.93	80
272.162	81
272.394	85
272.626	78
272.858	93
273.09	88
273.322	93
273.553	80
273.785	92
274.017	77
274.249	85
274.481	89
274.713	84
274.945	82
275.176	88
275.408	76
275.64	82
275.872	80
276.104	82
276.335	92
276.567	97
276.799	112
277.031	88
277.262	96
277.494	88
277.726	83
277.957	82
278.189	77
278.421	98
278.652	85
278.884	84
279.115	87
279.347	76
279.579	83
279.81	76
280.042	84
280.273	92
280.505	81
280.736	91
280.968	87
281.199	94
281.431	83
281.662	106
281.894	93
282.125	89
282.356	105
282.588	132
282.819	115
283.051	92
283.282	80
283.513	78
283.745	74
283.976	84
284.207	88
284.439	84
284.67	92
284.901	83
285.132	74
285.364	85
285.595	83
285.826	85
286.057	89
286.288	81
286.52	89
286.751	84
286.982	79
287.213	84
287.444	80
287.675	86
287.906	89
288.138	95
288.369	86
288.6	99
288.831	98
289.062	91
289.293	81
289.524	92
289.755	87
289.986	84
290.217	90
290.448	87
290.679	94
290.91	98
291.141	87
291.371	85
291.602	85
291.833	85
292.064	85
292.295	83
292.526	87
292.757	69
292.987	88
293.218	90
293.449	77
293.68	78
293.91	88
294.141	82
294.372	97
294.603	93
294.833	86
295.064	77
295.295	80
295.525	93
295.756	108
295.987	98
296.217	116
296.448	124
296.679	83
296.909	83
297.14	108
297.37	92
297.601	86
297.831	84
298.062	81
298.292	82
298.523	84
298.753	82
298.984	80
299.214	85
299.445	98
299.675	88
299.905	96
300.136	93
300.366	82
300.597	92
300.827	86
301.057	70
301.288	92
301.518	86
301.748	79
301.979	106
302.209	100
302.439	87
302.669	100
302.9	86
303.13	96
303.36	74
303.59	100
303.82	105
304.051	81
304.281	101
304.511	89
304.741	82
304.971	92
305.201	90
305.431	88
305.661	80
305.891	85
306.121	97
306.352	99
306.582	89
306.812	88
307.042	75
307.272	84
307.502	98
307.731	89
307.961	92
308.191	89
308.421	83
308.651	93
308.881	94
309.111	93
309.341	91
309.571	108
309.8	90
310.03	108
310.26	86
310.49	98
310.72	82
310.949	91
311.179	91
311.409	89
311.639	85
311.868	85
312.098	93
312.328	89
312.557	94
312.787	101
313.017	101
313.246	108
313.476	86
313.706	90
313.935	89
314.165	102
314.394	101
314.624	94
314.853	90
315.083	78
315.312	86
315.542	88
315.771	87
316.001	86
316.23	93
316.46	89
316.689	93
316.919	89
317.148	95
317.377	84
317.607	93
317.836	90
318.065	74
318.295	93
318.524	73
318.753	94
318.983	90
319.212	86
319.441	104
319.67	101
319.9	107
320.129	98
320.358	98
320.587	86
320.816	100
321.046	89
321.275	94
321.504	103
321.733	103
321.962	86
322.191	94
322.42	98
322.649	113
322.878	112
323.108	98
323.337	112
323.566	115
323.795	142
324.024	187
324.253	320
324.482	688
324.71	1380
324.939	1765
325.168	642
325.397	192
325.626	128
325.855	134
326.084	117
326.313	105
326.542	127
326.77	204
326.999	383
327.228	784
327.457	1369
327.686	1087
327.914	294
328.143	173
328.372	125
328.6	116
328.829	106
329.058	102
329.287	130
329.515	94
329.744	108
329.972	98
330.201	109
330.43	116
330.658	124
330.887	120
331.115	112
331.344	91
331.572	99
331.801	84
332.03	100
332.258	83
332.486	91
332.715	81
332.943	100
333.172	81
333.4	102
333.629	102
333.857	116
334.085	100
334.314	100
334.542	105
334.771	98
334.999	98
335.227	82
335.455	94
335.684	97
335.912	85
336.14	101
336.369	99
336.597	95
336.825	109
337.053	97
337.281	86
337.51	92
337.738	91
337.966	78
338.194	90
338.422	89
338.65	78
338.878	79
339.106	83
339.334	86
339.562	88
339.79	76
340.018	72
340.246	85
340.474	93
340.702	93
340.93	94
341.158	100
341.386	93
341.614	96
341.842	95
342.07	90
342.298	96
342.526	97
342.754	92
342.981	107
343.209	96
343.437	92
343.665	81
343.893	89
344.12	94
344.348	104
344.576	95
344.804	81
345.031	92
345.259	92
345.487	82
345.714	96
345.942	86
346.17	91
346.397	92
346.625	84
346.853	86
347.08	88
347.308	95
347.535	99
347.763	95
347.99	91
348.218	101
348.445	97
348.673	91
348.9	97
349.128	106
349.355	84
349.583	95
349.81	89
350.037	101
350.265	95
350.492	82
350.72	87
350.947	90
351.174	92
351.402	108
351.629	108
351.856	127
352.083	99
352.311	97
352.538	102
352.765	101
352.992	113
353.22	115
353.447	109
353.674	93
353.901	88
354.128	92
354.355	105
354.583	99
354.81	90
355.037	99
355.264	89
355.491	80
355.718	100
355.945	99
356.172	113
356.399	112
356.626	83
356.853	91
357.08	95
357.307	87
357.534	98
357.761	102
357.988	102
358.215	101
358.441	96
358.668	78
358.895	106
359.122	91
359.349	85
359.576	88
359.802	100
360.029	89
360.256	91
360.483	98
360.709	90
360.936	78
361.163	83
361.39	81
361.616	91
361.843	92
362.07	96
362.296	92
362.523	91
362.749	94
362.976	85
363.203	89
363.429	92
363.656	80
363.882	90
364.109	84
364.335	76
364.562	104
364.788	92
365.015	77
365.241	106
365.468	114
365.694	98
365.92	101
366.147	90
366.373	97
366.599	85
366.826	91
367.052	86
367.278	89
367.505	84
367.731	93
367.957	76
368.184	89
368.41	102
368.636	107
368.862	113
369.089	101
369.315	93
369.541	86
369.767	91
369.993	86
370.219	87
370.445	75
370.672	94
370.898	88
371.124	103
371.35	93
371.576	88
371.802	106
372.028	93
372.254	84
372.48	85
372.706	87
372.932	81
373.158	91
373.384	89
373.61	91
373.835	92
374.061	86
374.287	76
374.513	94
374.739	79
374.965	93
375.191	90
375.416	91
375.642	91
375.868	89
376.094	98
376.319	90
376.545	89
376.771	90
376.997	93
377.222	101
377.448	102
377.674	102
377.899	91
378.125	99
378.35	100
378.576	90
378.802	89
379.027	86
379.253	91
379.478	93
379.704	95
379.929	85
380.155	85
380.38	92
380.606	98
380.831	93
381.057	103
381.282	99
381.507	102
381.733	85
381.958	87
382.184	104
382.409	84
382.634	92
382.86	92
383.085	91
383.31	99
383.535	102
383.761	96
383.986	106
384.211	89
384.436	92
384.662	99
384.887	98
385.112	102
385.337	113
385.562	101
385.787	100
386.013	95
386.238	110
386.463	117
386.688	92
386.913	104
387.138	97
387.363	109
387.588	92
387.813	88
388.038	105
388.263	98
388.488	92
388.713	99
388.938	88
389.163	104
389.387	106
389.612	100
389.837	102
390.062	94
390.287	93
390.512	98
390.736	92
390.961	86
391.186	92
391.411	88
391.636	89
391.86	98
392.085	97
392.31	64
392.534	86
392.759	85
392.984	93
393.208	89
393.433	84
393.658	80
393.882	97
394.107	84
394.331	94
394.556	82
394.78	78
395.005	106
395.229	85
395.454	92
395.678	86
395.903	81
396.127	84
396.352	72
396.576	78
396.801	83
397.025	83
397.249	85
397.474	88
397.698	80
397.922	88
398.147	92
398.371	90
398.595	96
398.82	87
399.044	87
399.268	89
399.492	93
399.717	94
399.941	96
400.165	87
400.389	77
400.613	84
400.837	91
401.062	92
401.286	88
401.51	97
401.734	94
401.958	90
402.182	127
402.406	141
402.63	102
402.854	105
403.078	94
403.302	92
403.526	83
403.75	80
403.974	91
404.198	85
404.422	86
404.645	83
404.869	88
405.093	86
405.317	102
405.541	112
405.765	107
405.988	109
406.212	174
406.436	211
406.66	132
406.883	92
407.107	93
407.331	89
407.555	98
407.778	93
408.002	91
408.226	92
408.449	97
408.673	96
408.896	90
409.12	97
409.344	75
409.567	89
409.791	89
410.014	91
410.238	92
410.461	91
410.685	92
410.908	94
411.132	103
411.355	102
411.578	83
411.802	77
412.025	85
412.249	90
412.472	102
412.695	99
412.919	85
413.142	92
413.365	99
413.589	88
413.812	93
414.035	98
414.258	78
414.482	98
414.705	87
414.928	92
415.151	95
415.374	107
415.597	77
415.821	75
416.044	97
416.267	72
416.49	88
416.713	92
416.936	80
417.159	75
417.382	92
417.605	75
417.828	82
418.051	92
418.274	90
418.497	73
418.72	73
418.943	84
419.166	100
419.389	84
419.611	91
419.834	100
420.057	102
420.28	79
420.503	90
420.726	86
420.948	105
421.171	83
421.394	92
421.617	79
421.839	82
422.062	87
422.285	92
422.507	99
422.73	91
422.953	80
423.175	99
423.398	74
423.621	100
423.843	84
424.066	90
424.288	87
424.511	94
424.733	96
424.956	90
425.178	88
425.401	102
425.623	96
425.846	89
426.068	86
426.291	95
426.513	96
426.735	93
426.958	86
427.18	105
427.402	123
427.625	151
427.847	103
428.069	113
428.292	94
428.514	88
428.736	76
428.958	80
429.181	72
429.403	82
429.625	100
429.847	86
430.069	73
430.292	92
430.514	93
430.736	80
430.958	86
431.18	97
431.402	91
431.624	89
431.846	86
432.068	93
432.29	91
432.512	92
432.734	83
432.956	92
433.178	92
433.4	80
433.622	94
433.844	84
434.066	80
434.287	105
434.509	88
434.731	89
434.953	87
435.175	89
435.397	93
435.618	99
435.84	100
436.062	110
436.284	99
436.505	85
436.727	104
436.949	101
437.17	80
437.392	89
437.614	99
437.835	99
438.057	116
438.278	99
438.5	87
438.721	114
438.943	107
439.165	91
439.386	84
439.608	89
439.829	87
440.05	105
440.272	138
440.493	105
440.715	91
440.936	92
441.158	92
441.379	82
441.6	100
441.822	77
442.043	94
442.264	97
442.486	92
442.707	90
442.928	97
443.149	113
443.371	133
443.592	102
443.813	98
444.034	79
444.255	87
444.476	84
444.698	95
444.919	99
445.14	134
445.361	124
445.582	106
445.803	123
446.024	127
446.245	119
446.466	102
446.687	80
446.908	91
447.129	100
447.35	99
447.571	91
447.792	82
448.013	84
448.234	93
448.455	93
448.675	126
448.896	121
449.117	102
449.338	94
449.559	124
449.779	127
450	87
450.221	86
450.442	85
450.662	102
450.883	107
451.104	100
451.324	84
451.545	87
451.766	101
451.986	82
452.207	86
452.428	98
452.648	98
452.869	98
453.089	101
453.31	104
453.53	87
453.751	101
453.971	104
454.192	101
454.412	84
454.633	84
454.853	79
455.073	82
455.294	83
455.514	98
455.734	105
455.955	81
456.175	72
456.395	82
456.616	86
456.836	81
457.056	85
457.276	85
457.497	87
457.717	101
457.937	90
458.157	97
458.377	91
458.598	111
458.818	134
459.038	138
459.258	102
459.478	92
459.698	96
459.918	84
460.138	93
460.358	83
460.578	93
460.798	78
461.018	85
461.238	86
461.458	83
461.678	81
461.898	88
462.118	82
462.338	85
462.558	81
462.777	89
462.997	74
463.217	90
463.437	93
463.657	80
463.876	80
464.096	99
464.316	93
464.536	93
464.755	92
464.975	100
465.195	145
465.414	141
465.634	90
465.854	98
466.073	95
466.293	93
466.512	86
466.732	93
466.951	91
467.171	94
467.391	106
467.61	93
467.829	89
468.049	85
468.268	81
468.488	97
468.707	75
468.927	86
469.146	90
469.365	92
469.585	77
469.804	97
470.023	82
470.243	93
470.462	97
470.681	101
470.901	85
471.12	95
471.339	95
471.558	97
471.777	98
471.997	95
472.216	79
472.435	92
472.654	81
472.873	77
473.092	79
473.311	88
473.53	81
473.749	84
473.968	93
474.187	99
474.406	88
474.625	82
474.844	92
475.063	78
475.282	70
475.501	92
475.72	94
475.939	103
476.158	76
476.377	89
476.596	93
476.814	72
477.033	84
477.252	81
477.471	87
477.69	73
477.908	102
478.127	91
478.346	85
478.564	86
478.783	105
479.002	95
479.22	86
479.439	94
479.658	101
479.876	109
480.095	98
480.313	90
480.532	82
480.751	86
480.969	90
481.188	101
481.406	112
481.624	97
481.843	94
482.061	107
482.28	85
482.498	90
482.717	84
482.935	91
483.153	86
483.372	93
483.59	96
483.808	101
484.027	88
484.245	89
484.463	88
484.681	88
484.9	103
485.118	98
485.336	94
485.554	100
485.772	92
485.99	97
486.209	98
486.427	102
486.645	104
486.863	102
487.081	102
487.299	85
487.517	102
487.735	88
487.953	96
488.171	92
488.389	88
488.607	107
488.825	93
489.043	95
489.261	86
489.479	78
489.696	100
489.914	92
490.132	92
490.35	100
490.568	82
490.786	76
491.003	95
491.221	92
491.439	95
491.657	83
491.874	94
492.092	101
492.31	106
492.527	94
492.745	96
492.963	81
493.18	96
493.398	80
493.615	109
493.833	92
494.05	66
494.268	82
494.485	90
494.703	89
494.92	89
495.138	93
495.355	93
495.573	83
495.79	89
496.008	89
496.225	96
496.442	88
496.66	94
496.877	91
497.094	94
497.312	92
497.529	93
497.746	93
497.963	88
498.181	92
498.398	113
498.615	109
498.832	97
499.049	95
499.267	92
499.484	82
499.701	92
499.918	100
500.135	90
500.352	91
500.569	108
500.786	84
501.003	94
501.22	109
501.437	97
501.654	87
501.871	108
502.088	90
502.305	111
502.522	104
502.739	84
502.956	93
503.172	92
503.389	101
503.606	100
503.823	101
504.04	95
504.256	109
504.473	100
504.69	89
504.907	96
505.123	82
505.34	90
505.557	92
505.773	93
505.99	91
506.207	79
506.423	85
506.64	86
506.856	80
507.073	101
507.289	78
507.506	96
507.722	112
507.939	92
508.155	105
508.372	96
508.588	83
508.805	99
509.021	88
509.238	98
509.454	100
509.67	108
509.887	115
510.103	130
510.319	197
510.536	719
510.752	2065
510.968	591
511.184	152
511.401	100
511.617	103
511.833	84
512.049	109
512.265	87
512.481	99
512.698	97
512.914	94
513.13	98
513.346	92
513.562	85
513.778	101
513.994	91
514.21	97
514.426	113
514.642	126
514.858	112
515.074	141
515.29	375
515.506	1260
515.721	455
515.937	150
516.153	111
516.369	105
516.585	78
516.801	104
517.016	108
517.232	88
517.448	101
517.664	91
517.879	89
518.095	78
518.311	106
518.527	104
518.742	107
518.958	93
519.173	84
519.389	86
519.605	101
519.82	99
520.036	109
520.251	119
520.467	111
520.682	100
520.898	106
521.113	126
521.329	135
521.544	188
521.76	486
521.975	2064
522.19	1219
522.406	272
522.621	121
522.836	100
523.052	97
523.267	97
523.482	101
523.698	93
523.913	106
524.128	108
524.343	91
524.559	92
524.774	99
524.989	109
525.204	106
525.419	121
525.634	102
525.849	98
526.064	94
526.28	85
526.495	89
526.71	95
526.925	91
527.14	91
527.355	85
527.57	89
527.785	80
527.999	101
528.214	98
528.429	94
528.644	88
528.859	83
529.074	96
529.289	116
529.503	141
529.718	95
529.933	94
530.148	89
530.363	97
530.577	93
530.792	75
531.007	70
531.221	92
531.436	89
531.651	111
531.865	90
532.08	105
532.295	100
532.509	94
532.724	84
532.938	106
533.153	91
533.367	98
533.582	95
533.796	98
534.011	90
534.225	92
534.44	105
534.654	101
534.868	98
535.083	104
535.297	93
535.511	113
535.726	94
535.94	90
536.154	82
536.369	85
536.583	88
536.797	69
537.011	80
537.225	84
537.44	96
537.654	104
537.868	91
538.082	95
538.296	94
538.51	103
538.724	78
538.938	96
539.153	92
539.367	92
539.581	108
539.795	101
540.009	86
540.222	99
540.436	98
540.65	93
540.864	81
541.078	100
541.292	92
541.506	95
541.72	93
541.934	86
542.147	59
542.361	81
542.575	92
542.789	84
543.002	93
543.216	105
543.43	81
543.644	102
543.857	100
544.071	88
544.285	91
544.498	88
544.712	86
544.925	96
545.139	89
545.352	85
545.566	114
545.779	87
545.993	96
546.206	92
546.42	97
546.633	88
546.847	103
547.06	99
547.274	78
547.487	106
547.7	82
547.914	80
548.127	102
548.34	91
548.554	89
548.767	96
548.98	79
549.193	94
549.407	90
549.62	98
549.833	93
550.046	92
550.259	80
550.473	95
550.686	85
550.899	90
551.112	91
551.325	93
551.538	84
551.751	97
551.964	79
552.177	90
552.39	101
552.603	71
552.816	99
553.029	92
553.242	93
553.455	98
553.667	84
553.88	89
554.093	72
554.306	92
554.519	91
554.732	91
554.944	95
555.157	104
555.37	97
555.583	97
555.795	94
556.008	94
556.221	83
556.433	89
556.646	96
556.859	101
557.071	91
557.284	92
557.496	111
557.709	85
557.921	93
558.134	105
558.346	99
558.559	80
558.771	100
558.984	74
559.196	94
559.409	90
559.621	94
559.833	102
560.046	90
560.258	92
560.47	95
560.683	93
560.895	89
561.107	96
561.32	87
561.532	89
561.744	90
561.956	97
562.168	87
562.381	97
562.593	100
562.805	86
563.017	100
563.229	89
563.441	92
563.653	86
563.865	77
564.077	86
564.289	95
564.501	94
564.713	98
564.925	94
565.137	98
565.349	95
565.561	94
565.773	96
565.985	90
566.197	92
566.408	78
566.62	81
566.832	82
567.044	100
567.255	73
567.467	88
567.679	85
567.891	96
568.102	98
568.314	98
568.526	100
568.737	91
568.949	95
569.161	80
569.372	84
569.584	78
569.795	89
570.007	126
570.218	221
570.43	127
570.641	88
570.853	96
571.064	88
571.276	93
571.487	84
571.698	90
571.91	79
572.121	82
572.333	86
572.544	109
572.755	89
572.966	88
573.178	90
573.389	85
573.6	96
573.811	69
574.023	90
574.234	83
574.445	104
574.656	86
574.867	94
575.078	88
575.289	108
575.501	88
575.712	92
575.923	91
576.134	87
576.345	74
576.556	107
576.767	97
576.978	95
577.188	96
577.399	101
577.61	89
577.821	102
578.032	112
578.243	261
578.454	693
578.665	198
578.875	106
579.086	101
579.297	83
579.508	90
579.718	96
579.929	88
580.14	82
580.35	80
580.561	94
580.772	86
580.982	93
581.193	76
581.403	75
581.614	92
581.825	94
582.035	80
582.246	92
582.456	90
582.667	85
582.877	89
583.087	85
583.298	84
583.508	85
583.719	99
583.929	100
584.139	80
584.35	88
584.56	84
584.77	78
