Data from Uncirc_1993_H10_HRD10591_00043.txt Node
Date: Wed Jan 03 11:43:00 EST 2024
User: Yrep
Spectrometer: HR+D1059
Trigger mode: 1
Integration Time (sec): 1.000000E-1
Scans to average: 1
Electric dark correction enabled: true
Nonlinearity correction enabled: false
Boxcar width: 0
XAxis mode: Wavelengths
Number of Pixels in Spectrum: 2048
>>>>>Begin Spectral Data<<<<<
223.165	-18.62
223.4	-18.62
223.635	-18.62
223.869	-16.62
224.104	-21.62
224.338	-1.62
224.573	-4.62
224.808	-10.62
225.042	-24.62
225.277	-14.62
225.511	2.38
225.746	-1.62
225.98	14.38
226.215	2.38
226.449	29.38
226.683	24.38
226.918	25.38
227.152	16.38
227.387	31.38
227.621	40.38
227.856	51.38
228.09	43.38
228.324	47.38
228.559	62.38
228.793	37.38
229.027	67.38
229.262	59.38
229.496	68.38
229.73	73.38
229.964	72.38
230.199	65.38
230.433	72.38
230.667	89.38
230.901	65.38
231.136	65.38
231.37	86.38
231.604	80.38
231.838	85.38
232.072	88.38
232.306	83.38
232.541	78.38
232.775	78.38
233.009	79.38
233.243	73.38
233.477	63.38
233.711	77.38
233.945	78.38
234.179	89.38
234.413	86.38
234.647	66.38
234.881	79.38
235.115	66.38
235.349	73.38
235.583	76.38
235.817	81.38
236.051	71.38
236.285	84.38
236.519	73.38
236.753	79.38
236.987	79.38
237.221	78.38
237.455	76.38
237.689	75.38
237.922	73.38
238.156	76.38
238.39	69.38
238.624	66.38
238.858	88.38
239.091	71.38
239.325	54.38
239.559	73.38
239.793	65.38
240.027	70.38
240.26	73.38
240.494	90.38
240.728	71.38
240.961	75.38
241.195	69.38
241.429	57.38
241.662	77.38
241.896	80.38
242.13	82.38
242.363	72.38
242.597	79.38
242.83	87.38
243.064	79.38
243.298	79.38
243.531	64.38
243.765	69.38
243.998	82.38
244.232	80.38
244.465	78.38
244.699	71.38
244.932	66.38
245.166	82.38
245.399	73.38
245.633	54.38
245.866	83.38
246.099	69.38
246.333	81.38
246.566	58.38
246.8	85.38
247.033	77.38
247.266	81.38
247.5	70.38
247.733	73.38
247.966	83.38
248.2	77.38
248.433	73.38
248.666	70.38
248.899	75.38
249.133	82.38
249.366	89.38
249.599	79.38
249.832	81.38
250.066	78.38
250.299	78.38
250.532	83.38
250.765	71.38
250.998	82.38
251.231	82.38
251.465	83.38
251.698	67.38
251.931	74.38
252.164	93.38
252.397	81.38
252.63	70.38
252.863	80.38
253.096	81.38
253.329	69.38
253.562	64.38
253.795	75.38
254.028	73.38
254.261	82.38
254.494	93.38
254.727	70.38
254.96	75.38
255.193	80.38
255.426	80.38
255.659	78.38
255.892	80.38
256.124	80.38
256.357	75.38
256.59	80.38
256.823	78.38
257.056	79.38
257.289	93.38
257.521	61.38
257.754	57.38
257.987	75.38
258.22	82.38
258.452	67.38
258.685	62.38
258.918	85.38
259.151	72.38
259.383	78.38
259.616	88.38
259.849	64.38
260.081	86.38
260.314	82.38
260.547	70.38
260.779	84.38
261.012	74.38
261.244	85.38
261.477	82.38
261.71	88.38
261.942	108.38
262.175	107.38
262.407	74.38
262.64	75.38
262.872	76.38
263.105	73.38
263.337	81.38
263.57	79.38
263.802	72.38
264.035	85.38
264.267	77.38
264.499	68.38
264.732	85.38
264.964	96.38
265.197	84.38
265.429	88.38
265.661	80.38
265.894	91.38
266.126	93.38
266.358	75.38
266.591	71.38
266.823	78.38
267.055	70.38
267.287	90.38
267.52	78.38
267.752	80.38
267.984	81.38
268.216	79.38
268.448	78.38
268.681	86.38
268.913	87.38
269.145	89.38
269.377	93.38
269.609	85.38
269.841	91.38
270.073	69.38
270.306	73.38
270.538	79.38
270.77	85.38
271.002	86.38
271.234	79.38
271.466	90.38
271.698	80.38
271.93	91.38
272.162	79.38
272.394	86.38
272.626	92.38
272.858	87.38
273.09	79.38
273.322	88.38
273.553	82.38
273.785	83.38
274.017	83.38
274.249	89.38
274.481	85.38
274.713	78.38
274.945	78.38
275.176	83.38
275.408	75.38
275.64	77.38
275.872	85.38
276.104	84.38
276.335	82.38
276.567	94.38
276.799	94.38
277.031	103.38
277.262	93.38
277.494	90.38
277.726	77.38
277.957	73.38
278.189	74.38
278.421	83.38
278.652	91.38
278.884	82.38
279.115	101.38
279.347	79.38
279.579	85.38
279.81	89.38
280.042	92.38
280.273	78.38
280.505	79.38
280.736	83.38
280.968	91.38
281.199	109.38
281.431	77.38
281.662	82.38
281.894	94.38
282.125	91.38
282.356	125.38
282.588	128.38
282.819	107.38
283.051	74.38
283.282	85.38
283.513	86.38
283.745	78.38
283.976	86.38
284.207	76.38
284.439	86.38
284.67	85.38
284.901	95.38
285.132	80.38
285.364	87.38
285.595	93.38
285.826	82.38
286.057	94.38
286.288	85.38
286.52	92.38
286.751	87.38
286.982	89.38
287.213	89.38
287.444	82.38
287.675	100.38
287.906	90.38
288.138	96.38
288.369	99.38
288.6	94.38
288.831	84.38
289.062	75.38
289.293	63.38
289.524	88.38
289.755	86.38
289.986	95.38
290.217	88.38
290.448	78.38
290.679	78.38
290.91	77.38
291.141	87.38
291.371	91.38
291.602	81.38
291.833	93.38
292.064	91.38
292.295	85.38
292.526	97.38
292.757	81.38
292.987	80.38
293.218	81.38
293.449	91.38
293.68	83.38
293.91	78.38
294.141	90.38
294.372	95.38
294.603	71.38
294.833	93.38
295.064	88.38
295.295	87.38
295.525	83.38
295.756	94.38
295.987	107.38
296.217	130.38
296.448	109.38
296.679	93.38
296.909	103.38
297.14	89.38
297.37	76.38
297.601	83.38
297.831	92.38
298.062	82.38
298.292	94.38
298.523	81.38
298.753	88.38
298.984	77.38
299.214	90.38
299.445	90.38
299.675	89.38
299.905	80.38
300.136	101.38
300.366	94.38
300.597	86.38
300.827	90.38
301.057	94.38
301.288	99.38
301.518	96.38
301.748	88.38
301.979	109.38
302.209	77.38
302.439	97.38
302.669	85.38
302.9	81.38
303.13	109.38
303.36	91.38
303.59	99.38
303.82	117.38
304.051	92.38
304.281	75.38
304.511	77.38
304.741	99.38
304.971	92.38
305.201	75.38
305.431	81.38
305.661	84.38
305.891	81.38
306.121	86.38
306.352	87.38
306.582	96.38
306.812	114.38
307.042	96.38
307.272	96.38
307.502	93.38
307.731	76.38
307.961	96.38
308.191	97.38
308.421	89.38
308.651	79.38
308.881	87.38
309.111	90.38
309.341	107.38
309.571	94.38
309.8	96.38
310.03	101.38
310.26	93.38
310.49	91.38
310.72	87.38
310.949	102.38
311.179	98.38
311.409	90.38
311.639	80.38
311.868	76.38
312.098	90.38
312.328	96.38
312.557	95.38
312.787	89.38
313.017	81.38
313.246	106.38
313.476	83.38
313.706	92.38
313.935	97.38
314.165	104.38
314.394	94.38
314.624	101.38
314.853	97.38
315.083	82.38
315.312	80.38
315.542	74.38
315.771	76.38
316.001	81.38
316.23	93.38
316.46	93.38
316.689	88.38
316.919	91.38
317.148	101.38
317.377	93.38
317.607	101.38
317.836	90.38
318.065	85.38
318.295	89.38
318.524	99.38
318.753	78.38
318.983	79.38
319.212	91.38
319.441	102.38
319.67	104.38
319.9	82.38
320.129	102.38
320.358	91.38
320.587	89.38
320.816	91.38
321.046	87.38
321.275	101.38
321.504	105.38
321.733	94.38
321.962	88.38
322.191	98.38
322.42	93.38
322.649	107.38
322.878	119.38
323.108	106.38
323.337	102.38
323.566	112.38
323.795	135.38
324.024	171.38
324.253	341.38
324.482	682.38
324.71	1335.38
324.939	1762.38
325.168	665.38
325.397	203.38
325.626	119.38
325.855	122.38
326.084	111.38
326.313	127.38
326.542	117.38
326.77	192.38
326.999	394.38
327.228	752.38
327.457	1357.38
327.686	1084.38
327.914	313.38
328.143	181.38
328.372	125.38
328.6	120.38
328.829	107.38
329.058	115.38
329.287	120.38
329.515	89.38
329.744	97.38
329.972	89.38
330.201	99.38
330.43	103.38
330.658	110.38
330.887	127.38
331.115	120.38
331.344	110.38
331.572	106.38
331.801	105.38
332.03	102.38
332.258	93.38
332.486	85.38
332.715	96.38
332.943	92.38
333.172	92.38
333.4	98.38
333.629	111.38
333.857	112.38
334.085	98.38
334.314	93.38
334.542	91.38
334.771	106.38
334.999	88.38
335.227	96.38
335.455	88.38
335.684	94.38
335.912	100.38
336.14	99.38
336.369	82.38
336.597	96.38
336.825	91.38
337.053	85.38
337.281	86.38
337.51	87.38
337.738	91.38
337.966	90.38
338.194	91.38
338.422	95.38
338.65	107.38
338.878	86.38
339.106	93.38
339.334	85.38
339.562	89.38
339.79	97.38
340.018	74.38
340.246	80.38
340.474	74.38
340.702	89.38
340.93	73.38
341.158	105.38
341.386	94.38
341.614	85.38
341.842	85.38
342.07	86.38
342.298	99.38
342.526	91.38
342.754	79.38
342.981	95.38
343.209	90.38
343.437	109.38
343.665	86.38
343.893	92.38
344.12	94.38
344.348	75.38
344.576	76.38
344.804	78.38
345.031	81.38
345.259	100.38
345.487	101.38
345.714	91.38
345.942	87.38
346.17	100.38
346.397	85.38
346.625	96.38
346.853	84.38
347.08	86.38
347.308	94.38
347.535	94.38
347.763	107.38
347.99	93.38
348.218	94.38
348.445	90.38
348.673	96.38
348.9	92.38
349.128	81.38
349.355	93.38
349.583	80.38
349.81	98.38
350.037	85.38
350.265	90.38
350.492	86.38
350.72	87.38
350.947	102.38
351.174	100.38
351.402	109.38
351.629	99.38
351.856	113.38
352.083	101.38
352.311	98.38
352.538	108.38
352.765	113.38
352.992	112.38
353.22	105.38
353.447	99.38
353.674	88.38
353.901	89.38
354.128	101.38
354.355	74.38
354.583	96.38
354.81	99.38
355.037	105.38
355.264	95.38
355.491	110.38
355.718	99.38
355.945	101.38
356.172	98.38
356.399	101.38
356.626	90.38
356.853	95.38
357.08	101.38
357.307	99.38
357.534	102.38
357.761	99.38
357.988	82.38
358.215	83.38
358.441	82.38
358.668	60.38
358.895	83.38
359.122	79.38
359.349	80.38
359.576	105.38
359.802	90.38
360.029	111.38
360.256	105.38
360.483	92.38
360.709	97.38
360.936	87.38
361.163	89.38
361.39	86.38
361.616	90.38
361.843	96.38
362.07	95.38
362.296	93.38
362.523	75.38
362.749	91.38
362.976	94.38
363.203	90.38
363.429	81.38
363.656	105.38
363.882	86.38
364.109	93.38
364.335	89.38
364.562	82.38
364.788	86.38
365.015	88.38
365.241	91.38
365.468	103.38
365.694	86.38
365.92	103.38
366.147	87.38
366.373	88.38
366.599	91.38
366.826	80.38
367.052	94.38
367.278	93.38
367.505	87.38
367.731	86.38
367.957	94.38
368.184	102.38
368.41	92.38
368.636	93.38
368.862	100.38
369.089	102.38
369.315	93.38
369.541	105.38
369.767	86.38
369.993	81.38
370.219	80.38
370.445	79.38
370.672	102.38
370.898	89.38
371.124	88.38
371.35	89.38
371.576	89.38
371.802	95.38
372.028	73.38
372.254	74.38
372.48	88.38
372.706	82.38
372.932	77.38
373.158	96.38
373.384	81.38
373.61	78.38
373.835	83.38
374.061	100.38
374.287	92.38
374.513	68.38
374.739	89.38
374.965	83.38
375.191	81.38
375.416	83.38
375.642	87.38
375.868	86.38
376.094	87.38
376.319	83.38
376.545	95.38
376.771	74.38
376.997	75.38
377.222	93.38
377.448	97.38
377.674	94.38
377.899	66.38
378.125	94.38
378.35	97.38
378.576	85.38
378.802	88.38
379.027	97.38
379.253	86.38
379.478	77.38
379.704	93.38
379.929	85.38
380.155	105.38
380.38	88.38
380.606	86.38
380.831	85.38
381.057	85.38
381.282	85.38
381.507	86.38
381.733	90.38
381.958	95.38
382.184	81.38
382.409	101.38
382.634	105.38
382.86	86.38
383.085	93.38
383.31	82.38
383.535	100.38
383.761	93.38
383.986	82.38
384.211	90.38
384.436	91.38
384.662	99.38
384.887	94.38
385.112	83.38
385.337	94.38
385.562	88.38
385.787	91.38
386.013	90.38
386.238	103.38
386.463	93.38
386.688	107.38
386.913	105.38
387.138	88.38
387.363	88.38
387.588	91.38
387.813	101.38
388.038	91.38
388.263	99.38
388.488	106.38
388.713	99.38
388.938	94.38
389.163	106.38
389.387	105.38
389.612	80.38
389.837	84.38
390.062	90.38
390.287	86.38
390.512	75.38
390.736	99.38
390.961	93.38
391.186	98.38
391.411	99.38
391.636	99.38
391.86	78.38
392.085	88.38
392.31	77.38
392.534	87.38
392.759	80.38
392.984	80.38
393.208	63.38
393.433	85.38
393.658	87.38
393.882	89.38
394.107	82.38
394.331	82.38
394.556	79.38
394.78	101.38
395.005	85.38
395.229	99.38
395.454	78.38
395.678	75.38
395.903	91.38
396.127	78.38
396.352	87.38
396.576	98.38
396.801	92.38
397.025	80.38
397.249	83.38
397.474	90.38
397.698	73.38
397.922	87.38
398.147	82.38
398.371	90.38
398.595	86.38
398.82	74.38
399.044	82.38
399.268	77.38
399.492	94.38
399.717	75.38
399.941	75.38
400.165	94.38
400.389	85.38
400.613	87.38
400.837	86.38
401.062	85.38
401.286	96.38
401.51	90.38
401.734	82.38
401.958	105.38
402.182	124.38
402.406	146.38
402.63	107.38
402.854	95.38
403.078	82.38
403.302	82.38
403.526	90.38
403.75	80.38
403.974	82.38
404.198	72.38
404.422	85.38
404.645	92.38
404.869	94.38
405.093	93.38
405.317	90.38
405.541	99.38
405.765	95.38
405.988	111.38
406.212	153.38
406.436	207.38
406.66	138.38
406.883	94.38
407.107	91.38
407.331	75.38
407.555	87.38
407.778	98.38
408.002	94.38
408.226	81.38
408.449	85.38
408.673	76.38
408.896	89.38
409.12	100.38
409.344	85.38
409.567	93.38
409.791	78.38
410.014	86.38
410.238	95.38
410.461	96.38
410.685	91.38
410.908	90.38
411.132	86.38
411.355	95.38
411.578	87.38
411.802	94.38
412.025	86.38
412.249	97.38
412.472	102.38
412.695	97.38
412.919	102.38
413.142	87.38
413.365	87.38
413.589	79.38
413.812	73.38
414.035	105.38
414.258	99.38
414.482	87.38
414.705	88.38
414.928	91.38
415.151	81.38
415.374	88.38
415.597	85.38
415.821	83.38
416.044	81.38
416.267	93.38
416.49	89.38
416.713	84.38
416.936	78.38
417.159	82.38
417.382	72.38
417.605	81.38
417.828	93.38
418.051	93.38
418.274	94.38
418.497	81.38
418.72	77.38
418.943	88.38
419.166	92.38
419.389	83.38
419.611	80.38
419.834	88.38
420.057	79.38
420.28	82.38
420.503	84.38
420.726	86.38
420.948	91.38
421.171	95.38
421.394	77.38
421.617	81.38
421.839	92.38
422.062	104.38
422.285	96.38
422.507	100.38
422.73	90.38
422.953	85.38
423.175	78.38
423.398	87.38
423.621	82.38
423.843	86.38
424.066	84.38
424.288	71.38
424.511	80.38
424.733	82.38
424.956	97.38
425.178	101.38
425.401	89.38
425.623	93.38
425.846	92.38
426.068	88.38
426.291	79.38
426.513	78.38
426.735	95.38
426.958	96.38
427.18	99.38
427.402	123.38
427.625	134.38
427.847	109.38
428.069	102.38
428.292	87.38
428.514	80.38
428.736	76.38
428.958	86.38
429.181	86.38
429.403	84.38
429.625	86.38
429.847	89.38
430.069	98.38
430.292	94.38
430.514	75.38
430.736	65.38
430.958	69.38
431.18	79.38
431.402	84.38
431.624	87.38
431.846	90.38
432.068	84.38
432.29	72.38
432.512	87.38
432.734	84.38
432.956	83.38
433.178	112.38
433.4	82.38
433.622	90.38
433.844	91.38
434.066	89.38
434.287	94.38
434.509	83.38
434.731	102.38
434.953	77.38
435.175	78.38
435.397	92.38
435.618	99.38
435.84	85.38
436.062	97.38
436.284	109.38
436.505	98.38
436.727	89.38
436.949	82.38
437.17	87.38
437.392	70.38
437.614	92.38
437.835	93.38
438.057	114.38
438.278	83.38
438.5	106.38
438.721	108.38
438.943	97.38
439.165	81.38
439.386	98.38
439.608	78.38
439.829	101.38
440.05	117.38
440.272	120.38
440.493	91.38
440.715	88.38
440.936	90.38
441.158	92.38
441.379	78.38
441.6	88.38
441.822	91.38
442.043	77.38
442.264	71.38
442.486	91.38
442.707	87.38
442.928	83.38
443.149	111.38
443.371	107.38
443.592	104.38
443.813	105.38
444.034	107.38
444.255	91.38
444.476	73.38
444.698	79.38
444.919	89.38
445.14	119.38
445.361	115.38
445.582	113.38
445.803	116.38
446.024	121.38
446.245	116.38
446.466	98.38
446.687	101.38
446.908	71.38
447.129	72.38
447.35	83.38
447.571	88.38
447.792	91.38
448.013	94.38
448.234	97.38
448.455	65.38
448.675	100.38
448.896	116.38
449.117	86.38
449.338	99.38
449.559	115.38
449.779	124.38
450	88.38
450.221	93.38
450.442	83.38
450.662	93.38
450.883	92.38
451.104	103.38
451.324	85.38
451.545	98.38
451.766	94.38
451.986	81.38
452.207	72.38
452.428	58.38
452.648	84.38
452.869	105.38
453.089	114.38
453.31	106.38
453.53	92.38
453.751	90.38
453.971	94.38
454.192	98.38
454.412	81.38
454.633	94.38
454.853	85.38
455.073	81.38
455.294	88.38
455.514	104.38
455.734	91.38
455.955	81.38
456.175	79.38
456.395	79.38
456.616	75.38
456.836	85.38
457.056	79.38
457.276	91.38
457.497	96.38
457.717	88.38
457.937	88.38
458.157	65.38
458.377	77.38
458.598	89.38
458.818	129.38
459.038	140.38
459.258	109.38
459.478	103.38
459.698	91.38
459.918	77.38
460.138	82.38
460.358	73.38
460.578	99.38
460.798	96.38
461.018	86.38
461.238	94.38
461.458	89.38
461.678	94.38
461.898	85.38
462.118	91.38
462.338	81.38
462.558	77.38
462.777	85.38
462.997	81.38
463.217	82.38
463.437	70.38
463.657	82.38
463.876	78.38
464.096	89.38
464.316	85.38
464.536	94.38
464.755	93.38
464.975	98.38
465.195	138.38
465.414	137.38
465.634	89.38
465.854	80.38
466.073	92.38
466.293	83.38
466.512	86.38
466.732	87.38
466.951	82.38
467.171	99.38
467.391	97.38
467.61	98.38
467.829	102.38
468.049	103.38
468.268	77.38
468.488	86.38
468.707	76.38
468.927	83.38
469.146	86.38
469.365	94.38
469.585	93.38
469.804	96.38
470.023	93.38
470.243	89.38
470.462	111.38
470.681	105.38
470.901	83.38
471.12	84.38
471.339	85.38
471.558	72.38
471.777	84.38
471.997	89.38
472.216	78.38
472.435	80.38
472.654	72.38
472.873	81.38
473.092	86.38
473.311	87.38
473.53	86.38
473.749	88.38
473.968	85.38
474.187	85.38
474.406	78.38
474.625	77.38
474.844	90.38
475.063	85.38
475.282	65.38
475.501	72.38
475.72	60.38
475.939	87.38
476.158	74.38
476.377	87.38
476.596	83.38
476.814	101.38
477.033	60.38
477.252	90.38
477.471	93.38
477.69	81.38
477.908	88.38
478.127	95.38
478.346	91.38
478.564	97.38
478.783	101.38
479.002	76.38
479.22	87.38
479.439	91.38
479.658	99.38
479.876	94.38
480.095	81.38
480.313	82.38
480.532	88.38
480.751	81.38
480.969	81.38
481.188	88.38
481.406	105.38
481.624	79.38
481.843	80.38
482.061	80.38
482.28	91.38
482.498	85.38
482.717	89.38
482.935	93.38
483.153	69.38
483.372	96.38
483.59	79.38
483.808	92.38
484.027	90.38
484.245	83.38
484.463	92.38
484.681	98.38
484.9	92.38
485.118	82.38
485.336	97.38
485.554	90.38
485.772	106.38
485.99	116.38
486.209	101.38
486.427	99.38
486.645	117.38
486.863	98.38
487.081	87.38
487.299	86.38
487.517	77.38
487.735	82.38
487.953	76.38
488.171	96.38
488.389	87.38
488.607	106.38
488.825	96.38
489.043	90.38
489.261	94.38
489.479	92.38
489.696	87.38
489.914	85.38
490.132	73.38
490.35	89.38
490.568	90.38
490.786	86.38
491.003	93.38
491.221	74.38
491.439	103.38
491.657	94.38
491.874	110.38
492.092	88.38
492.31	81.38
492.527	78.38
492.745	85.38
492.963	82.38
493.18	82.38
493.398	85.38
493.615	95.38
493.833	91.38
494.05	86.38
494.268	106.38
494.485	75.38
494.703	106.38
494.92	86.38
495.138	93.38
495.355	90.38
495.573	91.38
495.79	99.38
496.008	80.38
496.225	85.38
496.442	91.38
496.66	97.38
496.877	99.38
497.094	91.38
497.312	73.38
497.529	86.38
497.746	84.38
497.963	85.38
498.181	89.38
498.398	102.38
498.615	112.38
498.832	92.38
499.049	91.38
499.267	91.38
499.484	98.38
499.701	94.38
499.918	85.38
500.135	90.38
500.352	85.38
500.569	89.38
500.786	95.38
501.003	83.38
501.22	98.38
501.437	102.38
501.654	95.38
501.871	107.38
502.088	82.38
502.305	81.38
502.522	91.38
502.739	86.38
502.956	88.38
503.172	88.38
503.389	89.38
503.606	92.38
503.823	86.38
504.04	89.38
504.256	90.38
504.473	91.38
504.69	75.38
504.907	95.38
505.123	86.38
505.34	81.38
505.557	88.38
505.773	72.38
505.99	70.38
506.207	72.38
506.423	85.38
506.64	91.38
506.856	86.38
507.073	88.38
507.289	75.38
507.506	93.38
507.722	103.38
507.939	108.38
508.155	89.38
508.372	98.38
508.588	90.38
508.805	95.38
509.021	96.38
509.238	108.38
509.454	77.38
509.67	85.38
509.887	106.38
510.103	118.38
510.319	206.38
510.536	699.38
510.752	2117.38
510.968	589.38
511.184	139.38
511.401	116.38
511.617	93.38
511.833	102.38
512.049	92.38
512.265	90.38
512.481	88.38
512.698	89.38
512.914	69.38
513.13	83.38
513.346	95.38
513.562	95.38
513.778	88.38
513.994	85.38
514.21	90.38
514.426	113.38
514.642	129.38
514.858	101.38
515.074	154.38
515.29	401.38
515.506	1253.38
515.721	476.38
515.937	146.38
516.153	107.38
516.369	104.38
516.585	90.38
516.801	89.38
517.016	88.38
