Data from Uncirc_1993_H10_HRD10591_00038.txt Node
Date: Wed Jan 03 11:42:59 EST 2024
User: Yrep
Spectrometer: HR+D1059
Trigger mode: 1
Integration Time (sec): 1.000000E-1
Scans to average: 1
Electric dark correction enabled: true
Nonlinearity correction enabled: false
Boxcar width: 0
XAxis mode: Wavelengths
Number of Pixels in Spectrum: 2048
>>>>>Begin Spectral Data<<<<<
223.165	-9.44
223.4	-9.44
223.635	-9.44
223.869	-25.44
224.104	-17.44
224.338	-9.44
224.573	-13.44
224.808	-2.44
225.042	-19.44
225.277	-4.44
225.511	-19.44
225.746	-8.44
225.98	15.56
226.215	5.56
226.449	15.56
226.683	28.56
226.918	31.56
227.152	32.56
227.387	28.56
227.621	37.56
227.856	41.56
228.09	46.56
228.324	44.56
228.559	56.56
228.793	68.56
229.027	69.56
229.262	63.56
229.496	77.56
229.73	86.56
229.964	84.56
230.199	90.56
230.433	70.56
230.667	65.56
230.901	68.56
231.136	87.56
231.37	76.56
231.604	58.56
231.838	88.56
232.072	70.56
232.306	90.56
232.541	83.56
232.775	78.56
233.009	75.56
233.243	85.56
233.477	93.56
233.711	85.56
233.945	78.56
234.179	79.56
234.413	76.56
234.647	79.56
234.881	91.56
235.115	95.56
235.349	88.56
235.583	93.56
235.817	94.56
236.051	93.56
236.285	82.56
236.519	87.56
236.753	92.56
236.987	81.56
237.221	75.56
237.455	86.56
237.689	78.56
237.922	82.56
238.156	80.56
238.39	78.56
238.624	81.56
238.858	69.56
239.091	75.56
239.325	80.56
239.559	90.56
239.793	86.56
240.027	76.56
240.26	72.56
240.494	80.56
240.728	75.56
240.961	76.56
241.195	80.56
241.429	85.56
241.662	82.56
241.896	88.56
242.13	70.56
242.363	74.56
242.597	83.56
242.83	82.56
243.064	80.56
243.298	70.56
243.531	90.56
243.765	77.56
243.998	93.56
244.232	80.56
244.465	75.56
244.699	75.56
244.932	104.56
245.166	71.56
245.399	70.56
245.633	77.56
245.866	81.56
246.099	81.56
246.333	87.56
246.566	72.56
246.8	84.56
247.033	88.56
247.266	66.56
247.5	76.56
247.733	89.56
247.966	81.56
248.2	81.56
248.433	95.56
248.666	78.56
248.899	85.56
249.133	85.56
249.366	95.56
249.599	99.56
249.832	86.56
250.066	80.56
250.299	74.56
250.532	85.56
250.765	89.56
250.998	82.56
251.231	82.56
251.465	92.56
251.698	94.56
251.931	86.56
252.164	90.56
252.397	96.56
252.63	87.56
252.863	69.56
253.096	82.56
253.329	70.56
253.562	74.56
253.795	88.56
254.028	75.56
254.261	81.56
254.494	80.56
254.727	88.56
254.96	85.56
255.193	94.56
255.426	86.56
255.659	78.56
255.892	79.56
256.124	81.56
256.357	86.56
256.59	83.56
256.823	87.56
257.056	97.56
257.289	79.56
257.521	82.56
257.754	83.56
257.987	67.56
258.22	84.56
258.452	83.56
258.685	91.56
258.918	73.56
259.151	88.56
259.383	82.56
259.616	71.56
259.849	77.56
260.081	76.56
260.314	98.56
260.547	78.56
260.779	80.56
261.012	95.56
261.244	88.56
261.477	83.56
261.71	94.56
261.942	104.56
262.175	111.56
262.407	85.56
262.64	83.56
262.872	83.56
263.105	82.56
263.337	84.56
263.57	82.56
263.802	77.56
264.035	78.56
264.267	79.56
264.499	85.56
264.732	91.56
264.964	71.56
265.197	82.56
265.429	95.56
265.661	83.56
265.894	80.56
266.126	87.56
266.358	90.56
266.591	82.56
266.823	95.56
267.055	90.56
267.287	81.56
267.52	88.56
267.752	81.56
267.984	84.56
268.216	86.56
268.448	90.56
268.681	86.56
268.913	90.56
269.145	85.56
269.377	82.56
269.609	79.56
269.841	86.56
270.073	79.56
270.306	87.56
270.538	65.56
270.77	86.56
271.002	85.56
271.234	79.56
271.466	82.56
271.698	88.56
271.93	92.56
272.162	90.56
272.394	89.56
272.626	85.56
272.858	97.56
273.09	87.56
273.322	90.56
273.553	85.56
273.785	82.56
274.017	70.56
274.249	80.56
274.481	95.56
274.713	90.56
274.945	75.56
275.176	84.56
275.408	87.56
275.64	92.56
275.872	87.56
276.104	82.56
276.335	86.56
276.567	103.56
276.799	98.56
277.031	91.56
277.262	95.56
277.494	78.56
277.726	91.56
277.957	87.56
278.189	90.56
278.421	86.56
278.652	94.56
278.884	96.56
279.115	100.56
279.347	88.56
279.579	80.56
279.81	75.56
280.042	96.56
280.273	98.56
280.505	84.56
280.736	95.56
280.968	90.56
281.199	83.56
281.431	82.56
281.662	89.56
281.894	88.56
282.125	91.56
282.356	103.56
282.588	121.56
282.819	110.56
283.051	89.56
283.282	92.56
283.513	86.56
283.745	86.56
283.976	85.56
284.207	87.56
284.439	102.56
284.67	86.56
284.901	92.56
285.132	94.56
285.364	71.56
285.595	86.56
285.826	85.56
286.057	89.56
286.288	83.56
286.52	83.56
286.751	91.56
286.982	82.56
287.213	88.56
287.444	101.56
287.675	71.56
287.906	94.56
288.138	93.56
288.369	102.56
288.6	92.56
288.831	100.56
289.062	104.56
289.293	88.56
289.524	91.56
289.755	87.56
289.986	99.56
290.217	86.56
290.448	82.56
290.679	91.56
290.91	98.56
291.141	81.56
291.371	115.56
291.602	99.56
291.833	86.56
292.064	82.56
292.295	90.56
292.526	92.56
292.757	94.56
292.987	100.56
293.218	90.56
293.449	106.56
293.68	99.56
293.91	90.56
294.141	88.56
294.372	104.56
294.603	103.56
294.833	83.56
295.064	76.56
295.295	87.56
295.525	82.56
295.756	86.56
295.987	115.56
296.217	135.56
296.448	126.56
296.679	99.56
296.909	96.56
297.14	95.56
297.37	82.56
297.601	88.56
297.831	81.56
298.062	78.56
298.292	101.56
298.523	95.56
298.753	91.56
298.984	84.56
299.214	103.56
299.445	82.56
299.675	94.56
299.905	110.56
300.136	89.56
300.366	78.56
300.597	74.56
300.827	92.56
301.057	98.56
301.288	97.56
301.518	98.56
301.748	84.56
301.979	103.56
302.209	90.56
302.439	92.56
302.669	87.56
302.9	85.56
303.13	112.56
303.36	84.56
303.59	116.56
303.82	113.56
304.051	83.56
304.281	105.56
304.511	96.56
304.741	98.56
304.971	90.56
305.201	93.56
305.431	93.56
305.661	77.56
305.891	99.56
306.121	96.56
306.352	95.56
306.582	93.56
306.812	103.56
307.042	99.56
307.272	99.56
307.502	86.56
307.731	94.56
307.961	95.56
308.191	99.56
308.421	90.56
308.651	95.56
308.881	99.56
309.111	95.56
309.341	96.56
309.571	109.56
309.8	99.56
310.03	104.56
310.26	95.56
310.49	114.56
310.72	96.56
310.949	106.56
311.179	97.56
311.409	102.56
311.639	82.56
311.868	91.56
312.098	81.56
312.328	96.56
312.557	100.56
312.787	96.56
313.017	96.56
313.246	98.56
313.476	86.56
313.706	88.56
313.935	85.56
314.165	99.56
314.394	96.56
314.624	104.56
314.853	91.56
315.083	102.56
315.312	82.56
315.542	93.56
315.771	71.56
316.001	92.56
316.23	83.56
316.46	82.56
316.689	86.56
316.919	86.56
317.148	99.56
317.377	102.56
317.607	89.56
317.836	99.56
318.065	91.56
318.295	95.56
318.524	90.56
318.753	101.56
318.983	100.56
319.212	86.56
319.441	101.56
319.67	114.56
319.9	91.56
320.129	88.56
320.358	90.56
320.587	81.56
320.816	98.56
321.046	96.56
321.275	88.56
321.504	80.56
321.733	88.56
321.962	121.56
322.191	99.56
322.42	83.56
322.649	109.56
322.878	99.56
323.108	88.56
323.337	119.56
323.566	129.56
323.795	140.56
324.024	163.56
324.253	322.56
324.482	684.56
324.71	1294.56
324.939	1707.56
325.168	656.56
325.397	223.56
325.626	133.56
325.855	123.56
326.084	106.56
326.313	136.56
326.542	142.56
326.77	202.56
326.999	368.56
327.228	741.56
327.457	1307.56
327.686	1025.56
327.914	314.56
328.143	167.56
328.372	141.56
328.6	111.56
328.829	105.56
329.058	116.56
329.287	120.56
329.515	100.56
329.744	79.56
329.972	112.56
330.201	88.56
330.43	98.56
330.658	111.56
330.887	134.56
331.115	118.56
331.344	99.56
331.572	92.56
331.801	87.56
332.03	100.56
332.258	108.56
332.486	95.56
332.715	96.56
332.943	86.56
333.172	91.56
333.4	87.56
333.629	115.56
333.857	103.56
334.085	113.56
334.314	106.56
334.542	91.56
334.771	98.56
334.999	109.56
335.227	106.56
335.455	92.56
335.684	92.56
335.912	82.56
336.14	104.56
336.369	93.56
336.597	105.56
336.825	95.56
337.053	90.56
337.281	82.56
337.51	100.56
337.738	94.56
337.966	98.56
338.194	83.56
338.422	104.56
338.65	99.56
338.878	93.56
339.106	83.56
339.334	85.56
339.562	92.56
339.79	82.56
340.018	91.56
340.246	87.56
340.474	91.56
340.702	94.56
340.93	95.56
341.158	84.56
341.386	79.56
341.614	93.56
341.842	98.56
342.07	95.56
342.298	94.56
342.526	95.56
342.754	99.56
342.981	82.56
343.209	92.56
343.437	98.56
343.665	98.56
343.893	95.56
344.12	91.56
344.348	101.56
344.576	80.56
344.804	87.56
345.031	92.56
345.259	100.56
345.487	84.56
345.714	89.56
345.942	88.56
346.17	97.56
346.397	98.56
346.625	96.56
346.853	91.56
347.08	101.56
347.308	93.56
347.535	91.56
347.763	104.56
347.99	98.56
348.218	117.56
348.445	95.56
348.673	96.56
348.9	99.56
349.128	98.56
349.355	97.56
349.583	92.56
349.81	108.56
350.037	96.56
350.265	91.56
350.492	91.56
350.72	94.56
350.947	92.56
351.174	108.56
351.402	100.56
351.629	95.56
351.856	110.56
352.083	100.56
352.311	94.56
352.538	98.56
352.765	94.56
352.992	110.56
353.22	111.56
353.447	99.56
353.674	94.56
353.901	91.56
354.128	85.56
354.355	102.56
354.583	85.56
354.81	83.56
355.037	95.56
355.264	82.56
355.491	101.56
355.718	94.56
355.945	91.56
356.172	101.56
356.399	108.56
356.626	114.56
356.853	102.56
357.08	87.56
357.307	103.56
357.534	84.56
357.761	98.56
357.988	95.56
358.215	114.56
358.441	97.56
358.668	104.56
358.895	95.56
359.122	83.56
359.349	93.56
359.576	86.56
359.802	112.56
360.029	107.56
360.256	104.56
360.483	93.56
360.709	80.56
360.936	85.56
361.163	80.56
361.39	106.56
361.616	83.56
361.843	79.56
362.07	91.56
362.296	91.56
362.523	93.56
362.749	75.56
362.976	91.56
363.203	98.56
363.429	93.56
363.656	107.56
363.882	93.56
364.109	90.56
364.335	87.56
364.562	84.56
364.788	88.56
365.015	93.56
365.241	99.56
365.468	116.56
365.694	101.56
365.92	88.56
366.147	74.56
366.373	88.56
366.599	98.56
366.826	88.56
367.052	91.56
367.278	83.56
367.505	97.56
367.731	86.56
367.957	90.56
368.184	66.56
368.41	82.56
368.636	110.56
368.862	95.56
369.089	109.56
369.315	100.56
369.541	93.56
369.767	79.56
369.993	95.56
370.219	101.56
370.445	94.56
370.672	91.56
370.898	82.56
371.124	88.56
371.35	95.56
371.576	92.56
371.802	91.56
372.028	81.56
372.254	83.56
372.48	80.56
372.706	95.56
372.932	89.56
373.158	88.56
373.384	91.56
373.61	85.56
373.835	99.56
374.061	82.56
374.287	98.56
374.513	73.56
374.739	98.56
374.965	97.56
375.191	86.56
375.416	94.56
375.642	98.56
375.868	93.56
376.094	98.56
376.319	86.56
376.545	83.56
376.771	106.56
376.997	80.56
377.222	87.56
377.448	98.56
377.674	97.56
377.899	91.56
378.125	94.56
378.35	89.56
378.576	103.56
378.802	91.56
379.027	85.56
379.253	94.56
379.478	93.56
379.704	101.56
379.929	95.56
380.155	98.56
380.38	106.56
380.606	89.56
380.831	76.56
381.057	103.56
381.282	100.56
381.507	96.56
381.733	87.56
381.958	101.56
382.184	111.56
382.409	95.56
382.634	117.56
382.86	98.56
383.085	100.56
383.31	93.56
383.535	93.56
383.761	92.56
383.986	85.56
384.211	93.56
384.436	91.56
384.662	82.56
384.887	94.56
385.112	101.56
385.337	107.56
385.562	93.56
385.787	95.56
386.013	99.56
386.238	116.56
386.463	104.56
386.688	100.56
386.913	96.56
387.138	102.56
387.363	96.56
387.588	89.56
387.813	95.56
388.038	107.56
388.263	103.56
388.488	118.56
388.713	101.56
388.938	101.56
389.163	99.56
389.387	90.56
389.612	89.56
389.837	99.56
390.062	82.56
390.287	93.56
390.512	99.56
390.736	88.56
390.961	95.56
391.186	97.56
391.411	94.56
391.636	84.56
391.86	100.56
392.085	91.56
392.31	97.56
392.534	91.56
392.759	86.56
392.984	96.56
393.208	84.56
393.433	84.56
393.658	78.56
393.882	94.56
394.107	90.56
394.331	82.56
394.556	79.56
394.78	80.56
395.005	88.56
395.229	97.56
395.454	82.56
395.678	88.56
395.903	93.56
396.127	101.56
396.352	81.56
396.576	84.56
396.801	91.56
397.025	90.56
397.249	95.56
397.474	91.56
397.698	93.56
397.922	93.56
398.147	83.56
398.371	81.56
398.595	81.56
398.82	82.56
399.044	74.56
399.268	92.56
399.492	84.56
399.717	84.56
399.941	87.56
400.165	96.56
400.389	86.56
400.613	94.56
400.837	93.56
401.062	94.56
401.286	86.56
401.51	88.56
401.734	71.56
401.958	104.56
402.182	125.56
402.406	148.56
402.63	104.56
402.854	97.56
403.078	90.56
403.302	83.56
403.526	90.56
403.75	82.56
403.974	89.56
404.198	86.56
404.422	98.56
404.645	76.56
404.869	82.56
405.093	84.56
405.317	90.56
405.541	90.56
405.765	93.56
405.988	113.56
406.212	163.56
406.436	210.56
406.66	145.56
406.883	98.56
407.107	88.56
407.331	79.56
407.555	94.56
407.778	94.56
408.002	99.56
408.226	95.56
408.449	83.56
408.673	90.56
408.896	98.56
409.12	98.56
409.344	102.56
409.567	83.56
409.791	99.56
410.014	107.56
410.238	93.56
410.461	102.56
410.685	86.56
410.908	94.56
411.132	111.56
411.355	108.56
411.578	95.56
411.802	98.56
412.025	103.56
412.249	93.56
412.472	88.56
412.695	104.56
412.919	81.56
413.142	82.56
413.365	81.56
413.589	98.56
413.812	84.56
414.035	98.56
414.258	96.56
414.482	97.56
414.705	81.56
414.928	85.56
415.151	90.56
415.374	87.56
415.597	91.56
415.821	86.56
416.044	94.56
416.267	73.56
416.49	91.56
416.713	95.56
416.936	95.56
417.159	79.56
417.382	94.56
417.605	96.56
417.828	94.56
418.051	78.56
418.274	83.56
418.497	89.56
418.72	94.56
418.943	92.56
419.166	92.56
419.389	85.56
419.611	93.56
419.834	84.56
420.057	86.56
420.28	91.56
420.503	82.56
420.726	86.56
420.948	102.56
421.171	73.56
421.394	82.56
421.617	85.56
421.839	94.56
422.062	100.56
422.285	93.56
422.507	98.56
422.73	96.56
422.953	110.56
423.175	80.56
423.398	89.56
423.621	96.56
423.843	90.56
424.066	82.56
424.288	93.56
424.511	91.56
424.733	102.56
424.956	90.56
425.178	91.56
425.401	92.56
425.623	110.56
425.846	108.56
426.068	110.56
426.291	93.56
426.513	93.56
426.735	97.56
426.958	87.56
427.18	100.56
427.402	112.56
427.625	158.56
427.847	129.56
428.069	100.56
428.292	95.56
428.514	92.56
428.736	76.56
428.958	68.56
429.181	80.56
429.403	82.56
429.625	79.56
429.847	80.56
430.069	104.56
430.292	87.56
430.514	84.56
430.736	92.56
430.958	86.56
431.18	84.56
431.402	109.56
431.624	76.56
431.846	85.56
432.068	93.56
432.29	92.56
432.512	84.56
432.734	83.56
432.956	92.56
433.178	84.56
433.4	93.56
433.622	97.56
433.844	75.56
434.066	92.56
434.287	85.56
434.509	93.56
434.731	87.56
434.953	93.56
435.175	92.56
435.397	91.56
435.618	110.56
435.84	94.56
436.062	105.56
436.284	103.56
436.505	95.56
436.727	92.56
436.949	92.56
437.17	93.56
437.392	82.56
437.614	90.56
437.835	100.56
438.057	107.56
438.278	106.56
438.5	110.56
438.721	95.56
438.943	88.56
439.165	92.56
439.386	93.56
439.608	111.56
439.829	95.56
440.05	104.56
440.272	123.56
440.493	102.56
440.715	86.56
440.936	89.56
441.158	98.56
441.379	79.56
441.6	104.56
441.822	94.56
442.043	95.56
442.264	95.56
442.486	95.56
442.707	114.56
442.928	90.56
443.149	122.56
443.371	107.56
443.592	96.56
443.813	106.56
444.034	108.56
444.255	91.56
444.476	74.56
444.698	92.56
444.919	88.56
445.14	124.56
445.361	112.56
445.582	118.56
445.803	116.56
446.024	127.56
446.245	127.56
446.466	108.56
446.687	102.56
446.908	90.56
447.129	88.56
447.35	90.56
447.571	102.56
447.792	92.56
448.013	92.56
448.234	120.56
448.455	92.56
448.675	100.56
448.896	119.56
449.117	88.56
449.338	89.56
449.559	108.56
449.779	120.56
450	88.56
450.221	87.56
450.442	97.56
450.662	87.56
450.883	97.56
451.104	104.56
451.324	93.56
451.545	71.56
451.766	76.56
451.986	78.56
452.207	81.56
452.428	92.56
452.648	84.56
452.869	123.56
453.089	122.56
453.31	103.56
453.53	98.56
453.751	90.56
453.971	97.56
454.192	103.56
454.412	91.56
454.633	91.56
454.853	100.56
455.073	94.56
455.294	94.56
455.514	93.56
455.734	75.56
455.955	77.56
456.175	89.56
456.395	95.56
456.616	83.56
456.836	82.56
457.056	85.56
457.276	83.56
457.497	98.56
457.717	85.56
457.937	85.56
458.157	75.56
458.377	87.56
458.598	87.56
458.818	130.56
459.038	142.56
459.258	111.56
459.478	90.56
459.698	84.56
459.918	80.56
460.138	83.56
460.358	87.56
460.578	92.56
460.798	92.56
461.018	99.56
461.238	83.56
461.458	83.56
461.678	86.56
461.898	83.56
462.118	91.56
462.338	93.56
462.558	80.56
462.777	68.56
462.997	90.56
463.217	93.56
463.437	96.56
463.657	84.56
463.876	100.56
464.096	77.56
464.316	101.56
464.536	94.56
464.755	100.56
464.975	93.56
465.195	163.56
465.414	152.56
465.634	87.56
465.854	91.56
466.073	87.56
466.293	99.56
466.512	96.56
466.732	82.56
466.951	97.56
467.171	95.56
467.391	84.56
467.61	100.56
467.829	94.56
468.049	81.56
468.268	101.56
468.488	72.56
468.707	79.56
468.927	90.56
469.146	82.56
469.365	69.56
469.585	87.56
469.804	98.56
470.023	100.56
470.243	94.56
470.462	99.56
470.681	108.56
470.901	90.56
471.12	93.56
471.339	87.56
471.558	104.56
471.777	91.56
471.997	112.56
472.216	110.56
472.435	97.56
472.654	84.56
472.873	78.56
473.092	93.56
473.311	76.56
473.53	83.56
473.749	92.56
473.968	95.56
474.187	96.56
474.406	95.56
474.625	86.56
474.844	99.56
475.063	88.56
475.282	84.56
475.501	75.56
475.72	100.56
475.939	89.56
476.158	84.56
476.377	87.56
476.596	93.56
476.814	101.56
477.033	103.56
477.252	75.56
477.471	96.56
477.69	88.56
477.908	94.56
478.127	89.56
478.346	97.56
478.564	79.56
478.783	87.56
479.002	81.56
479.22	87.56
479.439	104.56
479.658	112.56
479.876	107.56
480.095	79.56
480.313	79.56
480.532	91.56
480.751	90.56
480.969	96.56
481.188	106.56
481.406	84.56
481.624	84.56
481.843	98.56
482.061	86.56
482.28	92.56
482.498	86.56
482.717	91.56
482.935	84.56
483.153	87.56
483.372	93.56
483.59	86.56
483.808	82.56
484.027	99.56
484.245	81.56
484.463	94.56
484.681	89.56
484.9	79.56
485.118	106.56
485.336	84.56
485.554	97.56
485.772	85.56
485.99	104.56
486.209	104.56
486.427	106.56
486.645	102.56
486.863	106.56
487.081	103.56
487.299	96.56
487.517	102.56
487.735	99.56
487.953	87.56
488.171	88.56
488.389	98.56
488.607	93.56
488.825	83.56
489.043	93.56
489.261	90.56
489.479	96.56
489.696	94.56
489.914	80.56
490.132	100.56
490.35	95.56
490.568	105.56
490.786	99.56
491.003	95.56
491.221	86.56
491.439	97.56
491.657	94.56
491.874	99.56
492.092	92.56
492.31	94.56
492.527	83.56
492.745	103.56
492.963	100.56
493.18	88.56
493.398	93.56
493.615	101.56
493.833	84.56
494.05	95.56
494.268	99.56
494.485	91.56
494.703	96.56
494.92	96.56
495.138	88.56
495.355	97.56
495.573	97.56
495.79	100.56
496.008	102.56
496.225	84.56
496.442	88.56
496.66	114.56
496.877	90.56
497.094	99.56
497.312	87.56
497.529	79.56
497.746	85.56
497.963	94.56
498.181	93.56
498.398	98.56
498.615	94.56
498.832	97.56
499.049	88.56
499.267	103.56
499.484	94.56
499.701	87.56
499.918	93.56
500.135	72.56
500.352	100.56
500.569	80.56
500.786	98.56
501.003	86.56
501.22	90.56
501.437	92.56
501.654	107.56
501.871	107.56
502.088	89.56
502.305	96.56
502.522	94.56
502.739	91.56
502.956	88.56
503.172	101.56
503.389	76.56
503.606	106.56
503.823	85.56
504.04	90.56
504.256	92.56
504.473	94.56
504.69	96.56
504.907	99.56
505.123	80.56
505.34	91.56
505.557	87.56
505.773	82.56
505.99	94.56
506.207	90.56
506.423	94.56
506.64	97.56
506.856	96.56
507.073	89.56
507.289	103.56
507.506	115.56
507.722	107.56
507.939	111.56
508.155	102.56
508.372	110.56
508.588	95.56
508.805	99.56
509.021	97.56
509.238	94.56
509.454	96.56
509.67	93.56
509.887	100.56
510.103	132.56
510.319	197.56
510.536	704.56
510.752	2187.56
510.968	597.56
511.184	157.56
511.401	108.56
511.617	100.56
511.833	86.56
512.049	87.56
512.265	94.56
512.481	91.56
512.698	84.56
512.914	100.56
513.13	83.56
513.346	90.56
513.562	92.56
513.778	97.56
513.994	98.56
514.21	114.56
514.426	114.56
514.642	131.56
514.858	113.56
515.074	150.56
515.29	430.56
515.506	1295.56
515.721	471.56
515.937	144.56
516.153	105.56
