Data from Uncirc_1993_H10_HRD10591_00044.txt Node
Date: Wed Jan 03 11:43:01 EST 2024
User: Yrep
Spectrometer: HR+D1059
Trigger mode: 1
Integration Time (sec): 1.000000E-1
Scans to average: 1
Electric dark correction enabled: true
Nonlinearity correction enabled: false
Boxcar width: 0
XAxis mode: Wavelengths
Number of Pixels in Spectrum: 2048
>>>>>Begin Spectral Data<<<<<
223.165	-18.12
223.4	-18.12
223.635	-18.12
223.869	-25.12
224.104	-17.12
224.338	-16.12
224.573	-7.12
224.808	-18.12
225.042	-11.12
225.277	-7.12
225.511	5.88
225.746	4.88
225.98	2.88
226.215	15.88
226.449	10.88
226.683	21.88
226.918	26.88
227.152	30.88
227.387	27.88
227.621	35.88
227.856	35.88
228.09	47.88
228.324	46.88
228.559	54.88
228.793	38.88
229.027	70.88
229.262	65.88
229.496	61.88
229.73	76.88
229.964	69.88
230.199	74.88
230.433	67.88
230.667	84.88
230.901	68.88
231.136	66.88
231.37	74.88
231.604	79.88
231.838	77.88
232.072	80.88
232.306	88.88
232.541	73.88
232.775	76.88
233.009	92.88
233.243	89.88
233.477	86.88
233.711	72.88
233.945	78.88
234.179	82.88
234.413	74.88
234.647	81.88
234.881	84.88
235.115	78.88
235.349	68.88
235.583	82.88
235.817	82.88
236.051	63.88
236.285	74.88
236.519	74.88
236.753	75.88
236.987	89.88
237.221	79.88
237.455	69.88
237.689	79.88
237.922	69.88
238.156	79.88
238.39	66.88
238.624	74.88
238.858	76.88
239.091	71.88
239.325	77.88
239.559	94.88
239.793	74.88
240.027	83.88
240.26	81.88
240.494	70.88
240.728	70.88
240.961	75.88
241.195	70.88
241.429	86.88
241.662	85.88
241.896	77.88
242.13	73.88
242.363	67.88
242.597	66.88
242.83	70.88
243.064	89.88
243.298	81.88
243.531	70.88
243.765	72.88
243.998	80.88
244.232	77.88
244.465	82.88
244.699	70.88
244.932	70.88
245.166	78.88
245.399	82.88
245.633	69.88
245.866	80.88
246.099	64.88
246.333	86.88
246.566	86.88
246.8	80.88
247.033	58.88
247.266	80.88
247.5	86.88
247.733	75.88
247.966	84.88
248.2	66.88
248.433	83.88
248.666	87.88
248.899	81.88
249.133	87.88
249.366	94.88
249.599	88.88
249.832	81.88
250.066	99.88
250.299	81.88
250.532	92.88
250.765	66.88
250.998	77.88
251.231	65.88
251.465	80.88
251.698	71.88
251.931	80.88
252.164	86.88
252.397	81.88
252.63	79.88
252.863	60.88
253.096	86.88
253.329	91.88
253.562	64.88
253.795	85.88
254.028	73.88
254.261	86.88
254.494	87.88
254.727	94.88
254.96	87.88
255.193	79.88
255.426	92.88
255.659	77.88
255.892	79.88
256.124	73.88
256.357	82.88
256.59	83.88
256.823	96.88
257.056	74.88
257.289	80.88
257.521	90.88
257.754	85.88
257.987	81.88
258.22	89.88
258.452	82.88
258.685	93.88
258.918	68.88
259.151	80.88
259.383	74.88
259.616	91.88
259.849	78.88
260.081	81.88
260.314	86.88
260.547	81.88
260.779	76.88
261.012	77.88
261.244	78.88
261.477	92.88
261.71	105.88
261.942	106.88
262.175	100.88
262.407	101.88
262.64	89.88
262.872	84.88
263.105	86.88
263.337	92.88
263.57	79.88
263.802	90.88
264.035	80.88
264.267	82.88
264.499	86.88
264.732	86.88
264.964	80.88
265.197	81.88
265.429	97.88
265.661	83.88
265.894	82.88
266.126	81.88
266.358	74.88
266.591	73.88
266.823	88.88
267.055	76.88
267.287	83.88
267.52	83.88
267.752	79.88
267.984	85.88
268.216	89.88
268.448	92.88
268.681	78.88
268.913	82.88
269.145	85.88
269.377	81.88
269.609	81.88
269.841	90.88
270.073	96.88
270.306	92.88
270.538	79.88
270.77	81.88
271.002	78.88
271.234	77.88
271.466	90.88
271.698	85.88
271.93	86.88
272.162	82.88
272.394	95.88
272.626	93.88
272.858	84.88
273.09	78.88
273.322	82.88
273.553	77.88
273.785	78.88
274.017	89.88
274.249	90.88
274.481	78.88
274.713	99.88
274.945	88.88
275.176	85.88
275.408	99.88
275.64	83.88
275.872	88.88
276.104	79.88
276.335	81.88
276.567	99.88
276.799	102.88
277.031	96.88
277.262	77.88
277.494	70.88
277.726	88.88
277.957	88.88
278.189	87.88
278.421	74.88
278.652	94.88
278.884	85.88
279.115	84.88
279.347	87.88
279.579	77.88
279.81	89.88
280.042	93.88
280.273	93.88
280.505	78.88
280.736	88.88
280.968	83.88
281.199	87.88
281.431	79.88
281.662	84.88
281.894	90.88
282.125	109.88
282.356	94.88
282.588	118.88
282.819	104.88
283.051	84.88
283.282	89.88
283.513	94.88
283.745	95.88
283.976	94.88
284.207	89.88
284.439	67.88
284.67	72.88
284.901	93.88
285.132	79.88
285.364	89.88
285.595	95.88
285.826	78.88
286.057	67.88
286.288	97.88
286.52	91.88
286.751	94.88
286.982	88.88
287.213	97.88
287.444	79.88
287.675	94.88
287.906	92.88
288.138	77.88
288.369	92.88
288.6	83.88
288.831	78.88
289.062	88.88
289.293	84.88
289.524	84.88
289.755	84.88
289.986	84.88
290.217	96.88
290.448	83.88
290.679	86.88
290.91	86.88
291.141	86.88
291.371	89.88
291.602	88.88
291.833	88.88
292.064	84.88
292.295	83.88
292.526	92.88
292.757	88.88
292.987	84.88
293.218	91.88
293.449	101.88
293.68	87.88
293.91	93.88
294.141	98.88
294.372	78.88
294.603	90.88
294.833	97.88
295.064	84.88
295.295	84.88
295.525	91.88
295.756	89.88
295.987	101.88
296.217	114.88
296.448	112.88
296.679	91.88
296.909	93.88
297.14	97.88
297.37	94.88
297.601	95.88
297.831	90.88
298.062	93.88
298.292	81.88
298.523	90.88
298.753	89.88
298.984	99.88
299.214	98.88
299.445	89.88
299.675	103.88
299.905	121.88
300.136	101.88
300.366	105.88
300.597	106.88
300.827	96.88
301.057	95.88
301.288	104.88
301.518	89.88
301.748	78.88
301.979	99.88
302.209	89.88
302.439	78.88
302.669	82.88
302.9	97.88
303.13	101.88
303.36	97.88
303.59	89.88
303.82	99.88
304.051	96.88
304.281	87.88
304.511	88.88
304.741	87.88
304.971	78.88
305.201	86.88
305.431	83.88
305.661	92.88
305.891	91.88
306.121	99.88
306.352	98.88
306.582	101.88
306.812	83.88
307.042	92.88
307.272	89.88
307.502	87.88
307.731	95.88
307.961	87.88
308.191	76.88
308.421	98.88
308.651	92.88
308.881	81.88
309.111	89.88
309.341	103.88
309.571	100.88
309.8	90.88
310.03	94.88
310.26	101.88
310.49	70.88
310.72	104.88
310.949	97.88
311.179	88.88
311.409	95.88
311.639	88.88
311.868	82.88
312.098	94.88
312.328	95.88
312.557	90.88
312.787	88.88
313.017	105.88
313.246	88.88
313.476	96.88
313.706	92.88
313.935	105.88
314.165	102.88
314.394	95.88
314.624	108.88
314.853	93.88
315.083	92.88
315.312	89.88
315.542	91.88
315.771	92.88
316.001	95.88
316.23	87.88
316.46	96.88
316.689	77.88
316.919	78.88
317.148	88.88
317.377	81.88
317.607	68.88
317.836	85.88
318.065	89.88
318.295	100.88
318.524	88.88
318.753	90.88
318.983	101.88
319.212	99.88
319.441	100.88
319.67	114.88
319.9	93.88
320.129	90.88
320.358	102.88
320.587	105.88
320.816	95.88
321.046	80.88
321.275	97.88
321.504	98.88
321.733	88.88
321.962	104.88
322.191	104.88
322.42	102.88
322.649	112.88
322.878	107.88
323.108	105.88
323.337	116.88
323.566	115.88
323.795	129.88
324.024	177.88
324.253	318.88
324.482	627.88
324.71	1310.88
324.939	1660.88
325.168	652.88
325.397	225.88
325.626	136.88
325.855	129.88
326.084	112.88
326.313	126.88
326.542	142.88
326.77	211.88
326.999	385.88
327.228	728.88
327.457	1276.88
327.686	1052.88
327.914	292.88
328.143	169.88
328.372	125.88
328.6	110.88
328.829	125.88
329.058	122.88
329.287	114.88
329.515	97.88
329.744	104.88
329.972	109.88
330.201	95.88
330.43	116.88
330.658	119.88
330.887	120.88
331.115	105.88
331.344	105.88
331.572	105.88
331.801	101.88
332.03	98.88
332.258	100.88
332.486	79.88
332.715	91.88
332.943	100.88
333.172	101.88
333.4	97.88
333.629	97.88
333.857	111.88
334.085	100.88
334.314	113.88
334.542	103.88
334.771	97.88
334.999	97.88
335.227	104.88
335.455	90.88
335.684	96.88
335.912	101.88
336.14	86.88
336.369	88.88
336.597	104.88
336.825	100.88
337.053	97.88
337.281	97.88
337.51	88.88
337.738	90.88
337.966	89.88
338.194	90.88
338.422	91.88
338.65	95.88
338.878	104.88
339.106	87.88
339.334	98.88
339.562	93.88
339.79	86.88
340.018	88.88
340.246	94.88
340.474	96.88
340.702	87.88
340.93	90.88
341.158	94.88
341.386	97.88
341.614	86.88
341.842	88.88
342.07	90.88
342.298	94.88
342.526	81.88
342.754	91.88
342.981	97.88
343.209	91.88
343.437	91.88
343.665	96.88
343.893	95.88
344.12	89.88
344.348	77.88
344.576	92.88
344.804	105.88
345.031	93.88
345.259	90.88
345.487	96.88
345.714	91.88
345.942	90.88
346.17	96.88
346.397	109.88
346.625	85.88
346.853	98.88
347.08	82.88
347.308	82.88
347.535	94.88
347.763	97.88
347.99	96.88
348.218	114.88
348.445	101.88
348.673	100.88
348.9	100.88
349.128	101.88
349.355	111.88
349.583	82.88
349.81	90.88
350.037	105.88
350.265	89.88
350.492	89.88
350.72	93.88
350.947	99.88
351.174	112.88
351.402	115.88
351.629	105.88
351.856	110.88
352.083	86.88
352.311	105.88
352.538	102.88
352.765	105.88
352.992	101.88
353.22	106.88
353.447	98.88
353.674	99.88
353.901	97.88
354.128	98.88
354.355	106.88
354.583	92.88
354.81	93.88
355.037	101.88
355.264	100.88
355.491	91.88
355.718	89.88
355.945	104.88
356.172	78.88
356.399	92.88
356.626	107.88
356.853	99.88
357.08	99.88
357.307	92.88
357.534	86.88
357.761	93.88
357.988	104.88
358.215	109.88
358.441	91.88
358.668	83.88
358.895	106.88
359.122	92.88
359.349	104.88
359.576	109.88
359.802	92.88
360.029	88.88
360.256	109.88
360.483	105.88
360.709	95.88
360.936	93.88
361.163	97.88
361.39	84.88
361.616	89.88
361.843	93.88
362.07	88.88
362.296	88.88
362.523	88.88
362.749	106.88
362.976	96.88
363.203	98.88
363.429	99.88
363.656	85.88
363.882	97.88
364.109	95.88
364.335	91.88
364.562	98.88
364.788	95.88
365.015	87.88
365.241	108.88
365.468	101.88
365.694	105.88
365.92	90.88
366.147	95.88
366.373	79.88
366.599	81.88
366.826	84.88
367.052	72.88
367.278	95.88
367.505	99.88
367.731	93.88
367.957	85.88
368.184	87.88
368.41	94.88
368.636	106.88
368.862	110.88
369.089	109.88
369.315	90.88
369.541	87.88
369.767	82.88
369.993	78.88
370.219	108.88
370.445	99.88
370.672	77.88
370.898	67.88
371.124	100.88
371.35	98.88
371.576	89.88
371.802	95.88
372.028	83.88
372.254	92.88
372.48	86.88
372.706	82.88
372.932	93.88
373.158	80.88
373.384	95.88
373.61	84.88
373.835	93.88
374.061	74.88
374.287	79.88
374.513	82.88
374.739	92.88
374.965	88.88
375.191	77.88
375.416	98.88
375.642	93.88
375.868	94.88
376.094	100.88
376.319	85.88
376.545	92.88
376.771	86.88
376.997	96.88
377.222	86.88
377.448	89.88
377.674	77.88
377.899	82.88
378.125	82.88
378.35	89.88
378.576	90.88
378.802	83.88
379.027	87.88
379.253	92.88
379.478	86.88
379.704	98.88
379.929	106.88
380.155	104.88
380.38	84.88
380.606	91.88
380.831	94.88
381.057	99.88
381.282	91.88
381.507	103.88
381.733	93.88
381.958	99.88
382.184	97.88
382.409	102.88
382.634	113.88
382.86	105.88
383.085	88.88
383.31	108.88
383.535	107.88
383.761	88.88
383.986	108.88
384.211	102.88
384.436	90.88
384.662	96.88
384.887	102.88
385.112	97.88
385.337	102.88
385.562	102.88
385.787	86.88
386.013	103.88
386.238	110.88
386.463	93.88
386.688	106.88
386.913	107.88
387.138	99.88
387.363	108.88
387.588	102.88
387.813	98.88
388.038	106.88
388.263	105.88
388.488	108.88
388.713	104.88
388.938	101.88
389.163	106.88
389.387	91.88
389.612	96.88
389.837	80.88
390.062	96.88
390.287	86.88
390.512	100.88
390.736	108.88
390.961	99.88
391.186	80.88
391.411	77.88
391.636	92.88
391.86	78.88
392.085	84.88
392.31	77.88
392.534	79.88
392.759	90.88
392.984	102.88
393.208	102.88
393.433	95.88
393.658	90.88
393.882	90.88
394.107	80.88
394.331	94.88
394.556	85.88
394.78	96.88
395.005	102.88
395.229	92.88
395.454	79.88
395.678	91.88
395.903	74.88
396.127	84.88
396.352	85.88
396.576	92.88
396.801	72.88
397.025	87.88
397.249	100.88
397.474	90.88
397.698	85.88
397.922	100.88
398.147	91.88
398.371	93.88
398.595	93.88
398.82	77.88
399.044	80.88
399.268	81.88
399.492	80.88
399.717	96.88
399.941	99.88
400.165	97.88
400.389	97.88
400.613	95.88
400.837	96.88
401.062	88.88
401.286	84.88
401.51	94.88
401.734	92.88
401.958	98.88
402.182	103.88
402.406	128.88
402.63	102.88
402.854	100.88
403.078	83.88
403.302	90.88
403.526	78.88
403.75	97.88
403.974	98.88
404.198	88.88
404.422	93.88
404.645	91.88
404.869	92.88
405.093	94.88
405.317	104.88
405.541	108.88
405.765	97.88
405.988	118.88
406.212	148.88
406.436	206.88
406.66	138.88
406.883	84.88
407.107	98.88
407.331	89.88
407.555	98.88
407.778	92.88
408.002	90.88
408.226	78.88
408.449	98.88
408.673	96.88
408.896	96.88
409.12	93.88
409.344	87.88
409.567	78.88
409.791	85.88
410.014	96.88
410.238	94.88
410.461	82.88
410.685	96.88
410.908	88.88
411.132	95.88
411.355	91.88
411.578	93.88
411.802	78.88
412.025	91.88
412.249	97.88
412.472	86.88
412.695	86.88
412.919	86.88
413.142	75.88
413.365	84.88
413.589	82.88
413.812	103.88
414.035	98.88
414.258	82.88
414.482	100.88
414.705	89.88
414.928	103.88
415.151	91.88
415.374	91.88
415.597	88.88
415.821	80.88
416.044	74.88
416.267	99.88
416.49	88.88
416.713	88.88
416.936	113.88
417.159	82.88
417.382	83.88
417.605	97.88
417.828	92.88
418.051	82.88
418.274	93.88
418.497	101.88
418.72	86.88
418.943	100.88
419.166	86.88
419.389	79.88
419.611	92.88
419.834	84.88
420.057	87.88
420.28	97.88
420.503	85.88
420.726	94.88
420.948	85.88
421.171	99.88
421.394	101.88
421.617	100.88
421.839	89.88
422.062	89.88
422.285	100.88
422.507	93.88
422.73	98.88
422.953	96.88
423.175	92.88
423.398	87.88
423.621	95.88
423.843	96.88
424.066	72.88
424.288	91.88
424.511	82.88
424.733	92.88
424.956	97.88
425.178	97.88
425.401	99.88
425.623	95.88
425.846	83.88
426.068	94.88
426.291	99.88
426.513	73.88
426.735	88.88
426.958	96.88
427.18	97.88
427.402	128.88
427.625	134.88
427.847	121.88
428.069	84.88
428.292	92.88
428.514	93.88
428.736	102.88
428.958	84.88
429.181	79.88
429.403	86.88
429.625	81.88
429.847	84.88
430.069	82.88
430.292	93.88
430.514	89.88
430.736	85.88
430.958	81.88
431.18	92.88
431.402	84.88
431.624	88.88
431.846	101.88
432.068	104.88
432.29	92.88
432.512	85.88
432.734	82.88
432.956	96.88
433.178	108.88
433.4	89.88
433.622	85.88
433.844	95.88
434.066	79.88
434.287	97.88
434.509	84.88
434.731	74.88
434.953	84.88
435.175	84.88
435.397	90.88
435.618	99.88
435.84	107.88
436.062	111.88
436.284	102.88
436.505	87.88
436.727	102.88
436.949	93.88
437.17	90.88
437.392	81.88
437.614	73.88
437.835	98.88
438.057	114.88
438.278	94.88
438.5	97.88
438.721	115.88
438.943	93.88
439.165	94.88
439.386	87.88
439.608	92.88
439.829	89.88
440.05	105.88
440.272	109.88
440.493	96.88
440.715	82.88
440.936	80.88
441.158	95.88
441.379	86.88
441.6	88.88
441.822	83.88
442.043	88.88
442.264	84.88
442.486	92.88
442.707	86.88
442.928	85.88
443.149	107.88
443.371	128.88
443.592	102.88
443.813	92.88
444.034	112.88
444.255	86.88
444.476	88.88
444.698	85.88
444.919	90.88
445.14	140.88
445.361	112.88
445.582	105.88
445.803	97.88
446.024	102.88
446.245	122.88
446.466	108.88
446.687	86.88
446.908	81.88
447.129	85.88
447.35	95.88
447.571	101.88
447.792	89.88
448.013	101.88
448.234	98.88
448.455	99.88
448.675	92.88
448.896	112.88
449.117	96.88
449.338	96.88
449.559	121.88
449.779	98.88
450	102.88
450.221	89.88
450.442	101.88
450.662	95.88
450.883	105.88
451.104	107.88
451.324	94.88
451.545	98.88
451.766	84.88
451.986	88.88
452.207	89.88
452.428	101.88
452.648	99.88
452.869	107.88
453.089	105.88
453.31	123.88
453.53	93.88
453.751	92.88
453.971	98.88
454.192	110.88
454.412	91.88
454.633	81.88
454.853	90.88
455.073	101.88
455.294	85.88
455.514	91.88
455.734	84.88
455.955	77.88
456.175	66.88
456.395	85.88
456.616	85.88
456.836	88.88
457.056	72.88
457.276	84.88
457.497	88.88
457.717	78.88
457.937	83.88
458.157	85.88
458.377	89.88
458.598	109.88
458.818	125.88
459.038	140.88
459.258	104.88
459.478	90.88
459.698	86.88
459.918	109.88
460.138	86.88
460.358	73.88
460.578	84.88
460.798	104.88
461.018	90.88
461.238	72.88
461.458	100.88
461.678	90.88
461.898	85.88
462.118	91.88
462.338	84.88
462.558	76.88
462.777	91.88
462.997	79.88
463.217	82.88
463.437	84.88
463.657	88.88
463.876	85.88
464.096	91.88
464.316	83.88
464.536	77.88
464.755	97.88
464.975	107.88
465.195	157.88
465.414	131.88
465.634	92.88
465.854	80.88
466.073	89.88
466.293	90.88
466.512	74.88
466.732	84.88
466.951	77.88
467.171	79.88
467.391	96.88
467.61	112.88
467.829	102.88
468.049	106.88
468.268	72.88
468.488	91.88
468.707	91.88
468.927	90.88
469.146	79.88
469.365	86.88
469.585	86.88
469.804	98.88
470.023	99.88
470.243	84.88
470.462	96.88
470.681	95.88
470.901	92.88
471.12	84.88
471.339	94.88
471.558	85.88
471.777	85.88
471.997	99.88
472.216	92.88
472.435	102.88
472.654	78.88
472.873	77.88
473.092	66.88
473.311	81.88
473.53	88.88
473.749	91.88
473.968	106.88
474.187	101.88
474.406	88.88
474.625	85.88
474.844	77.88
475.063	81.88
475.282	87.88
475.501	81.88
475.72	75.88
475.939	79.88
476.158	95.88
476.377	77.88
476.596	79.88
476.814	81.88
477.033	87.88
477.252	93.88
477.471	98.88
477.69	77.88
477.908	92.88
478.127	89.88
478.346	96.88
478.564	94.88
478.783	106.88
479.002	87.88
479.22	80.88
479.439	88.88
479.658	106.88
479.876	97.88
480.095	94.88
480.313	83.88
480.532	79.88
480.751	79.88
480.969	88.88
481.188	121.88
481.406	96.88
481.624	93.88
481.843	88.88
482.061	82.88
482.28	89.88
482.498	82.88
482.717	92.88
482.935	86.88
483.153	86.88
483.372	106.88
483.59	89.88
483.808	82.88
484.027	81.88
484.245	86.88
484.463	93.88
484.681	93.88
484.9	85.88
485.118	104.88
485.336	83.88
485.554	96.88
485.772	86.88
485.99	98.88
486.209	105.88
486.427	90.88
486.645	105.88
486.863	115.88
487.081	98.88
487.299	119.88
487.517	98.88
487.735	98.88
487.953	89.88
488.171	88.88
488.389	90.88
488.607	100.88
488.825	87.88
489.043	100.88
489.261	90.88
489.479	87.88
489.696	82.88
489.914	94.88
490.132	84.88
490.35	84.88
490.568	89.88
490.786	91.88
491.003	95.88
491.221	79.88
491.439	90.88
491.657	83.88
491.874	90.88
492.092	93.88
492.31	82.88
492.527	99.88
492.745	85.88
492.963	111.88
493.18	101.88
493.398	98.88
493.615	83.88
493.833	89.88
494.05	98.88
494.268	83.88
494.485	96.88
494.703	91.88
494.92	97.88
495.138	90.88
495.355	105.88
495.573	89.88
495.79	88.88
496.008	94.88
496.225	84.88
496.442	86.88
496.66	84.88
496.877	97.88
497.094	95.88
497.312	93.88
497.529	83.88
497.746	91.88
497.963	88.88
498.181	94.88
498.398	97.88
498.615	105.88
498.832	99.88
499.049	80.88
499.267	90.88
499.484	91.88
499.701	94.88
499.918	92.88
500.135	91.88
500.352	95.88
500.569	92.88
500.786	88.88
501.003	104.88
501.22	100.88
501.437	99.88
501.654	100.88
501.871	105.88
502.088	89.88
502.305	97.88
502.522	85.88
502.739	80.88
502.956	87.88
503.172	97.88
503.389	92.88
503.606	91.88
503.823	99.88
504.04	90.88
504.256	95.88
504.473	81.88
504.69	95.88
504.907	95.88
505.123	84.88
505.34	102.88
505.557	93.88
505.773	99.88
505.99	99.88
506.207	89.88
506.423	92.88
506.64	96.88
506.856	86.88
507.073	77.88
507.289	95.88
507.506	98.88
507.722	105.88
507.939	107.88
508.155	95.88
508.372	81.88
508.588	87.88
508.805	96.88
509.021	85.88
509.238	90.88
509.454	88.88
509.67	99.88
509.887	105.88
510.103	126.88
510.319	185.88
510.536	680.88
510.752	2051.88
510.968	575.88
511.184	138.88
511.401	99.88
511.617	92.88
511.833	109.88
512.049	98.88
512.265	95.88
512.481	86.88
512.698	96.88
512.914	103.88
513.13	84.88
513.346	88.88
513.562	86.88
513.778	102.88
513.994	79.88
514.21	107.88
514.426	117.88
514.642	115.88
514.858	114.88
515.074	157.88
515.29	377.88
515.506	1207.88
515.721	455.88
515.937	156.88
516.153	106.88
