Data from Uncirc_1993_H10_HRD10591_00078.txt Node
Date: Wed Jan 03 11:43:07 EST 2024
User: Yrep
Spectrometer: HR+D1059
Trigger mode: 1
Integration Time (sec): 1.000000E-1
Scans to average: 1
Electric dark correction enabled: true
Nonlinearity correction enabled: false
Boxcar width: 0
XAxis mode: Wavelengths
Number of Pixels in Spectrum: 2048
>>>>>Begin Spectral Data<<<<<
223.165	-21.94
223.4	-21.94
223.635	-21.94
223.869	-14.94
224.104	-18.94
224.338	-19.94
224.573	-12.94
224.808	-4.94
225.042	-10.94
225.277	3.06
225.511	-2.94
225.746	0.06
225.98	2.06
226.215	10.06
226.449	15.06
226.683	25.06
226.918	16.06
227.152	36.06
227.387	40.06
227.621	30.06
227.856	44.06
228.09	49.06
228.324	46.06
228.559	55.06
228.793	61.06
229.027	62.06
229.262	64.06
229.496	72.06
229.73	88.06
229.964	80.06
230.199	84.06
230.433	63.06
230.667	73.06
230.901	73.06
231.136	87.06
231.37	78.06
231.604	78.06
231.838	103.06
232.072	81.06
232.306	84.06
232.541	79.06
232.775	84.06
233.009	77.06
233.243	80.06
233.477	81.06
233.711	86.06
233.945	90.06
234.179	88.06
234.413	82.06
234.647	65.06
234.881	78.06
235.115	73.06
235.349	85.06
235.583	61.06
235.817	67.06
236.051	85.06
236.285	67.06
236.519	87.06
236.753	74.06
236.987	80.06
237.221	68.06
237.455	63.06
237.689	80.06
237.922	64.06
238.156	89.06
238.39	65.06
238.624	55.06
238.858	60.06
239.091	75.06
239.325	87.06
239.559	76.06
239.793	72.06
240.027	86.06
240.26	84.06
240.494	67.06
240.728	80.06
240.961	85.06
241.195	68.06
241.429	79.06
241.662	89.06
241.896	78.06
242.13	71.06
242.363	77.06
242.597	75.06
242.83	83.06
243.064	76.06
243.298	89.06
243.531	71.06
243.765	81.06
243.998	83.06
244.232	67.06
244.465	78.06
244.699	89.06
244.932	71.06
245.166	71.06
245.399	77.06
245.633	73.06
245.866	85.06
246.099	82.06
246.333	80.06
246.566	70.06
246.8	65.06
247.033	75.06
247.266	79.06
247.5	73.06
247.733	71.06
247.966	81.06
248.2	79.06
248.433	91.06
248.666	63.06
248.899	84.06
249.133	73.06
249.366	82.06
249.599	94.06
249.832	80.06
250.066	85.06
250.299	70.06
250.532	83.06
250.765	74.06
250.998	73.06
251.231	55.06
251.465	74.06
251.698	77.06
251.931	73.06
252.164	82.06
252.397	83.06
252.63	75.06
252.863	89.06
253.096	87.06
253.329	66.06
253.562	79.06
253.795	79.06
254.028	83.06
254.261	80.06
254.494	80.06
254.727	92.06
254.96	59.06
255.193	83.06
255.426	73.06
255.659	75.06
255.892	85.06
256.124	77.06
256.357	81.06
256.59	91.06
256.823	64.06
257.056	73.06
257.289	101.06
257.521	83.06
257.754	79.06
257.987	89.06
258.22	75.06
258.452	73.06
258.685	92.06
258.918	76.06
259.151	60.06
259.383	77.06
259.616	88.06
259.849	84.06
260.081	83.06
260.314	79.06
260.547	63.06
260.779	75.06
261.012	80.06
261.244	70.06
261.477	78.06
261.71	87.06
261.942	93.06
262.175	101.06
262.407	92.06
262.64	85.06
262.872	95.06
263.105	80.06
263.337	79.06
263.57	87.06
263.802	88.06
264.035	84.06
264.267	74.06
264.499	75.06
264.732	85.06
264.964	93.06
265.197	83.06
265.429	81.06
265.661	77.06
265.894	72.06
266.126	96.06
266.358	88.06
266.591	92.06
266.823	75.06
267.055	71.06
267.287	83.06
267.52	87.06
267.752	75.06
267.984	80.06
268.216	88.06
268.448	87.06
268.681	91.06
268.913	80.06
269.145	81.06
269.377	84.06
269.609	80.06
269.841	88.06
270.073	87.06
270.306	80.06
270.538	88.06
270.77	82.06
271.002	80.06
271.234	86.06
271.466	82.06
271.698	77.06
271.93	79.06
272.162	107.06
272.394	79.06
272.626	72.06
272.858	71.06
273.09	83.06
273.322	76.06
273.553	98.06
273.785	78.06
274.017	72.06
274.249	88.06
274.481	95.06
274.713	68.06
274.945	90.06
275.176	102.06
275.408	79.06
275.64	92.06
275.872	83.06
276.104	91.06
276.335	81.06
276.567	98.06
276.799	96.06
277.031	98.06
277.262	73.06
277.494	83.06
277.726	87.06
277.957	84.06
278.189	84.06
278.421	88.06
278.652	79.06
278.884	79.06
279.115	86.06
279.347	85.06
279.579	73.06
279.81	97.06
280.042	98.06
280.273	90.06
280.505	81.06
280.736	77.06
280.968	82.06
281.199	79.06
281.431	66.06
281.662	91.06
281.894	83.06
282.125	101.06
282.356	108.06
282.588	125.06
282.819	112.06
283.051	79.06
283.282	75.06
283.513	101.06
283.745	84.06
283.976	80.06
284.207	84.06
284.439	107.06
284.67	75.06
284.901	92.06
285.132	91.06
285.364	70.06
285.595	77.06
285.826	79.06
286.057	84.06
286.288	91.06
286.52	85.06
286.751	79.06
286.982	81.06
287.213	82.06
287.444	72.06
287.675	89.06
287.906	85.06
288.138	74.06
288.369	90.06
288.6	93.06
288.831	91.06
289.062	79.06
289.293	91.06
289.524	94.06
289.755	92.06
289.986	85.06
290.217	92.06
290.448	97.06
290.679	84.06
290.91	84.06
291.141	86.06
291.371	82.06
291.602	87.06
291.833	79.06
292.064	86.06
292.295	83.06
292.526	101.06
292.757	91.06
292.987	79.06
293.218	86.06
293.449	91.06
293.68	76.06
293.91	94.06
294.141	90.06
294.372	90.06
294.603	84.06
294.833	92.06
295.064	100.06
295.295	98.06
295.525	93.06
295.756	98.06
295.987	111.06
296.217	140.06
296.448	112.06
296.679	87.06
296.909	96.06
297.14	89.06
297.37	93.06
297.601	87.06
297.831	97.06
298.062	86.06
298.292	88.06
298.523	99.06
298.753	63.06
298.984	83.06
299.214	89.06
299.445	91.06
299.675	90.06
299.905	95.06
300.136	97.06
300.366	87.06
300.597	79.06
300.827	92.06
301.057	95.06
301.288	99.06
301.518	96.06
301.748	90.06
301.979	104.06
302.209	95.06
302.439	87.06
302.669	83.06
302.9	91.06
303.13	107.06
303.36	92.06
303.59	88.06
303.82	103.06
304.051	78.06
304.281	83.06
304.511	97.06
304.741	85.06
304.971	101.06
305.201	104.06
305.431	87.06
305.661	82.06
305.891	95.06
306.121	87.06
306.352	104.06
306.582	99.06
306.812	81.06
307.042	89.06
307.272	89.06
307.502	98.06
307.731	92.06
307.961	95.06
308.191	106.06
308.421	100.06
308.651	90.06
308.881	101.06
309.111	108.06
309.341	89.06
309.571	99.06
309.8	92.06
310.03	91.06
310.26	92.06
310.49	100.06
310.72	92.06
310.949	100.06
311.179	98.06
311.409	100.06
311.639	96.06
311.868	93.06
312.098	89.06
312.328	92.06
312.557	93.06
312.787	96.06
313.017	98.06
313.246	79.06
313.476	107.06
313.706	89.06
313.935	98.06
314.165	99.06
314.394	104.06
314.624	90.06
314.853	109.06
315.083	93.06
315.312	91.06
315.542	91.06
315.771	90.06
316.001	93.06
316.23	88.06
316.46	88.06
316.689	96.06
316.919	80.06
317.148	104.06
317.377	102.06
317.607	74.06
317.836	84.06
318.065	83.06
318.295	94.06
318.524	96.06
318.753	99.06
318.983	83.06
319.212	105.06
319.441	92.06
319.67	93.06
319.9	101.06
320.129	89.06
320.358	89.06
320.587	91.06
320.816	86.06
321.046	97.06
321.275	104.06
321.504	93.06
321.733	95.06
321.962	104.06
322.191	101.06
322.42	96.06
322.649	105.06
322.878	101.06
323.108	109.06
323.337	115.06
323.566	119.06
323.795	127.06
324.024	186.06
324.253	331.06
324.482	666.06
324.71	1336.06
324.939	1755.06
325.168	669.06
325.397	219.06
325.626	114.06
325.855	121.06
326.084	123.06
326.313	128.06
326.542	128.06
326.77	193.06
326.999	390.06
327.228	766.06
327.457	1366.06
327.686	1065.06
327.914	296.06
328.143	162.06
328.372	128.06
328.6	117.06
328.829	111.06
329.058	124.06
329.287	117.06
329.515	100.06
329.744	91.06
329.972	105.06
330.201	97.06
330.43	100.06
330.658	113.06
330.887	123.06
331.115	119.06
331.344	109.06
331.572	98.06
331.801	94.06
332.03	104.06
332.258	89.06
332.486	79.06
332.715	104.06
332.943	74.06
333.172	114.06
333.4	107.06
333.629	93.06
333.857	88.06
334.085	104.06
334.314	96.06
334.542	109.06
334.771	92.06
334.999	78.06
335.227	81.06
335.455	91.06
335.684	99.06
335.912	91.06
336.14	94.06
336.369	90.06
336.597	104.06
336.825	101.06
337.053	99.06
337.281	95.06
337.51	85.06
337.738	85.06
337.966	81.06
338.194	88.06
338.422	91.06
338.65	88.06
338.878	92.06
339.106	94.06
339.334	76.06
339.562	110.06
339.79	93.06
340.018	96.06
340.246	92.06
340.474	89.06
340.702	89.06
340.93	95.06
341.158	87.06
341.386	101.06
341.614	93.06
341.842	88.06
342.07	96.06
342.298	90.06
342.526	93.06
342.754	84.06
342.981	96.06
343.209	95.06
343.437	102.06
343.665	91.06
343.893	85.06
344.12	96.06
344.348	81.06
344.576	80.06
344.804	87.06
345.031	87.06
345.259	102.06
345.487	100.06
345.714	102.06
345.942	82.06
346.17	87.06
346.397	82.06
346.625	91.06
346.853	100.06
347.08	84.06
347.308	86.06
347.535	95.06
347.763	96.06
347.99	91.06
348.218	97.06
348.445	107.06
348.673	91.06
348.9	100.06
349.128	89.06
349.355	93.06
349.583	98.06
349.81	99.06
350.037	99.06
350.265	88.06
350.492	103.06
350.72	93.06
350.947	105.06
351.174	102.06
351.402	101.06
351.629	100.06
351.856	104.06
352.083	90.06
352.311	101.06
352.538	106.06
352.765	100.06
352.992	99.06
353.22	101.06
353.447	80.06
353.674	98.06
353.901	99.06
354.128	101.06
354.355	87.06
354.583	98.06
354.81	96.06
355.037	92.06
355.264	96.06
355.491	96.06
355.718	85.06
355.945	76.06
356.172	93.06
356.399	94.06
356.626	99.06
356.853	97.06
357.08	91.06
357.307	83.06
357.534	94.06
357.761	95.06
357.988	94.06
358.215	106.06
358.441	81.06
358.668	88.06
358.895	88.06
359.122	99.06
359.349	96.06
359.576	95.06
359.802	102.06
360.029	97.06
360.256	90.06
360.483	93.06
360.709	94.06
360.936	87.06
361.163	71.06
361.39	88.06
361.616	89.06
361.843	99.06
362.07	101.06
362.296	100.06
362.523	84.06
362.749	94.06
362.976	89.06
363.203	85.06
363.429	66.06
363.656	85.06
363.882	81.06
364.109	97.06
364.335	91.06
364.562	95.06
364.788	96.06
365.015	102.06
365.241	97.06
365.468	87.06
365.694	99.06
365.92	91.06
366.147	93.06
366.373	92.06
366.599	77.06
366.826	79.06
367.052	91.06
367.278	95.06
367.505	87.06
367.731	102.06
367.957	84.06
368.184	95.06
368.41	112.06
368.636	112.06
368.862	110.06
369.089	98.06
369.315	92.06
369.541	102.06
369.767	93.06
369.993	93.06
370.219	74.06
370.445	82.06
370.672	80.06
370.898	86.06
371.124	84.06
371.35	77.06
371.576	82.06
371.802	80.06
372.028	81.06
372.254	89.06
372.48	91.06
372.706	93.06
372.932	89.06
373.158	95.06
373.384	92.06
373.61	93.06
373.835	96.06
374.061	76.06
374.287	95.06
374.513	97.06
374.739	91.06
374.965	73.06
375.191	106.06
375.416	76.06
375.642	96.06
375.868	105.06
376.094	86.06
376.319	75.06
376.545	95.06
376.771	90.06
376.997	78.06
377.222	93.06
377.448	89.06
377.674	83.06
377.899	75.06
378.125	93.06
378.35	85.06
378.576	89.06
378.802	89.06
379.027	85.06
379.253	105.06
379.478	96.06
379.704	91.06
379.929	99.06
380.155	81.06
380.38	85.06
380.606	96.06
380.831	88.06
381.057	94.06
381.282	95.06
381.507	101.06
381.733	91.06
381.958	91.06
382.184	92.06
382.409	105.06
382.634	97.06
382.86	101.06
383.085	95.06
383.31	82.06
383.535	79.06
383.761	93.06
383.986	113.06
384.211	111.06
384.436	112.06
384.662	88.06
384.887	107.06
385.112	96.06
385.337	110.06
385.562	98.06
385.787	97.06
386.013	93.06
386.238	107.06
386.463	113.06
386.688	108.06
386.913	99.06
387.138	98.06
387.363	82.06
387.588	105.06
387.813	96.06
388.038	96.06
388.263	97.06
388.488	92.06
388.713	91.06
388.938	98.06
389.163	110.06
389.387	108.06
389.612	89.06
389.837	92.06
390.062	105.06
390.287	80.06
390.512	88.06
390.736	96.06
390.961	82.06
391.186	94.06
391.411	72.06
391.636	83.06
391.86	83.06
392.085	83.06
392.31	80.06
392.534	90.06
392.759	79.06
392.984	87.06
393.208	83.06
393.433	91.06
393.658	90.06
393.882	103.06
394.107	73.06
394.331	89.06
394.556	94.06
394.78	90.06
395.005	97.06
395.229	89.06
395.454	71.06
395.678	96.06
395.903	103.06
396.127	92.06
396.352	93.06
396.576	86.06
396.801	83.06
397.025	81.06
397.249	80.06
397.474	85.06
397.698	97.06
397.922	89.06
398.147	83.06
398.371	78.06
398.595	97.06
398.82	83.06
399.044	90.06
399.268	94.06
399.492	73.06
399.717	85.06
399.941	94.06
400.165	89.06
400.389	87.06
400.613	84.06
400.837	88.06
401.062	76.06
401.286	80.06
401.51	83.06
401.734	88.06
401.958	92.06
402.182	101.06
402.406	138.06
402.63	114.06
402.854	102.06
403.078	87.06
403.302	93.06
403.526	86.06
403.75	88.06
403.974	78.06
404.198	99.06
404.422	95.06
404.645	94.06
404.869	88.06
405.093	84.06
405.317	90.06
405.541	83.06
405.765	96.06
405.988	110.06
406.212	143.06
406.436	181.06
406.66	136.06
406.883	101.06
407.107	95.06
407.331	93.06
407.555	99.06
407.778	88.06
408.002	88.06
408.226	93.06
408.449	94.06
408.673	95.06
408.896	93.06
409.12	85.06
409.344	86.06
409.567	92.06
409.791	99.06
410.014	95.06
410.238	92.06
410.461	90.06
410.685	106.06
410.908	98.06
411.132	94.06
411.355	90.06
411.578	83.06
411.802	90.06
412.025	90.06
412.249	88.06
412.472	94.06
412.695	91.06
412.919	85.06
413.142	80.06
413.365	79.06
413.589	92.06
413.812	102.06
414.035	95.06
414.258	84.06
414.482	93.06
414.705	77.06
414.928	75.06
415.151	82.06
415.374	87.06
415.597	78.06
415.821	77.06
416.044	83.06
416.267	82.06
416.49	83.06
416.713	87.06
416.936	93.06
417.159	84.06
417.382	93.06
417.605	90.06
417.828	96.06
418.051	79.06
418.274	84.06
418.497	87.06
418.72	99.06
418.943	76.06
419.166	87.06
419.389	89.06
419.611	100.06
419.834	82.06
420.057	74.06
420.28	85.06
420.503	91.06
420.726	81.06
420.948	91.06
421.171	85.06
421.394	81.06
421.617	103.06
421.839	93.06
422.062	76.06
422.285	92.06
422.507	103.06
422.73	83.06
422.953	93.06
423.175	87.06
423.398	103.06
423.621	97.06
423.843	93.06
424.066	79.06
424.288	83.06
424.511	101.06
424.733	80.06
424.956	115.06
425.178	93.06
425.401	89.06
425.623	86.06
425.846	89.06
426.068	92.06
426.291	99.06
426.513	81.06
426.735	97.06
426.958	86.06
427.18	97.06
427.402	111.06
427.625	160.06
427.847	119.06
428.069	87.06
428.292	92.06
428.514	76.06
428.736	77.06
428.958	91.06
429.181	88.06
429.403	86.06
429.625	73.06
429.847	89.06
430.069	98.06
430.292	87.06
430.514	84.06
430.736	80.06
430.958	80.06
431.18	86.06
431.402	84.06
431.624	83.06
431.846	91.06
432.068	82.06
432.29	85.06
432.512	86.06
432.734	82.06
432.956	100.06
433.178	94.06
433.4	99.06
433.622	93.06
433.844	71.06
434.066	87.06
434.287	92.06
434.509	88.06
434.731	96.06
434.953	78.06
435.175	93.06
435.397	90.06
435.618	95.06
435.84	101.06
436.062	92.06
436.284	107.06
436.505	99.06
436.727	101.06
436.949	91.06
437.17	79.06
437.392	83.06
437.614	84.06
437.835	91.06
438.057	111.06
438.278	92.06
438.5	92.06
438.721	118.06
438.943	88.06
439.165	80.06
439.386	93.06
439.608	89.06
439.829	98.06
440.05	109.06
440.272	113.06
440.493	100.06
440.715	78.06
440.936	97.06
441.158	85.06
441.379	86.06
441.6	98.06
441.822	94.06
442.043	101.06
442.264	101.06
442.486	88.06
442.707	86.06
442.928	90.06
443.149	115.06
443.371	110.06
443.592	98.06
443.813	105.06
444.034	98.06
444.255	76.06
444.476	79.06
444.698	73.06
444.919	89.06
445.14	129.06
445.361	125.06
445.582	105.06
445.803	93.06
446.024	100.06
446.245	122.06
446.466	109.06
446.687	91.06
446.908	97.06
447.129	86.06
447.35	100.06
447.571	93.06
447.792	77.06
448.013	101.06
448.234	95.06
448.455	97.06
448.675	115.06
448.896	103.06
449.117	85.06
449.338	103.06
449.559	130.06
449.779	112.06
450	95.06
450.221	84.06
450.442	73.06
450.662	92.06
450.883	98.06
451.104	107.06
451.324	93.06
451.545	74.06
451.766	94.06
451.986	82.06
452.207	93.06
452.428	91.06
452.648	108.06
452.869	108.06
453.089	102.06
453.31	95.06
453.53	93.06
453.751	91.06
453.971	97.06
454.192	91.06
454.412	81.06
454.633	96.06
454.853	88.06
455.073	84.06
455.294	68.06
455.514	87.06
455.734	88.06
455.955	84.06
456.175	82.06
456.395	81.06
456.616	91.06
456.836	81.06
457.056	81.06
457.276	83.06
457.497	85.06
457.717	70.06
457.937	77.06
458.157	81.06
458.377	82.06
458.598	88.06
458.818	126.06
459.038	140.06
459.258	109.06
459.478	89.06
459.698	79.06
459.918	85.06
460.138	83.06
460.358	75.06
460.578	81.06
460.798	86.06
461.018	79.06
461.238	78.06
461.458	83.06
461.678	72.06
461.898	95.06
462.118	93.06
462.338	84.06
462.558	83.06
462.777	76.06
462.997	81.06
463.217	73.06
463.437	65.06
463.657	82.06
463.876	98.06
464.096	77.06
464.316	83.06
464.536	74.06
464.755	78.06
464.975	83.06
465.195	148.06
465.414	137.06
465.634	91.06
465.854	84.06
466.073	93.06
466.293	82.06
466.512	85.06
466.732	87.06
466.951	83.06
467.171	90.06
467.391	99.06
467.61	93.06
467.829	103.06
468.049	106.06
468.268	84.06
468.488	83.06
468.707	90.06
468.927	81.06
469.146	72.06
469.365	88.06
469.585	89.06
469.804	97.06
470.023	89.06
470.243	85.06
470.462	91.06
470.681	93.06
470.901	88.06
471.12	94.06
471.339	80.06
471.558	68.06
471.777	90.06
471.997	74.06
472.216	85.06
472.435	91.06
472.654	69.06
472.873	96.06
473.092	101.06
473.311	81.06
473.53	87.06
473.749	101.06
473.968	91.06
474.187	89.06
474.406	82.06
474.625	87.06
474.844	94.06
475.063	93.06
475.282	83.06
475.501	91.06
475.72	91.06
475.939	76.06
476.158	102.06
476.377	80.06
476.596	93.06
476.814	75.06
477.033	91.06
477.252	84.06
477.471	92.06
477.69	92.06
477.908	92.06
478.127	95.06
478.346	85.06
478.564	85.06
478.783	100.06
479.002	88.06
479.22	91.06
479.439	93.06
479.658	100.06
479.876	95.06
480.095	93.06
480.313	86.06
480.532	82.06
480.751	83.06
480.969	87.06
481.188	104.06
481.406	96.06
481.624	92.06
481.843	95.06
482.061	88.06
482.28	87.06
482.498	92.06
482.717	79.06
482.935	84.06
483.153	89.06
483.372	91.06
483.59	84.06
483.808	85.06
484.027	92.06
484.245	85.06
484.463	94.06
484.681	94.06
484.9	77.06
485.118	100.06
485.336	101.06
485.554	110.06
485.772	103.06
485.99	108.06
486.209	106.06
486.427	109.06
486.645	120.06
486.863	112.06
487.081	101.06
487.299	82.06
487.517	101.06
487.735	101.06
487.953	95.06
488.171	82.06
488.389	91.06
488.607	97.06
488.825	92.06
489.043	93.06
489.261	90.06
489.479	95.06
489.696	85.06
489.914	88.06
490.132	86.06
490.35	91.06
490.568	79.06
490.786	98.06
491.003	83.06
491.221	80.06
491.439	80.06
491.657	92.06
491.874	105.06
492.092	90.06
492.31	87.06
492.527	83.06
492.745	90.06
492.963	92.06
493.18	90.06
493.398	98.06
493.615	92.06
493.833	101.06
494.05	93.06
494.268	88.06
494.485	95.06
494.703	85.06
494.92	95.06
495.138	83.06
495.355	95.06
495.573	79.06
495.79	68.06
496.008	99.06
496.225	88.06
496.442	88.06
496.66	95.06
496.877	82.06
497.094	95.06
497.312	95.06
497.529	89.06
497.746	90.06
497.963	87.06
498.181	81.06
498.398	100.06
498.615	89.06
498.832	84.06
499.049	79.06
499.267	98.06
499.484	85.06
499.701	92.06
499.918	87.06
500.135	93.06
500.352	100.06
500.569	88.06
500.786	104.06
501.003	82.06
501.22	83.06
501.437	100.06
501.654	73.06
501.871	100.06
502.088	91.06
502.305	90.06
502.522	97.06
502.739	85.06
502.956	71.06
503.172	95.06
503.389	91.06
503.606	102.06
503.823	99.06
504.04	85.06
504.256	81.06
504.473	80.06
504.69	93.06
504.907	99.06
505.123	88.06
505.34	89.06
505.557	68.06
505.773	92.06
505.99	80.06
506.207	85.06
506.423	86.06
506.64	86.06
506.856	90.06
507.073	83.06
507.289	103.06
507.506	98.06
507.722	112.06
507.939	107.06
508.155	91.06
508.372	87.06
508.588	84.06
508.805	94.06
509.021	83.06
509.238	105.06
509.454	98.06
509.67	84.06
509.887	105.06
510.103	130.06
510.319	210.06
510.536	677.06
510.752	2037.06
510.968	548.06
511.184	162.06
511.401	85.06
511.617	84.06
511.833	88.06
512.049	91.06
512.265	100.06
512.481	107.06
512.698	89.06
512.914	87.06
513.13	92.06
513.346	88.06
513.562	89.06
513.778	98.06
513.994	97.06
514.21	109.06
514.426	95.06
514.642	118.06
514.858	92.06
515.074	146.06
515.29	394.06
515.506	1225.06
515.721	455.06
515.937	128.06
516.153	108.06
516.369	91.06
516.585	90.06
