Data from Uncirc_1993_H10_HRD10591_00072.txt Node
Date: Wed Jan 03 11:43:06 EST 2024
User: Yrep
Spectrometer: HR+D1059
Trigger mode: 1
Integration Time (sec): 1.000000E-1
Scans to average: 1
Electric dark correction enabled: true
Nonlinearity correction enabled: false
Boxcar width: 0
XAxis mode: Wavelengths
Number of Pixels in Spectrum: 2048
>>>>>Begin Spectral Data<<<<<
223.165	-7.44
223.4	-7.44
223.635	-7.44
223.869	-29.44
224.104	-31.44
224.338	-2.44
224.573	-20.44
224.808	2.56
225.042	4.56
225.277	-18.44
225.511	-4.44
225.746	8.56
225.98	-3.44
226.215	-1.44
226.449	22.56
226.683	18.56
226.918	33.56
227.152	28.56
227.387	42.56
227.621	42.56
227.856	52.56
228.09	63.56
228.324	45.56
228.559	53.56
228.793	65.56
229.027	65.56
229.262	80.56
229.496	70.56
229.73	77.56
229.964	78.56
230.199	69.56
230.433	82.56
230.667	92.56
230.901	78.56
231.136	85.56
231.37	83.56
231.604	83.56
231.838	70.56
232.072	71.56
232.306	84.56
232.541	76.56
232.775	83.56
233.009	77.56
233.243	85.56
233.477	82.56
233.711	70.56
233.945	67.56
234.179	80.56
234.413	92.56
234.647	85.56
234.881	86.56
235.115	90.56
235.349	81.56
235.583	77.56
235.817	70.56
236.051	82.56
236.285	78.56
236.519	102.56
236.753	92.56
236.987	84.56
237.221	85.56
237.455	77.56
237.689	85.56
237.922	82.56
238.156	76.56
238.39	82.56
238.624	85.56
238.858	83.56
239.091	76.56
239.325	90.56
239.559	94.56
239.793	77.56
240.027	87.56
240.26	75.56
240.494	72.56
240.728	79.56
240.961	69.56
241.195	91.56
241.429	70.56
241.662	80.56
241.896	78.56
242.13	77.56
242.363	77.56
242.597	74.56
242.83	76.56
243.064	71.56
243.298	75.56
243.531	81.56
243.765	86.56
243.998	87.56
244.232	88.56
244.465	100.56
244.699	78.56
244.932	71.56
245.166	78.56
245.399	86.56
245.633	95.56
245.866	80.56
246.099	80.56
246.333	85.56
246.566	81.56
246.8	60.56
247.033	100.56
247.266	80.56
247.5	78.56
247.733	80.56
247.966	81.56
248.2	67.56
248.433	76.56
248.666	66.56
248.899	92.56
249.133	80.56
249.366	87.56
249.599	91.56
249.832	85.56
250.066	78.56
250.299	93.56
250.532	74.56
250.765	86.56
250.998	74.56
251.231	100.56
251.465	85.56
251.698	83.56
251.931	82.56
252.164	82.56
252.397	78.56
252.63	78.56
252.863	84.56
253.096	82.56
253.329	71.56
253.562	78.56
253.795	78.56
254.028	90.56
254.261	77.56
254.494	93.56
254.727	80.56
254.96	84.56
255.193	75.56
255.426	75.56
255.659	78.56
255.892	72.56
256.124	100.56
256.357	99.56
256.59	76.56
256.823	85.56
257.056	77.56
257.289	76.56
257.521	78.56
257.754	95.56
257.987	75.56
258.22	87.56
258.452	79.56
258.685	79.56
258.918	75.56
259.151	78.56
259.383	83.56
259.616	87.56
259.849	82.56
260.081	83.56
260.314	82.56
260.547	78.56
260.779	78.56
261.012	85.56
261.244	75.56
261.477	94.56
261.71	96.56
261.942	104.56
262.175	108.56
262.407	78.56
262.64	84.56
262.872	82.56
263.105	93.56
263.337	78.56
263.57	86.56
263.802	76.56
264.035	96.56
264.267	93.56
264.499	91.56
264.732	77.56
264.964	91.56
265.197	70.56
265.429	94.56
265.661	88.56
265.894	76.56
266.126	88.56
266.358	76.56
266.591	74.56
266.823	83.56
267.055	86.56
267.287	98.56
267.52	93.56
267.752	97.56
267.984	71.56
268.216	76.56
268.448	83.56
268.681	92.56
268.913	94.56
269.145	87.56
269.377	79.56
269.609	95.56
269.841	86.56
270.073	81.56
270.306	84.56
270.538	81.56
270.77	84.56
271.002	77.56
271.234	91.56
271.466	78.56
271.698	99.56
271.93	87.56
272.162	88.56
272.394	94.56
272.626	92.56
272.858	80.56
273.09	78.56
273.322	83.56
273.553	87.56
273.785	86.56
274.017	82.56
274.249	85.56
274.481	81.56
274.713	93.56
274.945	83.56
275.176	91.56
275.408	81.56
275.64	87.56
275.872	102.56
276.104	88.56
276.335	97.56
276.567	101.56
276.799	97.56
277.031	90.56
277.262	92.56
277.494	102.56
277.726	103.56
277.957	85.56
278.189	95.56
278.421	85.56
278.652	97.56
278.884	81.56
279.115	75.56
279.347	89.56
279.579	81.56
279.81	84.56
280.042	82.56
280.273	92.56
280.505	84.56
280.736	84.56
280.968	88.56
281.199	96.56
281.431	92.56
281.662	88.56
281.894	89.56
282.125	92.56
282.356	113.56
282.588	117.56
282.819	116.56
283.051	82.56
283.282	85.56
283.513	86.56
283.745	95.56
283.976	81.56
284.207	93.56
284.439	86.56
284.67	79.56
284.901	63.56
285.132	100.56
285.364	80.56
285.595	90.56
285.826	92.56
286.057	101.56
286.288	92.56
286.52	78.56
286.751	83.56
286.982	95.56
287.213	79.56
287.444	95.56
287.675	87.56
287.906	91.56
288.138	84.56
288.369	83.56
288.6	113.56
288.831	102.56
289.062	91.56
289.293	94.56
289.524	83.56
289.755	93.56
289.986	86.56
290.217	91.56
290.448	98.56
290.679	88.56
290.91	83.56
291.141	70.56
291.371	85.56
291.602	93.56
291.833	82.56
292.064	95.56
292.295	94.56
292.526	81.56
292.757	84.56
292.987	83.56
293.218	88.56
293.449	95.56
293.68	98.56
293.91	79.56
294.141	103.56
294.372	89.56
294.603	76.56
294.833	87.56
295.064	102.56
295.295	88.56
295.525	94.56
295.756	98.56
295.987	101.56
296.217	121.56
296.448	126.56
296.679	95.56
296.909	109.56
297.14	88.56
297.37	90.56
297.601	90.56
297.831	85.56
298.062	75.56
298.292	97.56
298.523	79.56
298.753	83.56
298.984	86.56
299.214	75.56
299.445	88.56
299.675	110.56
299.905	107.56
300.136	78.56
300.366	84.56
300.597	82.56
300.827	91.56
301.057	93.56
301.288	110.56
301.518	89.56
301.748	95.56
301.979	90.56
302.209	86.56
302.439	82.56
302.669	88.56
302.9	94.56
303.13	94.56
303.36	95.56
303.59	94.56
303.82	98.56
304.051	98.56
304.281	86.56
304.511	81.56
304.741	95.56
304.971	96.56
305.201	92.56
305.431	101.56
305.661	93.56
305.891	87.56
306.121	101.56
306.352	100.56
306.582	96.56
306.812	103.56
307.042	90.56
307.272	96.56
307.502	85.56
307.731	85.56
307.961	86.56
308.191	87.56
308.421	93.56
308.651	93.56
308.881	87.56
309.111	92.56
309.341	88.56
309.571	102.56
309.8	88.56
310.03	107.56
310.26	92.56
310.49	99.56
310.72	110.56
310.949	105.56
311.179	107.56
311.409	94.56
311.639	93.56
311.868	102.56
312.098	106.56
312.328	105.56
312.557	101.56
312.787	107.56
313.017	88.56
313.246	102.56
313.476	89.56
313.706	99.56
313.935	90.56
314.165	96.56
314.394	102.56
314.624	92.56
314.853	103.56
315.083	106.56
315.312	92.56
315.542	94.56
315.771	89.56
316.001	89.56
316.23	93.56
316.46	84.56
316.689	86.56
316.919	91.56
317.148	76.56
317.377	83.56
317.607	93.56
317.836	94.56
318.065	91.56
318.295	94.56
318.524	87.56
318.753	94.56
318.983	97.56
319.212	111.56
319.441	106.56
319.67	110.56
319.9	88.56
320.129	100.56
320.358	98.56
320.587	93.56
320.816	105.56
321.046	97.56
321.275	98.56
321.504	86.56
321.733	100.56
321.962	97.56
322.191	95.56
322.42	107.56
322.649	99.56
322.878	106.56
323.108	104.56
323.337	101.56
323.566	128.56
323.795	155.56
324.024	165.56
324.253	328.56
324.482	668.56
324.71	1309.56
324.939	1744.56
325.168	653.56
325.397	217.56
325.626	141.56
325.855	114.56
326.084	119.56
326.313	136.56
326.542	137.56
326.77	196.56
326.999	376.56
327.228	748.56
327.457	1310.56
327.686	1071.56
327.914	316.56
328.143	165.56
328.372	128.56
328.6	119.56
328.829	118.56
329.058	137.56
329.287	124.56
329.515	106.56
329.744	110.56
329.972	109.56
330.201	104.56
330.43	97.56
330.658	122.56
330.887	130.56
331.115	110.56
331.344	96.56
331.572	106.56
331.801	93.56
332.03	109.56
332.258	110.56
332.486	87.56
332.715	82.56
332.943	96.56
333.172	98.56
333.4	105.56
333.629	103.56
333.857	94.56
334.085	96.56
334.314	100.56
334.542	97.56
334.771	114.56
334.999	92.56
335.227	82.56
335.455	95.56
335.684	102.56
335.912	97.56
336.14	100.56
336.369	104.56
336.597	108.56
336.825	92.56
337.053	87.56
337.281	102.56
337.51	93.56
337.738	93.56
337.966	93.56
338.194	94.56
338.422	88.56
338.65	82.56
338.878	91.56
339.106	103.56
339.334	83.56
339.562	94.56
339.79	69.56
340.018	86.56
340.246	97.56
340.474	108.56
340.702	93.56
340.93	100.56
341.158	93.56
341.386	78.56
341.614	101.56
341.842	97.56
342.07	101.56
342.298	100.56
342.526	105.56
342.754	90.56
342.981	94.56
343.209	84.56
343.437	97.56
343.665	86.56
343.893	97.56
344.12	96.56
344.348	91.56
344.576	99.56
344.804	93.56
345.031	90.56
345.259	92.56
345.487	92.56
345.714	98.56
345.942	103.56
346.17	111.56
346.397	93.56
346.625	87.56
346.853	98.56
347.08	96.56
347.308	100.56
347.535	98.56
347.763	107.56
347.99	108.56
348.218	102.56
348.445	112.56
348.673	96.56
348.9	109.56
349.128	101.56
349.355	104.56
349.583	96.56
349.81	98.56
350.037	106.56
350.265	95.56
350.492	86.56
350.72	93.56
350.947	95.56
351.174	101.56
351.402	106.56
351.629	86.56
351.856	92.56
352.083	101.56
352.311	115.56
352.538	101.56
352.765	99.56
352.992	114.56
353.22	97.56
353.447	92.56
353.674	93.56
353.901	90.56
354.128	96.56
354.355	109.56
354.583	104.56
354.81	107.56
355.037	101.56
355.264	101.56
355.491	97.56
355.718	95.56
355.945	91.56
356.172	92.56
356.399	94.56
356.626	94.56
356.853	111.56
357.08	92.56
357.307	94.56
357.534	91.56
357.761	101.56
357.988	101.56
358.215	97.56
358.441	99.56
358.668	97.56
358.895	83.56
359.122	93.56
359.349	94.56
359.576	99.56
359.802	88.56
360.029	115.56
360.256	96.56
360.483	90.56
360.709	93.56
360.936	115.56
361.163	90.56
361.39	90.56
361.616	107.56
361.843	94.56
362.07	98.56
362.296	96.56
362.523	102.56
362.749	99.56
362.976	94.56
363.203	82.56
363.429	92.56
363.656	79.56
363.882	83.56
364.109	102.56
364.335	101.56
364.562	87.56
364.788	82.56
365.015	101.56
365.241	94.56
365.468	117.56
365.694	94.56
365.92	105.56
366.147	97.56
366.373	107.56
366.599	108.56
366.826	99.56
367.052	100.56
367.278	103.56
367.505	108.56
367.731	107.56
367.957	96.56
368.184	99.56
368.41	80.56
368.636	113.56
368.862	112.56
369.089	93.56
369.315	97.56
369.541	94.56
369.767	93.56
369.993	89.56
370.219	78.56
370.445	92.56
370.672	77.56
370.898	93.56
371.124	78.56
371.35	91.56
371.576	84.56
371.802	87.56
372.028	98.56
372.254	87.56
372.48	78.56
372.706	87.56
372.932	87.56
373.158	89.56
373.384	96.56
373.61	107.56
373.835	106.56
374.061	91.56
374.287	100.56
374.513	113.56
374.739	87.56
374.965	87.56
375.191	87.56
375.416	98.56
375.642	93.56
375.868	84.56
376.094	91.56
376.319	95.56
376.545	74.56
376.771	90.56
376.997	77.56
377.222	85.56
377.448	83.56
377.674	79.56
377.899	90.56
378.125	74.56
378.35	108.56
378.576	94.56
378.802	95.56
379.027	95.56
379.253	94.56
379.478	95.56
379.704	94.56
379.929	105.56
380.155	121.56
380.38	107.56
380.606	95.56
380.831	86.56
381.057	101.56
381.282	92.56
381.507	97.56
381.733	101.56
381.958	100.56
382.184	82.56
382.409	92.56
382.634	101.56
382.86	104.56
383.085	91.56
383.31	104.56
383.535	108.56
383.761	98.56
383.986	105.56
384.211	92.56
384.436	87.56
384.662	107.56
384.887	94.56
385.112	108.56
385.337	98.56
385.562	110.56
385.787	94.56
386.013	100.56
386.238	101.56
386.463	95.56
386.688	111.56
386.913	95.56
387.138	111.56
387.363	99.56
387.588	100.56
387.813	104.56
388.038	118.56
388.263	109.56
388.488	111.56
388.713	94.56
388.938	87.56
389.163	87.56
389.387	104.56
389.612	93.56
389.837	102.56
390.062	87.56
390.287	78.56
390.512	95.56
390.736	95.56
390.961	95.56
391.186	100.56
391.411	84.56
391.636	91.56
391.86	83.56
392.085	100.56
392.31	91.56
392.534	84.56
392.759	87.56
392.984	91.56
393.208	101.56
393.433	92.56
393.658	98.56
393.882	103.56
394.107	93.56
394.331	87.56
394.556	88.56
394.78	87.56
395.005	96.56
395.229	85.56
395.454	101.56
395.678	83.56
395.903	89.56
396.127	106.56
396.352	97.56
396.576	98.56
396.801	99.56
397.025	89.56
397.249	91.56
397.474	106.56
397.698	102.56
397.922	95.56
398.147	88.56
398.371	89.56
398.595	88.56
398.82	71.56
399.044	83.56
399.268	98.56
399.492	90.56
399.717	88.56
399.941	87.56
400.165	84.56
400.389	99.56
400.613	94.56
400.837	79.56
401.062	87.56
401.286	87.56
401.51	80.56
401.734	102.56
401.958	100.56
402.182	117.56
402.406	158.56
402.63	109.56
402.854	87.56
403.078	86.56
403.302	89.56
403.526	88.56
403.75	90.56
403.974	84.56
404.198	89.56
404.422	92.56
404.645	91.56
404.869	87.56
405.093	111.56
405.317	100.56
405.541	105.56
405.765	115.56
405.988	112.56
406.212	165.56
406.436	206.56
406.66	140.56
406.883	104.56
407.107	91.56
407.331	91.56
407.555	105.56
407.778	103.56
408.002	80.56
408.226	93.56
408.449	96.56
408.673	108.56
408.896	108.56
409.12	104.56
409.344	96.56
409.567	86.56
409.791	87.56
410.014	99.56
410.238	80.56
410.461	96.56
410.685	86.56
410.908	101.56
411.132	106.56
411.355	88.56
411.578	88.56
411.802	87.56
412.025	90.56
412.249	101.56
412.472	91.56
412.695	95.56
412.919	91.56
413.142	87.56
413.365	85.56
413.589	94.56
413.812	104.56
414.035	98.56
414.258	81.56
414.482	99.56
414.705	77.56
414.928	92.56
415.151	110.56
415.374	102.56
415.597	92.56
415.821	93.56
416.044	76.56
416.267	62.56
416.49	91.56
416.713	100.56
416.936	103.56
417.159	90.56
417.382	87.56
417.605	95.56
417.828	104.56
418.051	80.56
418.274	83.56
418.497	83.56
418.72	104.56
418.943	91.56
419.166	80.56
419.389	88.56
419.611	95.56
419.834	86.56
420.057	91.56
420.28	92.56
420.503	99.56
420.726	93.56
420.948	86.56
421.171	106.56
421.394	107.56
421.617	104.56
421.839	91.56
422.062	81.56
422.285	90.56
422.507	93.56
422.73	110.56
422.953	106.56
423.175	88.56
423.398	96.56
423.621	108.56
423.843	95.56
424.066	83.56
424.288	95.56
424.511	98.56
424.733	100.56
424.956	108.56
425.178	104.56
425.401	114.56
425.623	93.56
425.846	91.56
426.068	93.56
426.291	95.56
426.513	103.56
426.735	81.56
426.958	94.56
427.18	92.56
427.402	126.56
427.625	144.56
427.847	115.56
428.069	96.56
428.292	90.56
428.514	91.56
428.736	79.56
428.958	97.56
429.181	82.56
429.403	92.56
429.625	88.56
429.847	89.56
430.069	95.56
430.292	99.56
430.514	96.56
430.736	89.56
430.958	91.56
431.18	86.56
431.402	91.56
431.624	95.56
431.846	74.56
432.068	96.56
432.29	86.56
432.512	85.56
432.734	82.56
432.956	79.56
433.178	95.56
433.4	91.56
433.622	87.56
433.844	71.56
434.066	96.56
434.287	98.56
434.509	106.56
434.731	90.56
434.953	86.56
435.175	83.56
435.397	94.56
435.618	98.56
435.84	86.56
436.062	115.56
436.284	107.56
436.505	92.56
436.727	113.56
436.949	107.56
437.17	98.56
437.392	92.56
437.614	97.56
437.835	97.56
438.057	104.56
438.278	94.56
438.5	119.56
438.721	108.56
438.943	102.56
439.165	88.56
439.386	89.56
439.608	94.56
439.829	86.56
440.05	115.56
440.272	122.56
440.493	104.56
440.715	101.56
440.936	91.56
441.158	95.56
441.379	80.56
441.6	82.56
441.822	107.56
442.043	100.56
442.264	121.56
442.486	101.56
442.707	100.56
442.928	97.56
443.149	123.56
443.371	119.56
443.592	98.56
443.813	105.56
444.034	100.56
444.255	94.56
444.476	89.56
444.698	91.56
444.919	79.56
445.14	124.56
445.361	119.56
445.582	112.56
445.803	127.56
446.024	129.56
446.245	129.56
446.466	108.56
446.687	93.56
446.908	85.56
447.129	92.56
447.35	94.56
447.571	100.56
447.792	89.56
448.013	102.56
448.234	114.56
448.455	102.56
448.675	104.56
448.896	103.56
449.117	98.56
449.338	91.56
449.559	124.56
449.779	110.56
450	102.56
450.221	86.56
450.442	95.56
450.662	122.56
450.883	110.56
451.104	117.56
451.324	90.56
451.545	101.56
451.766	96.56
451.986	84.56
452.207	98.56
452.428	96.56
452.648	112.56
452.869	86.56
453.089	101.56
453.31	109.56
453.53	104.56
453.751	99.56
453.971	91.56
454.192	104.56
454.412	101.56
454.633	96.56
454.853	83.56
455.073	92.56
455.294	79.56
455.514	95.56
455.734	89.56
455.955	95.56
456.175	107.56
456.395	106.56
456.616	71.56
456.836	80.56
457.056	76.56
457.276	91.56
457.497	90.56
457.717	88.56
457.937	92.56
458.157	83.56
458.377	81.56
458.598	123.56
458.818	140.56
459.038	139.56
459.258	103.56
459.478	90.56
459.698	90.56
459.918	72.56
460.138	83.56
460.358	88.56
460.578	93.56
460.798	95.56
461.018	81.56
461.238	89.56
461.458	89.56
461.678	82.56
461.898	77.56
462.118	91.56
462.338	93.56
462.558	93.56
462.777	75.56
462.997	92.56
463.217	81.56
463.437	87.56
463.657	93.56
463.876	94.56
464.096	95.56
464.316	88.56
464.536	83.56
464.755	85.56
464.975	110.56
465.195	149.56
465.414	143.56
465.634	99.56
465.854	78.56
466.073	85.56
466.293	84.56
466.512	94.56
466.732	89.56
466.951	91.56
467.171	102.56
467.391	96.56
467.61	89.56
467.829	108.56
468.049	101.56
468.268	83.56
468.488	87.56
468.707	79.56
468.927	85.56
469.146	85.56
469.365	86.56
469.585	97.56
469.804	92.56
470.023	96.56
470.243	92.56
470.462	94.56
470.681	103.56
470.901	91.56
471.12	90.56
471.339	89.56
471.558	80.56
471.777	87.56
471.997	89.56
472.216	92.56
472.435	90.56
472.654	69.56
472.873	79.56
473.092	87.56
473.311	91.56
473.53	82.56
473.749	94.56
473.968	92.56
474.187	94.56
474.406	87.56
474.625	83.56
474.844	80.56
475.063	78.56
475.282	84.56
475.501	69.56
475.72	90.56
475.939	79.56
476.158	79.56
476.377	97.56
476.596	91.56
476.814	101.56
477.033	87.56
477.252	83.56
477.471	80.56
477.69	100.56
477.908	104.56
478.127	97.56
478.346	86.56
478.564	90.56
478.783	89.56
479.002	101.56
479.22	104.56
479.439	90.56
479.658	110.56
479.876	90.56
480.095	89.56
480.313	87.56
480.532	106.56
480.751	98.56
480.969	95.56
481.188	100.56
481.406	97.56
481.624	93.56
481.843	98.56
482.061	84.56
482.28	86.56
482.498	96.56
482.717	88.56
482.935	90.56
483.153	95.56
483.372	82.56
483.59	78.56
483.808	86.56
484.027	87.56
484.245	97.56
484.463	86.56
484.681	80.56
484.9	94.56
485.118	102.56
485.336	105.56
485.554	101.56
485.772	103.56
485.99	99.56
486.209	109.56
486.427	93.56
486.645	110.56
486.863	118.56
487.081	92.56
487.299	95.56
487.517	84.56
487.735	97.56
487.953	99.56
488.171	101.56
488.389	98.56
488.607	88.56
488.825	79.56
489.043	90.56
489.261	95.56
489.479	87.56
489.696	108.56
489.914	89.56
490.132	92.56
490.35	102.56
490.568	95.56
490.786	79.56
491.003	95.56
491.221	81.56
491.439	96.56
491.657	106.56
491.874	110.56
492.092	100.56
492.31	81.56
492.527	107.56
492.745	84.56
492.963	94.56
493.18	96.56
493.398	91.56
493.615	95.56
493.833	79.56
494.05	84.56
494.268	95.56
494.485	96.56
494.703	72.56
494.92	90.56
495.138	86.56
495.355	79.56
495.573	89.56
495.79	94.56
496.008	88.56
496.225	91.56
496.442	98.56
496.66	90.56
496.877	92.56
497.094	90.56
497.312	95.56
497.529	107.56
497.746	96.56
497.963	82.56
498.181	80.56
498.398	95.56
498.615	110.56
498.832	112.56
499.049	87.56
499.267	92.56
499.484	92.56
499.701	95.56
499.918	102.56
500.135	95.56
500.352	96.56
500.569	99.56
500.786	75.56
501.003	85.56
501.22	99.56
501.437	91.56
501.654	99.56
501.871	108.56
502.088	101.56
502.305	98.56
502.522	75.56
502.739	92.56
502.956	106.56
503.172	97.56
503.389	100.56
503.606	102.56
503.823	101.56
504.04	82.56
504.256	98.56
504.473	82.56
504.69	86.56
504.907	86.56
505.123	74.56
505.34	91.56
505.557	88.56
505.773	90.56
505.99	85.56
506.207	89.56
506.423	94.56
506.64	86.56
506.856	98.56
507.073	84.56
507.289	95.56
507.506	103.56
507.722	113.56
507.939	111.56
508.155	99.56
508.372	86.56
508.588	70.56
508.805	94.56
509.021	102.56
509.238	89.56
509.454	95.56
509.67	91.56
509.887	115.56
510.103	127.56
510.319	199.56
510.536	702.56
510.752	2099.56
510.968	595.56
511.184	124.56
511.401	106.56
511.617	100.56
511.833	86.56
512.049	93.56
512.265	95.56
512.481	75.56
512.698	74.56
512.914	74.56
513.13	99.56
513.346	94.56
513.562	76.56
513.778	90.56
513.994	108.56
514.21	106.56
514.426	123.56
514.642	127.56
514.858	115.56
515.074	157.56
515.29	386.56
