Data from Uncirc_1993_H10_HRD10591_00023.txt Node
Date: Wed Jan 03 11:42:56 EST 2024
User: Yrep
Spectrometer: HR+D1059
Trigger mode: 1
Integration Time (sec): 1.000000E-1
Scans to average: 1
Electric dark correction enabled: true
Nonlinearity correction enabled: false
Boxcar width: 0
XAxis mode: Wavelengths
Number of Pixels in Spectrum: 2048
>>>>>Begin Spectral Data<<<<<
223.165	-23.38
223.4	-23.38
223.635	-23.38
223.869	-14.38
224.104	-28.38
224.338	-10.38
224.573	-22.38
224.808	1.62
225.042	-5.38
225.277	-0.38
225.511	-1.38
225.746	5.62
225.98	13.62
226.215	7.62
226.449	8.62
226.683	16.62
226.918	21.62
227.152	30.62
227.387	16.62
227.621	41.62
227.856	48.62
228.09	44.62
228.324	55.62
228.559	59.62
228.793	59.62
229.027	52.62
229.262	68.62
229.496	63.62
229.73	63.62
229.964	79.62
230.199	71.62
230.433	84.62
230.667	84.62
230.901	85.62
231.136	69.62
231.37	72.62
231.604	72.62
231.838	74.62
232.072	73.62
232.306	76.62
232.541	90.62
232.775	77.62
233.009	76.62
233.243	76.62
233.477	84.62
233.711	83.62
233.945	83.62
234.179	72.62
234.413	81.62
234.647	72.62
234.881	83.62
235.115	79.62
235.349	79.62
235.583	72.62
235.817	84.62
236.051	76.62
236.285	77.62
236.519	81.62
236.753	75.62
236.987	88.62
237.221	73.62
237.455	60.62
237.689	84.62
237.922	71.62
238.156	63.62
238.39	75.62
238.624	69.62
238.858	68.62
239.091	65.62
239.325	59.62
239.559	79.62
239.793	71.62
240.027	88.62
240.26	68.62
240.494	79.62
240.728	72.62
240.961	71.62
241.195	74.62
241.429	65.62
241.662	65.62
241.896	79.62
242.13	71.62
242.363	79.62
242.597	77.62
242.83	58.62
243.064	71.62
243.298	78.62
243.531	62.62
243.765	78.62
243.998	79.62
244.232	88.62
244.465	94.62
244.699	75.62
244.932	93.62
245.166	68.62
245.399	80.62
245.633	77.62
245.866	76.62
246.099	85.62
246.333	84.62
246.566	77.62
246.8	93.62
247.033	84.62
247.266	79.62
247.5	81.62
247.733	79.62
247.966	77.62
248.2	65.62
248.433	62.62
248.666	66.62
248.899	81.62
249.133	70.62
249.366	92.62
249.599	92.62
249.832	88.62
250.066	79.62
250.299	77.62
250.532	68.62
250.765	65.62
250.998	71.62
251.231	79.62
251.465	82.62
251.698	67.62
251.931	82.62
252.164	73.62
252.397	74.62
252.63	87.62
252.863	82.62
253.096	85.62
253.329	88.62
253.562	87.62
253.795	66.62
254.028	78.62
254.261	79.62
254.494	78.62
254.727	66.62
254.96	81.62
255.193	77.62
255.426	82.62
255.659	85.62
255.892	75.62
256.124	79.62
256.357	74.62
256.59	83.62
256.823	80.62
257.056	79.62
257.289	87.62
257.521	75.62
257.754	85.62
257.987	83.62
258.22	80.62
258.452	68.62
258.685	80.62
258.918	88.62
259.151	68.62
259.383	90.62
259.616	84.62
259.849	80.62
260.081	64.62
260.314	74.62
260.547	66.62
260.779	78.62
261.012	93.62
261.244	79.62
261.477	82.62
261.71	105.62
261.942	97.62
262.175	103.62
262.407	71.62
262.64	87.62
262.872	74.62
263.105	86.62
263.337	86.62
263.57	68.62
263.802	69.62
264.035	88.62
264.267	69.62
264.499	76.62
264.732	79.62
264.964	76.62
265.197	67.62
265.429	81.62
265.661	98.62
265.894	69.62
266.126	84.62
266.358	76.62
266.591	73.62
266.823	74.62
267.055	91.62
267.287	78.62
267.52	78.62
267.752	75.62
267.984	77.62
268.216	77.62
268.448	68.62
268.681	75.62
268.913	80.62
269.145	82.62
269.377	91.62
269.609	77.62
269.841	71.62
270.073	70.62
270.306	84.62
270.538	68.62
270.77	73.62
271.002	86.62
271.234	85.62
271.466	99.62
271.698	81.62
271.93	87.62
272.162	85.62
272.394	85.62
272.626	84.62
272.858	82.62
273.09	82.62
273.322	67.62
273.553	85.62
273.785	78.62
274.017	73.62
274.249	73.62
274.481	73.62
274.713	91.62
274.945	79.62
275.176	87.62
275.408	88.62
275.64	83.62
275.872	81.62
276.104	78.62
276.335	90.62
276.567	101.62
276.799	101.62
277.031	86.62
277.262	80.62
277.494	82.62
277.726	81.62
277.957	93.62
278.189	73.62
278.421	65.62
278.652	80.62
278.884	74.62
279.115	82.62
279.347	86.62
279.579	89.62
279.81	79.62
280.042	82.62
280.273	97.62
280.505	84.62
280.736	70.62
280.968	82.62
281.199	75.62
281.431	94.62
281.662	81.62
281.894	77.62
282.125	92.62
282.356	105.62
282.588	116.62
282.819	105.62
283.051	73.62
283.282	77.62
283.513	82.62
283.745	84.62
283.976	82.62
284.207	79.62
284.439	81.62
284.67	85.62
284.901	93.62
285.132	93.62
285.364	73.62
285.595	71.62
285.826	93.62
286.057	76.62
286.288	91.62
286.52	99.62
286.751	78.62
286.982	95.62
287.213	87.62
287.444	86.62
287.675	91.62
287.906	91.62
288.138	95.62
288.369	89.62
288.6	79.62
288.831	90.62
289.062	97.62
289.293	82.62
289.524	86.62
289.755	78.62
289.986	91.62
290.217	85.62
290.448	91.62
290.679	79.62
290.91	87.62
291.141	88.62
291.371	83.62
291.602	75.62
291.833	80.62
292.064	83.62
292.295	79.62
292.526	90.62
292.757	89.62
292.987	80.62
293.218	81.62
293.449	75.62
293.68	84.62
293.91	83.62
294.141	91.62
294.372	88.62
294.603	71.62
294.833	90.62
295.064	79.62
295.295	84.62
295.525	74.62
295.756	97.62
295.987	100.62
296.217	128.62
296.448	111.62
296.679	90.62
296.909	96.62
297.14	83.62
297.37	76.62
297.601	91.62
297.831	88.62
298.062	73.62
298.292	82.62
298.523	91.62
298.753	89.62
298.984	84.62
299.214	80.62
299.445	83.62
299.675	84.62
299.905	89.62
300.136	79.62
300.366	89.62
300.597	84.62
300.827	81.62
301.057	88.62
301.288	93.62
301.518	104.62
301.748	90.62
301.979	102.62
302.209	82.62
302.439	82.62
302.669	93.62
302.9	84.62
303.13	80.62
303.36	96.62
303.59	96.62
303.82	95.62
304.051	88.62
304.281	87.62
304.511	87.62
304.741	87.62
304.971	95.62
305.201	92.62
305.431	81.62
305.661	91.62
305.891	76.62
306.121	93.62
306.352	101.62
306.582	97.62
306.812	89.62
307.042	94.62
307.272	88.62
307.502	92.62
307.731	94.62
307.961	93.62
308.191	106.62
308.421	87.62
308.651	91.62
308.881	105.62
309.111	91.62
309.341	114.62
309.571	92.62
309.8	87.62
310.03	85.62
310.26	89.62
310.49	92.62
310.72	94.62
310.949	88.62
311.179	77.62
311.409	86.62
311.639	91.62
311.868	92.62
312.098	77.62
312.328	95.62
312.557	93.62
312.787	100.62
313.017	95.62
313.246	88.62
313.476	80.62
313.706	84.62
313.935	93.62
314.165	95.62
314.394	99.62
314.624	85.62
314.853	83.62
315.083	92.62
315.312	84.62
315.542	87.62
315.771	95.62
316.001	81.62
316.23	76.62
316.46	86.62
316.689	80.62
316.919	83.62
317.148	82.62
317.377	92.62
317.607	100.62
317.836	96.62
318.065	85.62
318.295	99.62
318.524	89.62
318.753	93.62
318.983	101.62
319.212	108.62
319.441	112.62
319.67	98.62
319.9	100.62
320.129	89.62
320.358	97.62
320.587	102.62
320.816	91.62
321.046	93.62
321.275	80.62
321.504	88.62
321.733	85.62
321.962	93.62
322.191	95.62
322.42	97.62
322.649	103.62
322.878	95.62
323.108	97.62
323.337	99.62
323.566	120.62
323.795	136.62
324.024	175.62
324.253	334.62
324.482	607.62
324.71	1233.62
324.939	1531.62
325.168	575.62
325.397	213.62
325.626	137.62
325.855	129.62
326.084	101.62
326.313	131.62
326.542	123.62
326.77	183.62
326.999	338.62
327.228	669.62
327.457	1192.62
327.686	971.62
327.914	269.62
328.143	166.62
328.372	133.62
328.6	99.62
328.829	91.62
329.058	118.62
329.287	109.62
329.515	100.62
329.744	93.62
329.972	95.62
330.201	96.62
330.43	92.62
330.658	98.62
330.887	122.62
331.115	118.62
331.344	114.62
331.572	84.62
331.801	91.62
332.03	106.62
332.258	84.62
332.486	94.62
332.715	87.62
332.943	87.62
333.172	72.62
333.4	77.62
333.629	106.62
333.857	110.62
334.085	104.62
334.314	93.62
334.542	105.62
334.771	77.62
334.999	93.62
335.227	91.62
335.455	100.62
335.684	100.62
335.912	84.62
336.14	96.62
336.369	96.62
336.597	93.62
336.825	103.62
337.053	89.62
337.281	102.62
337.51	81.62
337.738	97.62
337.966	86.62
338.194	84.62
338.422	85.62
338.65	89.62
338.878	97.62
339.106	91.62
339.334	90.62
339.562	84.62
339.79	95.62
340.018	80.62
340.246	81.62
340.474	93.62
340.702	83.62
340.93	100.62
341.158	93.62
341.386	85.62
341.614	100.62
341.842	94.62
342.07	77.62
342.298	89.62
342.526	68.62
342.754	94.62
342.981	103.62
343.209	75.62
343.437	98.62
343.665	94.62
343.893	86.62
344.12	97.62
344.348	88.62
344.576	91.62
344.804	93.62
345.031	84.62
345.259	85.62
345.487	90.62
345.714	95.62
345.942	86.62
346.17	87.62
346.397	91.62
346.625	87.62
346.853	68.62
347.08	85.62
347.308	91.62
347.535	90.62
347.763	95.62
347.99	92.62
348.218	92.62
348.445	94.62
348.673	76.62
348.9	88.62
349.128	105.62
349.355	99.62
349.583	107.62
349.81	90.62
350.037	100.62
350.265	94.62
350.492	93.62
350.72	97.62
350.947	91.62
351.174	110.62
351.402	101.62
351.629	101.62
351.856	89.62
352.083	104.62
352.311	86.62
352.538	106.62
352.765	92.62
352.992	99.62
353.22	101.62
353.447	106.62
353.674	99.62
353.901	99.62
354.128	98.62
354.355	105.62
354.583	88.62
354.81	114.62
355.037	101.62
355.264	91.62
355.491	90.62
355.718	84.62
355.945	99.62
356.172	102.62
356.399	97.62
356.626	89.62
356.853	91.62
357.08	98.62
357.307	89.62
357.534	88.62
357.761	91.62
357.988	87.62
358.215	79.62
358.441	108.62
358.668	89.62
358.895	89.62
359.122	101.62
359.349	79.62
359.576	92.62
359.802	101.62
360.029	114.62
360.256	116.62
360.483	99.62
360.709	86.62
360.936	86.62
361.163	66.62
361.39	91.62
361.616	101.62
361.843	99.62
362.07	86.62
362.296	90.62
362.523	78.62
362.749	85.62
362.976	82.62
363.203	95.62
363.429	82.62
363.656	90.62
363.882	77.62
364.109	107.62
364.335	86.62
364.562	89.62
364.788	98.62
365.015	85.62
365.241	96.62
365.468	91.62
365.694	99.62
365.92	95.62
366.147	83.62
366.373	87.62
366.599	88.62
366.826	96.62
367.052	92.62
367.278	80.62
367.505	91.62
367.731	89.62
367.957	87.62
368.184	93.62
368.41	85.62
368.636	100.62
368.862	105.62
369.089	98.62
369.315	76.62
369.541	90.62
369.767	94.62
369.993	87.62
370.219	88.62
370.445	89.62
370.672	71.62
370.898	77.62
371.124	86.62
371.35	83.62
371.576	89.62
371.802	86.62
372.028	100.62
372.254	97.62
372.48	81.62
372.706	86.62
372.932	85.62
373.158	98.62
373.384	83.62
373.61	97.62
373.835	91.62
374.061	83.62
374.287	89.62
374.513	101.62
374.739	95.62
374.965	84.62
375.191	87.62
375.416	77.62
375.642	87.62
375.868	83.62
376.094	84.62
376.319	81.62
376.545	87.62
376.771	82.62
376.997	93.62
377.222	81.62
377.448	95.62
377.674	81.62
377.899	76.62
378.125	87.62
378.35	76.62
378.576	95.62
378.802	86.62
379.027	85.62
379.253	91.62
379.478	89.62
379.704	88.62
379.929	95.62
380.155	87.62
380.38	93.62
380.606	85.62
380.831	100.62
381.057	89.62
381.282	88.62
381.507	103.62
381.733	96.62
381.958	90.62
382.184	88.62
382.409	104.62
382.634	97.62
382.86	91.62
383.085	99.62
383.31	106.62
383.535	90.62
383.761	99.62
383.986	98.62
384.211	91.62
384.436	97.62
384.662	99.62
384.887	95.62
385.112	88.62
385.337	93.62
385.562	99.62
385.787	100.62
386.013	108.62
386.238	105.62
386.463	100.62
386.688	109.62
386.913	91.62
387.138	100.62
387.363	96.62
387.588	82.62
387.813	97.62
388.038	94.62
388.263	89.62
388.488	105.62
388.713	89.62
388.938	92.62
389.163	85.62
389.387	82.62
389.612	92.62
389.837	76.62
390.062	100.62
390.287	98.62
390.512	91.62
390.736	100.62
390.961	86.62
391.186	92.62
391.411	88.62
391.636	88.62
391.86	82.62
392.085	89.62
392.31	81.62
392.534	80.62
392.759	75.62
392.984	83.62
393.208	96.62
393.433	104.62
393.658	83.62
393.882	100.62
394.107	91.62
394.331	93.62
394.556	87.62
394.78	95.62
395.005	81.62
395.229	88.62
395.454	82.62
395.678	92.62
395.903	88.62
396.127	87.62
396.352	78.62
396.576	87.62
396.801	67.62
397.025	85.62
397.249	107.62
397.474	92.62
397.698	79.62
397.922	96.62
398.147	99.62
398.371	88.62
398.595	79.62
398.82	88.62
399.044	90.62
399.268	86.62
399.492	97.62
399.717	74.62
399.941	87.62
400.165	95.62
400.389	69.62
400.613	83.62
400.837	85.62
401.062	90.62
401.286	77.62
401.51	90.62
401.734	79.62
401.958	90.62
402.182	111.62
402.406	118.62
402.63	120.62
402.854	78.62
403.078	85.62
403.302	88.62
403.526	82.62
403.75	85.62
403.974	103.62
404.198	85.62
404.422	95.62
404.645	75.62
404.869	84.62
405.093	92.62
405.317	100.62
405.541	88.62
405.765	71.62
405.988	110.62
406.212	147.62
406.436	187.62
406.66	118.62
406.883	99.62
407.107	93.62
407.331	89.62
407.555	79.62
407.778	75.62
408.002	99.62
408.226	89.62
408.449	91.62
408.673	85.62
408.896	92.62
409.12	98.62
409.344	80.62
409.567	83.62
409.791	92.62
410.014	97.62
410.238	89.62
410.461	96.62
410.685	114.62
410.908	99.62
411.132	106.62
411.355	108.62
411.578	91.62
411.802	94.62
412.025	74.62
412.249	82.62
412.472	84.62
412.695	77.62
412.919	85.62
413.142	84.62
413.365	89.62
413.589	95.62
413.812	82.62
414.035	94.62
414.258	85.62
414.482	81.62
414.705	92.62
414.928	76.62
415.151	85.62
415.374	99.62
415.597	84.62
415.821	98.62
416.044	96.62
416.267	97.62
416.49	84.62
416.713	92.62
416.936	91.62
417.159	89.62
417.382	81.62
417.605	84.62
417.828	88.62
418.051	92.62
418.274	79.62
418.497	76.62
418.72	84.62
418.943	89.62
419.166	71.62
419.389	88.62
419.611	90.62
419.834	69.62
420.057	86.62
420.28	88.62
420.503	76.62
420.726	97.62
420.948	73.62
421.171	99.62
421.394	100.62
421.617	71.62
421.839	84.62
422.062	95.62
422.285	81.62
422.507	98.62
422.73	100.62
422.953	95.62
423.175	96.62
423.398	85.62
423.621	84.62
423.843	86.62
424.066	93.62
424.288	86.62
424.511	80.62
424.733	98.62
424.956	93.62
425.178	88.62
425.401	96.62
425.623	93.62
425.846	89.62
426.068	82.62
426.291	91.62
426.513	82.62
426.735	88.62
426.958	87.62
427.18	104.62
427.402	120.62
427.625	121.62
427.847	104.62
428.069	97.62
428.292	90.62
428.514	88.62
428.736	98.62
428.958	88.62
429.181	82.62
429.403	82.62
429.625	82.62
429.847	92.62
430.069	107.62
430.292	88.62
430.514	83.62
430.736	79.62
430.958	81.62
431.18	73.62
431.402	77.62
431.624	72.62
431.846	80.62
432.068	76.62
432.29	83.62
432.512	99.62
432.734	79.62
432.956	89.62
433.178	82.62
433.4	91.62
433.622	92.62
433.844	89.62
434.066	96.62
434.287	77.62
434.509	93.62
434.731	73.62
434.953	77.62
435.175	87.62
435.397	84.62
435.618	83.62
435.84	90.62
436.062	107.62
436.284	108.62
436.505	104.62
436.727	105.62
436.949	81.62
437.17	81.62
437.392	89.62
437.614	81.62
437.835	118.62
438.057	98.62
438.278	80.62
438.5	79.62
438.721	100.62
438.943	90.62
439.165	90.62
439.386	76.62
439.608	83.62
439.829	92.62
440.05	105.62
440.272	119.62
440.493	94.62
440.715	91.62
440.936	86.62
441.158	72.62
441.379	95.62
441.6	83.62
441.822	93.62
442.043	94.62
442.264	105.62
442.486	101.62
442.707	87.62
442.928	92.62
443.149	96.62
443.371	118.62
443.592	96.62
443.813	97.62
444.034	101.62
444.255	80.62
444.476	95.62
444.698	95.62
444.919	86.62
445.14	127.62
445.361	122.62
445.582	104.62
445.803	113.62
446.024	123.62
446.245	114.62
446.466	103.62
446.687	101.62
446.908	83.62
447.129	79.62
447.35	84.62
447.571	83.62
447.792	87.62
448.013	97.62
448.234	92.62
448.455	96.62
448.675	112.62
448.896	103.62
449.117	100.62
449.338	98.62
449.559	101.62
449.779	101.62
450	92.62
450.221	96.62
450.442	76.62
450.662	95.62
450.883	89.62
451.104	104.62
451.324	92.62
451.545	85.62
451.766	79.62
451.986	80.62
452.207	96.62
452.428	92.62
452.648	81.62
452.869	110.62
453.089	96.62
453.31	114.62
453.53	95.62
453.751	93.62
453.971	108.62
454.192	99.62
454.412	78.62
454.633	90.62
454.853	79.62
455.073	85.62
455.294	85.62
455.514	90.62
455.734	83.62
455.955	86.62
456.175	96.62
456.395	79.62
456.616	72.62
456.836	87.62
457.056	100.62
457.276	78.62
457.497	85.62
457.717	83.62
457.937	84.62
458.157	90.62
458.377	82.62
458.598	84.62
458.818	129.62
459.038	128.62
459.258	100.62
459.478	83.62
459.698	64.62
459.918	92.62
460.138	85.62
460.358	88.62
460.578	85.62
460.798	86.62
461.018	85.62
461.238	83.62
461.458	89.62
461.678	84.62
461.898	80.62
462.118	68.62
462.338	87.62
462.558	89.62
462.777	84.62
462.997	91.62
463.217	79.62
463.437	94.62
463.657	75.62
463.876	75.62
464.096	76.62
464.316	79.62
464.536	87.62
464.755	92.62
464.975	103.62
465.195	142.62
465.414	156.62
465.634	98.62
465.854	96.62
466.073	75.62
466.293	89.62
466.512	88.62
466.732	84.62
466.951	87.62
467.171	92.62
467.391	87.62
467.61	97.62
467.829	77.62
468.049	87.62
468.268	90.62
468.488	79.62
468.707	80.62
468.927	88.62
469.146	91.62
469.365	78.62
469.585	93.62
469.804	87.62
470.023	75.62
470.243	99.62
470.462	93.62
470.681	96.62
470.901	81.62
471.12	87.62
471.339	80.62
471.558	76.62
471.777	82.62
471.997	84.62
472.216	92.62
472.435	95.62
472.654	92.62
472.873	83.62
473.092	77.62
473.311	80.62
473.53	84.62
473.749	86.62
473.968	92.62
474.187	107.62
474.406	85.62
474.625	86.62
474.844	99.62
475.063	85.62
475.282	87.62
475.501	80.62
475.72	81.62
475.939	82.62
476.158	84.62
476.377	78.62
476.596	75.62
476.814	89.62
477.033	83.62
477.252	87.62
477.471	86.62
477.69	80.62
477.908	88.62
478.127	95.62
478.346	83.62
478.564	82.62
478.783	90.62
479.002	93.62
479.22	93.62
479.439	109.62
479.658	77.62
479.876	89.62
480.095	85.62
480.313	91.62
480.532	91.62
480.751	87.62
480.969	101.62
481.188	101.62
481.406	106.62
481.624	91.62
481.843	98.62
482.061	69.62
482.28	74.62
482.498	83.62
482.717	85.62
482.935	88.62
483.153	74.62
483.372	79.62
483.59	96.62
483.808	97.62
484.027	95.62
484.245	103.62
484.463	91.62
484.681	99.62
484.9	94.62
485.118	78.62
485.336	97.62
485.554	102.62
485.772	106.62
485.99	99.62
486.209	92.62
486.427	104.62
486.645	100.62
486.863	108.62
487.081	97.62
487.299	83.62
487.517	91.62
487.735	85.62
487.953	91.62
488.171	85.62
488.389	95.62
488.607	84.62
488.825	81.62
489.043	93.62
489.261	78.62
489.479	87.62
489.696	96.62
489.914	96.62
490.132	86.62
490.35	95.62
490.568	84.62
490.786	93.62
491.003	80.62
491.221	83.62
491.439	86.62
491.657	85.62
491.874	95.62
492.092	91.62
492.31	94.62
492.527	93.62
492.745	58.62
492.963	82.62
493.18	92.62
493.398	96.62
493.615	85.62
493.833	98.62
494.05	91.62
494.268	85.62
494.485	83.62
494.703	80.62
494.92	89.62
495.138	87.62
495.355	86.62
495.573	103.62
495.79	92.62
496.008	85.62
496.225	97.62
496.442	89.62
496.66	83.62
496.877	93.62
497.094	90.62
497.312	95.62
497.529	69.62
497.746	98.62
497.963	97.62
498.181	91.62
498.398	96.62
498.615	110.62
498.832	107.62
499.049	76.62
499.267	72.62
499.484	91.62
499.701	97.62
499.918	96.62
500.135	104.62
500.352	96.62
500.569	81.62
500.786	71.62
501.003	88.62
501.22	77.62
501.437	87.62
501.654	79.62
501.871	98.62
502.088	77.62
502.305	85.62
502.522	96.62
502.739	93.62
502.956	93.62
503.172	97.62
503.389	95.62
503.606	101.62
503.823	79.62
504.04	98.62
504.256	91.62
504.473	90.62
504.69	85.62
504.907	86.62
505.123	77.62
505.34	87.62
505.557	79.62
505.773	72.62
505.99	77.62
506.207	84.62
506.423	82.62
506.64	95.62
506.856	81.62
507.073	90.62
507.289	90.62
507.506	85.62
507.722	99.62
507.939	100.62
508.155	86.62
508.372	83.62
508.588	79.62
508.805	101.62
509.021	84.62
509.238	85.62
509.454	94.62
509.67	98.62
509.887	93.62
510.103	108.62
510.319	189.62
510.536	637.62
510.752	1877.62
510.968	533.62
511.184	152.62
511.401	117.62
511.617	91.62
511.833	94.62
512.049	86.62
512.265	94.62
512.481	89.62
512.698	107.62
512.914	73.62
513.13	89.62
513.346	96.62
513.562	101.62
513.778	94.62
513.994	96.62
514.21	105.62
514.426	91.62
514.642	112.62
514.858	108.62
515.074	140.62
515.29	340.62
515.506	1079.62
515.721	392.62
515.937	136.62
516.153	96.62
516.369	96.62
516.585	85.62
516.801	85.62
517.016	98.62
517.232	105.62
