Data from Uncirc_1993_H10_HRD10591_00059.txt Node
Date: Wed Jan 03 11:43:04 EST 2024
User: Yrep
Spectrometer: HR+D1059
Trigger mode: 1
Integration Time (sec): 1.000000E-1
Scans to average: 1
Electric dark correction enabled: true
Nonlinearity correction enabled: false
Boxcar width: 0
XAxis mode: Wavelengths
Number of Pixels in Spectrum: 2048
>>>>>Begin Spectral Data<<<<<
223.165	-6.69
223.4	-6.69
223.635	-6.69
223.869	-18.69
224.104	-17.69
224.338	-15.69
224.573	-9.69
224.808	-21.69
225.042	-7.69
225.277	-8.69
225.511	-18.69
225.746	2.31
225.98	7.31
226.215	13.31
226.449	22.31
226.683	18.31
226.918	28.31
227.152	33.31
227.387	39.31
227.621	18.31
227.856	27.31
228.09	55.31
228.324	47.31
228.559	60.31
228.793	62.31
229.027	49.31
229.262	52.31
229.496	74.31
229.73	79.31
229.964	71.31
230.199	75.31
230.433	72.31
230.667	81.31
230.901	68.31
231.136	71.31
231.37	64.31
231.604	77.31
231.838	65.31
232.072	70.31
232.306	70.31
232.541	78.31
232.775	96.31
233.009	75.31
233.243	81.31
233.477	79.31
233.711	62.31
233.945	82.31
234.179	93.31
234.413	73.31
234.647	86.31
234.881	68.31
235.115	84.31
235.349	83.31
235.583	68.31
235.817	85.31
236.051	64.31
236.285	79.31
236.519	68.31
236.753	66.31
236.987	78.31
237.221	79.31
237.455	81.31
237.689	72.31
237.922	86.31
238.156	82.31
238.39	75.31
238.624	73.31
238.858	84.31
239.091	75.31
239.325	65.31
239.559	64.31
239.793	74.31
240.027	72.31
240.26	73.31
240.494	80.31
240.728	60.31
240.961	72.31
241.195	79.31
241.429	67.31
241.662	71.31
241.896	76.31
242.13	72.31
242.363	66.31
242.597	78.31
242.83	84.31
243.064	79.31
243.298	60.31
243.531	62.31
243.765	77.31
243.998	71.31
244.232	80.31
244.465	76.31
244.699	73.31
244.932	85.31
245.166	79.31
245.399	84.31
245.633	63.31
245.866	71.31
246.099	76.31
246.333	74.31
246.566	77.31
246.8	87.31
247.033	93.31
247.266	82.31
247.5	81.31
247.733	83.31
247.966	81.31
248.2	73.31
248.433	80.31
248.666	77.31
248.899	68.31
249.133	72.31
249.366	98.31
249.599	84.31
249.832	68.31
250.066	77.31
250.299	69.31
250.532	74.31
250.765	83.31
250.998	83.31
251.231	81.31
251.465	74.31
251.698	74.31
251.931	68.31
252.164	69.31
252.397	74.31
252.63	80.31
252.863	91.31
253.096	87.31
253.329	81.31
253.562	71.31
253.795	80.31
254.028	64.31
254.261	85.31
254.494	82.31
254.727	84.31
254.96	72.31
255.193	83.31
255.426	88.31
255.659	78.31
255.892	79.31
256.124	75.31
256.357	79.31
256.59	83.31
256.823	85.31
257.056	68.31
257.289	89.31
257.521	71.31
257.754	67.31
257.987	77.31
258.22	82.31
258.452	82.31
258.685	79.31
258.918	81.31
259.151	83.31
259.383	87.31
259.616	76.31
259.849	68.31
260.081	77.31
260.314	88.31
260.547	65.31
260.779	73.31
261.012	75.31
261.244	84.31
261.477	77.31
261.71	84.31
261.942	99.31
262.175	112.31
262.407	88.31
262.64	79.31
262.872	84.31
263.105	84.31
263.337	89.31
263.57	88.31
263.802	81.31
264.035	81.31
264.267	73.31
264.499	65.31
264.732	63.31
264.964	75.31
265.197	79.31
265.429	79.31
265.661	94.31
265.894	66.31
266.126	72.31
266.358	65.31
266.591	81.31
266.823	90.31
267.055	75.31
267.287	86.31
267.52	80.31
267.752	86.31
267.984	80.31
268.216	73.31
268.448	99.31
268.681	74.31
268.913	93.31
269.145	67.31
269.377	87.31
269.609	71.31
269.841	83.31
270.073	77.31
270.306	75.31
270.538	97.31
270.77	85.31
271.002	77.31
271.234	91.31
271.466	91.31
271.698	92.31
271.93	81.31
272.162	88.31
272.394	89.31
272.626	83.31
272.858	68.31
273.09	77.31
273.322	86.31
273.553	89.31
273.785	96.31
274.017	69.31
274.249	83.31
274.481	77.31
274.713	87.31
274.945	79.31
275.176	72.31
275.408	95.31
275.64	81.31
275.872	91.31
276.104	88.31
276.335	94.31
276.567	95.31
276.799	111.31
277.031	107.31
277.262	88.31
277.494	89.31
277.726	79.31
277.957	88.31
278.189	83.31
278.421	91.31
278.652	84.31
278.884	83.31
279.115	87.31
279.347	88.31
279.579	98.31
279.81	99.31
280.042	85.31
280.273	98.31
280.505	94.31
280.736	94.31
280.968	97.31
281.199	96.31
281.431	82.31
281.662	77.31
281.894	84.31
282.125	112.31
282.356	102.31
282.588	130.31
282.819	103.31
283.051	80.31
283.282	88.31
283.513	75.31
283.745	92.31
283.976	92.31
284.207	89.31
284.439	91.31
284.67	95.31
284.901	99.31
285.132	79.31
285.364	79.31
285.595	88.31
285.826	79.31
286.057	83.31
286.288	81.31
286.52	84.31
286.751	81.31
286.982	79.31
287.213	89.31
287.444	85.31
287.675	75.31
287.906	85.31
288.138	85.31
288.369	93.31
288.6	89.31
288.831	97.31
289.062	86.31
289.293	74.31
289.524	90.31
289.755	86.31
289.986	72.31
290.217	82.31
290.448	90.31
290.679	89.31
290.91	89.31
291.141	82.31
291.371	91.31
291.602	92.31
291.833	83.31
292.064	101.31
292.295	95.31
292.526	90.31
292.757	95.31
292.987	83.31
293.218	69.31
293.449	88.31
293.68	90.31
293.91	91.31
294.141	92.31
294.372	97.31
294.603	83.31
294.833	99.31
295.064	102.31
295.295	84.31
295.525	97.31
295.756	105.31
295.987	107.31
296.217	136.31
296.448	115.31
296.679	101.31
296.909	79.31
297.14	84.31
297.37	87.31
297.601	98.31
297.831	72.31
298.062	91.31
298.292	81.31
298.523	92.31
298.753	88.31
298.984	94.31
299.214	102.31
299.445	83.31
299.675	87.31
299.905	87.31
300.136	93.31
300.366	96.31
300.597	88.31
300.827	99.31
301.057	89.31
301.288	98.31
301.518	78.31
301.748	90.31
301.979	92.31
302.209	97.31
302.439	82.31
302.669	89.31
302.9	86.31
303.13	91.31
303.36	87.31
303.59	89.31
303.82	105.31
304.051	95.31
304.281	86.31
304.511	87.31
304.741	96.31
304.971	89.31
305.201	86.31
305.431	97.31
305.661	81.31
305.891	103.31
306.121	87.31
306.352	103.31
306.582	90.31
306.812	88.31
307.042	87.31
307.272	92.31
307.502	96.31
307.731	97.31
307.961	83.31
308.191	87.31
308.421	88.31
308.651	82.31
308.881	91.31
309.111	99.31
309.341	97.31
309.571	83.31
309.8	98.31
310.03	100.31
310.26	104.31
310.49	100.31
310.72	83.31
310.949	97.31
311.179	84.31
311.409	93.31
311.639	90.31
311.868	105.31
312.098	92.31
312.328	97.31
312.557	97.31
312.787	103.31
313.017	104.31
313.246	85.31
313.476	96.31
313.706	86.31
313.935	81.31
314.165	100.31
314.394	110.31
314.624	93.31
314.853	89.31
315.083	83.31
315.312	92.31
315.542	91.31
315.771	80.31
316.001	88.31
316.23	88.31
316.46	97.31
316.689	91.31
316.919	98.31
317.148	83.31
317.377	86.31
317.607	99.31
317.836	87.31
318.065	93.31
318.295	95.31
318.524	94.31
318.753	98.31
318.983	83.31
319.212	93.31
319.441	105.31
319.67	97.31
319.9	90.31
320.129	100.31
320.358	103.31
320.587	92.31
320.816	104.31
321.046	93.31
321.275	86.31
321.504	95.31
321.733	108.31
321.962	96.31
322.191	99.31
322.42	101.31
322.649	100.31
322.878	100.31
323.108	120.31
323.337	121.31
323.566	114.31
323.795	128.31
324.024	204.31
324.253	343.31
324.482	723.31
324.71	1399.31
324.939	1799.31
325.168	695.31
325.397	217.31
325.626	143.31
325.855	121.31
326.084	122.31
326.313	123.31
326.542	144.31
326.77	199.31
326.999	387.31
327.228	791.31
327.457	1406.31
327.686	1109.31
327.914	317.31
328.143	184.31
328.372	115.31
328.6	106.31
328.829	114.31
329.058	118.31
329.287	124.31
329.515	108.31
329.744	98.31
329.972	84.31
330.201	112.31
330.43	100.31
330.658	119.31
330.887	138.31
331.115	108.31
331.344	116.31
331.572	93.31
331.801	90.31
332.03	98.31
332.258	107.31
332.486	95.31
332.715	95.31
332.943	91.31
333.172	74.31
333.4	107.31
333.629	93.31
333.857	102.31
334.085	107.31
334.314	91.31
334.542	90.31
334.771	88.31
334.999	96.31
335.227	94.31
335.455	91.31
335.684	91.31
335.912	112.31
336.14	95.31
336.369	93.31
336.597	109.31
336.825	101.31
337.053	104.31
337.281	77.31
337.51	85.31
337.738	105.31
337.966	95.31
338.194	101.31
338.422	102.31
338.65	82.31
338.878	91.31
339.106	76.31
339.334	86.31
339.562	96.31
339.79	100.31
340.018	82.31
340.246	89.31
340.474	98.31
340.702	90.31
340.93	90.31
341.158	96.31
341.386	83.31
341.614	82.31
341.842	97.31
342.07	95.31
342.298	98.31
342.526	90.31
342.754	87.31
342.981	97.31
343.209	94.31
343.437	93.31
343.665	98.31
343.893	83.31
344.12	87.31
344.348	86.31
344.576	86.31
344.804	93.31
345.031	87.31
345.259	85.31
345.487	89.31
345.714	96.31
345.942	86.31
346.17	94.31
346.397	99.31
346.625	84.31
346.853	77.31
347.08	79.31
347.308	83.31
347.535	84.31
347.763	103.31
347.99	95.31
348.218	106.31
348.445	107.31
348.673	101.31
348.9	110.31
349.128	90.31
349.355	92.31
349.583	89.31
349.81	93.31
350.037	99.31
350.265	87.31
350.492	102.31
350.72	93.31
350.947	94.31
351.174	105.31
351.402	108.31
351.629	96.31
351.856	96.31
352.083	88.31
352.311	96.31
352.538	94.31
352.765	102.31
352.992	113.31
353.22	118.31
353.447	112.31
353.674	109.31
353.901	91.31
354.128	85.31
354.355	91.31
354.583	96.31
354.81	113.31
355.037	95.31
355.264	95.31
355.491	90.31
355.718	101.31
355.945	103.31
356.172	94.31
356.399	95.31
356.626	90.31
356.853	97.31
357.08	101.31
357.307	83.31
357.534	94.31
357.761	99.31
357.988	81.31
358.215	95.31
358.441	82.31
358.668	97.31
358.895	84.31
359.122	98.31
359.349	75.31
359.576	82.31
359.802	100.31
360.029	114.31
360.256	110.31
360.483	97.31
360.709	87.31
360.936	96.31
361.163	92.31
361.39	89.31
361.616	85.31
361.843	87.31
362.07	100.31
362.296	88.31
362.523	101.31
362.749	92.31
362.976	91.31
363.203	86.31
363.429	83.31
363.656	92.31
363.882	86.31
364.109	88.31
364.335	99.31
364.562	95.31
364.788	89.31
365.015	83.31
365.241	92.31
365.468	116.31
365.694	98.31
365.92	95.31
366.147	97.31
366.373	84.31
366.599	87.31
366.826	96.31
367.052	76.31
367.278	90.31
367.505	98.31
367.731	91.31
367.957	86.31
368.184	80.31
368.41	97.31
368.636	89.31
368.862	106.31
369.089	105.31
369.315	87.31
369.541	93.31
369.767	101.31
369.993	89.31
370.219	85.31
370.445	94.31
370.672	87.31
370.898	88.31
371.124	86.31
371.35	85.31
371.576	89.31
371.802	73.31
372.028	80.31
372.254	97.31
372.48	79.31
372.706	76.31
372.932	78.31
373.158	95.31
373.384	91.31
373.61	90.31
373.835	82.31
374.061	90.31
374.287	84.31
374.513	91.31
374.739	82.31
374.965	95.31
375.191	82.31
375.416	98.31
375.642	88.31
375.868	96.31
376.094	102.31
376.319	93.31
376.545	83.31
376.771	76.31
376.997	94.31
377.222	92.31
377.448	81.31
377.674	96.31
377.899	95.31
378.125	91.31
378.35	98.31
378.576	87.31
378.802	80.31
379.027	97.31
379.253	88.31
379.478	93.31
379.704	82.31
379.929	98.31
380.155	88.31
380.38	85.31
380.606	104.31
380.831	71.31
381.057	103.31
381.282	85.31
381.507	92.31
381.733	87.31
381.958	94.31
382.184	97.31
382.409	98.31
382.634	92.31
382.86	94.31
383.085	91.31
383.31	98.31
383.535	104.31
383.761	95.31
383.986	99.31
384.211	84.31
384.436	104.31
384.662	101.31
384.887	102.31
385.112	100.31
385.337	104.31
385.562	93.31
385.787	93.31
386.013	113.31
386.238	99.31
386.463	79.31
386.688	115.31
386.913	104.31
387.138	91.31
387.363	80.31
387.588	96.31
387.813	89.31
388.038	96.31
388.263	97.31
388.488	98.31
388.713	84.31
388.938	90.31
389.163	86.31
389.387	99.31
389.612	97.31
389.837	87.31
390.062	92.31
390.287	80.31
390.512	94.31
390.736	82.31
390.961	111.31
391.186	108.31
391.411	100.31
391.636	90.31
391.86	89.31
392.085	96.31
392.31	105.31
392.534	83.31
392.759	84.31
392.984	82.31
393.208	100.31
393.433	96.31
393.658	96.31
393.882	76.31
394.107	82.31
394.331	75.31
394.556	90.31
394.78	79.31
395.005	90.31
395.229	81.31
395.454	93.31
395.678	91.31
395.903	91.31
396.127	87.31
396.352	90.31
396.576	80.31
396.801	86.31
397.025	88.31
397.249	81.31
397.474	81.31
397.698	77.31
397.922	84.31
398.147	91.31
398.371	73.31
398.595	64.31
398.82	91.31
399.044	77.31
399.268	86.31
399.492	83.31
399.717	83.31
399.941	97.31
400.165	101.31
400.389	86.31
400.613	78.31
400.837	86.31
401.062	93.31
401.286	68.31
401.51	91.31
401.734	81.31
401.958	90.31
402.182	121.31
402.406	133.31
402.63	122.31
402.854	91.31
403.078	99.31
403.302	84.31
403.526	83.31
403.75	80.31
403.974	87.31
404.198	93.31
404.422	84.31
404.645	76.31
404.869	76.31
405.093	91.31
405.317	97.31
405.541	100.31
405.765	100.31
405.988	106.31
406.212	171.31
406.436	206.31
406.66	138.31
406.883	84.31
407.107	97.31
407.331	84.31
407.555	92.31
407.778	93.31
408.002	92.31
408.226	104.31
408.449	91.31
408.673	95.31
408.896	95.31
409.12	104.31
409.344	95.31
409.567	87.31
409.791	101.31
410.014	94.31
410.238	95.31
410.461	92.31
410.685	100.31
410.908	88.31
411.132	111.31
411.355	94.31
411.578	101.31
411.802	90.31
412.025	99.31
412.249	78.31
412.472	92.31
412.695	95.31
412.919	92.31
413.142	96.31
413.365	78.31
413.589	84.31
413.812	84.31
414.035	80.31
414.258	82.31
414.482	95.31
414.705	96.31
414.928	94.31
415.151	80.31
415.374	95.31
415.597	86.31
415.821	79.31
416.044	77.31
416.267	73.31
416.49	84.31
416.713	84.31
416.936	80.31
417.159	88.31
417.382	84.31
417.605	88.31
417.828	96.31
418.051	95.31
418.274	91.31
418.497	90.31
418.72	94.31
418.943	84.31
419.166	85.31
419.389	78.31
419.611	87.31
419.834	89.31
420.057	93.31
420.28	83.31
420.503	72.31
420.726	100.31
420.948	90.31
421.171	94.31
421.394	90.31
421.617	92.31
421.839	88.31
422.062	83.31
422.285	89.31
422.507	95.31
422.73	85.31
422.953	91.31
423.175	84.31
423.398	104.31
423.621	96.31
423.843	82.31
424.066	88.31
424.288	73.31
424.511	89.31
424.733	107.31
424.956	101.31
425.178	100.31
425.401	91.31
425.623	89.31
425.846	98.31
426.068	91.31
426.291	95.31
426.513	99.31
426.735	95.31
426.958	99.31
427.18	89.31
427.402	139.31
427.625	150.31
427.847	121.31
428.069	87.31
428.292	81.31
428.514	74.31
428.736	90.31
428.958	80.31
429.181	83.31
429.403	85.31
429.625	90.31
429.847	85.31
430.069	85.31
430.292	84.31
430.514	92.31
430.736	85.31
430.958	97.31
431.18	86.31
431.402	96.31
431.624	89.31
431.846	81.31
432.068	95.31
432.29	93.31
432.512	91.31
432.734	89.31
432.956	82.31
433.178	82.31
433.4	101.31
433.622	88.31
433.844	88.31
434.066	96.31
434.287	103.31
434.509	106.31
434.731	83.31
434.953	99.31
435.175	90.31
435.397	92.31
435.618	82.31
435.84	89.31
436.062	125.31
436.284	102.31
436.505	88.31
436.727	89.31
436.949	96.31
437.17	79.31
437.392	81.31
437.614	88.31
437.835	102.31
438.057	98.31
438.278	92.31
438.5	100.31
438.721	107.31
438.943	95.31
439.165	85.31
439.386	93.31
439.608	90.31
439.829	104.31
440.05	116.31
440.272	121.31
440.493	84.31
440.715	76.31
440.936	89.31
441.158	83.31
441.379	84.31
441.6	106.31
441.822	91.31
442.043	93.31
442.264	87.31
442.486	99.31
442.707	93.31
442.928	111.31
443.149	111.31
443.371	117.31
443.592	100.31
443.813	115.31
444.034	105.31
444.255	88.31
444.476	79.31
444.698	85.31
444.919	83.31
445.14	135.31
445.361	113.31
445.582	109.31
445.803	126.31
446.024	128.31
446.245	120.31
446.466	97.31
446.687	93.31
446.908	86.31
447.129	90.31
447.35	84.31
447.571	88.31
447.792	81.31
448.013	86.31
448.234	89.31
448.455	79.31
448.675	100.31
448.896	99.31
449.117	103.31
449.338	109.31
449.559	123.31
449.779	114.31
450	97.31
450.221	89.31
450.442	89.31
450.662	95.31
450.883	118.31
451.104	97.31
451.324	87.31
451.545	90.31
451.766	100.31
451.986	75.31
452.207	91.31
452.428	105.31
452.648	105.31
452.869	101.31
453.089	97.31
453.31	112.31
453.53	98.31
453.751	91.31
453.971	105.31
454.192	93.31
454.412	96.31
454.633	83.31
454.853	77.31
455.073	84.31
455.294	87.31
455.514	93.31
455.734	100.31
455.955	87.31
456.175	85.31
456.395	90.31
456.616	96.31
456.836	100.31
457.056	98.31
457.276	89.31
457.497	105.31
457.717	94.31
457.937	92.31
458.157	99.31
458.377	91.31
458.598	112.31
458.818	121.31
459.038	132.31
459.258	112.31
459.478	86.31
459.698	93.31
459.918	90.31
460.138	82.31
460.358	92.31
460.578	101.31
460.798	88.31
461.018	89.31
461.238	96.31
461.458	89.31
461.678	103.31
461.898	100.31
462.118	79.31
462.338	84.31
462.558	88.31
462.777	80.31
462.997	101.31
463.217	93.31
463.437	83.31
463.657	84.31
463.876	92.31
464.096	94.31
464.316	87.31
464.536	83.31
464.755	87.31
464.975	93.31
465.195	141.31
465.414	127.31
465.634	95.31
465.854	98.31
466.073	94.31
466.293	91.31
466.512	79.31
466.732	87.31
466.951	84.31
467.171	89.31
467.391	90.31
467.61	97.31
467.829	96.31
468.049	85.31
468.268	96.31
468.488	96.31
468.707	92.31
468.927	75.31
469.146	84.31
469.365	91.31
469.585	95.31
469.804	94.31
470.023	90.31
470.243	84.31
470.462	97.31
470.681	96.31
470.901	92.31
471.12	93.31
471.339	80.31
471.558	79.31
471.777	76.31
471.997	87.31
472.216	90.31
472.435	81.31
472.654	75.31
472.873	91.31
473.092	82.31
473.311	84.31
473.53	80.31
473.749	76.31
473.968	89.31
474.187	95.31
474.406	89.31
474.625	80.31
474.844	88.31
475.063	73.31
475.282	89.31
475.501	84.31
475.72	92.31
475.939	94.31
476.158	82.31
476.377	90.31
476.596	71.31
476.814	83.31
477.033	96.31
477.252	85.31
477.471	73.31
477.69	83.31
477.908	91.31
478.127	89.31
478.346	96.31
478.564	99.31
478.783	83.31
479.002	88.31
479.22	97.31
479.439	98.31
479.658	90.31
479.876	92.31
480.095	76.31
480.313	98.31
480.532	98.31
480.751	84.31
480.969	82.31
481.188	99.31
481.406	103.31
481.624	82.31
481.843	77.31
482.061	83.31
482.28	73.31
482.498	93.31
482.717	101.31
482.935	92.31
483.153	97.31
483.372	83.31
483.59	73.31
483.808	91.31
484.027	92.31
484.245	87.31
484.463	90.31
484.681	91.31
484.9	91.31
485.118	75.31
485.336	77.31
485.554	97.31
485.772	108.31
485.99	101.31
486.209	92.31
486.427	109.31
486.645	108.31
486.863	108.31
487.081	97.31
487.299	105.31
487.517	94.31
487.735	96.31
487.953	84.31
488.171	92.31
488.389	99.31
488.607	95.31
488.825	92.31
489.043	103.31
489.261	102.31
489.479	91.31
489.696	85.31
489.914	101.31
490.132	92.31
490.35	87.31
490.568	92.31
490.786	93.31
491.003	97.31
491.221	91.31
491.439	81.31
491.657	95.31
491.874	115.31
492.092	86.31
492.31	89.31
492.527	84.31
492.745	86.31
492.963	73.31
493.18	87.31
493.398	91.31
493.615	87.31
493.833	93.31
494.05	101.31
494.268	87.31
494.485	84.31
494.703	90.31
494.92	95.31
495.138	100.31
495.355	96.31
495.573	101.31
495.79	91.31
496.008	77.31
496.225	96.31
496.442	88.31
496.66	107.31
496.877	84.31
497.094	83.31
497.312	85.31
497.529	94.31
497.746	89.31
497.963	91.31
498.181	83.31
498.398	79.31
498.615	96.31
498.832	101.31
499.049	91.31
499.267	94.31
499.484	91.31
499.701	91.31
499.918	92.31
500.135	89.31
500.352	99.31
500.569	84.31
500.786	74.31
501.003	100.31
501.22	90.31
501.437	91.31
501.654	94.31
501.871	95.31
502.088	86.31
502.305	95.31
502.522	91.31
502.739	83.31
502.956	82.31
503.172	91.31
503.389	88.31
503.606	92.31
503.823	92.31
504.04	92.31
504.256	84.31
504.473	85.31
504.69	80.31
504.907	84.31
505.123	83.31
505.34	84.31
505.557	92.31
505.773	92.31
505.99	103.31
506.207	100.31
506.423	88.31
506.64	95.31
506.856	92.31
507.073	80.31
507.289	89.31
507.506	97.31
507.722	111.31
507.939	101.31
508.155	99.31
508.372	100.31
508.588	90.31
508.805	96.31
509.021	97.31
509.238	96.31
509.454	101.31
509.67	110.31
509.887	106.31
510.103	138.31
510.319	211.31
510.536	680.31
510.752	2159.31
510.968	588.31
511.184	139.31
511.401	111.31
511.617	97.31
511.833	92.31
512.049	108.31
512.265	89.31
512.481	88.31
512.698	93.31
512.914	83.31
513.13	100.31
513.346	94.31
513.562	88.31
513.778	96.31
513.994	92.31
514.21	94.31
514.426	117.31
514.642	123.31
514.858	122.31
515.074	156.31
515.29	417.31
515.506	1314.31
515.721	496.31
515.937	139.31
516.153	94.31
516.369	92.31
516.585	75.31
