Data from Uncirc_1993_H10_HRD10591_00097.txt Node
Date: Wed Jan 03 11:43:11 EST 2024
User: Yrep
Spectrometer: HR+D1059
Trigger mode: 1
Integration Time (sec): 1.000000E-1
Scans to average: 1
Electric dark correction enabled: true
Nonlinearity correction enabled: false
Boxcar width: 0
XAxis mode: Wavelengths
Number of Pixels in Spectrum: 2048
>>>>>Begin Spectral Data<<<<<
223.165	-4.38
223.4	-4.38
223.635	-4.38
223.869	-22.38
224.104	-29.38
224.338	-27.38
224.573	-9.38
224.808	-14.38
225.042	-9.38
225.277	-9.38
225.511	0.62
225.746	10.62
225.98	8.62
226.215	20.62
226.449	10.62
226.683	18.62
226.918	29.62
227.152	26.62
227.387	47.62
227.621	50.62
227.856	41.62
228.09	62.62
228.324	69.62
228.559	63.62
228.793	67.62
229.027	64.62
229.262	71.62
229.496	67.62
229.73	97.62
229.964	91.62
230.199	80.62
230.433	82.62
230.667	84.62
230.901	71.62
231.136	90.62
231.37	96.62
231.604	80.62
231.838	84.62
232.072	77.62
232.306	87.62
232.541	88.62
232.775	80.62
233.009	86.62
233.243	69.62
233.477	70.62
233.711	94.62
233.945	78.62
234.179	78.62
234.413	70.62
234.647	79.62
234.881	87.62
235.115	93.62
235.349	86.62
235.583	82.62
235.817	79.62
236.051	89.62
236.285	84.62
236.519	88.62
236.753	70.62
236.987	94.62
237.221	87.62
237.455	70.62
237.689	82.62
237.922	74.62
238.156	75.62
238.39	90.62
238.624	87.62
238.858	65.62
239.091	73.62
239.325	79.62
239.559	94.62
239.793	88.62
240.027	76.62
240.26	84.62
240.494	82.62
240.728	79.62
240.961	82.62
241.195	88.62
241.429	81.62
241.662	88.62
241.896	60.62
242.13	74.62
242.363	81.62
242.597	86.62
242.83	85.62
243.064	75.62
243.298	86.62
243.531	88.62
243.765	83.62
243.998	78.62
244.232	79.62
244.465	94.62
244.699	80.62
244.932	75.62
245.166	57.62
245.399	75.62
245.633	76.62
245.866	81.62
246.099	80.62
246.333	77.62
246.566	81.62
246.8	82.62
247.033	83.62
247.266	80.62
247.5	75.62
247.733	87.62
247.966	84.62
248.2	78.62
248.433	70.62
248.666	84.62
248.899	84.62
249.133	87.62
249.366	90.62
249.599	93.62
249.832	77.62
250.066	75.62
250.299	71.62
250.532	90.62
250.765	73.62
250.998	66.62
251.231	80.62
251.465	71.62
251.698	94.62
251.931	78.62
252.164	79.62
252.397	83.62
252.63	86.62
252.863	81.62
253.096	71.62
253.329	92.62
253.562	93.62
253.795	81.62
254.028	84.62
254.261	78.62
254.494	76.62
254.727	78.62
254.96	78.62
255.193	87.62
255.426	77.62
255.659	86.62
255.892	101.62
256.124	94.62
256.357	64.62
256.59	84.62
256.823	75.62
257.056	82.62
257.289	79.62
257.521	87.62
257.754	88.62
257.987	81.62
258.22	79.62
258.452	88.62
258.685	80.62
258.918	86.62
259.151	80.62
259.383	85.62
259.616	75.62
259.849	70.62
260.081	93.62
260.314	96.62
260.547	78.62
260.779	72.62
261.012	88.62
261.244	83.62
261.477	86.62
261.71	91.62
261.942	93.62
262.175	110.62
262.407	86.62
262.64	87.62
262.872	92.62
263.105	76.62
263.337	99.62
263.57	85.62
263.802	92.62
264.035	88.62
264.267	78.62
264.499	80.62
264.732	96.62
264.964	83.62
265.197	78.62
265.429	91.62
265.661	87.62
265.894	86.62
266.126	78.62
266.358	82.62
266.591	82.62
266.823	88.62
267.055	78.62
267.287	85.62
267.52	92.62
267.752	80.62
267.984	90.62
268.216	77.62
268.448	98.62
268.681	95.62
268.913	97.62
269.145	93.62
269.377	98.62
269.609	92.62
269.841	104.62
270.073	96.62
270.306	94.62
270.538	80.62
270.77	76.62
271.002	90.62
271.234	95.62
271.466	81.62
271.698	93.62
271.93	75.62
272.162	75.62
272.394	92.62
272.626	80.62
272.858	99.62
273.09	78.62
273.322	89.62
273.553	99.62
273.785	78.62
274.017	80.62
274.249	85.62
274.481	85.62
274.713	94.62
274.945	84.62
275.176	78.62
275.408	86.62
275.64	81.62
275.872	81.62
276.104	83.62
276.335	92.62
276.567	101.62
276.799	103.62
277.031	101.62
277.262	87.62
277.494	90.62
277.726	75.62
277.957	86.62
278.189	92.62
278.421	82.62
278.652	91.62
278.884	86.62
279.115	93.62
279.347	78.62
279.579	84.62
279.81	83.62
280.042	96.62
280.273	86.62
280.505	79.62
280.736	89.62
280.968	100.62
281.199	87.62
281.431	90.62
281.662	83.62
281.894	89.62
282.125	87.62
282.356	109.62
282.588	123.62
282.819	112.62
283.051	88.62
283.282	71.62
283.513	113.62
283.745	83.62
283.976	82.62
284.207	85.62
284.439	90.62
284.67	92.62
284.901	84.62
285.132	99.62
285.364	92.62
285.595	71.62
285.826	91.62
286.057	98.62
286.288	96.62
286.52	76.62
286.751	84.62
286.982	83.62
287.213	89.62
287.444	103.62
287.675	83.62
287.906	90.62
288.138	98.62
288.369	84.62
288.6	106.62
288.831	83.62
289.062	83.62
289.293	96.62
289.524	83.62
289.755	87.62
289.986	78.62
290.217	102.62
290.448	84.62
290.679	99.62
290.91	86.62
291.141	88.62
291.371	93.62
291.602	90.62
291.833	85.62
292.064	102.62
292.295	87.62
292.526	99.62
292.757	90.62
292.987	90.62
293.218	90.62
293.449	88.62
293.68	85.62
293.91	94.62
294.141	96.62
294.372	100.62
294.603	92.62
294.833	88.62
295.064	88.62
295.295	94.62
295.525	99.62
295.756	92.62
295.987	101.62
296.217	114.62
296.448	124.62
296.679	113.62
296.909	82.62
297.14	92.62
297.37	80.62
297.601	80.62
297.831	92.62
298.062	98.62
298.292	87.62
298.523	90.62
298.753	88.62
298.984	96.62
299.214	89.62
299.445	95.62
299.675	96.62
299.905	103.62
300.136	86.62
300.366	90.62
300.597	89.62
300.827	93.62
301.057	98.62
301.288	97.62
301.518	103.62
301.748	87.62
301.979	110.62
302.209	104.62
302.439	86.62
302.669	101.62
302.9	82.62
303.13	96.62
303.36	92.62
303.59	104.62
303.82	107.62
304.051	97.62
304.281	84.62
304.511	96.62
304.741	82.62
304.971	99.62
305.201	92.62
305.431	98.62
305.661	86.62
305.891	99.62
306.121	92.62
306.352	97.62
306.582	111.62
306.812	96.62
307.042	79.62
307.272	81.62
307.502	103.62
307.731	93.62
307.961	89.62
308.191	85.62
308.421	96.62
308.651	87.62
308.881	95.62
309.111	86.62
309.341	98.62
309.571	106.62
309.8	102.62
310.03	94.62
310.26	99.62
310.49	89.62
310.72	96.62
310.949	88.62
311.179	114.62
311.409	92.62
311.639	91.62
311.868	99.62
312.098	94.62
312.328	90.62
312.557	99.62
312.787	101.62
313.017	111.62
313.246	99.62
313.476	94.62
313.706	84.62
313.935	98.62
314.165	84.62
314.394	92.62
314.624	111.62
314.853	98.62
315.083	99.62
315.312	104.62
315.542	99.62
315.771	106.62
316.001	92.62
316.23	95.62
316.46	88.62
316.689	85.62
316.919	90.62
317.148	92.62
317.377	93.62
317.607	102.62
317.836	100.62
318.065	100.62
318.295	92.62
318.524	88.62
318.753	91.62
318.983	109.62
319.212	92.62
319.441	97.62
319.67	114.62
319.9	100.62
320.129	95.62
320.358	100.62
320.587	102.62
320.816	98.62
321.046	100.62
321.275	97.62
321.504	95.62
321.733	98.62
321.962	83.62
322.191	113.62
322.42	107.62
322.649	116.62
322.878	107.62
323.108	109.62
323.337	119.62
323.566	117.62
323.795	139.62
324.024	196.62
324.253	327.62
324.482	681.62
324.71	1346.62
324.939	1736.62
325.168	650.62
325.397	222.62
325.626	139.62
325.855	117.62
326.084	105.62
326.313	125.62
326.542	152.62
326.77	201.62
326.999	381.62
327.228	752.62
327.457	1380.62
327.686	1072.62
327.914	313.62
328.143	151.62
328.372	127.62
328.6	100.62
328.829	108.62
329.058	108.62
329.287	111.62
329.515	107.62
329.744	102.62
329.972	97.62
330.201	103.62
330.43	105.62
330.658	102.62
330.887	123.62
331.115	107.62
331.344	98.62
331.572	107.62
331.801	114.62
332.03	102.62
332.258	85.62
332.486	87.62
332.715	85.62
332.943	91.62
333.172	87.62
333.4	96.62
333.629	108.62
333.857	102.62
334.085	108.62
334.314	92.62
334.542	89.62
334.771	106.62
334.999	96.62
335.227	86.62
335.455	90.62
335.684	96.62
335.912	93.62
336.14	88.62
336.369	102.62
336.597	108.62
336.825	98.62
337.053	96.62
337.281	96.62
337.51	90.62
337.738	82.62
337.966	85.62
338.194	99.62
338.422	109.62
338.65	104.62
338.878	91.62
339.106	91.62
339.334	100.62
339.562	96.62
339.79	85.62
340.018	96.62
340.246	93.62
340.474	107.62
340.702	94.62
340.93	94.62
341.158	91.62
341.386	109.62
341.614	96.62
341.842	93.62
342.07	76.62
342.298	96.62
342.526	94.62
342.754	86.62
342.981	78.62
343.209	88.62
343.437	102.62
343.665	82.62
343.893	85.62
344.12	100.62
344.348	102.62
344.576	87.62
344.804	85.62
345.031	95.62
345.259	103.62
345.487	85.62
345.714	99.62
345.942	95.62
346.17	97.62
346.397	88.62
346.625	80.62
346.853	99.62
347.08	82.62
347.308	104.62
347.535	91.62
347.763	105.62
347.99	93.62
348.218	107.62
348.445	115.62
348.673	92.62
348.9	105.62
349.128	88.62
349.355	94.62
349.583	101.62
349.81	99.62
350.037	107.62
350.265	83.62
350.492	94.62
350.72	107.62
350.947	107.62
351.174	105.62
351.402	98.62
351.629	109.62
351.856	107.62
352.083	106.62
352.311	89.62
352.538	111.62
352.765	110.62
352.992	104.62
353.22	103.62
353.447	103.62
353.674	109.62
353.901	104.62
354.128	88.62
354.355	84.62
354.583	98.62
354.81	111.62
355.037	95.62
355.264	97.62
355.491	95.62
355.718	94.62
355.945	95.62
356.172	100.62
356.399	91.62
356.626	79.62
356.853	98.62
357.08	96.62
357.307	98.62
357.534	93.62
357.761	101.62
357.988	99.62
358.215	95.62
358.441	90.62
358.668	100.62
358.895	93.62
359.122	104.62
359.349	95.62
359.576	91.62
359.802	112.62
360.029	96.62
360.256	106.62
360.483	87.62
360.709	90.62
360.936	103.62
361.163	98.62
361.39	96.62
361.616	94.62
361.843	77.62
362.07	93.62
362.296	107.62
362.523	88.62
362.749	106.62
362.976	96.62
363.203	85.62
363.429	88.62
363.656	96.62
363.882	95.62
364.109	101.62
364.335	96.62
364.562	100.62
364.788	93.62
365.015	101.62
365.241	102.62
365.468	98.62
365.694	123.62
365.92	98.62
366.147	95.62
366.373	104.62
366.599	89.62
366.826	97.62
367.052	89.62
367.278	103.62
367.505	91.62
367.731	99.62
367.957	96.62
368.184	79.62
368.41	90.62
368.636	93.62
368.862	118.62
369.089	90.62
369.315	101.62
369.541	85.62
369.767	90.62
369.993	84.62
370.219	78.62
370.445	74.62
370.672	98.62
370.898	93.62
371.124	94.62
371.35	96.62
371.576	80.62
371.802	101.62
372.028	95.62
372.254	83.62
372.48	95.62
372.706	92.62
372.932	87.62
373.158	81.62
373.384	98.62
373.61	76.62
373.835	80.62
374.061	93.62
374.287	110.62
374.513	92.62
374.739	92.62
374.965	81.62
375.191	84.62
375.416	99.62
375.642	81.62
375.868	91.62
376.094	87.62
376.319	106.62
376.545	101.62
376.771	87.62
376.997	98.62
377.222	111.62
377.448	85.62
377.674	86.62
377.899	97.62
378.125	94.62
378.35	96.62
378.576	88.62
378.802	88.62
379.027	77.62
379.253	99.62
379.478	83.62
379.704	117.62
379.929	96.62
380.155	91.62
380.38	80.62
380.606	108.62
380.831	92.62
381.057	90.62
381.282	84.62
381.507	109.62
381.733	92.62
381.958	80.62
382.184	112.62
382.409	97.62
382.634	93.62
382.86	109.62
383.085	103.62
383.31	82.62
383.535	107.62
383.761	104.62
383.986	104.62
384.211	96.62
384.436	99.62
384.662	106.62
384.887	106.62
385.112	94.62
385.337	108.62
385.562	87.62
385.787	101.62
386.013	114.62
386.238	102.62
386.463	105.62
386.688	108.62
386.913	103.62
387.138	92.62
387.363	84.62
387.588	97.62
387.813	107.62
388.038	99.62
388.263	101.62
388.488	100.62
388.713	89.62
388.938	78.62
389.163	107.62
389.387	96.62
389.612	100.62
389.837	96.62
390.062	96.62
390.287	79.62
390.512	86.62
390.736	96.62
390.961	104.62
391.186	88.62
391.411	102.62
391.636	101.62
391.86	86.62
392.085	92.62
392.31	92.62
392.534	85.62
392.759	71.62
392.984	106.62
393.208	84.62
393.433	90.62
393.658	81.62
393.882	88.62
394.107	84.62
394.331	87.62
394.556	85.62
394.78	90.62
395.005	84.62
395.229	94.62
395.454	91.62
395.678	103.62
395.903	86.62
396.127	87.62
396.352	96.62
396.576	85.62
396.801	92.62
397.025	82.62
397.249	86.62
397.474	91.62
397.698	86.62
397.922	87.62
398.147	86.62
398.371	65.62
398.595	92.62
398.82	81.62
399.044	92.62
399.268	89.62
399.492	96.62
399.717	82.62
399.941	94.62
400.165	94.62
400.389	95.62
400.613	87.62
400.837	98.62
401.062	91.62
401.286	88.62
401.51	90.62
401.734	99.62
401.958	98.62
402.182	112.62
402.406	140.62
402.63	107.62
402.854	103.62
403.078	94.62
403.302	90.62
403.526	88.62
403.75	103.62
403.974	83.62
404.198	86.62
404.422	96.62
404.645	95.62
404.869	87.62
405.093	101.62
405.317	91.62
405.541	85.62
405.765	106.62
405.988	114.62
406.212	151.62
406.436	207.62
406.66	133.62
406.883	103.62
407.107	95.62
407.331	90.62
407.555	83.62
407.778	90.62
408.002	82.62
408.226	92.62
408.449	98.62
408.673	93.62
408.896	103.62
409.12	102.62
409.344	86.62
409.567	88.62
409.791	88.62
410.014	104.62
410.238	104.62
410.461	85.62
410.685	98.62
410.908	104.62
411.132	120.62
411.355	115.62
411.578	90.62
411.802	94.62
412.025	84.62
412.249	89.62
412.472	86.62
412.695	91.62
412.919	67.62
413.142	78.62
413.365	87.62
413.589	94.62
413.812	108.62
414.035	100.62
414.258	97.62
414.482	91.62
414.705	95.62
414.928	83.62
415.151	100.62
415.374	80.62
415.597	88.62
415.821	91.62
416.044	94.62
416.267	86.62
416.49	82.62
416.713	96.62
416.936	101.62
417.159	101.62
417.382	89.62
417.605	81.62
417.828	88.62
418.051	96.62
418.274	91.62
418.497	91.62
418.72	85.62
418.943	91.62
419.166	95.62
419.389	100.62
419.611	96.62
419.834	87.62
420.057	82.62
420.28	76.62
420.503	91.62
420.726	98.62
420.948	72.62
421.171	78.62
421.394	85.62
421.617	100.62
421.839	92.62
422.062	93.62
422.285	96.62
422.507	102.62
422.73	104.62
422.953	81.62
423.175	99.62
423.398	90.62
423.621	81.62
423.843	98.62
424.066	96.62
424.288	98.62
424.511	100.62
424.733	86.62
424.956	94.62
425.178	89.62
425.401	97.62
425.623	101.62
425.846	97.62
426.068	100.62
426.291	84.62
426.513	101.62
426.735	105.62
426.958	80.62
427.18	106.62
427.402	129.62
427.625	157.62
427.847	117.62
428.069	113.62
428.292	92.62
428.514	95.62
428.736	99.62
428.958	82.62
429.181	80.62
429.403	85.62
429.625	89.62
429.847	95.62
430.069	101.62
430.292	94.62
430.514	87.62
430.736	91.62
430.958	74.62
431.18	85.62
431.402	90.62
431.624	83.62
431.846	82.62
432.068	84.62
432.29	91.62
432.512	98.62
432.734	90.62
432.956	99.62
433.178	96.62
433.4	95.62
433.622	90.62
433.844	93.62
434.066	102.62
434.287	102.62
434.509	90.62
434.731	105.62
434.953	85.62
435.175	90.62
435.397	85.62
435.618	81.62
435.84	93.62
436.062	116.62
436.284	102.62
436.505	109.62
436.727	106.62
436.949	87.62
437.17	94.62
437.392	103.62
437.614	90.62
437.835	94.62
438.057	114.62
438.278	100.62
438.5	101.62
438.721	130.62
438.943	98.62
439.165	98.62
439.386	98.62
439.608	102.62
439.829	104.62
440.05	103.62
440.272	113.62
440.493	101.62
440.715	101.62
440.936	98.62
441.158	95.62
441.379	90.62
441.6	112.62
441.822	90.62
442.043	94.62
442.264	101.62
442.486	98.62
442.707	88.62
442.928	104.62
443.149	117.62
443.371	118.62
443.592	99.62
443.813	97.62
444.034	100.62
444.255	88.62
444.476	78.62
444.698	83.62
444.919	84.62
445.14	123.62
445.361	118.62
445.582	107.62
445.803	128.62
446.024	115.62
446.245	125.62
446.466	103.62
446.687	87.62
446.908	98.62
447.129	107.62
447.35	87.62
447.571	92.62
447.792	87.62
448.013	88.62
448.234	99.62
448.455	98.62
448.675	125.62
448.896	109.62
449.117	104.62
449.338	88.62
449.559	138.62
449.779	128.62
450	79.62
450.221	92.62
450.442	100.62
450.662	100.62
450.883	108.62
451.104	104.62
451.324	98.62
451.545	96.62
451.766	100.62
451.986	87.62
452.207	96.62
452.428	84.62
452.648	107.62
452.869	124.62
453.089	110.62
453.31	104.62
453.53	88.62
453.751	90.62
453.971	98.62
454.192	112.62
454.412	94.62
454.633	94.62
454.853	92.62
455.073	87.62
455.294	87.62
455.514	106.62
455.734	95.62
455.955	88.62
456.175	96.62
456.395	83.62
456.616	94.62
456.836	93.62
457.056	96.62
457.276	98.62
457.497	96.62
457.717	78.62
457.937	71.62
458.157	96.62
458.377	83.62
458.598	91.62
458.818	141.62
459.038	152.62
459.258	111.62
459.478	101.62
459.698	92.62
459.918	81.62
460.138	88.62
460.358	91.62
460.578	100.62
460.798	96.62
461.018	94.62
461.238	70.62
461.458	85.62
461.678	85.62
461.898	82.62
462.118	82.62
462.338	86.62
462.558	78.62
462.777	83.62
462.997	94.62
463.217	92.62
463.437	93.62
463.657	90.62
463.876	80.62
464.096	96.62
464.316	89.62
464.536	83.62
464.755	100.62
464.975	108.62
465.195	153.62
465.414	127.62
465.634	100.62
465.854	94.62
466.073	94.62
466.293	86.62
466.512	95.62
466.732	86.62
466.951	100.62
467.171	102.62
467.391	75.62
467.61	86.62
467.829	99.62
468.049	98.62
468.268	87.62
468.488	90.62
468.707	82.62
468.927	95.62
469.146	96.62
469.365	90.62
469.585	100.62
469.804	85.62
470.023	98.62
470.243	100.62
470.462	82.62
470.681	82.62
470.901	94.62
471.12	91.62
471.339	91.62
471.558	79.62
471.777	100.62
471.997	85.62
472.216	92.62
472.435	87.62
472.654	85.62
472.873	82.62
473.092	90.62
473.311	98.62
473.53	95.62
473.749	96.62
473.968	100.62
474.187	106.62
474.406	98.62
474.625	86.62
474.844	95.62
475.063	85.62
475.282	82.62
475.501	88.62
475.72	98.62
475.939	83.62
476.158	96.62
476.377	96.62
476.596	86.62
476.814	95.62
477.033	99.62
477.252	93.62
477.471	85.62
477.69	94.62
477.908	90.62
478.127	91.62
478.346	87.62
478.564	96.62
478.783	96.62
479.002	103.62
479.22	74.62
479.439	95.62
479.658	102.62
479.876	106.62
480.095	88.62
480.313	103.62
480.532	99.62
480.751	82.62
480.969	93.62
481.188	100.62
481.406	100.62
481.624	96.62
481.843	88.62
482.061	82.62
482.28	87.62
482.498	102.62
482.717	95.62
482.935	90.62
483.153	91.62
483.372	99.62
483.59	101.62
483.808	96.62
484.027	91.62
484.245	90.62
484.463	91.62
484.681	80.62
484.9	92.62
485.118	98.62
485.336	102.62
485.554	107.62
485.772	98.62
485.99	102.62
486.209	101.62
486.427	93.62
486.645	107.62
486.863	84.62
487.081	93.62
487.299	92.62
487.517	106.62
487.735	96.62
487.953	102.62
488.171	105.62
488.389	95.62
488.607	99.62
488.825	99.62
489.043	88.62
489.261	90.62
489.479	91.62
489.696	95.62
489.914	78.62
490.132	84.62
490.35	92.62
490.568	95.62
490.786	95.62
491.003	79.62
491.221	96.62
491.439	95.62
491.657	68.62
491.874	84.62
492.092	86.62
492.31	82.62
492.527	86.62
492.745	89.62
492.963	88.62
493.18	101.62
493.398	92.62
493.615	111.62
493.833	88.62
494.05	78.62
494.268	82.62
494.485	89.62
494.703	88.62
494.92	102.62
495.138	86.62
495.355	95.62
495.573	92.62
495.79	84.62
496.008	94.62
496.225	95.62
496.442	97.62
496.66	104.62
496.877	91.62
497.094	96.62
497.312	99.62
497.529	102.62
497.746	78.62
497.963	93.62
498.181	88.62
498.398	97.62
498.615	108.62
498.832	115.62
499.049	101.62
499.267	99.62
499.484	91.62
499.701	107.62
499.918	93.62
500.135	100.62
500.352	111.62
500.569	88.62
500.786	108.62
501.003	83.62
501.22	96.62
501.437	89.62
501.654	104.62
501.871	110.62
502.088	89.62
502.305	98.62
502.522	99.62
502.739	98.62
502.956	87.62
503.172	68.62
503.389	84.62
503.606	92.62
503.823	87.62
504.04	94.62
504.256	86.62
504.473	86.62
504.69	80.62
504.907	101.62
505.123	100.62
505.34	110.62
505.557	89.62
505.773	98.62
505.99	89.62
506.207	71.62
506.423	92.62
506.64	102.62
506.856	94.62
507.073	105.62
507.289	94.62
507.506	104.62
507.722	102.62
507.939	101.62
508.155	92.62
508.372	90.62
508.588	96.62
508.805	97.62
509.021	112.62
509.238	94.62
509.454	87.62
509.67	104.62
509.887	100.62
510.103	121.62
510.319	192.62
510.536	666.62
510.752	2087.62
510.968	550.62
511.184	139.62
511.401	105.62
511.617	106.62
511.833	100.62
512.049	94.62
512.265	89.62
512.481	93.62
512.698	92.62
512.914	100.62
513.13	88.62
513.346	86.62
513.562	91.62
513.778	96.62
513.994	114.62
514.21	99.62
514.426	118.62
514.642	131.62
514.858	128.62
515.074	167.62
515.29	401.62
