Data from Uncirc_1993_H10_HRD10591_00058.txt Node
Date: Wed Jan 03 11:43:03 EST 2024
User: Yrep
Spectrometer: HR+D1059
Trigger mode: 1
Integration Time (sec): 1.000000E-1
Scans to average: 1
Electric dark correction enabled: true
Nonlinearity correction enabled: false
Boxcar width: 0
XAxis mode: Wavelengths
Number of Pixels in Spectrum: 2048
>>>>>Begin Spectral Data<<<<<
223.165	-10.81
223.4	-10.81
223.635	-10.81
223.869	-19.81
224.104	-28.81
224.338	-15.81
224.573	-26.81
224.808	-5.81
225.042	1.19
225.277	-9.81
225.511	-3.81
225.746	14.19
225.98	10.19
226.215	14.19
226.449	13.19
226.683	29.19
226.918	16.19
227.152	23.19
227.387	35.19
227.621	40.19
227.856	43.19
228.09	70.19
228.324	45.19
228.559	57.19
228.793	70.19
229.027	58.19
229.262	75.19
229.496	78.19
229.73	83.19
229.964	72.19
230.199	85.19
230.433	69.19
230.667	77.19
230.901	85.19
231.136	86.19
231.37	78.19
231.604	96.19
231.838	84.19
232.072	69.19
232.306	89.19
232.541	77.19
232.775	71.19
233.009	70.19
233.243	67.19
233.477	84.19
233.711	87.19
233.945	69.19
234.179	78.19
234.413	77.19
234.647	81.19
234.881	84.19
235.115	75.19
235.349	81.19
235.583	83.19
235.817	88.19
236.051	72.19
236.285	80.19
236.519	76.19
236.753	77.19
236.987	84.19
237.221	84.19
237.455	84.19
237.689	81.19
237.922	89.19
238.156	91.19
238.39	81.19
238.624	80.19
238.858	75.19
239.091	87.19
239.325	84.19
239.559	82.19
239.793	82.19
240.027	75.19
240.26	87.19
240.494	78.19
240.728	81.19
240.961	76.19
241.195	81.19
241.429	78.19
241.662	66.19
241.896	75.19
242.13	91.19
242.363	76.19
242.597	88.19
242.83	78.19
243.064	71.19
243.298	78.19
243.531	91.19
243.765	80.19
243.998	84.19
244.232	72.19
244.465	80.19
244.699	85.19
244.932	93.19
245.166	87.19
245.399	69.19
245.633	98.19
245.866	86.19
246.099	89.19
246.333	77.19
246.566	80.19
246.8	71.19
247.033	67.19
247.266	90.19
247.5	74.19
247.733	89.19
247.966	94.19
248.2	92.19
248.433	91.19
248.666	68.19
248.899	87.19
249.133	93.19
249.366	106.19
249.599	93.19
249.832	90.19
250.066	82.19
250.299	86.19
250.532	81.19
250.765	70.19
250.998	65.19
251.231	79.19
251.465	87.19
251.698	75.19
251.931	95.19
252.164	76.19
252.397	81.19
252.63	87.19
252.863	95.19
253.096	87.19
253.329	85.19
253.562	80.19
253.795	78.19
254.028	92.19
254.261	79.19
254.494	93.19
254.727	73.19
254.96	99.19
255.193	94.19
255.426	89.19
255.659	85.19
255.892	90.19
256.124	90.19
256.357	92.19
256.59	84.19
256.823	83.19
257.056	78.19
257.289	79.19
257.521	81.19
257.754	87.19
257.987	87.19
258.22	73.19
258.452	76.19
258.685	73.19
258.918	99.19
259.151	83.19
259.383	83.19
259.616	83.19
259.849	90.19
260.081	81.19
260.314	86.19
260.547	83.19
260.779	94.19
261.012	87.19
261.244	95.19
261.477	87.19
261.71	92.19
261.942	102.19
262.175	116.19
262.407	79.19
262.64	72.19
262.872	92.19
263.105	91.19
263.337	97.19
263.57	103.19
263.802	91.19
264.035	91.19
264.267	87.19
264.499	93.19
264.732	83.19
264.964	95.19
265.197	89.19
265.429	84.19
265.661	83.19
265.894	93.19
266.126	87.19
266.358	80.19
266.591	79.19
266.823	90.19
267.055	94.19
267.287	90.19
267.52	77.19
267.752	99.19
267.984	77.19
268.216	78.19
268.448	81.19
268.681	83.19
268.913	80.19
269.145	89.19
269.377	70.19
269.609	75.19
269.841	91.19
270.073	79.19
270.306	81.19
270.538	78.19
270.77	74.19
271.002	92.19
271.234	94.19
271.466	83.19
271.698	93.19
271.93	72.19
272.162	83.19
272.394	92.19
272.626	85.19
272.858	96.19
273.09	100.19
273.322	95.19
273.553	81.19
273.785	91.19
274.017	100.19
274.249	88.19
274.481	92.19
274.713	108.19
274.945	94.19
275.176	84.19
275.408	85.19
275.64	100.19
275.872	93.19
276.104	86.19
276.335	83.19
276.567	96.19
276.799	104.19
277.031	86.19
277.262	88.19
277.494	82.19
277.726	88.19
277.957	84.19
278.189	85.19
278.421	87.19
278.652	97.19
278.884	91.19
279.115	80.19
279.347	89.19
279.579	86.19
279.81	93.19
280.042	79.19
280.273	88.19
280.505	77.19
280.736	85.19
280.968	83.19
281.199	87.19
281.431	92.19
281.662	92.19
281.894	97.19
282.125	101.19
282.356	110.19
282.588	122.19
282.819	108.19
283.051	88.19
283.282	84.19
283.513	96.19
283.745	85.19
283.976	84.19
284.207	95.19
284.439	103.19
284.67	100.19
284.901	86.19
285.132	110.19
285.364	97.19
285.595	85.19
285.826	110.19
286.057	89.19
286.288	77.19
286.52	80.19
286.751	92.19
286.982	85.19
287.213	93.19
287.444	88.19
287.675	95.19
287.906	80.19
288.138	96.19
288.369	81.19
288.6	105.19
288.831	91.19
289.062	94.19
289.293	78.19
289.524	78.19
289.755	95.19
289.986	67.19
290.217	86.19
290.448	72.19
290.679	91.19
290.91	89.19
291.141	76.19
291.371	87.19
291.602	94.19
291.833	85.19
292.064	88.19
292.295	95.19
292.526	90.19
292.757	88.19
292.987	88.19
293.218	85.19
293.449	81.19
293.68	81.19
293.91	85.19
294.141	91.19
294.372	91.19
294.603	84.19
294.833	103.19
295.064	101.19
295.295	97.19
295.525	96.19
295.756	104.19
295.987	105.19
296.217	120.19
296.448	121.19
296.679	95.19
296.909	76.19
297.14	81.19
297.37	84.19
297.601	92.19
297.831	92.19
298.062	88.19
298.292	88.19
298.523	108.19
298.753	101.19
298.984	93.19
299.214	95.19
299.445	96.19
299.675	86.19
299.905	88.19
300.136	106.19
300.366	90.19
300.597	96.19
300.827	97.19
301.057	99.19
301.288	108.19
301.518	97.19
301.748	84.19
301.979	118.19
302.209	99.19
302.439	81.19
302.669	81.19
302.9	99.19
303.13	90.19
303.36	103.19
303.59	100.19
303.82	112.19
304.051	79.19
304.281	83.19
304.511	91.19
304.741	106.19
304.971	83.19
305.201	90.19
305.431	91.19
305.661	108.19
305.891	110.19
306.121	95.19
306.352	115.19
306.582	101.19
306.812	99.19
307.042	98.19
307.272	83.19
307.502	91.19
307.731	97.19
307.961	88.19
308.191	85.19
308.421	101.19
308.651	92.19
308.881	97.19
309.111	82.19
309.341	96.19
309.571	102.19
309.8	87.19
310.03	93.19
310.26	92.19
310.49	104.19
310.72	85.19
310.949	103.19
311.179	92.19
311.409	91.19
311.639	96.19
311.868	89.19
312.098	100.19
312.328	102.19
312.557	102.19
312.787	103.19
313.017	94.19
313.246	92.19
313.476	94.19
313.706	103.19
313.935	96.19
314.165	94.19
314.394	118.19
314.624	110.19
314.853	95.19
315.083	91.19
315.312	101.19
315.542	92.19
315.771	90.19
316.001	92.19
316.23	88.19
316.46	89.19
316.689	97.19
316.919	93.19
317.148	85.19
317.377	90.19
317.607	109.19
317.836	99.19
318.065	96.19
318.295	83.19
318.524	103.19
318.753	94.19
318.983	95.19
319.212	94.19
319.441	110.19
319.67	113.19
319.9	110.19
320.129	82.19
320.358	104.19
320.587	89.19
320.816	106.19
321.046	98.19
321.275	94.19
321.504	80.19
321.733	93.19
321.962	101.19
322.191	106.19
322.42	101.19
322.649	87.19
322.878	120.19
323.108	107.19
323.337	111.19
323.566	117.19
323.795	138.19
324.024	171.19
324.253	348.19
324.482	687.19
324.71	1381.19
324.939	1768.19
325.168	670.19
325.397	217.19
325.626	141.19
325.855	123.19
326.084	127.19
326.313	119.19
326.542	144.19
326.77	186.19
326.999	395.19
327.228	789.19
327.457	1366.19
327.686	1079.19
327.914	325.19
328.143	179.19
328.372	134.19
328.6	130.19
328.829	107.19
329.058	133.19
329.287	111.19
329.515	112.19
329.744	98.19
329.972	104.19
330.201	94.19
330.43	103.19
330.658	138.19
330.887	126.19
331.115	112.19
331.344	83.19
331.572	96.19
331.801	111.19
332.03	105.19
332.258	92.19
332.486	86.19
332.715	97.19
332.943	101.19
333.172	103.19
333.4	95.19
333.629	101.19
333.857	103.19
334.085	105.19
334.314	111.19
334.542	102.19
334.771	102.19
334.999	84.19
335.227	102.19
335.455	100.19
335.684	98.19
335.912	94.19
336.14	104.19
336.369	85.19
336.597	109.19
336.825	105.19
337.053	101.19
337.281	96.19
337.51	91.19
337.738	88.19
337.966	101.19
338.194	104.19
338.422	87.19
338.65	96.19
338.878	94.19
339.106	83.19
339.334	80.19
339.562	95.19
339.79	93.19
340.018	95.19
340.246	104.19
340.474	100.19
340.702	84.19
340.93	100.19
341.158	95.19
341.386	99.19
341.614	100.19
341.842	107.19
342.07	91.19
342.298	95.19
342.526	97.19
342.754	86.19
342.981	78.19
343.209	85.19
343.437	89.19
343.665	88.19
343.893	85.19
344.12	105.19
344.348	77.19
344.576	95.19
344.804	81.19
345.031	106.19
345.259	107.19
345.487	102.19
345.714	103.19
345.942	99.19
346.17	87.19
346.397	87.19
346.625	87.19
346.853	104.19
347.08	95.19
347.308	103.19
347.535	95.19
347.763	117.19
347.99	100.19
348.218	116.19
348.445	93.19
348.673	99.19
348.9	94.19
349.128	104.19
349.355	98.19
349.583	90.19
349.81	94.19
350.037	96.19
350.265	87.19
350.492	102.19
350.72	86.19
350.947	112.19
351.174	114.19
351.402	107.19
351.629	101.19
351.856	101.19
352.083	110.19
352.311	106.19
352.538	111.19
352.765	104.19
352.992	124.19
353.22	112.19
353.447	94.19
353.674	93.19
353.901	92.19
354.128	81.19
354.355	95.19
354.583	78.19
354.81	96.19
355.037	97.19
355.264	88.19
355.491	89.19
355.718	96.19
355.945	91.19
356.172	97.19
356.399	102.19
356.626	84.19
356.853	100.19
357.08	93.19
357.307	98.19
357.534	88.19
357.761	103.19
357.988	98.19
358.215	104.19
358.441	95.19
358.668	106.19
358.895	107.19
359.122	93.19
359.349	90.19
359.576	99.19
359.802	104.19
360.029	100.19
360.256	108.19
360.483	103.19
360.709	86.19
360.936	98.19
361.163	91.19
361.39	109.19
361.616	94.19
361.843	102.19
362.07	99.19
362.296	95.19
362.523	97.19
362.749	98.19
362.976	96.19
363.203	103.19
363.429	84.19
363.656	112.19
363.882	94.19
364.109	96.19
364.335	91.19
364.562	96.19
364.788	88.19
365.015	110.19
365.241	94.19
365.468	110.19
365.694	109.19
365.92	94.19
366.147	101.19
366.373	93.19
366.599	87.19
366.826	104.19
367.052	96.19
367.278	110.19
367.505	100.19
367.731	93.19
367.957	95.19
368.184	97.19
368.41	95.19
368.636	108.19
368.862	114.19
369.089	123.19
369.315	91.19
369.541	91.19
369.767	79.19
369.993	91.19
370.219	93.19
370.445	88.19
370.672	85.19
370.898	83.19
371.124	92.19
371.35	94.19
371.576	87.19
371.802	91.19
372.028	83.19
372.254	89.19
372.48	80.19
372.706	88.19
372.932	83.19
373.158	97.19
373.384	95.19
373.61	104.19
373.835	88.19
374.061	96.19
374.287	99.19
374.513	91.19
374.739	98.19
374.965	102.19
375.191	102.19
375.416	91.19
375.642	107.19
375.868	103.19
376.094	108.19
376.319	86.19
376.545	87.19
376.771	87.19
376.997	88.19
377.222	88.19
377.448	96.19
377.674	113.19
377.899	104.19
378.125	87.19
378.35	105.19
378.576	93.19
378.802	86.19
379.027	99.19
379.253	91.19
379.478	95.19
379.704	95.19
379.929	80.19
380.155	91.19
380.38	98.19
380.606	93.19
380.831	89.19
381.057	94.19
381.282	86.19
381.507	103.19
381.733	110.19
381.958	96.19
382.184	85.19
382.409	107.19
382.634	92.19
382.86	91.19
383.085	102.19
383.31	99.19
383.535	103.19
383.761	117.19
383.986	104.19
384.211	96.19
384.436	101.19
384.662	105.19
384.887	110.19
385.112	127.19
385.337	103.19
385.562	105.19
385.787	109.19
386.013	94.19
386.238	97.19
386.463	100.19
386.688	107.19
386.913	95.19
387.138	108.19
387.363	108.19
387.588	92.19
387.813	88.19
388.038	99.19
388.263	99.19
388.488	100.19
388.713	114.19
388.938	103.19
389.163	103.19
389.387	116.19
389.612	103.19
389.837	95.19
390.062	96.19
390.287	78.19
390.512	83.19
390.736	91.19
390.961	99.19
391.186	86.19
391.411	89.19
391.636	97.19
391.86	85.19
392.085	93.19
392.31	94.19
392.534	102.19
392.759	87.19
392.984	91.19
393.208	93.19
393.433	101.19
393.658	92.19
393.882	80.19
394.107	90.19
394.331	91.19
394.556	91.19
394.78	97.19
395.005	83.19
395.229	87.19
395.454	87.19
395.678	96.19
395.903	88.19
396.127	102.19
396.352	84.19
396.576	99.19
396.801	88.19
397.025	80.19
397.249	82.19
397.474	93.19
397.698	99.19
397.922	83.19
398.147	67.19
398.371	95.19
398.595	95.19
398.82	79.19
399.044	86.19
399.268	101.19
399.492	98.19
399.717	90.19
399.941	93.19
400.165	95.19
400.389	84.19
400.613	93.19
400.837	95.19
401.062	89.19
401.286	96.19
401.51	94.19
401.734	80.19
401.958	98.19
402.182	104.19
402.406	152.19
402.63	114.19
402.854	87.19
403.078	80.19
403.302	89.19
403.526	91.19
403.75	86.19
403.974	97.19
404.198	90.19
404.422	77.19
404.645	91.19
404.869	85.19
405.093	101.19
405.317	90.19
405.541	84.19
405.765	91.19
405.988	134.19
406.212	153.19
406.436	215.19
406.66	129.19
406.883	98.19
407.107	100.19
407.331	99.19
407.555	96.19
407.778	80.19
408.002	77.19
408.226	81.19
408.449	90.19
408.673	77.19
408.896	86.19
409.12	88.19
409.344	80.19
409.567	86.19
409.791	101.19
410.014	92.19
410.238	107.19
410.461	87.19
410.685	92.19
410.908	101.19
411.132	118.19
411.355	91.19
411.578	88.19
411.802	101.19
412.025	88.19
412.249	100.19
412.472	93.19
412.695	93.19
412.919	87.19
413.142	95.19
413.365	83.19
413.589	81.19
413.812	81.19
414.035	90.19
414.258	89.19
414.482	85.19
414.705	80.19
414.928	104.19
415.151	102.19
415.374	104.19
415.597	91.19
415.821	83.19
416.044	84.19
416.267	83.19
416.49	74.19
416.713	91.19
416.936	93.19
417.159	99.19
417.382	97.19
417.605	81.19
417.828	102.19
418.051	91.19
418.274	103.19
418.497	94.19
418.72	91.19
418.943	92.19
419.166	86.19
419.389	94.19
419.611	94.19
419.834	87.19
420.057	98.19
420.28	87.19
420.503	106.19
420.726	79.19
420.948	92.19
421.171	97.19
421.394	88.19
421.617	76.19
421.839	86.19
422.062	100.19
422.285	105.19
422.507	103.19
422.73	98.19
422.953	85.19
423.175	90.19
423.398	92.19
423.621	101.19
423.843	100.19
424.066	93.19
424.288	87.19
424.511	87.19
424.733	112.19
424.956	92.19
425.178	106.19
425.401	105.19
425.623	101.19
425.846	92.19
426.068	105.19
426.291	99.19
426.513	100.19
426.735	102.19
426.958	88.19
427.18	96.19
427.402	116.19
427.625	148.19
427.847	118.19
428.069	105.19
428.292	103.19
428.514	102.19
428.736	97.19
428.958	96.19
429.181	75.19
429.403	89.19
429.625	85.19
429.847	100.19
430.069	102.19
430.292	84.19
430.514	93.19
430.736	84.19
430.958	95.19
431.18	89.19
431.402	101.19
431.624	86.19
431.846	88.19
432.068	80.19
432.29	88.19
432.512	82.19
432.734	99.19
432.956	86.19
433.178	111.19
433.4	97.19
433.622	83.19
433.844	100.19
434.066	89.19
434.287	97.19
434.509	99.19
434.731	88.19
434.953	95.19
435.175	90.19
435.397	90.19
435.618	89.19
435.84	96.19
436.062	110.19
436.284	109.19
436.505	101.19
436.727	98.19
436.949	81.19
437.17	82.19
437.392	85.19
437.614	87.19
437.835	105.19
438.057	110.19
438.278	103.19
438.5	89.19
438.721	110.19
438.943	102.19
439.165	99.19
439.386	87.19
439.608	87.19
439.829	107.19
440.05	125.19
440.272	131.19
440.493	89.19
440.715	91.19
440.936	78.19
441.158	87.19
441.379	92.19
441.6	106.19
441.822	86.19
442.043	106.19
442.264	100.19
442.486	97.19
442.707	98.19
442.928	93.19
443.149	110.19
443.371	125.19
443.592	109.19
443.813	97.19
444.034	111.19
444.255	95.19
444.476	94.19
444.698	94.19
444.919	89.19
445.14	119.19
445.361	119.19
445.582	113.19
445.803	125.19
446.024	111.19
446.245	120.19
446.466	114.19
446.687	87.19
446.908	85.19
447.129	92.19
447.35	87.19
447.571	82.19
447.792	91.19
448.013	114.19
448.234	108.19
448.455	102.19
448.675	108.19
448.896	116.19
449.117	81.19
449.338	89.19
449.559	128.19
449.779	132.19
450	96.19
450.221	101.19
450.442	87.19
450.662	87.19
450.883	106.19
451.104	105.19
451.324	111.19
451.545	93.19
451.766	89.19
451.986	93.19
452.207	101.19
452.428	92.19
452.648	94.19
452.869	110.19
453.089	104.19
453.31	112.19
453.53	79.19
453.751	85.19
453.971	98.19
454.192	116.19
454.412	109.19
454.633	89.19
454.853	84.19
455.073	104.19
455.294	83.19
455.514	97.19
455.734	97.19
455.955	101.19
456.175	80.19
456.395	85.19
456.616	73.19
456.836	88.19
457.056	92.19
457.276	91.19
457.497	83.19
457.717	98.19
457.937	93.19
458.157	94.19
458.377	91.19
458.598	112.19
458.818	141.19
459.038	152.19
459.258	108.19
459.478	91.19
459.698	107.19
459.918	103.19
460.138	85.19
460.358	85.19
460.578	91.19
460.798	94.19
461.018	95.19
461.238	84.19
461.458	85.19
461.678	82.19
461.898	76.19
462.118	90.19
462.338	100.19
462.558	71.19
462.777	81.19
462.997	81.19
463.217	97.19
463.437	81.19
463.657	95.19
463.876	90.19
464.096	90.19
464.316	91.19
464.536	91.19
464.755	97.19
464.975	116.19
465.195	153.19
465.414	131.19
465.634	84.19
465.854	90.19
466.073	84.19
466.293	93.19
466.512	87.19
466.732	86.19
466.951	85.19
467.171	91.19
467.391	96.19
467.61	107.19
467.829	83.19
468.049	88.19
468.268	96.19
468.488	65.19
468.707	81.19
468.927	97.19
469.146	90.19
469.365	80.19
469.585	96.19
469.804	91.19
470.023	84.19
470.243	92.19
470.462	97.19
470.681	107.19
470.901	88.19
471.12	86.19
471.339	91.19
471.558	84.19
471.777	94.19
471.997	91.19
472.216	83.19
472.435	103.19
472.654	80.19
472.873	93.19
473.092	81.19
473.311	88.19
473.53	83.19
473.749	94.19
473.968	83.19
474.187	101.19
474.406	90.19
474.625	96.19
474.844	101.19
475.063	95.19
475.282	86.19
475.501	85.19
475.72	90.19
475.939	90.19
476.158	101.19
476.377	99.19
476.596	89.19
476.814	94.19
477.033	91.19
477.252	92.19
477.471	86.19
477.69	96.19
477.908	89.19
478.127	93.19
478.346	88.19
478.564	100.19
478.783	90.19
479.002	104.19
479.22	93.19
479.439	109.19
479.658	105.19
479.876	95.19
480.095	96.19
480.313	80.19
480.532	88.19
480.751	97.19
480.969	90.19
481.188	102.19
481.406	100.19
481.624	96.19
481.843	101.19
482.061	89.19
482.28	105.19
482.498	97.19
482.717	84.19
482.935	83.19
483.153	97.19
483.372	94.19
483.59	104.19
483.808	96.19
484.027	72.19
484.245	104.19
484.463	99.19
484.681	83.19
484.9	97.19
485.118	85.19
485.336	105.19
485.554	105.19
485.772	107.19
485.99	95.19
486.209	104.19
486.427	106.19
486.645	102.19
486.863	107.19
487.081	103.19
487.299	82.19
487.517	81.19
487.735	80.19
487.953	88.19
488.171	97.19
488.389	116.19
488.607	79.19
488.825	85.19
489.043	90.19
489.261	99.19
489.479	93.19
489.696	80.19
489.914	96.19
490.132	93.19
490.35	95.19
490.568	91.19
490.786	104.19
491.003	92.19
491.221	92.19
491.439	93.19
491.657	107.19
491.874	100.19
492.092	81.19
492.31	94.19
492.527	83.19
492.745	101.19
492.963	97.19
493.18	99.19
493.398	84.19
493.615	97.19
493.833	100.19
494.05	92.19
494.268	88.19
494.485	96.19
494.703	105.19
494.92	88.19
495.138	94.19
495.355	92.19
495.573	87.19
495.79	83.19
496.008	95.19
496.225	101.19
496.442	100.19
496.66	105.19
496.877	99.19
497.094	94.19
497.312	96.19
497.529	89.19
497.746	95.19
497.963	83.19
498.181	94.19
498.398	106.19
498.615	103.19
498.832	100.19
499.049	95.19
499.267	89.19
499.484	107.19
499.701	102.19
499.918	91.19
500.135	111.19
500.352	92.19
500.569	79.19
500.786	96.19
501.003	92.19
501.22	103.19
501.437	97.19
501.654	100.19
501.871	103.19
502.088	82.19
502.305	101.19
502.522	83.19
502.739	101.19
502.956	98.19
503.172	101.19
503.389	109.19
503.606	101.19
503.823	94.19
504.04	110.19
504.256	92.19
504.473	83.19
504.69	79.19
504.907	95.19
505.123	86.19
505.34	96.19
505.557	97.19
505.773	97.19
505.99	98.19
506.207	103.19
506.423	85.19
506.64	99.19
506.856	97.19
507.073	72.19
507.289	92.19
507.506	103.19
507.722	105.19
507.939	105.19
508.155	79.19
508.372	97.19
508.588	95.19
508.805	100.19
509.021	101.19
509.238	86.19
509.454	107.19
509.67	99.19
509.887	96.19
510.103	124.19
510.319	185.19
510.536	707.19
510.752	2146.19
510.968	604.19
511.184	148.19
511.401	105.19
511.617	88.19
511.833	83.19
512.049	89.19
512.265	104.19
512.481	102.19
512.698	90.19
512.914	79.19
513.13	105.19
513.346	91.19
513.562	101.19
513.778	98.19
513.994	96.19
514.21	80.19
514.426	135.19
514.642	128.19
514.858	104.19
