Data from Uncirc_1993_H10_HRD10591_00061.txt Node
Date: Wed Jan 03 11:43:04 EST 2024
User: Yrep
Spectrometer: HR+D1059
Trigger mode: 1
Integration Time (sec): 1.000000E-1
Scans to average: 1
Electric dark correction enabled: true
Nonlinearity correction enabled: false
Boxcar width: 0
XAxis mode: Wavelengths
Number of Pixels in Spectrum: 2048
>>>>>Begin Spectral Data<<<<<
223.165	-38.94
223.4	-38.94
223.635	-38.94
223.869	-23.94
224.104	-22.94
224.338	-12.94
224.573	-10.94
224.808	0.06
225.042	-11.94
225.277	8.06
225.511	-3.94
225.746	11.06
225.98	-2.94
226.215	9.06
226.449	29.06
226.683	10.06
226.918	33.06
227.152	28.06
227.387	31.06
227.621	30.06
227.856	36.06
228.09	48.06
228.324	47.06
228.559	69.06
228.793	55.06
229.027	50.06
229.262	69.06
229.496	68.06
229.73	95.06
229.964	85.06
230.199	67.06
230.433	81.06
230.667	69.06
230.901	91.06
231.136	76.06
231.37	67.06
231.604	77.06
231.838	79.06
232.072	88.06
232.306	61.06
232.541	82.06
232.775	74.06
233.009	83.06
233.243	83.06
233.477	112.06
233.711	89.06
233.945	89.06
234.179	84.06
234.413	107.06
234.647	89.06
234.881	65.06
235.115	66.06
235.349	62.06
235.583	66.06
235.817	77.06
236.051	69.06
236.285	89.06
236.519	49.06
236.753	84.06
236.987	66.06
237.221	85.06
237.455	72.06
237.689	87.06
237.922	70.06
238.156	81.06
238.39	69.06
238.624	86.06
238.858	77.06
239.091	89.06
239.325	81.06
239.559	78.06
239.793	77.06
240.027	84.06
240.26	90.06
240.494	82.06
240.728	82.06
240.961	83.06
241.195	94.06
241.429	62.06
241.662	83.06
241.896	74.06
242.13	77.06
242.363	67.06
242.597	74.06
242.83	78.06
243.064	84.06
243.298	88.06
243.531	90.06
243.765	81.06
243.998	94.06
244.232	90.06
244.465	85.06
244.699	66.06
244.932	91.06
245.166	89.06
245.399	91.06
245.633	80.06
245.866	80.06
246.099	64.06
246.333	83.06
246.566	74.06
246.8	86.06
247.033	88.06
247.266	84.06
247.5	81.06
247.733	65.06
247.966	81.06
248.2	82.06
248.433	88.06
248.666	78.06
248.899	84.06
249.133	74.06
249.366	96.06
249.599	100.06
249.832	83.06
250.066	83.06
250.299	81.06
250.532	70.06
250.765	89.06
250.998	83.06
251.231	64.06
251.465	92.06
251.698	75.06
251.931	83.06
252.164	87.06
252.397	84.06
252.63	77.06
252.863	81.06
253.096	77.06
253.329	93.06
253.562	71.06
253.795	92.06
254.028	85.06
254.261	88.06
254.494	67.06
254.727	78.06
254.96	69.06
255.193	97.06
255.426	85.06
255.659	79.06
255.892	83.06
256.124	87.06
256.357	84.06
256.59	86.06
256.823	85.06
257.056	87.06
257.289	76.06
257.521	69.06
257.754	82.06
257.987	79.06
258.22	79.06
258.452	85.06
258.685	82.06
258.918	70.06
259.151	73.06
259.383	81.06
259.616	92.06
259.849	78.06
260.081	85.06
260.314	78.06
260.547	96.06
260.779	70.06
261.012	79.06
261.244	95.06
261.477	84.06
261.71	106.06
261.942	107.06
262.175	100.06
262.407	100.06
262.64	102.06
262.872	87.06
263.105	97.06
263.337	102.06
263.57	82.06
263.802	86.06
264.035	88.06
264.267	81.06
264.499	80.06
264.732	83.06
264.964	93.06
265.197	93.06
265.429	82.06
265.661	82.06
265.894	77.06
266.126	91.06
266.358	99.06
266.591	92.06
266.823	105.06
267.055	84.06
267.287	88.06
267.52	77.06
267.752	70.06
267.984	83.06
268.216	94.06
268.448	90.06
268.681	96.06
268.913	90.06
269.145	82.06
269.377	84.06
269.609	73.06
269.841	79.06
270.073	79.06
270.306	82.06
270.538	77.06
270.77	81.06
271.002	83.06
271.234	91.06
271.466	82.06
271.698	77.06
271.93	85.06
272.162	78.06
272.394	95.06
272.626	92.06
272.858	89.06
273.09	93.06
273.322	83.06
273.553	84.06
273.785	82.06
274.017	86.06
274.249	83.06
274.481	78.06
274.713	94.06
274.945	78.06
275.176	90.06
275.408	98.06
275.64	84.06
275.872	91.06
276.104	91.06
276.335	93.06
276.567	94.06
276.799	114.06
277.031	103.06
277.262	96.06
277.494	95.06
277.726	86.06
277.957	83.06
278.189	92.06
278.421	89.06
278.652	84.06
278.884	89.06
279.115	95.06
279.347	80.06
279.579	74.06
279.81	86.06
280.042	78.06
280.273	67.06
280.505	71.06
280.736	80.06
280.968	92.06
281.199	78.06
281.431	89.06
281.662	98.06
281.894	83.06
282.125	89.06
282.356	130.06
282.588	126.06
282.819	82.06
283.051	86.06
283.282	86.06
283.513	90.06
283.745	73.06
283.976	104.06
284.207	100.06
284.439	95.06
284.67	78.06
284.901	83.06
285.132	82.06
285.364	102.06
285.595	81.06
285.826	97.06
286.057	92.06
286.288	98.06
286.52	93.06
286.751	73.06
286.982	94.06
287.213	84.06
287.444	88.06
287.675	91.06
287.906	87.06
288.138	105.06
288.369	90.06
288.6	85.06
288.831	97.06
289.062	85.06
289.293	91.06
289.524	93.06
289.755	85.06
289.986	87.06
290.217	83.06
290.448	102.06
290.679	75.06
290.91	103.06
291.141	95.06
291.371	89.06
291.602	84.06
291.833	78.06
292.064	73.06
292.295	98.06
292.526	85.06
292.757	85.06
292.987	92.06
293.218	88.06
293.449	90.06
293.68	86.06
293.91	92.06
294.141	92.06
294.372	92.06
294.603	90.06
294.833	96.06
295.064	85.06
295.295	89.06
295.525	86.06
295.756	107.06
295.987	105.06
296.217	126.06
296.448	106.06
296.679	94.06
296.909	81.06
297.14	90.06
297.37	89.06
297.601	94.06
297.831	94.06
298.062	99.06
298.292	86.06
298.523	76.06
298.753	90.06
298.984	66.06
299.214	87.06
299.445	99.06
299.675	95.06
299.905	111.06
300.136	91.06
300.366	90.06
300.597	93.06
300.827	99.06
301.057	102.06
301.288	92.06
301.518	95.06
301.748	84.06
301.979	102.06
302.209	100.06
302.439	83.06
302.669	78.06
302.9	78.06
303.13	79.06
303.36	100.06
303.59	107.06
303.82	93.06
304.051	89.06
304.281	102.06
304.511	85.06
304.741	82.06
304.971	93.06
305.201	91.06
305.431	95.06
305.661	75.06
305.891	94.06
306.121	103.06
306.352	102.06
306.582	97.06
306.812	91.06
307.042	84.06
307.272	95.06
307.502	96.06
307.731	92.06
307.961	88.06
308.191	90.06
308.421	95.06
308.651	92.06
308.881	91.06
309.111	87.06
309.341	93.06
309.571	98.06
309.8	94.06
310.03	78.06
310.26	94.06
310.49	83.06
310.72	98.06
310.949	104.06
311.179	88.06
311.409	99.06
311.639	89.06
311.868	88.06
312.098	89.06
312.328	100.06
312.557	96.06
312.787	91.06
313.017	106.06
313.246	101.06
313.476	81.06
313.706	90.06
313.935	101.06
314.165	96.06
314.394	93.06
314.624	93.06
314.853	87.06
315.083	74.06
315.312	94.06
315.542	103.06
315.771	97.06
316.001	86.06
316.23	89.06
316.46	84.06
316.689	86.06
316.919	96.06
317.148	102.06
317.377	89.06
317.607	91.06
317.836	84.06
318.065	82.06
318.295	92.06
318.524	71.06
318.753	89.06
318.983	91.06
319.212	85.06
319.441	109.06
319.67	94.06
319.9	101.06
320.129	84.06
320.358	96.06
320.587	102.06
320.816	98.06
321.046	106.06
321.275	89.06
321.504	94.06
321.733	93.06
321.962	97.06
322.191	87.06
322.42	95.06
322.649	109.06
322.878	107.06
323.108	109.06
323.337	110.06
323.566	106.06
323.795	124.06
324.024	177.06
324.253	322.06
324.482	657.06
324.71	1297.06
324.939	1685.06
325.168	630.06
325.397	213.06
325.626	128.06
325.855	125.06
326.084	117.06
326.313	114.06
326.542	142.06
326.77	193.06
326.999	371.06
327.228	720.06
327.457	1301.06
327.686	1001.06
327.914	297.06
328.143	171.06
328.372	129.06
328.6	113.06
328.829	113.06
329.058	112.06
329.287	112.06
329.515	99.06
329.744	106.06
329.972	91.06
330.201	103.06
330.43	95.06
330.658	115.06
330.887	118.06
331.115	115.06
331.344	98.06
331.572	99.06
331.801	86.06
332.03	100.06
332.258	98.06
332.486	75.06
332.715	88.06
332.943	100.06
333.172	88.06
333.4	95.06
333.629	114.06
333.857	116.06
334.085	95.06
334.314	97.06
334.542	93.06
334.771	83.06
334.999	103.06
335.227	98.06
335.455	98.06
335.684	98.06
335.912	87.06
336.14	97.06
336.369	78.06
336.597	85.06
336.825	93.06
337.053	97.06
337.281	86.06
337.51	90.06
337.738	84.06
337.966	105.06
338.194	101.06
338.422	98.06
338.65	94.06
338.878	93.06
339.106	82.06
339.334	89.06
339.562	87.06
339.79	88.06
340.018	91.06
340.246	88.06
340.474	84.06
340.702	96.06
340.93	90.06
341.158	93.06
341.386	91.06
341.614	86.06
341.842	101.06
342.07	90.06
342.298	83.06
342.526	92.06
342.754	89.06
342.981	77.06
343.209	91.06
343.437	97.06
343.665	94.06
343.893	91.06
344.12	85.06
344.348	94.06
344.576	82.06
344.804	91.06
345.031	92.06
345.259	103.06
345.487	111.06
345.714	93.06
345.942	93.06
346.17	89.06
346.397	111.06
346.625	98.06
346.853	101.06
347.08	81.06
347.308	94.06
347.535	89.06
347.763	99.06
347.99	101.06
348.218	112.06
348.445	95.06
348.673	98.06
348.9	90.06
349.128	97.06
349.355	101.06
349.583	91.06
349.81	96.06
350.037	93.06
350.265	99.06
350.492	107.06
350.72	107.06
350.947	102.06
351.174	103.06
351.402	110.06
351.629	108.06
351.856	100.06
352.083	101.06
352.311	121.06
352.538	109.06
352.765	96.06
352.992	124.06
353.22	110.06
353.447	105.06
353.674	94.06
353.901	108.06
354.128	84.06
354.355	99.06
354.583	85.06
354.81	87.06
355.037	101.06
355.264	94.06
355.491	71.06
355.718	102.06
355.945	108.06
356.172	103.06
356.399	87.06
356.626	82.06
356.853	91.06
357.08	91.06
357.307	93.06
357.534	99.06
357.761	93.06
357.988	86.06
358.215	99.06
358.441	90.06
358.668	95.06
358.895	91.06
359.122	107.06
359.349	89.06
359.576	97.06
359.802	91.06
360.029	108.06
360.256	113.06
360.483	96.06
360.709	91.06
360.936	95.06
361.163	115.06
361.39	89.06
361.616	83.06
361.843	88.06
362.07	95.06
362.296	91.06
362.523	103.06
362.749	79.06
362.976	89.06
363.203	98.06
363.429	86.06
363.656	93.06
363.882	83.06
364.109	97.06
364.335	85.06
364.562	93.06
364.788	92.06
365.015	82.06
365.241	89.06
365.468	96.06
365.694	89.06
365.92	95.06
366.147	93.06
366.373	85.06
366.599	89.06
366.826	92.06
367.052	81.06
367.278	93.06
367.505	88.06
367.731	90.06
367.957	91.06
368.184	106.06
368.41	109.06
368.636	112.06
368.862	115.06
369.089	109.06
369.315	99.06
369.541	87.06
369.767	83.06
369.993	86.06
370.219	94.06
370.445	107.06
370.672	82.06
370.898	96.06
371.124	84.06
371.35	87.06
371.576	81.06
371.802	86.06
372.028	99.06
372.254	94.06
372.48	83.06
372.706	97.06
372.932	101.06
373.158	97.06
373.384	95.06
373.61	86.06
373.835	99.06
374.061	84.06
374.287	93.06
374.513	94.06
374.739	79.06
374.965	94.06
375.191	81.06
375.416	84.06
375.642	83.06
375.868	79.06
376.094	97.06
376.319	91.06
376.545	92.06
376.771	98.06
376.997	90.06
377.222	90.06
377.448	88.06
377.674	91.06
377.899	88.06
378.125	92.06
378.35	81.06
378.576	90.06
378.802	75.06
379.027	102.06
379.253	90.06
379.478	95.06
379.704	84.06
379.929	87.06
380.155	94.06
380.38	102.06
380.606	82.06
380.831	91.06
381.057	93.06
381.282	108.06
381.507	89.06
381.733	93.06
381.958	95.06
382.184	105.06
382.409	88.06
382.634	94.06
382.86	86.06
383.085	93.06
383.31	98.06
383.535	103.06
383.761	98.06
383.986	94.06
384.211	81.06
384.436	83.06
384.662	106.06
384.887	104.06
385.112	101.06
385.337	101.06
385.562	85.06
385.787	96.06
386.013	103.06
386.238	107.06
386.463	109.06
386.688	115.06
386.913	101.06
387.138	130.06
387.363	95.06
387.588	89.06
387.813	99.06
388.038	103.06
388.263	91.06
388.488	101.06
388.713	87.06
388.938	105.06
389.163	100.06
389.387	103.06
389.612	103.06
389.837	95.06
390.062	102.06
390.287	93.06
390.512	89.06
390.736	86.06
390.961	89.06
391.186	97.06
391.411	97.06
391.636	96.06
391.86	92.06
392.085	89.06
392.31	103.06
392.534	93.06
392.759	84.06
392.984	84.06
393.208	82.06
393.433	71.06
393.658	85.06
393.882	83.06
394.107	98.06
394.331	83.06
394.556	96.06
394.78	89.06
395.005	87.06
395.229	73.06
395.454	85.06
395.678	80.06
395.903	93.06
396.127	83.06
396.352	85.06
396.576	81.06
396.801	93.06
397.025	82.06
397.249	92.06
397.474	86.06
397.698	87.06
397.922	82.06
398.147	92.06
398.371	97.06
398.595	85.06
398.82	100.06
399.044	91.06
399.268	101.06
399.492	98.06
399.717	91.06
399.941	81.06
400.165	95.06
400.389	98.06
400.613	80.06
400.837	84.06
401.062	79.06
401.286	89.06
401.51	93.06
401.734	94.06
401.958	91.06
402.182	122.06
402.406	139.06
402.63	111.06
402.854	79.06
403.078	82.06
403.302	86.06
403.526	79.06
403.75	90.06
403.974	80.06
404.198	99.06
404.422	97.06
404.645	81.06
404.869	98.06
405.093	103.06
405.317	100.06
405.541	82.06
405.765	95.06
405.988	118.06
406.212	158.06
406.436	187.06
406.66	132.06
406.883	91.06
407.107	94.06
407.331	89.06
407.555	103.06
407.778	94.06
408.002	94.06
408.226	90.06
408.449	100.06
408.673	87.06
408.896	99.06
409.12	95.06
409.344	93.06
409.567	100.06
409.791	97.06
410.014	93.06
410.238	95.06
410.461	96.06
410.685	91.06
410.908	102.06
411.132	94.06
411.355	94.06
411.578	97.06
411.802	89.06
412.025	84.06
412.249	78.06
412.472	83.06
412.695	97.06
412.919	100.06
413.142	86.06
413.365	91.06
413.589	82.06
413.812	86.06
414.035	94.06
414.258	99.06
414.482	83.06
414.705	95.06
414.928	97.06
415.151	109.06
415.374	101.06
415.597	86.06
415.821	90.06
416.044	69.06
416.267	76.06
416.49	97.06
416.713	95.06
416.936	85.06
417.159	81.06
417.382	90.06
417.605	78.06
417.828	99.06
418.051	100.06
418.274	96.06
418.497	92.06
418.72	85.06
418.943	83.06
419.166	103.06
419.389	103.06
419.611	85.06
419.834	94.06
420.057	89.06
420.28	84.06
420.503	77.06
420.726	79.06
420.948	94.06
421.171	73.06
421.394	93.06
421.617	98.06
421.839	97.06
422.062	102.06
422.285	93.06
422.507	89.06
422.73	95.06
422.953	94.06
423.175	93.06
423.398	86.06
423.621	90.06
423.843	111.06
424.066	76.06
424.288	95.06
424.511	97.06
424.733	103.06
424.956	91.06
425.178	89.06
425.401	94.06
425.623	95.06
425.846	93.06
426.068	90.06
426.291	90.06
426.513	82.06
426.735	97.06
426.958	93.06
427.18	103.06
427.402	127.06
427.625	138.06
427.847	128.06
428.069	97.06
428.292	83.06
428.514	81.06
428.736	89.06
428.958	83.06
429.181	88.06
429.403	96.06
429.625	90.06
429.847	83.06
430.069	83.06
430.292	91.06
430.514	66.06
430.736	84.06
430.958	69.06
431.18	86.06
431.402	77.06
431.624	85.06
431.846	80.06
432.068	81.06
432.29	79.06
432.512	91.06
432.734	91.06
432.956	98.06
433.178	94.06
433.4	98.06
433.622	85.06
433.844	87.06
434.066	78.06
434.287	92.06
434.509	92.06
434.731	97.06
434.953	93.06
435.175	86.06
435.397	95.06
435.618	91.06
435.84	102.06
436.062	113.06
436.284	118.06
436.505	93.06
436.727	108.06
436.949	83.06
437.17	89.06
437.392	85.06
437.614	94.06
437.835	102.06
438.057	116.06
438.278	107.06
438.5	86.06
438.721	101.06
438.943	92.06
439.165	95.06
439.386	87.06
439.608	100.06
439.829	86.06
440.05	106.06
440.272	135.06
440.493	104.06
440.715	87.06
440.936	89.06
441.158	85.06
441.379	87.06
441.6	83.06
441.822	94.06
442.043	94.06
442.264	101.06
442.486	105.06
442.707	107.06
442.928	103.06
443.149	110.06
443.371	122.06
443.592	124.06
443.813	102.06
444.034	106.06
444.255	102.06
444.476	82.06
444.698	96.06
444.919	94.06
445.14	126.06
445.361	111.06
445.582	108.06
445.803	119.06
446.024	110.06
446.245	119.06
446.466	99.06
446.687	79.06
446.908	96.06
447.129	94.06
447.35	98.06
447.571	103.06
447.792	99.06
448.013	89.06
448.234	112.06
448.455	95.06
448.675	103.06
448.896	102.06
449.117	84.06
449.338	99.06
449.559	110.06
449.779	124.06
450	83.06
450.221	85.06
450.442	101.06
450.662	99.06
450.883	103.06
451.104	102.06
451.324	93.06
451.545	89.06
451.766	87.06
451.986	80.06
452.207	91.06
452.428	98.06
452.648	97.06
452.869	107.06
453.089	105.06
453.31	114.06
453.53	86.06
453.751	92.06
453.971	117.06
454.192	94.06
454.412	95.06
454.633	95.06
454.853	93.06
455.073	91.06
455.294	89.06
455.514	95.06
455.734	93.06
455.955	101.06
456.175	86.06
456.395	91.06
456.616	79.06
456.836	74.06
457.056	85.06
457.276	79.06
457.497	85.06
457.717	91.06
457.937	100.06
458.157	91.06
458.377	95.06
458.598	95.06
458.818	123.06
459.038	127.06
459.258	106.06
459.478	101.06
459.698	83.06
459.918	89.06
460.138	78.06
460.358	90.06
460.578	101.06
460.798	103.06
461.018	89.06
461.238	83.06
461.458	88.06
461.678	78.06
461.898	97.06
462.118	95.06
462.338	78.06
462.558	97.06
462.777	82.06
462.997	90.06
463.217	95.06
463.437	97.06
463.657	73.06
463.876	80.06
464.096	102.06
464.316	93.06
464.536	103.06
464.755	89.06
464.975	106.06
465.195	153.06
465.414	161.06
465.634	83.06
465.854	81.06
466.073	78.06
466.293	79.06
466.512	77.06
466.732	79.06
466.951	86.06
467.171	99.06
467.391	101.06
467.61	107.06
467.829	91.06
468.049	80.06
468.268	86.06
468.488	78.06
468.707	85.06
468.927	79.06
469.146	85.06
469.365	90.06
469.585	85.06
469.804	92.06
470.023	94.06
470.243	77.06
470.462	103.06
470.681	104.06
470.901	100.06
471.12	71.06
471.339	93.06
471.558	88.06
471.777	93.06
471.997	76.06
472.216	76.06
472.435	96.06
472.654	79.06
472.873	89.06
473.092	78.06
473.311	103.06
473.53	84.06
473.749	79.06
473.968	99.06
474.187	102.06
474.406	92.06
474.625	88.06
474.844	80.06
475.063	91.06
475.282	93.06
475.501	85.06
475.72	97.06
475.939	98.06
476.158	94.06
476.377	89.06
476.596	95.06
476.814	93.06
477.033	94.06
477.252	96.06
477.471	86.06
477.69	99.06
477.908	94.06
478.127	93.06
478.346	74.06
478.564	87.06
478.783	85.06
479.002	91.06
479.22	103.06
479.439	96.06
479.658	95.06
479.876	98.06
480.095	87.06
480.313	82.06
480.532	79.06
480.751	94.06
480.969	73.06
481.188	108.06
481.406	75.06
481.624	93.06
481.843	80.06
482.061	93.06
482.28	87.06
482.498	82.06
482.717	82.06
482.935	86.06
483.153	113.06
483.372	82.06
483.59	87.06
483.808	94.06
484.027	96.06
484.245	88.06
484.463	95.06
484.681	100.06
484.9	96.06
485.118	101.06
485.336	82.06
485.554	99.06
485.772	118.06
485.99	105.06
486.209	108.06
486.427	110.06
486.645	118.06
486.863	110.06
487.081	91.06
487.299	97.06
487.517	88.06
487.735	94.06
487.953	100.06
488.171	101.06
488.389	96.06
488.607	89.06
488.825	98.06
489.043	81.06
489.261	97.06
489.479	96.06
489.696	95.06
489.914	90.06
490.132	91.06
490.35	99.06
490.568	90.06
490.786	104.06
491.003	89.06
491.221	94.06
491.439	92.06
491.657	89.06
491.874	96.06
492.092	98.06
492.31	91.06
492.527	92.06
492.745	95.06
492.963	93.06
493.18	91.06
493.398	84.06
493.615	98.06
493.833	96.06
494.05	93.06
494.268	90.06
494.485	95.06
494.703	83.06
494.92	96.06
495.138	101.06
495.355	93.06
495.573	91.06
495.79	98.06
496.008	100.06
496.225	106.06
496.442	85.06
496.66	82.06
496.877	89.06
497.094	90.06
497.312	97.06
497.529	94.06
497.746	96.06
497.963	93.06
498.181	103.06
498.398	111.06
498.615	117.06
498.832	99.06
499.049	86.06
499.267	94.06
499.484	79.06
499.701	93.06
499.918	93.06
500.135	87.06
500.352	86.06
500.569	96.06
500.786	89.06
501.003	90.06
501.22	83.06
501.437	78.06
501.654	94.06
501.871	109.06
502.088	97.06
502.305	101.06
502.522	82.06
502.739	104.06
502.956	85.06
503.172	91.06
503.389	90.06
503.606	115.06
503.823	99.06
504.04	80.06
504.256	102.06
504.473	87.06
504.69	94.06
504.907	103.06
505.123	92.06
505.34	99.06
505.557	90.06
505.773	90.06
505.99	88.06
506.207	103.06
506.423	90.06
506.64	105.06
506.856	90.06
507.073	94.06
507.289	100.06
507.506	103.06
507.722	107.06
507.939	104.06
508.155	92.06
508.372	99.06
508.588	91.06
508.805	102.06
509.021	95.06
509.238	90.06
509.454	98.06
509.67	103.06
509.887	107.06
510.103	129.06
510.319	210.06
510.536	699.06
510.752	2098.06
510.968	582.06
511.184	130.06
511.401	105.06
511.617	102.06
511.833	88.06
512.049	85.06
512.265	107.06
512.481	87.06
512.698	96.06
512.914	86.06
513.13	100.06
513.346	93.06
513.562	112.06
513.778	94.06
513.994	102.06
514.21	101.06
514.426	108.06
514.642	128.06
514.858	113.06
515.074	153.06
515.29	398.06
515.506	1236.06
515.721	461.06
515.937	132.06
