Data from Uncirc_1993_H10_HRD10591_00079.txt Node
Date: Wed Jan 03 11:43:08 EST 2024
User: Yrep
Spectrometer: HR+D1059
Trigger mode: 1
Integration Time (sec): 1.000000E-1
Scans to average: 1
Electric dark correction enabled: true
Nonlinearity correction enabled: false
Boxcar width: 0
XAxis mode: Wavelengths
Number of Pixels in Spectrum: 2048
>>>>>Begin Spectral Data<<<<<
223.165	-10.69
223.4	-10.69
223.635	-10.69
223.869	-11.69
224.104	-19.69
224.338	-17.69
224.573	-15.69
224.808	-7.69
225.042	-18.69
225.277	-3.69
225.511	9.31
225.746	13.31
225.98	3.31
226.215	-2.69
226.449	17.31
226.683	30.31
226.918	15.31
227.152	19.31
227.387	25.31
227.621	37.31
227.856	42.31
228.09	41.31
228.324	45.31
228.559	53.31
228.793	63.31
229.027	72.31
229.262	58.31
229.496	77.31
229.73	79.31
229.964	89.31
230.199	75.31
230.433	73.31
230.667	81.31
230.901	60.31
231.136	69.31
231.37	61.31
231.604	79.31
231.838	77.31
232.072	67.31
232.306	79.31
232.541	62.31
232.775	68.31
233.009	85.31
233.243	91.31
233.477	75.31
233.711	79.31
233.945	80.31
234.179	80.31
234.413	74.31
234.647	84.31
234.881	89.31
235.115	76.31
235.349	78.31
235.583	75.31
235.817	82.31
236.051	84.31
236.285	82.31
236.519	75.31
236.753	69.31
236.987	83.31
237.221	91.31
237.455	88.31
237.689	83.31
237.922	70.31
238.156	63.31
238.39	65.31
238.624	74.31
238.858	73.31
239.091	78.31
239.325	71.31
239.559	90.31
239.793	76.31
240.027	83.31
240.26	77.31
240.494	83.31
240.728	78.31
240.961	69.31
241.195	61.31
241.429	72.31
241.662	57.31
241.896	83.31
242.13	64.31
242.363	77.31
242.597	56.31
242.83	70.31
243.064	72.31
243.298	80.31
243.531	81.31
243.765	86.31
243.998	80.31
244.232	88.31
244.465	91.31
244.699	78.31
244.932	76.31
245.166	67.31
245.399	81.31
245.633	71.31
245.866	71.31
246.099	74.31
246.333	77.31
246.566	87.31
246.8	81.31
247.033	75.31
247.266	77.31
247.5	72.31
247.733	79.31
247.966	75.31
248.2	72.31
248.433	79.31
248.666	74.31
248.899	78.31
249.133	85.31
249.366	85.31
249.599	84.31
249.832	82.31
250.066	87.31
250.299	67.31
250.532	88.31
250.765	87.31
250.998	82.31
251.231	79.31
251.465	80.31
251.698	84.31
251.931	82.31
252.164	80.31
252.397	65.31
252.63	84.31
252.863	81.31
253.096	75.31
253.329	87.31
253.562	81.31
253.795	75.31
254.028	82.31
254.261	90.31
254.494	85.31
254.727	84.31
254.96	76.31
255.193	92.31
255.426	74.31
255.659	76.31
255.892	84.31
256.124	69.31
256.357	77.31
256.59	84.31
256.823	79.31
257.056	75.31
257.289	87.31
257.521	85.31
257.754	73.31
257.987	82.31
258.22	69.31
258.452	78.31
258.685	88.31
258.918	85.31
259.151	71.31
259.383	71.31
259.616	84.31
259.849	76.31
260.081	83.31
260.314	73.31
260.547	82.31
260.779	68.31
261.012	76.31
261.244	74.31
261.477	85.31
261.71	100.31
261.942	103.31
262.175	112.31
262.407	76.31
262.64	75.31
262.872	89.31
263.105	94.31
263.337	83.31
263.57	81.31
263.802	76.31
264.035	86.31
264.267	79.31
264.499	84.31
264.732	82.31
264.964	87.31
265.197	79.31
265.429	80.31
265.661	91.31
265.894	84.31
266.126	71.31
266.358	82.31
266.591	76.31
266.823	82.31
267.055	72.31
267.287	86.31
267.52	87.31
267.752	77.31
267.984	79.31
268.216	82.31
268.448	84.31
268.681	80.31
268.913	84.31
269.145	92.31
269.377	87.31
269.609	75.31
269.841	81.31
270.073	78.31
270.306	87.31
270.538	84.31
270.77	78.31
271.002	68.31
271.234	90.31
271.466	103.31
271.698	90.31
271.93	87.31
272.162	92.31
272.394	86.31
272.626	68.31
272.858	87.31
273.09	79.31
273.322	80.31
273.553	79.31
273.785	68.31
274.017	83.31
274.249	77.31
274.481	80.31
274.713	91.31
274.945	89.31
275.176	84.31
275.408	99.31
275.64	90.31
275.872	91.31
276.104	90.31
276.335	82.31
276.567	101.31
276.799	94.31
277.031	89.31
277.262	92.31
277.494	92.31
277.726	78.31
277.957	83.31
278.189	93.31
278.421	84.31
278.652	86.31
278.884	67.31
279.115	82.31
279.347	89.31
279.579	77.31
279.81	79.31
280.042	80.31
280.273	79.31
280.505	76.31
280.736	82.31
280.968	73.31
281.199	78.31
281.431	72.31
281.662	93.31
281.894	94.31
282.125	100.31
282.356	107.31
282.588	146.31
282.819	107.31
283.051	90.31
283.282	94.31
283.513	87.31
283.745	88.31
283.976	102.31
284.207	87.31
284.439	84.31
284.67	96.31
284.901	79.31
285.132	74.31
285.364	94.31
285.595	88.31
285.826	90.31
286.057	94.31
286.288	92.31
286.52	86.31
286.751	93.31
286.982	85.31
287.213	87.31
287.444	76.31
287.675	77.31
287.906	90.31
288.138	90.31
288.369	104.31
288.6	103.31
288.831	77.31
289.062	84.31
289.293	85.31
289.524	98.31
289.755	96.31
289.986	78.31
290.217	75.31
290.448	94.31
290.679	89.31
290.91	82.31
291.141	90.31
291.371	71.31
291.602	75.31
291.833	90.31
292.064	90.31
292.295	88.31
292.526	88.31
292.757	84.31
292.987	89.31
293.218	88.31
293.449	95.31
293.68	80.31
293.91	81.31
294.141	91.31
294.372	82.31
294.603	99.31
294.833	77.31
295.064	70.31
295.295	92.31
295.525	84.31
295.756	99.31
295.987	117.31
296.217	131.31
296.448	123.31
296.679	106.31
296.909	90.31
297.14	95.31
297.37	79.31
297.601	90.31
297.831	88.31
298.062	84.31
298.292	97.31
298.523	94.31
298.753	98.31
298.984	89.31
299.214	83.31
299.445	85.31
299.675	74.31
299.905	100.31
300.136	77.31
300.366	83.31
300.597	95.31
300.827	99.31
301.057	100.31
301.288	95.31
301.518	113.31
301.748	98.31
301.979	91.31
302.209	92.31
302.439	93.31
302.669	93.31
302.9	82.31
303.13	87.31
303.36	72.31
303.59	100.31
303.82	87.31
304.051	92.31
304.281	92.31
304.511	75.31
304.741	86.31
304.971	88.31
305.201	99.31
305.431	90.31
305.661	79.31
305.891	92.31
306.121	101.31
306.352	95.31
306.582	105.31
306.812	91.31
307.042	97.31
307.272	101.31
307.502	85.31
307.731	88.31
307.961	103.31
308.191	91.31
308.421	95.31
308.651	93.31
308.881	93.31
309.111	93.31
309.341	89.31
309.571	81.31
309.8	111.31
310.03	98.31
310.26	89.31
310.49	95.31
310.72	101.31
310.949	97.31
311.179	88.31
311.409	93.31
311.639	84.31
311.868	88.31
312.098	97.31
312.328	91.31
312.557	88.31
312.787	102.31
313.017	110.31
313.246	101.31
313.476	97.31
313.706	78.31
313.935	91.31
314.165	99.31
314.394	92.31
314.624	88.31
314.853	88.31
315.083	100.31
315.312	96.31
315.542	90.31
315.771	95.31
316.001	85.31
316.23	98.31
316.46	98.31
316.689	99.31
316.919	102.31
317.148	90.31
317.377	99.31
317.607	89.31
317.836	103.31
318.065	92.31
318.295	87.31
318.524	91.31
318.753	98.31
318.983	88.31
319.212	95.31
319.441	105.31
319.67	101.31
319.9	82.31
320.129	86.31
320.358	84.31
320.587	100.31
320.816	104.31
321.046	85.31
321.275	108.31
321.504	95.31
321.733	101.31
321.962	80.31
322.191	101.31
322.42	109.31
322.649	104.31
322.878	98.31
323.108	116.31
323.337	120.31
323.566	126.31
323.795	123.31
324.024	195.31
324.253	351.31
324.482	689.31
324.71	1439.31
324.939	1825.31
325.168	699.31
325.397	209.31
325.626	127.31
325.855	115.31
326.084	125.31
326.313	121.31
326.542	116.31
326.77	209.31
326.999	385.31
327.228	781.31
327.457	1413.31
327.686	1108.31
327.914	319.31
328.143	181.31
328.372	128.31
328.6	119.31
328.829	116.31
329.058	109.31
329.287	117.31
329.515	119.31
329.744	94.31
329.972	106.31
330.201	104.31
330.43	99.31
330.658	105.31
330.887	137.31
331.115	114.31
331.344	101.31
331.572	95.31
331.801	105.31
332.03	97.31
332.258	101.31
332.486	87.31
332.715	88.31
332.943	111.31
333.172	109.31
333.4	100.31
333.629	120.31
333.857	107.31
334.085	105.31
334.314	101.31
334.542	99.31
334.771	106.31
334.999	89.31
335.227	104.31
335.455	85.31
335.684	89.31
335.912	93.31
336.14	96.31
336.369	94.31
336.597	89.31
336.825	103.31
337.053	99.31
337.281	88.31
337.51	91.31
337.738	91.31
337.966	92.31
338.194	99.31
338.422	101.31
338.65	111.31
338.878	92.31
339.106	101.31
339.334	98.31
339.562	95.31
339.79	87.31
340.018	92.31
340.246	95.31
340.474	91.31
340.702	93.31
340.93	91.31
341.158	100.31
341.386	100.31
341.614	92.31
341.842	114.31
342.07	105.31
342.298	85.31
342.526	83.31
342.754	101.31
342.981	88.31
343.209	81.31
343.437	106.31
343.665	90.31
343.893	91.31
344.12	93.31
344.348	96.31
344.576	95.31
344.804	94.31
345.031	95.31
345.259	89.31
345.487	96.31
345.714	81.31
345.942	93.31
346.17	96.31
346.397	93.31
346.625	98.31
346.853	91.31
347.08	88.31
347.308	105.31
347.535	107.31
347.763	102.31
347.99	106.31
348.218	98.31
348.445	97.31
348.673	90.31
348.9	93.31
349.128	93.31
349.355	84.31
349.583	88.31
349.81	89.31
350.037	92.31
350.265	103.31
350.492	89.31
350.72	94.31
350.947	97.31
351.174	97.31
351.402	97.31
351.629	113.31
351.856	110.31
352.083	95.31
352.311	101.31
352.538	93.31
352.765	111.31
352.992	109.31
353.22	104.31
353.447	97.31
353.674	105.31
353.901	104.31
354.128	92.31
354.355	87.31
354.583	105.31
354.81	106.31
355.037	105.31
355.264	91.31
355.491	99.31
355.718	102.31
355.945	93.31
356.172	90.31
356.399	90.31
356.626	105.31
356.853	97.31
357.08	82.31
357.307	84.31
357.534	82.31
357.761	91.31
357.988	80.31
358.215	98.31
358.441	97.31
358.668	96.31
358.895	99.31
359.122	92.31
359.349	92.31
359.576	82.31
359.802	86.31
360.029	101.31
360.256	99.31
360.483	99.31
360.709	85.31
360.936	97.31
361.163	107.31
361.39	100.31
361.616	84.31
361.843	77.31
362.07	93.31
362.296	89.31
362.523	101.31
362.749	74.31
362.976	93.31
363.203	90.31
363.429	85.31
363.656	103.31
363.882	97.31
364.109	81.31
364.335	95.31
364.562	94.31
364.788	100.31
365.015	90.31
365.241	101.31
365.468	93.31
365.694	104.31
365.92	94.31
366.147	95.31
366.373	104.31
366.599	76.31
366.826	81.31
367.052	103.31
367.278	88.31
367.505	93.31
367.731	84.31
367.957	97.31
368.184	98.31
368.41	96.31
368.636	97.31
368.862	116.31
369.089	89.31
369.315	84.31
369.541	104.31
369.767	95.31
369.993	87.31
370.219	84.31
370.445	91.31
370.672	85.31
370.898	95.31
371.124	83.31
371.35	87.31
371.576	86.31
371.802	88.31
372.028	95.31
372.254	84.31
372.48	81.31
372.706	77.31
372.932	79.31
373.158	76.31
373.384	104.31
373.61	94.31
373.835	84.31
374.061	88.31
374.287	82.31
374.513	87.31
374.739	105.31
374.965	76.31
375.191	96.31
375.416	80.31
375.642	87.31
375.868	84.31
376.094	100.31
376.319	100.31
376.545	86.31
376.771	82.31
376.997	92.31
377.222	90.31
377.448	82.31
377.674	78.31
377.899	92.31
378.125	81.31
378.35	91.31
378.576	89.31
378.802	91.31
379.027	89.31
379.253	86.31
379.478	105.31
379.704	96.31
379.929	95.31
380.155	94.31
380.38	91.31
380.606	102.31
380.831	91.31
381.057	96.31
381.282	86.31
381.507	92.31
381.733	95.31
381.958	93.31
382.184	85.31
382.409	93.31
382.634	98.31
382.86	95.31
383.085	86.31
383.31	97.31
383.535	80.31
383.761	90.31
383.986	91.31
384.211	100.31
384.436	100.31
384.662	92.31
384.887	95.31
385.112	83.31
385.337	92.31
385.562	101.31
385.787	108.31
386.013	108.31
386.238	108.31
386.463	104.31
386.688	104.31
386.913	98.31
387.138	107.31
387.363	94.31
387.588	97.31
387.813	96.31
388.038	91.31
388.263	105.31
388.488	87.31
388.713	78.31
388.938	82.31
389.163	97.31
389.387	98.31
389.612	85.31
389.837	92.31
390.062	107.31
390.287	95.31
390.512	79.31
390.736	102.31
390.961	89.31
391.186	89.31
391.411	74.31
391.636	90.31
391.86	76.31
392.085	76.31
392.31	92.31
392.534	95.31
392.759	91.31
392.984	89.31
393.208	81.31
393.433	88.31
393.658	80.31
393.882	93.31
394.107	78.31
394.331	95.31
394.556	79.31
394.78	96.31
395.005	88.31
395.229	96.31
395.454	82.31
395.678	81.31
395.903	77.31
396.127	99.31
396.352	96.31
396.576	87.31
396.801	83.31
397.025	86.31
397.249	85.31
397.474	84.31
397.698	90.31
397.922	82.31
398.147	77.31
398.371	83.31
398.595	98.31
398.82	76.31
399.044	98.31
399.268	87.31
399.492	86.31
399.717	83.31
399.941	77.31
400.165	82.31
400.389	84.31
400.613	82.31
400.837	83.31
401.062	90.31
401.286	82.31
401.51	92.31
401.734	88.31
401.958	107.31
402.182	126.31
402.406	141.31
402.63	108.31
402.854	84.31
403.078	90.31
403.302	71.31
403.526	89.31
403.75	87.31
403.974	93.31
404.198	94.31
404.422	88.31
404.645	73.31
404.869	87.31
405.093	92.31
405.317	85.31
405.541	89.31
405.765	84.31
405.988	111.31
406.212	142.31
406.436	210.31
406.66	146.31
406.883	92.31
407.107	83.31
407.331	89.31
407.555	85.31
407.778	98.31
408.002	83.31
408.226	85.31
408.449	81.31
408.673	76.31
408.896	99.31
409.12	78.31
409.344	87.31
409.567	86.31
409.791	97.31
410.014	79.31
410.238	94.31
410.461	83.31
410.685	91.31
410.908	97.31
411.132	101.31
411.355	104.31
411.578	91.31
411.802	99.31
412.025	96.31
412.249	97.31
412.472	92.31
412.695	96.31
412.919	86.31
413.142	79.31
413.365	91.31
413.589	81.31
413.812	100.31
414.035	93.31
414.258	97.31
414.482	89.31
414.705	83.31
414.928	83.31
415.151	87.31
415.374	100.31
415.597	84.31
415.821	90.31
416.044	87.31
416.267	88.31
416.49	92.31
416.713	79.31
416.936	87.31
417.159	91.31
417.382	101.31
417.605	93.31
417.828	93.31
418.051	94.31
418.274	88.31
418.497	85.31
418.72	90.31
418.943	85.31
419.166	89.31
419.389	87.31
419.611	95.31
419.834	90.31
420.057	82.31
420.28	81.31
420.503	80.31
420.726	75.31
420.948	92.31
421.171	103.31
421.394	98.31
421.617	101.31
421.839	72.31
422.062	81.31
422.285	100.31
422.507	97.31
422.73	90.31
422.953	94.31
423.175	79.31
423.398	106.31
423.621	88.31
423.843	84.31
424.066	92.31
424.288	90.31
424.511	89.31
424.733	94.31
424.956	107.31
425.178	89.31
425.401	91.31
425.623	99.31
425.846	99.31
426.068	98.31
426.291	84.31
426.513	92.31
426.735	99.31
426.958	84.31
427.18	96.31
427.402	132.31
427.625	144.31
427.847	116.31
428.069	102.31
428.292	97.31
428.514	91.31
428.736	87.31
428.958	78.31
429.181	79.31
429.403	82.31
429.625	83.31
429.847	92.31
430.069	99.31
430.292	87.31
430.514	77.31
430.736	87.31
430.958	79.31
431.18	81.31
431.402	86.31
431.624	93.31
431.846	87.31
432.068	82.31
432.29	83.31
432.512	81.31
432.734	78.31
432.956	78.31
433.178	93.31
433.4	94.31
433.622	80.31
433.844	78.31
434.066	86.31
434.287	87.31
434.509	96.31
434.731	94.31
434.953	80.31
435.175	86.31
435.397	84.31
435.618	88.31
435.84	99.31
436.062	108.31
436.284	105.31
436.505	100.31
436.727	81.31
436.949	84.31
437.17	83.31
437.392	97.31
437.614	84.31
437.835	107.31
438.057	107.31
438.278	96.31
438.5	98.31
438.721	98.31
438.943	84.31
439.165	83.31
439.386	84.31
439.608	82.31
439.829	112.31
440.05	97.31
440.272	130.31
440.493	87.31
440.715	73.31
440.936	87.31
441.158	101.31
441.379	83.31
441.6	95.31
441.822	95.31
442.043	100.31
442.264	89.31
442.486	99.31
442.707	86.31
442.928	96.31
443.149	123.31
443.371	116.31
443.592	97.31
443.813	108.31
444.034	102.31
444.255	93.31
444.476	93.31
444.698	79.31
444.919	81.31
445.14	113.31
445.361	87.31
445.582	95.31
445.803	109.31
446.024	126.31
446.245	108.31
446.466	105.31
446.687	100.31
446.908	83.31
447.129	82.31
447.35	91.31
447.571	92.31
447.792	75.31
448.013	77.31
448.234	97.31
448.455	85.31
448.675	95.31
448.896	106.31
449.117	85.31
449.338	86.31
449.559	109.31
449.779	119.31
450	94.31
450.221	89.31
450.442	86.31
450.662	97.31
450.883	104.31
451.104	106.31
451.324	96.31
451.545	79.31
451.766	88.31
451.986	65.31
452.207	85.31
452.428	83.31
452.648	97.31
452.869	108.31
453.089	98.31
453.31	93.31
453.53	76.31
453.751	78.31
453.971	99.31
454.192	104.31
454.412	83.31
454.633	84.31
454.853	88.31
455.073	91.31
455.294	81.31
455.514	94.31
455.734	88.31
455.955	87.31
456.175	86.31
456.395	84.31
456.616	94.31
456.836	98.31
457.056	90.31
457.276	88.31
457.497	77.31
457.717	90.31
457.937	76.31
458.157	81.31
458.377	99.31
458.598	97.31
458.818	135.31
459.038	159.31
459.258	121.31
459.478	91.31
459.698	85.31
459.918	84.31
460.138	81.31
460.358	80.31
460.578	83.31
460.798	91.31
461.018	95.31
461.238	85.31
461.458	89.31
461.678	92.31
461.898	77.31
462.118	75.31
462.338	75.31
462.558	83.31
462.777	97.31
462.997	91.31
463.217	95.31
463.437	78.31
463.657	78.31
463.876	97.31
464.096	81.31
464.316	96.31
464.536	69.31
464.755	94.31
464.975	88.31
465.195	133.31
465.414	132.31
465.634	89.31
465.854	91.31
466.073	77.31
466.293	95.31
466.512	86.31
466.732	90.31
466.951	81.31
467.171	91.31
467.391	93.31
467.61	96.31
467.829	96.31
468.049	74.31
468.268	83.31
468.488	81.31
468.707	82.31
468.927	84.31
469.146	91.31
469.365	76.31
469.585	91.31
469.804	89.31
470.023	83.31
470.243	79.31
470.462	87.31
470.681	97.31
470.901	81.31
471.12	92.31
471.339	97.31
471.558	74.31
471.777	91.31
471.997	90.31
472.216	100.31
472.435	95.31
472.654	84.31
472.873	92.31
473.092	80.31
473.311	87.31
473.53	86.31
473.749	65.31
473.968	95.31
474.187	83.31
474.406	81.31
474.625	89.31
474.844	71.31
475.063	90.31
475.282	94.31
475.501	74.31
475.72	76.31
475.939	76.31
476.158	83.31
476.377	95.31
476.596	91.31
476.814	98.31
477.033	93.31
477.252	92.31
477.471	97.31
477.69	88.31
477.908	71.31
478.127	79.31
478.346	88.31
478.564	82.31
478.783	96.31
479.002	93.31
479.22	98.31
479.439	87.31
479.658	95.31
479.876	93.31
480.095	100.31
480.313	66.31
480.532	88.31
480.751	90.31
480.969	76.31
481.188	88.31
481.406	116.31
481.624	88.31
481.843	85.31
482.061	90.31
482.28	79.31
482.498	83.31
482.717	74.31
482.935	86.31
483.153	85.31
483.372	76.31
483.59	88.31
483.808	84.31
484.027	75.31
484.245	83.31
484.463	78.31
484.681	104.31
484.9	97.31
485.118	88.31
485.336	93.31
485.554	102.31
485.772	89.31
485.99	91.31
486.209	110.31
486.427	110.31
486.645	98.31
486.863	97.31
487.081	100.31
487.299	102.31
487.517	92.31
487.735	82.31
487.953	94.31
488.171	95.31
488.389	96.31
488.607	100.31
488.825	106.31
489.043	93.31
489.261	96.31
489.479	83.31
489.696	76.31
489.914	75.31
490.132	84.31
490.35	96.31
490.568	76.31
490.786	83.31
491.003	90.31
491.221	99.31
491.439	73.31
491.657	89.31
491.874	104.31
492.092	85.31
492.31	75.31
492.527	78.31
492.745	86.31
492.963	85.31
493.18	97.31
493.398	87.31
493.615	96.31
493.833	96.31
494.05	85.31
494.268	91.31
494.485	90.31
494.703	87.31
494.92	81.31
495.138	92.31
495.355	95.31
495.573	79.31
495.79	82.31
496.008	95.31
496.225	77.31
496.442	106.31
496.66	85.31
496.877	82.31
497.094	81.31
497.312	92.31
497.529	77.31
497.746	81.31
497.963	88.31
498.181	86.31
498.398	97.31
498.615	110.31
498.832	102.31
499.049	92.31
499.267	90.31
499.484	72.31
499.701	90.31
499.918	96.31
500.135	93.31
500.352	94.31
500.569	101.31
500.786	86.31
501.003	78.31
501.22	97.31
501.437	74.31
501.654	94.31
501.871	102.31
502.088	85.31
502.305	106.31
502.522	103.31
502.739	108.31
502.956	94.31
503.172	109.31
503.389	87.31
503.606	100.31
503.823	111.31
504.04	97.31
504.256	85.31
504.473	100.31
504.69	91.31
504.907	84.31
505.123	97.31
505.34	83.31
505.557	99.31
505.773	91.31
505.99	85.31
506.207	90.31
506.423	81.31
506.64	79.31
506.856	81.31
507.073	99.31
507.289	80.31
507.506	91.31
507.722	107.31
507.939	105.31
508.155	91.31
508.372	98.31
508.588	105.31
508.805	92.31
509.021	95.31
509.238	95.31
509.454	106.31
509.67	92.31
509.887	119.31
510.103	130.31
510.319	210.31
510.536	726.31
510.752	2191.31
510.968	609.31
511.184	137.31
511.401	83.31
511.617	89.31
511.833	82.31
512.049	90.31
512.265	83.31
512.481	103.31
512.698	75.31
512.914	87.31
513.13	97.31
513.346	94.31
513.562	101.31
513.778	95.31
513.994	79.31
514.21	100.31
514.426	116.31
514.642	126.31
514.858	126.31
515.074	155.31
515.29	425.31
515.506	1319.31
515.721	471.31
515.937	133.31
516.153	100.31
516.369	92.31
516.585	100.31
