Data from Uncirc_1993_H10_HRD10591_00050.txt Node
Date: Wed Jan 03 11:43:02 EST 2024
User: Yrep
Spectrometer: HR+D1059
Trigger mode: 1
Integration Time (sec): 1.000000E-1
Scans to average: 1
Electric dark correction enabled: true
Nonlinearity correction enabled: false
Boxcar width: 0
XAxis mode: Wavelengths
Number of Pixels in Spectrum: 2048
>>>>>Begin Spectral Data<<<<<
223.165	-25.25
223.4	-25.25
223.635	-25.25
223.869	-10.25
224.104	-25.25
224.338	-16.25
224.573	-12.25
224.808	-10.25
225.042	-17.25
225.277	1.75
225.511	16.75
225.746	11.75
225.98	-11.25
226.215	-6.25
226.449	21.75
226.683	23.75
226.918	36.75
227.152	21.75
227.387	33.75
227.621	24.75
227.856	24.75
228.09	36.75
228.324	53.75
228.559	63.75
228.793	166.75
229.027	414.75
229.262	498.75
229.496	591.75
229.73	755.75
229.964	775.75
230.199	549.75
230.433	460.75
230.667	463.75
230.901	442.75
231.136	433.75
231.37	444.75
231.604	446.75
231.838	437.75
232.072	448.75
232.306	439.75
232.541	448.75
232.775	462.75
233.009	447.75
233.243	454.75
233.477	487.75
233.711	481.75
233.945	484.75
234.179	512.75
234.413	517.75
234.647	509.75
234.881	496.75
235.115	517.75
235.349	537.75
235.583	551.75
235.817	580.75
236.051	616.75
236.285	592.75
236.519	593.75
236.753	683.75
236.987	907.75
237.221	1354.75
237.455	1443.75
237.689	873.75
237.922	717.75
238.156	720.75
238.39	674.75
238.624	653.75
238.858	634.75
239.091	629.75
239.325	650.75
239.559	680.75
239.793	698.75
240.027	739.75
240.26	895.75
240.494	937.75
240.728	916.75
240.961	881.75
241.195	814.75
241.429	780.75
241.662	784.75
241.896	759.75
242.13	765.75
242.363	761.75
242.597	784.75
242.83	808.75
243.064	818.75
243.298	809.75
243.531	870.75
243.765	824.75
243.998	841.75
244.232	818.75
244.465	857.75
244.699	866.75
244.932	902.75
245.166	871.75
245.399	896.75
245.633	874.75
245.866	907.75
246.099	917.75
246.333	917.75
246.566	964.75
246.8	948.75
247.033	1011.75
247.266	1014.75
247.5	1049.75
247.733	1119.75
247.966	1098.75
248.2	1139.75
248.433	1134.75
248.666	1186.75
248.899	1305.75
249.133	1397.75
249.366	1387.75
249.599	1278.75
249.832	1181.75
250.066	1195.75
250.299	1223.75
250.532	1282.75
250.765	1495.75
250.998	1650.75
251.231	1561.75
251.465	1472.75
251.698	1381.75
251.931	1395.75
252.164	1341.75
252.397	1362.75
252.63	1437.75
252.863	1505.75
253.096	1589.75
253.329	1687.75
253.562	1635.75
253.795	1536.75
254.028	1542.75
254.261	1623.75
254.494	1750.75
254.727	2065.75
254.96	2129.75
255.193	1922.75
255.426	1715.75
255.659	1613.75
255.892	1550.75
256.124	1537.75
256.357	1497.75
256.59	1538.75
256.823	1473.75
257.056	1459.75
257.289	1491.75
257.521	1510.75
257.754	1516.75
257.987	1507.75
258.22	1497.75
258.452	1516.75
258.685	1507.75
258.918	1558.75
259.151	1611.75
259.383	1645.75
259.616	1656.75
259.849	1746.75
260.081	1911.75
260.314	2046.75
260.547	1970.75
260.779	1818.75
261.012	1749.75
261.244	1707.75
261.477	1651.75
261.71	1702.75
261.942	1747.75
262.175	1779.75
262.407	1705.75
262.64	1646.75
262.872	1661.75
263.105	1632.75
263.337	1650.75
263.57	1656.75
263.802	1681.75
264.035	1676.75
264.267	1716.75
264.499	1650.75
264.732	1678.75
264.964	1662.75
265.197	1695.75
265.429	1709.75
265.661	1717.75
265.894	1704.75
266.126	1735.75
266.358	1737.75
266.591	1808.75
266.823	1861.75
267.055	1874.75
267.287	1871.75
267.52	1847.75
267.752	1829.75
267.984	1886.75
268.216	1871.75
268.448	1904.75
268.681	2006.75
268.913	2083.75
269.145	2261.75
269.377	2334.75
269.609	2238.75
269.841	2217.75
270.073	2343.75
270.306	2587.75
270.538	2799.75
270.77	2591.75
271.002	2420.75
271.234	2449.75
271.466	2554.75
271.698	2713.75
271.93	2696.75
272.162	2695.75
272.394	2619.75
272.626	2507.75
272.858	2317.75
273.09	2273.75
273.322	2210.75
273.553	2231.75
273.785	2261.75
274.017	2249.75
274.249	2249.75
274.481	2269.75
274.713	2237.75
274.945	2270.75
275.176	2315.75
275.408	2314.75
275.64	2266.75
275.872	2250.75
276.104	2251.75
276.335	2322.75
276.567	2393.75
276.799	2541.75
277.031	2761.75
277.262	2789.75
277.494	2761.75
277.726	2552.75
277.957	2515.75
278.189	2455.75
278.421	2385.75
278.652	2319.75
278.884	2378.75
279.115	2340.75
279.347	2401.75
279.579	2382.75
279.81	2339.75
280.042	2405.75
280.273	2407.75
280.505	2402.75
280.736	2441.75
280.968	2405.75
281.199	2439.75
281.431	2436.75
281.662	2491.75
281.894	2478.75
282.125	2509.75
282.356	2655.75
282.588	2835.75
282.819	2666.75
283.051	2534.75
283.282	2554.75
283.513	2566.75
283.745	2650.75
283.976	2699.75
284.207	2678.75
284.439	2622.75
284.67	2621.75
284.901	2625.75
285.132	2593.75
285.364	2597.75
285.595	2637.75
285.826	2677.75
286.057	2682.75
286.288	2709.75
286.52	2638.75
286.751	2662.75
286.982	2784.75
287.213	2800.75
287.444	2753.75
287.675	2816.75
287.906	2945.75
288.138	2926.75
288.369	2940.75
288.6	2914.75
288.831	2866.75
289.062	2800.75
289.293	2810.75
289.524	2828.75
289.755	2814.75
289.986	2827.75
290.217	2753.75
290.448	2817.75
290.679	2843.75
290.91	2791.75
291.141	2847.75
291.371	2896.75
291.602	2821.75
291.833	2846.75
292.064	2824.75
292.295	2810.75
292.526	2869.75
292.757	2856.75
292.987	2897.75
293.218	2817.75
293.449	2921.75
293.68	2869.75
293.91	2877.75
294.141	2854.75
294.372	2890.75
294.603	2928.75
294.833	2915.75
295.064	2944.75
295.295	2907.75
295.525	2927.75
295.756	3009.75
295.987	3031.75
296.217	3156.75
296.448	3189.75
296.679	2979.75
296.909	2927.75
297.14	3022.75
297.37	3042.75
297.601	3081.75
297.831	3084.75
298.062	3092.75
298.292	3079.75
298.523	3103.75
298.753	3155.75
298.984	3107.75
299.214	3098.75
299.445	3149.75
299.675	3130.75
299.905	3198.75
300.136	3155.75
300.366	3202.75
300.597	3214.75
300.827	3269.75
301.057	3426.75
301.288	3397.75
301.518	3334.75
301.748	3354.75
301.979	3461.75
302.209	3401.75
302.439	3430.75
302.669	3343.75
302.9	3319.75
303.13	3351.75
303.36	3351.75
303.59	3376.75
303.82	3391.75
304.051	3390.75
304.281	3377.75
304.511	3255.75
304.741	3313.75
304.971	3325.75
305.201	3350.75
305.431	3282.75
305.661	3347.75
305.891	3269.75
306.121	3329.75
306.352	3409.75
306.582	3352.75
306.812	3264.75
307.042	3255.75
307.272	3277.75
307.502	3335.75
307.731	3326.75
307.961	3287.75
308.191	3314.75
308.421	3292.75
308.651	3367.75
308.881	3322.75
309.111	3407.75
309.341	3422.75
309.571	3497.75
309.8	3500.75
310.03	3584.75
310.26	3591.75
310.49	3618.75
310.72	3740.75
310.949	3776.75
311.179	3742.75
311.409	3649.75
311.639	3634.75
311.868	3625.75
312.098	3712.75
312.328	3793.75
312.557	3885.75
312.787	3933.75
313.017	3909.75
313.246	3840.75
313.476	3714.75
313.706	3766.75
313.935	3893.75
314.165	3935.75
314.394	3977.75
314.624	3887.75
314.853	3800.75
315.083	3747.75
315.312	3737.75
315.542	3713.75
315.771	3670.75
316.001	3732.75
316.23	3699.75
316.46	3681.75
316.689	3725.75
316.919	3725.75
317.148	3848.75
317.377	3800.75
317.607	3775.75
317.836	3801.75
318.065	3711.75
318.295	3595.75
318.524	3675.75
318.753	3692.75
318.983	3749.75
319.212	3737.75
319.441	3781.75
319.67	3759.75
319.9	3696.75
320.129	3706.75
320.358	3741.75
320.587	3768.75
320.816	3818.75
321.046	3923.75
321.275	3797.75
321.504	3882.75
321.733	3887.75
321.962	3976.75
322.191	4027.75
322.42	4095.75
322.649	4152.75
322.878	4209.75
323.108	4348.75
323.337	4475.75
323.566	4651.75
323.795	4955.75
324.024	5382.75
324.253	7119.75
324.482	10497.75
324.71	14869.75
324.939	15619.75
325.168	12305.75
325.397	6375.75
325.626	5187.75
325.855	4832.75
326.084	4784.75
326.313	4747.75
326.542	4916.75
326.77	5522.75
326.999	6825.75
327.228	9833.75
327.457	13987.75
327.686	13081.75
327.914	7127.75
328.143	5696.75
328.372	5290.75
328.6	5119.75
328.829	5117.75
329.058	5179.75
329.287	5174.75
329.515	4973.75
329.744	4759.75
329.972	4777.75
330.201	4776.75
330.43	5034.75
330.658	5295.75
330.887	5603.75
331.115	5271.75
331.344	4879.75
331.572	4887.75
331.801	4929.75
332.03	4930.75
332.258	4956.75
332.486	4974.75
332.715	5099.75
332.943	5218.75
333.172	5337.75
333.4	5486.75
333.629	5583.75
333.857	5678.75
334.085	5615.75
334.314	5561.75
334.542	5403.75
334.771	5394.75
334.999	5291.75
335.227	5332.75
335.455	5222.75
335.684	5073.75
335.912	5039.75
336.14	5052.75
336.369	4981.75
336.597	5024.75
336.825	4970.75
337.053	4989.75
337.281	4800.75
337.51	4729.75
337.738	4815.75
337.966	4718.75
338.194	4703.75
338.422	4684.75
338.65	4614.75
338.878	4629.75
339.106	4546.75
339.334	4618.75
339.562	4486.75
339.79	4416.75
340.018	4465.75
340.246	4445.75
340.474	4487.75
340.702	4449.75
340.93	4438.75
341.158	4449.75
341.386	4406.75
341.614	4488.75
341.842	4407.75
342.07	4385.75
342.298	4318.75
342.526	4309.75
342.754	4361.75
342.981	4427.75
343.209	4479.75
343.437	4707.75
343.665	4922.75
343.893	5228.75
344.12	5231.75
344.348	5117.75
344.576	4833.75
344.804	4791.75
345.031	4684.75
345.259	4549.75
345.487	4435.75
345.714	4375.75
345.942	4326.75
346.17	4275.75
346.397	4268.75
346.625	4255.75
346.853	4220.75
347.08	4222.75
347.308	4282.75
347.535	4295.75
347.763	4359.75
347.99	4316.75
348.218	4383.75
348.445	4370.75
348.673	4244.75
348.9	4259.75
349.128	4185.75
349.355	4109.75
349.583	4134.75
349.81	4072.75
350.037	3996.75
350.265	4001.75
350.492	4075.75
350.72	4149.75
350.947	4187.75
351.174	4227.75
351.402	4277.75
351.629	4173.75
351.856	4207.75
352.083	4237.75
352.311	4259.75
352.538	4249.75
352.765	4266.75
352.992	4166.75
353.22	4165.75
353.447	4097.75
353.674	4051.75
353.901	3983.75
354.128	4105.75
354.355	4004.75
354.583	4052.75
354.81	4009.75
355.037	4034.75
355.264	3952.75
355.491	3938.75
355.718	4037.75
355.945	4013.75
356.172	4026.75
356.399	4022.75
356.626	4072.75
356.853	4056.75
357.08	3982.75
357.307	4049.75
357.534	3954.75
357.761	4004.75
357.988	4008.75
358.215	4025.75
358.441	4079.75
358.668	4026.75
358.895	4089.75
359.122	4091.75
359.349	4209.75
359.576	4289.75
359.802	4439.75
360.029	4616.75
360.256	4535.75
360.483	4459.75
360.709	4315.75
360.936	4181.75
361.163	4242.75
361.39	4251.75
361.616	4264.75
361.843	4210.75
362.07	4235.75
362.296	4247.75
362.523	4203.75
362.749	4203.75
362.976	4129.75
363.203	4129.75
363.429	4076.75
363.656	4114.75
363.882	4095.75
364.109	4031.75
364.335	4069.75
364.562	4049.75
364.788	4065.75
365.015	4141.75
365.241	4066.75
365.468	4103.75
365.694	4226.75
365.92	4177.75
366.147	4079.75
366.373	4040.75
366.599	4051.75
366.826	4011.75
367.052	4020.75
367.278	4079.75
367.505	4086.75
367.731	4075.75
367.957	4105.75
368.184	4163.75
368.41	4267.75
368.636	4283.75
368.862	4381.75
369.089	4210.75
369.315	4181.75
369.541	4154.75
369.767	4253.75
369.993	4173.75
370.219	4230.75
370.445	4301.75
370.672	4310.75
370.898	4256.75
371.124	4334.75
371.35	4388.75
371.576	4350.75
371.802	4340.75
372.028	4300.75
372.254	4369.75
372.48	4461.75
372.706	4530.75
372.932	4576.75
373.158	4473.75
373.384	4436.75
373.61	4448.75
373.835	4383.75
374.061	4441.75
374.287	4550.75
374.513	4586.75
374.739	4739.75
374.965	4810.75
375.191	4757.75
375.416	4720.75
375.642	4589.75
375.868	4521.75
376.094	4424.75
376.319	4454.75
376.545	4394.75
376.771	4391.75
376.997	4362.75
377.222	4409.75
377.448	4393.75
377.674	4338.75
377.899	4285.75
378.125	4360.75
378.35	4286.75
378.576	4325.75
378.802	4347.75
379.027	4353.75
379.253	4378.75
379.478	4313.75
379.704	4371.75
379.929	4367.75
380.155	4409.75
380.38	4384.75
380.606	4334.75
380.831	4343.75
381.057	4423.75
381.282	4364.75
381.507	4423.75
381.733	4474.75
381.958	4501.75
382.184	4503.75
382.409	4527.75
382.634	4595.75
382.86	4647.75
383.085	4666.75
383.31	4730.75
383.535	4868.75
383.761	4840.75
383.986	4958.75
384.211	5063.75
384.436	5116.75
384.662	5208.75
384.887	5222.75
385.112	5209.75
385.337	5281.75
385.562	5291.75
385.787	5347.75
386.013	5363.75
386.238	5426.75
386.463	5372.75
386.688	5399.75
386.913	5198.75
387.138	5217.75
387.363	5196.75
387.588	5186.75
387.813	5283.75
388.038	5183.75
388.263	5251.75
388.488	5264.75
388.713	5241.75
388.938	5225.75
389.163	5190.75
389.387	5198.75
389.612	5115.75
389.837	5167.75
390.062	5099.75
390.287	5243.75
390.512	5194.75
390.736	5225.75
390.961	5376.75
391.186	5414.75
391.411	5581.75
391.636	5689.75
391.86	5831.75
392.085	5929.75
392.31	5802.75
392.534	5682.75
392.759	5584.75
392.984	5521.75
393.208	5423.75
393.433	5456.75
393.658	5473.75
393.882	5493.75
394.107	5577.75
394.331	5534.75
394.556	5481.75
394.78	5618.75
395.005	5650.75
395.229	5656.75
395.454	5814.75
395.678	5904.75
395.903	5986.75
396.127	5981.75
396.352	5711.75
396.576	5658.75
396.801	5552.75
397.025	5670.75
397.249	5701.75
397.474	5945.75
397.698	5920.75
397.922	6039.75
398.147	6253.75
398.371	6313.75
398.595	6376.75
398.82	6696.75
399.044	7314.75
399.268	8018.75
399.492	9195.75
399.717	9783.75
399.941	9501.75
400.165	8775.75
400.389	8139.75
400.613	7405.75
400.837	6891.75
401.062	6816.75
401.286	6710.75
401.51	6501.75
401.734	6608.75
401.958	6799.75
402.182	6824.75
402.406	6931.75
402.63	7023.75
402.854	7062.75
403.078	7233.75
403.302	7257.75
403.526	7386.75
403.75	7417.75
403.974	7494.75
404.198	7445.75
404.422	7554.75
404.645	7426.75
404.869	7429.75
405.093	7617.75
405.317	7697.75
405.541	7618.75
405.765	7388.75
405.988	7286.75
406.212	7474.75
406.436	7633.75
406.66	7813.75
406.883	7821.75
407.107	8481.75
407.331	8981.75
407.555	9472.75
407.778	9155.75
408.002	8386.75
408.226	7952.75
408.449	7770.75
408.673	7858.75
408.896	7981.75
409.12	8145.75
409.344	7579.75
409.567	7302.75
409.791	7194.75
410.014	7187.75
410.238	7030.75
410.461	7226.75
410.685	7157.75
410.908	7261.75
411.132	7481.75
411.355	7463.75
411.578	7146.75
411.802	6894.75
412.025	6817.75
412.249	6926.75
412.472	6840.75
412.695	6851.75
412.919	6610.75
413.142	6581.75
413.365	6577.75
413.589	6481.75
413.812	6410.75
414.035	6367.75
414.258	6402.75
414.482	6526.75
414.705	6555.75
414.928	6583.75
415.151	6458.75
415.374	6502.75
415.597	6417.75
415.821	6359.75
416.044	6426.75
416.267	6317.75
416.49	6334.75
416.713	6311.75
416.936	6454.75
417.159	6373.75
417.382	6474.75
417.605	6441.75
417.828	6596.75
418.051	6781.75
418.274	6629.75
418.497	6603.75
418.72	6629.75
418.943	6652.75
419.166	6974.75
419.389	7429.75
419.611	7218.75
419.834	7024.75
420.057	6955.75
420.28	6673.75
420.503	6462.75
420.726	6501.75
420.948	6667.75
421.171	7136.75
421.394	7191.75
421.617	6684.75
421.839	6596.75
422.062	6717.75
422.285	6914.75
422.507	7478.75
422.73	8056.75
422.953	7465.75
423.175	7101.75
423.398	7071.75
423.621	7042.75
423.843	7366.75
424.066	7305.75
424.288	7275.75
424.511	7442.75
424.733	7914.75
424.956	8279.75
425.178	7816.75
425.401	7971.75
425.623	7795.75
425.846	6907.75
426.068	6735.75
426.291	6636.75
426.513	6625.75
426.735	6736.75
426.958	7200.75
427.18	7972.75
427.402	8981.75
427.625	8965.75
427.847	7587.75
428.069	6700.75
428.292	6513.75
428.514	6168.75
428.736	6067.75
428.958	6109.75
429.181	5860.75
429.403	5878.75
429.625	6037.75
429.847	6425.75
430.069	6926.75
430.292	6415.75
430.514	5906.75
430.736	5866.75
430.958	5743.75
431.18	5729.75
431.402	5731.75
431.624	5733.75
431.846	5839.75
432.068	5746.75
432.29	5938.75
432.512	5803.75
432.734	5951.75
432.956	5866.75
433.178	5914.75
433.4	5935.75
433.622	5792.75
433.844	5864.75
434.066	5781.75
434.287	5972.75
434.509	6216.75
434.731	6440.75
434.953	6601.75
435.175	6633.75
435.397	6779.75
435.618	6673.75
435.84	7093.75
436.062	7865.75
436.284	7759.75
436.505	6605.75
436.727	6322.75
436.949	6060.75
437.17	5915.75
437.392	5879.75
437.614	6038.75
437.835	6442.75
438.057	7455.75
438.278	8009.75
438.5	7885.75
438.721	8759.75
438.943	7669.75
439.165	6420.75
439.386	6289.75
439.608	6330.75
439.829	6394.75
440.05	6761.75
440.272	7076.75
440.493	6458.75
440.715	6274.75
440.936	6266.75
441.158	6326.75
441.379	6436.75
441.6	6719.75
441.822	6942.75
442.043	7376.75
442.264	8095.75
442.486	7786.75
442.707	7032.75
442.928	6776.75
443.149	7029.75
443.371	7178.75
443.592	7773.75
443.813	8639.75
444.034	8625.75
444.255	7512.75
444.476	7379.75
444.698	7703.75
444.919	7673.75
445.14	7448.75
445.361	7332.75
445.582	7459.75
445.803	7965.75
446.024	8660.75
446.245	8262.75
446.466	7450.75
446.687	6461.75
446.908	6238.75
447.129	5920.75
447.35	5730.75
447.571	5713.75
447.792	5579.75
448.013	5795.75
448.234	5915.75
448.455	6629.75
448.675	7880.75
448.896	8170.75
449.117	6808.75
449.338	7018.75
449.559	8273.75
449.779	8396.75
450	6391.75
450.221	5776.75
450.442	5609.75
450.662	5499.75
450.883	5617.75
451.104	5721.75
451.324	5479.75
451.545	5330.75
451.766	5319.75
451.986	5149.75
452.207	5098.75
452.428	5071.75
452.648	5155.75
452.869	5187.75
453.089	5185.75
453.31	5274.75
453.53	5110.75
453.751	5072.75
453.971	5053.75
454.192	5145.75
454.412	5008.75
454.633	5019.75
454.853	4881.75
455.073	4948.75
455.294	5358.75
455.514	5869.75
455.734	5334.75
455.955	4861.75
456.175	4798.75
456.395	4746.75
456.616	4799.75
456.836	4755.75
457.056	4713.75
457.276	4634.75
457.497	4799.75
457.717	4803.75
457.937	4816.75
458.157	4843.75
458.377	5038.75
458.598	5345.75
458.818	6030.75
459.038	6774.75
459.258	6713.75
459.478	5988.75
459.698	5879.75
459.918	5998.75
460.138	6210.75
460.358	6392.75
460.578	6416.75
460.798	6492.75
461.018	6375.75
461.238	6359.75
461.458	6202.75
461.678	6335.75
461.898	6423.75
462.118	6465.75
462.338	6839.75
462.558	6988.75
462.777	7288.75
462.997	7802.75
463.217	8157.75
463.437	7981.75
463.657	7449.75
463.876	7188.75
464.096	7294.75
464.316	7336.75
464.536	7294.75
464.755	7046.75
464.975	6998.75
465.195	7090.75
465.414	6939.75
465.634	6228.75
465.854	5968.75
466.073	5742.75
466.293	5586.75
466.512	5396.75
466.732	5223.75
466.951	5274.75
467.171	5211.75
467.391	5376.75
467.61	5424.75
467.829	5345.75
468.049	5238.75
468.268	5126.75
468.488	5095.75
468.707	5057.75
468.927	5034.75
469.146	4997.75
469.365	5121.75
469.585	5112.75
469.804	5344.75
470.023	5476.75
470.243	5491.75
470.462	5528.75
470.681	5709.75
470.901	5549.75
471.12	5498.75
471.339	5315.75
471.558	5312.75
471.777	5216.75
471.997	5138.75
472.216	5051.75
472.435	5031.75
472.654	5043.75
472.873	5000.75
473.092	4945.75
473.311	5009.75
473.53	5002.75
473.749	5211.75
473.968	5679.75
474.187	6697.75
474.406	6192.75
474.625	5346.75
474.844	5139.75
475.063	5107.75
475.282	5069.75
475.501	5124.75
475.72	5181.75
475.939	5129.75
476.158	5242.75
476.377	5230.75
476.596	5233.75
476.814	5339.75
477.033	5458.75
477.252	5531.75
477.471	5584.75
477.69	5752.75
477.908	5860.75
478.127	5888.75
478.346	6031.75
478.564	6107.75
478.783	6218.75
479.002	6356.75
479.22	6393.75
479.439	6455.75
479.658	6561.75
479.876	6698.75
480.095	6833.75
480.313	7205.75
480.532	7175.75
480.751	6952.75
480.969	6789.75
481.188	6721.75
481.406	6455.75
481.624	6249.75
481.843	6227.75
482.061	6108.75
482.28	6012.75
482.498	5942.75
482.717	5894.75
482.935	5878.75
483.153	5875.75
483.372	5803.75
483.59	5839.75
483.808	5874.75
484.027	6000.75
484.245	5976.75
484.463	5922.75
484.681	6099.75
484.9	6120.75
485.118	6217.75
485.336	6189.75
485.554	6247.75
485.772	6309.75
485.99	6312.75
486.209	6417.75
486.427	6408.75
486.645	6450.75
486.863	6531.75
487.081	6417.75
487.299	6346.75
487.517	6369.75
487.735	6235.75
