Data from Uncirc_1993_H10_HRD10591_00008.txt Node
Date: Wed Jan 03 11:42:53 EST 2024
User: Yrep
Spectrometer: HR+D1059
Trigger mode: 1
Integration Time (sec): 1.000000E-1
Scans to average: 1
Electric dark correction enabled: true
Nonlinearity correction enabled: false
Boxcar width: 0
XAxis mode: Wavelengths
Number of Pixels in Spectrum: 2048
>>>>>Begin Spectral Data<<<<<
223.165	-27.81
223.4	-27.81
223.635	-27.81
223.869	-28.81
224.104	-20.81
224.338	-13.81
224.573	-9.81
224.808	0.19
225.042	1.19
225.277	-9.81
225.511	-12.81
225.746	-8.81
225.98	18.19
226.215	12.19
226.449	21.19
226.683	24.19
226.918	31.19
227.152	24.19
227.387	40.19
227.621	40.19
227.856	58.19
228.09	54.19
228.324	51.19
228.559	62.19
228.793	62.19
229.027	61.19
229.262	46.19
229.496	74.19
229.73	76.19
229.964	83.19
230.199	80.19
230.433	74.19
230.667	71.19
230.901	89.19
231.136	84.19
231.37	78.19
231.604	92.19
231.838	90.19
232.072	82.19
232.306	87.19
232.541	79.19
232.775	92.19
233.009	86.19
233.243	86.19
233.477	93.19
233.711	79.19
233.945	91.19
234.179	70.19
234.413	86.19
234.647	82.19
234.881	94.19
235.115	77.19
235.349	75.19
235.583	65.19
235.817	90.19
236.051	104.19
236.285	83.19
236.519	90.19
236.753	84.19
236.987	86.19
237.221	86.19
237.455	82.19
237.689	68.19
237.922	74.19
238.156	81.19
238.39	81.19
238.624	72.19
238.858	89.19
239.091	66.19
239.325	79.19
239.559	66.19
239.793	66.19
240.027	79.19
240.26	78.19
240.494	76.19
240.728	69.19
240.961	78.19
241.195	77.19
241.429	78.19
241.662	80.19
241.896	82.19
242.13	70.19
242.363	78.19
242.597	76.19
242.83	79.19
243.064	88.19
243.298	80.19
243.531	84.19
243.765	89.19
243.998	59.19
244.232	79.19
244.465	81.19
244.699	100.19
244.932	85.19
245.166	80.19
245.399	92.19
245.633	84.19
245.866	71.19
246.099	85.19
246.333	79.19
246.566	79.19
246.8	79.19
247.033	79.19
247.266	83.19
247.5	86.19
247.733	77.19
247.966	86.19
248.2	78.19
248.433	84.19
248.666	79.19
248.899	74.19
249.133	79.19
249.366	87.19
249.599	99.19
249.832	86.19
250.066	79.19
250.299	73.19
250.532	86.19
250.765	93.19
250.998	79.19
251.231	69.19
251.465	85.19
251.698	79.19
251.931	82.19
252.164	85.19
252.397	98.19
252.63	82.19
252.863	79.19
253.096	90.19
253.329	80.19
253.562	100.19
253.795	75.19
254.028	85.19
254.261	74.19
254.494	77.19
254.727	75.19
254.96	76.19
255.193	82.19
255.426	86.19
255.659	91.19
255.892	82.19
256.124	82.19
256.357	84.19
256.59	78.19
256.823	76.19
257.056	81.19
257.289	75.19
257.521	86.19
257.754	86.19
257.987	81.19
258.22	74.19
258.452	67.19
258.685	74.19
258.918	74.19
259.151	90.19
259.383	74.19
259.616	82.19
259.849	87.19
260.081	76.19
260.314	90.19
260.547	94.19
260.779	83.19
261.012	90.19
261.244	97.19
261.477	85.19
261.71	102.19
261.942	92.19
262.175	124.19
262.407	96.19
262.64	79.19
262.872	84.19
263.105	99.19
263.337	89.19
263.57	96.19
263.802	74.19
264.035	82.19
264.267	95.19
264.499	74.19
264.732	76.19
264.964	100.19
265.197	88.19
265.429	84.19
265.661	90.19
265.894	99.19
266.126	79.19
266.358	90.19
266.591	92.19
266.823	91.19
267.055	97.19
267.287	101.19
267.52	76.19
267.752	82.19
267.984	80.19
268.216	82.19
268.448	87.19
268.681	105.19
268.913	94.19
269.145	78.19
269.377	89.19
269.609	87.19
269.841	87.19
270.073	90.19
270.306	86.19
270.538	82.19
270.77	85.19
271.002	88.19
271.234	90.19
271.466	84.19
271.698	75.19
271.93	79.19
272.162	88.19
272.394	96.19
272.626	89.19
272.858	90.19
273.09	82.19
273.322	84.19
273.553	94.19
273.785	91.19
274.017	91.19
274.249	93.19
274.481	86.19
274.713	63.19
274.945	77.19
275.176	84.19
275.408	78.19
275.64	77.19
275.872	85.19
276.104	91.19
276.335	101.19
276.567	75.19
276.799	97.19
277.031	99.19
277.262	96.19
277.494	87.19
277.726	84.19
277.957	81.19
278.189	86.19
278.421	103.19
278.652	85.19
278.884	94.19
279.115	84.19
279.347	80.19
279.579	77.19
279.81	85.19
280.042	83.19
280.273	87.19
280.505	97.19
280.736	96.19
280.968	80.19
281.199	77.19
281.431	85.19
281.662	90.19
281.894	98.19
282.125	95.19
282.356	84.19
282.588	110.19
282.819	103.19
283.051	82.19
283.282	96.19
283.513	87.19
283.745	91.19
283.976	99.19
284.207	93.19
284.439	94.19
284.67	84.19
284.901	81.19
285.132	71.19
285.364	95.19
285.595	90.19
285.826	91.19
286.057	88.19
286.288	100.19
286.52	77.19
286.751	92.19
286.982	96.19
287.213	84.19
287.444	96.19
287.675	82.19
287.906	99.19
288.138	99.19
288.369	83.19
288.6	93.19
288.831	89.19
289.062	95.19
289.293	94.19
289.524	88.19
289.755	80.19
289.986	85.19
290.217	78.19
290.448	102.19
290.679	79.19
290.91	84.19
291.141	88.19
291.371	89.19
291.602	87.19
291.833	101.19
292.064	85.19
292.295	91.19
292.526	84.19
292.757	87.19
292.987	92.19
293.218	76.19
293.449	94.19
293.68	78.19
293.91	86.19
294.141	90.19
294.372	90.19
294.603	88.19
294.833	97.19
295.064	94.19
295.295	71.19
295.525	97.19
295.756	107.19
295.987	104.19
296.217	100.19
296.448	109.19
296.679	75.19
296.909	82.19
297.14	95.19
297.37	99.19
297.601	95.19
297.831	81.19
298.062	91.19
298.292	84.19
298.523	88.19
298.753	91.19
298.984	100.19
299.214	78.19
299.445	90.19
299.675	97.19
299.905	90.19
300.136	85.19
300.366	84.19
300.597	88.19
300.827	77.19
301.057	106.19
301.288	98.19
301.518	102.19
301.748	97.19
301.979	97.19
302.209	92.19
302.439	90.19
302.669	83.19
302.9	97.19
303.13	95.19
303.36	87.19
303.59	103.19
303.82	106.19
304.051	97.19
304.281	98.19
304.511	90.19
304.741	101.19
304.971	90.19
305.201	88.19
305.431	85.19
305.661	76.19
305.891	112.19
306.121	99.19
306.352	113.19
306.582	101.19
306.812	97.19
307.042	90.19
307.272	84.19
307.502	90.19
307.731	98.19
307.961	86.19
308.191	85.19
308.421	95.19
308.651	88.19
308.881	95.19
309.111	100.19
309.341	77.19
309.571	83.19
309.8	101.19
310.03	100.19
310.26	99.19
310.49	90.19
310.72	87.19
310.949	88.19
311.179	91.19
311.409	97.19
311.639	98.19
311.868	98.19
312.098	91.19
312.328	100.19
312.557	84.19
312.787	92.19
313.017	82.19
313.246	87.19
313.476	79.19
313.706	96.19
313.935	86.19
314.165	92.19
314.394	87.19
314.624	95.19
314.853	108.19
315.083	91.19
315.312	94.19
315.542	88.19
315.771	88.19
316.001	95.19
316.23	90.19
316.46	97.19
316.689	101.19
316.919	95.19
317.148	86.19
317.377	103.19
317.607	89.19
317.836	106.19
318.065	83.19
318.295	92.19
318.524	82.19
318.753	83.19
318.983	103.19
319.212	100.19
319.441	90.19
319.67	95.19
319.9	90.19
320.129	103.19
320.358	101.19
320.587	99.19
320.816	98.19
321.046	97.19
321.275	93.19
321.504	98.19
321.733	93.19
321.962	101.19
322.191	88.19
322.42	100.19
322.649	102.19
322.878	89.19
323.108	113.19
323.337	116.19
323.566	126.19
323.795	127.19
324.024	173.19
324.253	294.19
324.482	572.19
324.71	1150.19
324.939	1462.19
325.168	546.19
325.397	204.19
325.626	141.19
325.855	115.19
326.084	108.19
326.313	123.19
326.542	135.19
326.77	199.19
326.999	358.19
327.228	661.19
327.457	1151.19
327.686	902.19
327.914	285.19
328.143	164.19
328.372	121.19
328.6	110.19
328.829	107.19
329.058	105.19
329.287	114.19
329.515	109.19
329.744	99.19
329.972	98.19
330.201	90.19
330.43	116.19
330.658	120.19
330.887	114.19
331.115	110.19
331.344	88.19
331.572	91.19
331.801	102.19
332.03	114.19
332.258	99.19
332.486	83.19
332.715	94.19
332.943	87.19
333.172	102.19
333.4	96.19
333.629	101.19
333.857	110.19
334.085	107.19
334.314	92.19
334.542	95.19
334.771	93.19
334.999	96.19
335.227	106.19
335.455	95.19
335.684	94.19
335.912	99.19
336.14	105.19
336.369	105.19
336.597	94.19
336.825	88.19
337.053	97.19
337.281	87.19
337.51	95.19
337.738	91.19
337.966	101.19
338.194	107.19
338.422	81.19
338.65	91.19
338.878	101.19
339.106	94.19
339.334	97.19
339.562	98.19
339.79	81.19
340.018	91.19
340.246	104.19
340.474	86.19
340.702	83.19
340.93	65.19
341.158	96.19
341.386	84.19
341.614	108.19
341.842	107.19
342.07	95.19
342.298	90.19
342.526	91.19
342.754	94.19
342.981	85.19
343.209	97.19
343.437	106.19
343.665	95.19
343.893	90.19
344.12	96.19
344.348	94.19
344.576	101.19
344.804	94.19
345.031	77.19
345.259	86.19
345.487	109.19
345.714	101.19
345.942	119.19
346.17	98.19
346.397	103.19
346.625	91.19
346.853	92.19
347.08	99.19
347.308	94.19
347.535	93.19
347.763	90.19
347.99	111.19
348.218	102.19
348.445	97.19
348.673	93.19
348.9	95.19
349.128	114.19
349.355	100.19
349.583	98.19
349.81	102.19
350.037	97.19
350.265	102.19
350.492	100.19
350.72	83.19
350.947	86.19
351.174	106.19
351.402	108.19
351.629	107.19
351.856	104.19
352.083	102.19
352.311	94.19
352.538	102.19
352.765	89.19
352.992	113.19
353.22	119.19
353.447	104.19
353.674	107.19
353.901	108.19
354.128	96.19
354.355	92.19
354.583	115.19
354.81	78.19
355.037	106.19
355.264	102.19
355.491	93.19
355.718	109.19
355.945	100.19
356.172	90.19
356.399	109.19
356.626	103.19
356.853	87.19
357.08	101.19
357.307	107.19
357.534	101.19
357.761	82.19
357.988	87.19
358.215	96.19
358.441	97.19
358.668	96.19
358.895	90.19
359.122	86.19
359.349	103.19
359.576	79.19
359.802	102.19
360.029	107.19
360.256	96.19
360.483	100.19
360.709	97.19
360.936	88.19
361.163	74.19
361.39	101.19
361.616	90.19
361.843	99.19
362.07	95.19
362.296	97.19
362.523	80.19
362.749	87.19
362.976	83.19
363.203	95.19
363.429	82.19
363.656	101.19
363.882	102.19
364.109	100.19
364.335	94.19
364.562	92.19
364.788	88.19
365.015	103.19
365.241	99.19
365.468	101.19
365.694	85.19
365.92	87.19
366.147	93.19
366.373	88.19
366.599	97.19
366.826	85.19
367.052	82.19
367.278	95.19
367.505	81.19
367.731	91.19
367.957	91.19
368.184	94.19
368.41	97.19
368.636	86.19
368.862	103.19
369.089	109.19
369.315	76.19
369.541	95.19
369.767	89.19
369.993	77.19
370.219	83.19
370.445	96.19
370.672	97.19
370.898	88.19
371.124	98.19
371.35	89.19
371.576	98.19
371.802	90.19
372.028	82.19
372.254	90.19
372.48	86.19
372.706	81.19
372.932	84.19
373.158	87.19
373.384	110.19
373.61	102.19
373.835	100.19
374.061	80.19
374.287	94.19
374.513	99.19
374.739	92.19
374.965	92.19
375.191	85.19
375.416	90.19
375.642	90.19
375.868	98.19
376.094	92.19
376.319	82.19
376.545	96.19
376.771	70.19
376.997	98.19
377.222	92.19
377.448	95.19
377.674	96.19
377.899	88.19
378.125	87.19
378.35	95.19
378.576	84.19
378.802	86.19
379.027	98.19
379.253	96.19
379.478	84.19
379.704	90.19
379.929	85.19
380.155	103.19
380.38	99.19
380.606	73.19
380.831	97.19
381.057	95.19
381.282	83.19
381.507	102.19
381.733	101.19
381.958	106.19
382.184	94.19
382.409	100.19
382.634	99.19
382.86	88.19
383.085	94.19
383.31	109.19
383.535	106.19
383.761	104.19
383.986	101.19
384.211	97.19
384.436	89.19
384.662	110.19
384.887	103.19
385.112	119.19
385.337	120.19
385.562	111.19
385.787	95.19
386.013	111.19
386.238	106.19
386.463	104.19
386.688	119.19
386.913	115.19
387.138	113.19
387.363	96.19
387.588	109.19
387.813	89.19
388.038	106.19
388.263	99.19
388.488	108.19
388.713	86.19
388.938	94.19
389.163	101.19
389.387	96.19
389.612	98.19
389.837	89.19
390.062	99.19
390.287	85.19
390.512	103.19
390.736	89.19
390.961	87.19
391.186	103.19
391.411	91.19
391.636	95.19
391.86	95.19
392.085	84.19
392.31	96.19
392.534	87.19
392.759	92.19
392.984	90.19
393.208	87.19
393.433	79.19
393.658	104.19
393.882	78.19
394.107	86.19
394.331	88.19
394.556	85.19
394.78	94.19
395.005	79.19
395.229	86.19
395.454	96.19
395.678	85.19
395.903	96.19
396.127	95.19
396.352	104.19
396.576	84.19
396.801	85.19
397.025	74.19
397.249	99.19
397.474	81.19
397.698	102.19
397.922	85.19
398.147	80.19
398.371	71.19
398.595	87.19
398.82	90.19
399.044	99.19
399.268	76.19
399.492	82.19
399.717	94.19
399.941	81.19
400.165	98.19
400.389	85.19
400.613	87.19
400.837	68.19
401.062	100.19
401.286	92.19
401.51	103.19
401.734	99.19
401.958	103.19
402.182	114.19
402.406	143.19
402.63	100.19
402.854	102.19
403.078	94.19
403.302	81.19
403.526	86.19
403.75	84.19
403.974	91.19
404.198	92.19
404.422	95.19
404.645	94.19
404.869	79.19
405.093	91.19
405.317	100.19
405.541	95.19
405.765	84.19
405.988	94.19
406.212	139.19
406.436	176.19
406.66	114.19
406.883	108.19
407.107	86.19
407.331	86.19
407.555	94.19
407.778	85.19
408.002	104.19
408.226	82.19
408.449	87.19
408.673	95.19
408.896	84.19
409.12	103.19
409.344	92.19
409.567	98.19
409.791	87.19
410.014	90.19
410.238	97.19
410.461	96.19
410.685	95.19
410.908	107.19
411.132	114.19
411.355	95.19
411.578	95.19
411.802	88.19
412.025	86.19
412.249	91.19
412.472	86.19
412.695	79.19
412.919	93.19
413.142	70.19
413.365	94.19
413.589	100.19
413.812	78.19
414.035	88.19
414.258	81.19
414.482	90.19
414.705	107.19
414.928	90.19
415.151	98.19
415.374	94.19
415.597	78.19
415.821	104.19
416.044	96.19
416.267	98.19
416.49	97.19
416.713	82.19
416.936	101.19
417.159	84.19
417.382	92.19
417.605	90.19
417.828	100.19
418.051	93.19
418.274	98.19
418.497	96.19
418.72	83.19
418.943	90.19
419.166	98.19
419.389	99.19
419.611	81.19
419.834	86.19
420.057	92.19
420.28	94.19
420.503	84.19
420.726	86.19
420.948	85.19
421.171	95.19
421.394	94.19
421.617	95.19
421.839	74.19
422.062	92.19
422.285	100.19
422.507	90.19
422.73	98.19
422.953	91.19
423.175	99.19
423.398	74.19
423.621	106.19
423.843	97.19
424.066	85.19
424.288	88.19
424.511	102.19
424.733	105.19
424.956	95.19
425.178	100.19
425.401	90.19
425.623	111.19
425.846	84.19
426.068	90.19
426.291	86.19
426.513	106.19
426.735	91.19
426.958	88.19
427.18	111.19
427.402	110.19
427.625	131.19
427.847	100.19
428.069	95.19
428.292	84.19
428.514	88.19
428.736	98.19
428.958	99.19
429.181	99.19
429.403	82.19
429.625	99.19
429.847	101.19
430.069	98.19
430.292	103.19
430.514	86.19
430.736	87.19
430.958	85.19
431.18	71.19
431.402	92.19
431.624	105.19
431.846	91.19
432.068	79.19
432.29	91.19
432.512	90.19
432.734	71.19
432.956	88.19
433.178	96.19
433.4	83.19
433.622	90.19
433.844	97.19
434.066	102.19
434.287	82.19
434.509	93.19
434.731	91.19
434.953	86.19
435.175	90.19
435.397	83.19
435.618	88.19
435.84	100.19
436.062	112.19
436.284	103.19
436.505	98.19
436.727	92.19
436.949	89.19
437.17	99.19
437.392	70.19
437.614	98.19
437.835	95.19
438.057	112.19
438.278	94.19
438.5	92.19
438.721	112.19
438.943	95.19
439.165	83.19
439.386	89.19
439.608	91.19
439.829	91.19
440.05	106.19
440.272	110.19
440.493	84.19
440.715	86.19
440.936	86.19
441.158	94.19
441.379	91.19
441.6	94.19
441.822	103.19
442.043	99.19
442.264	107.19
442.486	82.19
442.707	79.19
442.928	109.19
443.149	115.19
443.371	114.19
443.592	91.19
443.813	107.19
444.034	121.19
444.255	94.19
444.476	93.19
444.698	87.19
444.919	98.19
445.14	142.19
445.361	126.19
445.582	92.19
445.803	120.19
446.024	131.19
446.245	123.19
446.466	111.19
446.687	93.19
446.908	103.19
447.129	85.19
447.35	97.19
447.571	94.19
447.792	96.19
448.013	110.19
448.234	95.19
448.455	93.19
448.675	94.19
448.896	110.19
449.117	90.19
449.338	90.19
449.559	118.19
449.779	108.19
450	87.19
450.221	93.19
450.442	96.19
450.662	97.19
450.883	95.19
451.104	97.19
451.324	91.19
451.545	93.19
451.766	87.19
451.986	87.19
452.207	86.19
452.428	99.19
452.648	101.19
452.869	95.19
453.089	106.19
453.31	72.19
453.53	83.19
453.751	100.19
453.971	101.19
454.192	101.19
454.412	87.19
454.633	76.19
454.853	90.19
455.073	93.19
455.294	93.19
455.514	100.19
455.734	76.19
455.955	93.19
456.175	95.19
456.395	81.19
456.616	100.19
456.836	91.19
457.056	81.19
457.276	94.19
457.497	90.19
457.717	78.19
457.937	95.19
458.157	91.19
458.377	96.19
458.598	96.19
458.818	130.19
459.038	145.19
459.258	112.19
459.478	97.19
459.698	80.19
459.918	86.19
460.138	79.19
460.358	75.19
460.578	94.19
460.798	102.19
461.018	97.19
461.238	85.19
461.458	106.19
461.678	94.19
461.898	95.19
462.118	78.19
462.338	94.19
462.558	82.19
462.777	69.19
462.997	92.19
463.217	83.19
463.437	88.19
463.657	87.19
463.876	90.19
464.096	90.19
464.316	99.19
464.536	100.19
464.755	78.19
464.975	90.19
465.195	133.19
465.414	132.19
465.634	99.19
465.854	90.19
466.073	92.19
466.293	71.19
466.512	86.19
466.732	95.19
466.951	90.19
467.171	100.19
467.391	99.19
467.61	84.19
467.829	101.19
468.049	89.19
468.268	83.19
468.488	91.19
468.707	91.19
468.927	80.19
469.146	88.19
469.365	89.19
469.585	96.19
469.804	96.19
470.023	90.19
470.243	91.19
470.462	100.19
470.681	94.19
470.901	93.19
471.12	86.19
471.339	91.19
471.558	88.19
471.777	81.19
471.997	98.19
472.216	76.19
472.435	82.19
472.654	94.19
472.873	108.19
473.092	95.19
473.311	92.19
473.53	83.19
473.749	82.19
473.968	108.19
474.187	115.19
474.406	94.19
474.625	98.19
474.844	76.19
475.063	83.19
475.282	99.19
475.501	86.19
475.72	83.19
475.939	107.19
476.158	79.19
476.377	74.19
476.596	95.19
476.814	104.19
477.033	90.19
477.252	88.19
477.471	91.19
477.69	89.19
477.908	102.19
478.127	89.19
478.346	80.19
478.564	90.19
478.783	91.19
479.002	91.19
479.22	101.19
479.439	93.19
479.658	111.19
479.876	94.19
480.095	93.19
480.313	85.19
480.532	97.19
480.751	82.19
480.969	87.19
481.188	102.19
481.406	99.19
481.624	100.19
481.843	87.19
482.061	91.19
482.28	101.19
482.498	102.19
482.717	87.19
482.935	97.19
483.153	98.19
483.372	102.19
483.59	85.19
483.808	90.19
484.027	94.19
484.245	95.19
484.463	92.19
484.681	108.19
484.9	95.19
485.118	92.19
485.336	98.19
485.554	94.19
485.772	103.19
485.99	123.19
486.209	99.19
486.427	102.19
486.645	96.19
486.863	115.19
487.081	97.19
487.299	103.19
487.517	107.19
487.735	96.19
487.953	84.19
488.171	98.19
488.389	92.19
488.607	104.19
488.825	93.19
489.043	70.19
489.261	93.19
489.479	86.19
489.696	87.19
489.914	95.19
490.132	88.19
490.35	83.19
490.568	99.19
490.786	104.19
491.003	87.19
491.221	104.19
491.439	88.19
491.657	96.19
491.874	93.19
492.092	97.19
492.31	99.19
492.527	91.19
492.745	90.19
492.963	102.19
493.18	88.19
493.398	86.19
493.615	104.19
493.833	101.19
494.05	92.19
494.268	102.19
494.485	93.19
494.703	77.19
494.92	86.19
495.138	98.19
495.355	103.19
495.573	101.19
495.79	91.19
496.008	87.19
496.225	96.19
496.442	96.19
496.66	91.19
496.877	92.19
497.094	97.19
497.312	94.19
497.529	83.19
497.746	94.19
497.963	89.19
498.181	105.19
498.398	113.19
498.615	93.19
498.832	93.19
499.049	99.19
499.267	91.19
499.484	99.19
499.701	81.19
499.918	102.19
500.135	96.19
500.352	93.19
500.569	92.19
500.786	78.19
501.003	100.19
501.22	96.19
501.437	100.19
501.654	97.19
501.871	110.19
502.088	106.19
502.305	77.19
502.522	91.19
502.739	90.19
502.956	74.19
503.172	94.19
503.389	85.19
503.606	101.19
503.823	96.19
504.04	87.19
504.256	102.19
504.473	88.19
504.69	88.19
504.907	104.19
505.123	91.19
505.34	104.19
505.557	89.19
505.773	90.19
505.99	94.19
506.207	88.19
506.423	82.19
506.64	100.19
506.856	97.19
507.073	84.19
507.289	80.19
507.506	86.19
507.722	107.19
507.939	101.19
508.155	98.19
508.372	91.19
508.588	94.19
508.805	115.19
509.021	91.19
509.238	103.19
509.454	102.19
509.67	102.19
509.887	112.19
510.103	108.19
510.319	192.19
510.536	603.19
510.752	1751.19
510.968	515.19
511.184	140.19
511.401	104.19
511.617	100.19
511.833	88.19
512.049	100.19
512.265	89.19
512.481	72.19
512.698	87.19
512.914	98.19
513.13	98.19
513.346	99.19
513.562	84.19
513.778	93.19
513.994	104.19
514.21	110.19
514.426	93.19
514.642	108.19
514.858	125.19
515.074	143.19
515.29	330.19
515.506	1058.19
515.721	404.19
