Data from Uncirc_1993_H10_HRD10591_00011.txt Node
Date: Wed Jan 03 11:42:54 EST 2024
User: Yrep
Spectrometer: HR+D1059
Trigger mode: 1
Integration Time (sec): 1.000000E-1
Scans to average: 1
Electric dark correction enabled: true
Nonlinearity correction enabled: false
Boxcar width: 0
XAxis mode: Wavelengths
Number of Pixels in Spectrum: 2048
>>>>>Begin Spectral Data<<<<<
223.165	-11.44
223.4	-11.44
223.635	-11.44
223.869	-23.44
224.104	-16.44
224.338	-9.44
224.573	-9.44
224.808	-18.44
225.042	1.56
225.277	-13.44
225.511	-3.44
225.746	12.56
225.98	3.56
226.215	2.56
226.449	11.56
226.683	13.56
226.918	20.56
227.152	39.56
227.387	33.56
227.621	34.56
227.856	53.56
228.09	41.56
228.324	38.56
228.559	74.56
228.793	54.56
229.027	51.56
229.262	73.56
229.496	75.56
229.73	83.56
229.964	86.56
230.199	70.56
230.433	86.56
230.667	89.56
230.901	85.56
231.136	78.56
231.37	80.56
231.604	70.56
231.838	80.56
232.072	90.56
232.306	70.56
232.541	79.56
232.775	83.56
233.009	84.56
233.243	74.56
233.477	81.56
233.711	75.56
233.945	77.56
234.179	79.56
234.413	82.56
234.647	89.56
234.881	93.56
235.115	74.56
235.349	77.56
235.583	69.56
235.817	78.56
236.051	85.56
236.285	83.56
236.519	65.56
236.753	71.56
236.987	78.56
237.221	75.56
237.455	78.56
237.689	80.56
237.922	81.56
238.156	68.56
238.39	75.56
238.624	71.56
238.858	95.56
239.091	77.56
239.325	73.56
239.559	74.56
239.793	71.56
240.027	77.56
240.26	80.56
240.494	65.56
240.728	85.56
240.961	85.56
241.195	74.56
241.429	79.56
241.662	70.56
241.896	71.56
242.13	69.56
242.363	76.56
242.597	57.56
242.83	79.56
243.064	89.56
243.298	68.56
243.531	88.56
243.765	83.56
243.998	80.56
244.232	84.56
244.465	79.56
244.699	79.56
244.932	78.56
245.166	75.56
245.399	75.56
245.633	82.56
245.866	79.56
246.099	73.56
246.333	76.56
246.566	71.56
246.8	78.56
247.033	101.56
247.266	95.56
247.5	77.56
247.733	68.56
247.966	85.56
248.2	73.56
248.433	74.56
248.666	94.56
248.899	88.56
249.133	78.56
249.366	90.56
249.599	99.56
249.832	84.56
250.066	97.56
250.299	93.56
250.532	74.56
250.765	83.56
250.998	71.56
251.231	73.56
251.465	89.56
251.698	65.56
251.931	78.56
252.164	86.56
252.397	77.56
252.63	86.56
252.863	80.56
253.096	82.56
253.329	92.56
253.562	77.56
253.795	97.56
254.028	82.56
254.261	77.56
254.494	76.56
254.727	86.56
254.96	86.56
255.193	79.56
255.426	81.56
255.659	91.56
255.892	99.56
256.124	84.56
256.357	79.56
256.59	83.56
256.823	75.56
257.056	76.56
257.289	84.56
257.521	80.56
257.754	83.56
257.987	82.56
258.22	67.56
258.452	92.56
258.685	93.56
258.918	81.56
259.151	90.56
259.383	79.56
259.616	86.56
259.849	71.56
260.081	70.56
260.314	71.56
260.547	70.56
260.779	81.56
261.012	91.56
261.244	76.56
261.477	79.56
261.71	97.56
261.942	100.56
262.175	106.56
262.407	100.56
262.64	84.56
262.872	80.56
263.105	93.56
263.337	80.56
263.57	85.56
263.802	86.56
264.035	89.56
264.267	78.56
264.499	83.56
264.732	81.56
264.964	81.56
265.197	80.56
265.429	84.56
265.661	75.56
265.894	84.56
266.126	93.56
266.358	88.56
266.591	91.56
266.823	82.56
267.055	71.56
267.287	78.56
267.52	84.56
267.752	81.56
267.984	75.56
268.216	80.56
268.448	82.56
268.681	93.56
268.913	83.56
269.145	85.56
269.377	81.56
269.609	86.56
269.841	89.56
270.073	77.56
270.306	93.56
270.538	78.56
270.77	92.56
271.002	99.56
271.234	86.56
271.466	87.56
271.698	94.56
271.93	85.56
272.162	77.56
272.394	93.56
272.626	86.56
272.858	68.56
273.09	86.56
273.322	85.56
273.553	85.56
273.785	82.56
274.017	89.56
274.249	77.56
274.481	75.56
274.713	90.56
274.945	86.56
275.176	93.56
275.408	92.56
275.64	71.56
275.872	87.56
276.104	95.56
276.335	95.56
276.567	101.56
276.799	114.56
277.031	98.56
277.262	80.56
277.494	96.56
277.726	83.56
277.957	85.56
278.189	79.56
278.421	80.56
278.652	85.56
278.884	94.56
279.115	95.56
279.347	101.56
279.579	92.56
279.81	82.56
280.042	90.56
280.273	89.56
280.505	82.56
280.736	83.56
280.968	106.56
281.199	83.56
281.431	89.56
281.662	89.56
281.894	84.56
282.125	105.56
282.356	100.56
282.588	122.56
282.819	103.56
283.051	94.56
283.282	93.56
283.513	87.56
283.745	73.56
283.976	72.56
284.207	98.56
284.439	89.56
284.67	87.56
284.901	97.56
285.132	88.56
285.364	93.56
285.595	100.56
285.826	85.56
286.057	96.56
286.288	90.56
286.52	99.56
286.751	86.56
286.982	93.56
287.213	88.56
287.444	90.56
287.675	90.56
287.906	75.56
288.138	75.56
288.369	82.56
288.6	97.56
288.831	94.56
289.062	84.56
289.293	82.56
289.524	80.56
289.755	78.56
289.986	89.56
290.217	84.56
290.448	88.56
290.679	103.56
290.91	99.56
291.141	81.56
291.371	82.56
291.602	85.56
291.833	93.56
292.064	102.56
292.295	69.56
292.526	84.56
292.757	97.56
292.987	84.56
293.218	98.56
293.449	101.56
293.68	82.56
293.91	75.56
294.141	83.56
294.372	88.56
294.603	89.56
294.833	94.56
295.064	91.56
295.295	76.56
295.525	98.56
295.756	98.56
295.987	110.56
296.217	134.56
296.448	111.56
296.679	91.56
296.909	94.56
297.14	103.56
297.37	74.56
297.601	84.56
297.831	95.56
298.062	86.56
298.292	86.56
298.523	93.56
298.753	86.56
298.984	102.56
299.214	96.56
299.445	91.56
299.675	89.56
299.905	101.56
300.136	94.56
300.366	82.56
300.597	87.56
300.827	85.56
301.057	111.56
301.288	100.56
301.518	95.56
301.748	90.56
301.979	92.56
302.209	106.56
302.439	95.56
302.669	87.56
302.9	85.56
303.13	90.56
303.36	85.56
303.59	77.56
303.82	86.56
304.051	89.56
304.281	109.56
304.511	80.56
304.741	91.56
304.971	93.56
305.201	82.56
305.431	86.56
305.661	84.56
305.891	97.56
306.121	107.56
306.352	96.56
306.582	93.56
306.812	90.56
307.042	95.56
307.272	97.56
307.502	97.56
307.731	82.56
307.961	86.56
308.191	94.56
308.421	90.56
308.651	93.56
308.881	89.56
309.111	98.56
309.341	79.56
309.571	85.56
309.8	89.56
310.03	84.56
310.26	98.56
310.49	83.56
310.72	102.56
310.949	94.56
311.179	104.56
311.409	97.56
311.639	95.56
311.868	98.56
312.098	99.56
312.328	91.56
312.557	99.56
312.787	103.56
313.017	109.56
313.246	102.56
313.476	92.56
313.706	90.56
313.935	85.56
314.165	97.56
314.394	93.56
314.624	90.56
314.853	85.56
315.083	78.56
315.312	87.56
315.542	95.56
315.771	97.56
316.001	107.56
316.23	89.56
316.46	84.56
316.689	93.56
316.919	101.56
317.148	100.56
317.377	99.56
317.607	95.56
317.836	103.56
318.065	86.56
318.295	82.56
318.524	95.56
318.753	85.56
318.983	84.56
319.212	107.56
319.441	102.56
319.67	95.56
319.9	98.56
320.129	103.56
320.358	98.56
320.587	95.56
320.816	93.56
321.046	92.56
321.275	97.56
321.504	97.56
321.733	95.56
321.962	101.56
322.191	105.56
322.42	100.56
322.649	106.56
322.878	106.56
323.108	98.56
323.337	106.56
323.566	113.56
323.795	124.56
324.024	184.56
324.253	316.56
324.482	653.56
324.71	1296.56
324.939	1670.56
325.168	641.56
325.397	209.56
325.626	152.56
325.855	125.56
326.084	124.56
326.313	126.56
326.542	126.56
326.77	205.56
326.999	395.56
327.228	750.56
327.457	1317.56
327.686	1035.56
327.914	303.56
328.143	169.56
328.372	134.56
328.6	122.56
328.829	126.56
329.058	116.56
329.287	110.56
329.515	114.56
329.744	100.56
329.972	98.56
330.201	106.56
330.43	105.56
330.658	114.56
330.887	125.56
331.115	114.56
331.344	95.56
331.572	93.56
331.801	101.56
332.03	88.56
332.258	104.56
332.486	85.56
332.715	93.56
332.943	84.56
333.172	89.56
333.4	88.56
333.629	111.56
333.857	113.56
334.085	107.56
334.314	96.56
334.542	102.56
334.771	101.56
334.999	104.56
335.227	101.56
335.455	93.56
335.684	103.56
335.912	99.56
336.14	97.56
336.369	113.56
336.597	89.56
336.825	97.56
337.053	95.56
337.281	96.56
337.51	106.56
337.738	93.56
337.966	91.56
338.194	97.56
338.422	116.56
338.65	94.56
338.878	83.56
339.106	79.56
339.334	86.56
339.562	108.56
339.79	90.56
340.018	94.56
340.246	91.56
340.474	92.56
340.702	99.56
340.93	81.56
341.158	100.56
341.386	79.56
341.614	97.56
341.842	110.56
342.07	99.56
342.298	104.56
342.526	91.56
342.754	81.56
342.981	101.56
343.209	105.56
343.437	89.56
343.665	88.56
343.893	92.56
344.12	94.56
344.348	86.56
344.576	101.56
344.804	102.56
345.031	97.56
345.259	100.56
345.487	97.56
345.714	94.56
345.942	105.56
346.17	91.56
346.397	97.56
346.625	101.56
346.853	94.56
347.08	91.56
347.308	84.56
347.535	90.56
347.763	97.56
347.99	107.56
348.218	96.56
348.445	102.56
348.673	103.56
348.9	102.56
349.128	101.56
349.355	105.56
349.583	93.56
349.81	94.56
350.037	97.56
350.265	103.56
350.492	96.56
350.72	97.56
350.947	104.56
351.174	113.56
351.402	105.56
351.629	98.56
351.856	106.56
352.083	109.56
352.311	90.56
352.538	108.56
352.765	109.56
352.992	110.56
353.22	101.56
353.447	107.56
353.674	104.56
353.901	111.56
354.128	99.56
354.355	101.56
354.583	97.56
354.81	89.56
355.037	94.56
355.264	93.56
355.491	94.56
355.718	100.56
355.945	94.56
356.172	102.56
356.399	100.56
356.626	98.56
356.853	105.56
357.08	93.56
357.307	86.56
357.534	96.56
357.761	97.56
357.988	87.56
358.215	101.56
358.441	90.56
358.668	87.56
358.895	105.56
359.122	99.56
359.349	79.56
359.576	87.56
359.802	88.56
360.029	102.56
360.256	117.56
360.483	81.56
360.709	93.56
360.936	99.56
361.163	94.56
361.39	82.56
361.616	83.56
361.843	103.56
362.07	94.56
362.296	94.56
362.523	95.56
362.749	95.56
362.976	90.56
363.203	88.56
363.429	88.56
363.656	95.56
363.882	94.56
364.109	98.56
364.335	95.56
364.562	103.56
364.788	93.56
365.015	97.56
365.241	98.56
365.468	108.56
365.694	104.56
365.92	96.56
366.147	93.56
366.373	96.56
366.599	88.56
366.826	98.56
367.052	83.56
367.278	83.56
367.505	102.56
367.731	101.56
367.957	98.56
368.184	93.56
368.41	95.56
368.636	112.56
368.862	123.56
369.089	85.56
369.315	96.56
369.541	91.56
369.767	98.56
369.993	98.56
370.219	91.56
370.445	81.56
370.672	90.56
370.898	77.56
371.124	96.56
371.35	99.56
371.576	80.56
371.802	102.56
372.028	90.56
372.254	89.56
372.48	102.56
372.706	92.56
372.932	90.56
373.158	86.56
373.384	97.56
373.61	96.56
373.835	82.56
374.061	94.56
374.287	94.56
374.513	99.56
374.739	77.56
374.965	103.56
375.191	90.56
375.416	86.56
375.642	96.56
375.868	98.56
376.094	84.56
376.319	89.56
376.545	93.56
376.771	84.56
376.997	99.56
377.222	95.56
377.448	84.56
377.674	103.56
377.899	93.56
378.125	81.56
378.35	92.56
378.576	91.56
378.802	87.56
379.027	103.56
379.253	101.56
379.478	117.56
379.704	90.56
379.929	85.56
380.155	100.56
380.38	87.56
380.606	82.56
380.831	106.56
381.057	102.56
381.282	87.56
381.507	85.56
381.733	95.56
381.958	98.56
382.184	89.56
382.409	89.56
382.634	101.56
382.86	90.56
383.085	101.56
383.31	90.56
383.535	81.56
383.761	102.56
383.986	93.56
384.211	87.56
384.436	101.56
384.662	90.56
384.887	96.56
385.112	115.56
385.337	112.56
385.562	103.56
385.787	89.56
386.013	102.56
386.238	105.56
386.463	107.56
386.688	101.56
386.913	94.56
387.138	94.56
387.363	93.56
387.588	113.56
387.813	99.56
388.038	99.56
388.263	106.56
388.488	87.56
388.713	86.56
388.938	90.56
389.163	108.56
389.387	76.56
389.612	83.56
389.837	95.56
390.062	94.56
390.287	107.56
390.512	86.56
390.736	97.56
390.961	87.56
391.186	89.56
391.411	97.56
391.636	83.56
391.86	83.56
392.085	83.56
392.31	86.56
392.534	98.56
392.759	91.56
392.984	96.56
393.208	87.56
393.433	74.56
393.658	86.56
393.882	74.56
394.107	100.56
394.331	92.56
394.556	85.56
394.78	97.56
395.005	67.56
395.229	81.56
395.454	97.56
395.678	88.56
395.903	89.56
396.127	90.56
396.352	88.56
396.576	84.56
396.801	92.56
397.025	83.56
397.249	85.56
397.474	90.56
397.698	95.56
397.922	84.56
398.147	93.56
398.371	93.56
398.595	93.56
398.82	85.56
399.044	79.56
399.268	80.56
399.492	95.56
399.717	86.56
399.941	93.56
400.165	91.56
400.389	95.56
400.613	89.56
400.837	102.56
401.062	90.56
401.286	88.56
401.51	102.56
401.734	101.56
401.958	91.56
402.182	110.56
402.406	149.56
402.63	107.56
402.854	96.56
403.078	82.56
403.302	95.56
403.526	91.56
403.75	84.56
403.974	95.56
404.198	89.56
404.422	81.56
404.645	89.56
404.869	86.56
405.093	97.56
405.317	99.56
405.541	92.56
405.765	90.56
405.988	107.56
406.212	142.56
406.436	211.56
406.66	126.56
406.883	90.56
407.107	98.56
407.331	96.56
407.555	84.56
407.778	114.56
408.002	82.56
408.226	91.56
408.449	93.56
408.673	86.56
408.896	83.56
409.12	103.56
409.344	84.56
409.567	85.56
409.791	86.56
410.014	106.56
410.238	105.56
410.461	87.56
410.685	85.56
410.908	97.56
411.132	101.56
411.355	95.56
411.578	95.56
411.802	89.56
412.025	81.56
412.249	93.56
412.472	83.56
412.695	105.56
412.919	88.56
413.142	80.56
413.365	97.56
413.589	82.56
413.812	93.56
414.035	90.56
414.258	94.56
414.482	87.56
414.705	86.56
414.928	93.56
415.151	90.56
415.374	82.56
415.597	99.56
415.821	92.56
416.044	95.56
416.267	82.56
416.49	98.56
416.713	84.56
416.936	85.56
417.159	78.56
417.382	95.56
417.605	95.56
417.828	83.56
418.051	93.56
418.274	88.56
418.497	90.56
418.72	84.56
418.943	89.56
419.166	92.56
419.389	87.56
419.611	87.56
419.834	93.56
420.057	99.56
420.28	95.56
420.503	82.56
420.726	75.56
420.948	91.56
421.171	100.56
421.394	92.56
421.617	88.56
421.839	88.56
422.062	89.56
422.285	95.56
422.507	93.56
422.73	91.56
422.953	87.56
423.175	90.56
423.398	102.56
423.621	78.56
423.843	101.56
424.066	94.56
424.288	84.56
424.511	83.56
424.733	102.56
424.956	97.56
425.178	90.56
425.401	109.56
425.623	92.56
425.846	106.56
426.068	98.56
426.291	119.56
426.513	86.56
426.735	91.56
426.958	99.56
427.18	103.56
427.402	126.56
427.625	154.56
427.847	135.56
428.069	101.56
428.292	83.56
428.514	97.56
428.736	94.56
428.958	75.56
429.181	93.56
429.403	92.56
429.625	92.56
429.847	87.56
430.069	89.56
430.292	95.56
430.514	86.56
430.736	84.56
430.958	94.56
431.18	80.56
431.402	86.56
431.624	92.56
431.846	85.56
432.068	89.56
432.29	79.56
432.512	88.56
432.734	85.56
432.956	89.56
433.178	79.56
433.4	107.56
433.622	84.56
433.844	85.56
434.066	96.56
434.287	103.56
434.509	78.56
434.731	81.56
434.953	91.56
435.175	75.56
435.397	100.56
435.618	97.56
435.84	107.56
436.062	128.56
436.284	107.56
436.505	103.56
436.727	93.56
436.949	86.56
437.17	89.56
437.392	85.56
437.614	83.56
437.835	101.56
438.057	112.56
438.278	97.56
438.5	95.56
438.721	94.56
438.943	89.56
439.165	78.56
439.386	91.56
439.608	83.56
439.829	91.56
440.05	121.56
440.272	112.56
440.493	97.56
440.715	81.56
440.936	101.56
441.158	88.56
441.379	85.56
441.6	90.56
441.822	102.56
442.043	85.56
442.264	87.56
442.486	96.56
442.707	85.56
442.928	102.56
443.149	117.56
443.371	119.56
443.592	101.56
443.813	106.56
444.034	98.56
444.255	91.56
444.476	86.56
444.698	95.56
444.919	90.56
445.14	124.56
445.361	108.56
445.582	112.56
445.803	111.56
446.024	125.56
446.245	117.56
446.466	103.56
446.687	92.56
446.908	85.56
447.129	85.56
447.35	86.56
447.571	103.56
447.792	97.56
448.013	99.56
448.234	106.56
448.455	109.56
448.675	112.56
448.896	123.56
449.117	86.56
449.338	88.56
449.559	128.56
449.779	132.56
450	99.56
450.221	94.56
450.442	82.56
450.662	101.56
450.883	102.56
451.104	110.56
451.324	93.56
451.545	88.56
451.766	90.56
451.986	84.56
452.207	88.56
452.428	81.56
452.648	89.56
452.869	106.56
453.089	122.56
453.31	114.56
453.53	94.56
453.751	86.56
453.971	98.56
454.192	106.56
454.412	94.56
454.633	90.56
454.853	91.56
455.073	87.56
455.294	92.56
455.514	85.56
455.734	79.56
455.955	84.56
456.175	86.56
456.395	80.56
456.616	76.56
456.836	76.56
457.056	75.56
457.276	91.56
457.497	86.56
457.717	91.56
457.937	79.56
458.157	92.56
458.377	94.56
458.598	98.56
458.818	137.56
459.038	142.56
459.258	108.56
459.478	84.56
459.698	96.56
459.918	96.56
460.138	89.56
460.358	84.56
460.578	81.56
460.798	84.56
461.018	88.56
461.238	85.56
461.458	90.56
461.678	75.56
461.898	83.56
462.118	92.56
462.338	69.56
462.558	95.56
462.777	85.56
462.997	92.56
463.217	102.56
463.437	76.56
463.657	86.56
463.876	81.56
464.096	99.56
464.316	102.56
464.536	101.56
464.755	108.56
464.975	99.56
465.195	141.56
465.414	132.56
465.634	99.56
465.854	90.56
466.073	99.56
466.293	83.56
466.512	89.56
466.732	90.56
466.951	88.56
467.171	100.56
467.391	93.56
467.61	99.56
467.829	97.56
468.049	89.56
468.268	82.56
468.488	90.56
468.707	86.56
468.927	88.56
469.146	87.56
469.365	97.56
469.585	88.56
469.804	96.56
470.023	86.56
470.243	104.56
470.462	104.56
470.681	95.56
470.901	80.56
471.12	72.56
471.339	79.56
471.558	87.56
471.777	88.56
471.997	89.56
472.216	82.56
472.435	96.56
472.654	87.56
472.873	98.56
473.092	92.56
473.311	94.56
473.53	87.56
473.749	87.56
473.968	82.56
474.187	107.56
474.406	95.56
474.625	94.56
474.844	89.56
475.063	81.56
475.282	73.56
475.501	86.56
475.72	90.56
475.939	71.56
476.158	79.56
476.377	80.56
476.596	102.56
476.814	88.56
477.033	99.56
477.252	87.56
477.471	78.56
477.69	91.56
477.908	79.56
478.127	83.56
478.346	77.56
478.564	83.56
478.783	100.56
479.002	89.56
479.22	86.56
479.439	109.56
479.658	83.56
479.876	103.56
480.095	75.56
480.313	91.56
480.532	73.56
480.751	102.56
480.969	83.56
481.188	113.56
481.406	92.56
481.624	99.56
481.843	84.56
482.061	86.56
482.28	86.56
482.498	90.56
482.717	75.56
482.935	76.56
483.153	81.56
483.372	77.56
483.59	115.56
483.808	99.56
484.027	91.56
484.245	86.56
484.463	89.56
484.681	109.56
484.9	98.56
485.118	96.56
485.336	78.56
485.554	86.56
485.772	97.56
485.99	94.56
486.209	100.56
486.427	108.56
486.645	96.56
486.863	101.56
487.081	98.56
487.299	92.56
487.517	102.56
487.735	93.56
487.953	98.56
488.171	90.56
488.389	101.56
488.607	99.56
488.825	91.56
489.043	85.56
489.261	78.56
489.479	75.56
489.696	95.56
489.914	91.56
490.132	87.56
490.35	90.56
490.568	91.56
490.786	83.56
491.003	91.56
491.221	83.56
491.439	105.56
491.657	98.56
491.874	102.56
492.092	101.56
492.31	94.56
492.527	82.56
492.745	85.56
492.963	102.56
493.18	100.56
493.398	92.56
493.615	108.56
493.833	97.56
494.05	88.56
494.268	79.56
494.485	87.56
494.703	85.56
494.92	91.56
495.138	84.56
495.355	88.56
495.573	97.56
495.79	103.56
496.008	90.56
496.225	84.56
496.442	90.56
496.66	92.56
496.877	95.56
497.094	98.56
497.312	99.56
497.529	97.56
497.746	99.56
497.963	91.56
498.181	87.56
498.398	102.56
498.615	110.56
498.832	99.56
499.049	89.56
499.267	97.56
499.484	96.56
499.701	82.56
499.918	94.56
500.135	101.56
500.352	87.56
500.569	102.56
500.786	93.56
501.003	98.56
501.22	95.56
501.437	92.56
501.654	90.56
501.871	110.56
502.088	101.56
502.305	92.56
502.522	74.56
502.739	91.56
502.956	101.56
503.172	89.56
503.389	103.56
503.606	102.56
503.823	85.56
504.04	97.56
504.256	101.56
504.473	91.56
504.69	94.56
504.907	93.56
505.123	91.56
505.34	95.56
505.557	100.56
505.773	103.56
505.99	89.56
506.207	76.56
506.423	85.56
506.64	102.56
506.856	82.56
507.073	91.56
507.289	87.56
507.506	88.56
507.722	108.56
507.939	94.56
508.155	81.56
508.372	94.56
508.588	97.56
508.805	88.56
509.021	114.56
509.238	102.56
509.454	94.56
509.67	100.56
509.887	112.56
510.103	129.56
510.319	180.56
510.536	653.56
510.752	1994.56
510.968	541.56
511.184	143.56
511.401	102.56
511.617	99.56
511.833	81.56
512.049	109.56
512.265	78.56
512.481	95.56
512.698	97.56
512.914	94.56
513.13	101.56
513.346	94.56
513.562	86.56
513.778	104.56
513.994	87.56
514.21	91.56
514.426	113.56
514.642	127.56
514.858	119.56
515.074	158.56
515.29	367.56
515.506	1227.56
515.721	432.56
