Data from Uncirc_1993_H10_HRD10591_00089.txt Node
Date: Wed Jan 03 11:43:10 EST 2024
User: Yrep
Spectrometer: HR+D1059
Trigger mode: 1
Integration Time (sec): 1.000000E-1
Scans to average: 1
Electric dark correction enabled: true
Nonlinearity correction enabled: false
Boxcar width: 0
XAxis mode: Wavelengths
Number of Pixels in Spectrum: 2048
>>>>>Begin Spectral Data<<<<<
223.165	-26.31
223.4	-26.31
223.635	-26.31
223.869	-23.31
224.104	-23.31
224.338	-4.31
224.573	-10.31
224.808	-7.31
225.042	-9.31
225.277	-15.31
225.511	1.69
225.746	-2.31
225.98	10.69
226.215	12.69
226.449	12.69
226.683	25.69
226.918	15.69
227.152	42.69
227.387	31.69
227.621	46.69
227.856	37.69
228.09	42.69
228.324	44.69
228.559	36.69
228.793	66.69
229.027	65.69
229.262	62.69
229.496	57.69
229.73	74.69
229.964	77.69
230.199	70.69
230.433	78.69
230.667	91.69
230.901	76.69
231.136	84.69
231.37	77.69
231.604	77.69
231.838	84.69
232.072	81.69
232.306	88.69
232.541	85.69
232.775	76.69
233.009	78.69
233.243	92.69
233.477	82.69
233.711	81.69
233.945	80.69
234.179	75.69
234.413	90.69
234.647	83.69
234.881	73.69
235.115	80.69
235.349	78.69
235.583	73.69
235.817	81.69
236.051	99.69
236.285	96.69
236.519	74.69
236.753	83.69
236.987	79.69
237.221	83.69
237.455	78.69
237.689	80.69
237.922	72.69
238.156	77.69
238.39	80.69
238.624	92.69
238.858	83.69
239.091	82.69
239.325	75.69
239.559	61.69
239.793	75.69
240.027	68.69
240.26	80.69
240.494	84.69
240.728	85.69
240.961	87.69
241.195	77.69
241.429	81.69
241.662	62.69
241.896	69.69
242.13	72.69
242.363	94.69
242.597	68.69
242.83	78.69
243.064	75.69
243.298	94.69
243.531	68.69
243.765	79.69
243.998	76.69
244.232	79.69
244.465	77.69
244.699	89.69
244.932	59.69
245.166	69.69
245.399	82.69
245.633	93.69
245.866	66.69
246.099	80.69
246.333	79.69
246.566	80.69
246.8	72.69
247.033	73.69
247.266	90.69
247.5	76.69
247.733	71.69
247.966	71.69
248.2	80.69
248.433	62.69
248.666	87.69
248.899	76.69
249.133	78.69
249.366	99.69
249.599	79.69
249.832	77.69
250.066	81.69
250.299	79.69
250.532	89.69
250.765	79.69
250.998	83.69
251.231	86.69
251.465	87.69
251.698	81.69
251.931	88.69
252.164	47.69
252.397	86.69
252.63	78.69
252.863	75.69
253.096	78.69
253.329	74.69
253.562	72.69
253.795	64.69
254.028	68.69
254.261	69.69
254.494	93.69
254.727	76.69
254.96	83.69
255.193	70.69
255.426	85.69
255.659	81.69
255.892	66.69
256.124	85.69
256.357	78.69
256.59	79.69
256.823	70.69
257.056	76.69
257.289	78.69
257.521	91.69
257.754	73.69
257.987	74.69
258.22	84.69
258.452	84.69
258.685	86.69
258.918	71.69
259.151	69.69
259.383	82.69
259.616	85.69
259.849	89.69
260.081	79.69
260.314	88.69
260.547	75.69
260.779	84.69
261.012	78.69
261.244	91.69
261.477	100.69
261.71	92.69
261.942	110.69
262.175	122.69
262.407	92.69
262.64	82.69
262.872	92.69
263.105	94.69
263.337	87.69
263.57	98.69
263.802	85.69
264.035	79.69
264.267	79.69
264.499	87.69
264.732	78.69
264.964	77.69
265.197	94.69
265.429	107.69
265.661	84.69
265.894	82.69
266.126	73.69
266.358	79.69
266.591	96.69
266.823	82.69
267.055	88.69
267.287	90.69
267.52	78.69
267.752	83.69
267.984	92.69
268.216	82.69
268.448	85.69
268.681	96.69
268.913	88.69
269.145	74.69
269.377	85.69
269.609	76.69
269.841	77.69
270.073	77.69
270.306	89.69
270.538	89.69
270.77	84.69
271.002	84.69
271.234	82.69
271.466	91.69
271.698	72.69
271.93	82.69
272.162	75.69
272.394	87.69
272.626	90.69
272.858	85.69
273.09	82.69
273.322	81.69
273.553	83.69
273.785	72.69
274.017	96.69
274.249	70.69
274.481	91.69
274.713	96.69
274.945	97.69
275.176	93.69
275.408	92.69
275.64	90.69
275.872	95.69
276.104	90.69
276.335	87.69
276.567	98.69
276.799	85.69
277.031	92.69
277.262	93.69
277.494	92.69
277.726	88.69
277.957	88.69
278.189	72.69
278.421	73.69
278.652	94.69
278.884	77.69
279.115	86.69
279.347	91.69
279.579	98.69
279.81	86.69
280.042	69.69
280.273	89.69
280.505	68.69
280.736	85.69
280.968	84.69
281.199	77.69
281.431	86.69
281.662	77.69
281.894	103.69
282.125	95.69
282.356	113.69
282.588	118.69
282.819	107.69
283.051	94.69
283.282	82.69
283.513	89.69
283.745	84.69
283.976	87.69
284.207	100.69
284.439	89.69
284.67	66.69
284.901	85.69
285.132	88.69
285.364	93.69
285.595	76.69
285.826	94.69
286.057	79.69
286.288	77.69
286.52	88.69
286.751	90.69
286.982	91.69
287.213	86.69
287.444	94.69
287.675	77.69
287.906	88.69
288.138	94.69
288.369	92.69
288.6	88.69
288.831	97.69
289.062	79.69
289.293	99.69
289.524	66.69
289.755	85.69
289.986	88.69
290.217	84.69
290.448	78.69
290.679	87.69
290.91	92.69
291.141	88.69
291.371	90.69
291.602	80.69
291.833	88.69
292.064	91.69
292.295	94.69
292.526	81.69
292.757	87.69
292.987	72.69
293.218	98.69
293.449	74.69
293.68	97.69
293.91	91.69
294.141	86.69
294.372	91.69
294.603	82.69
294.833	88.69
295.064	88.69
295.295	93.69
295.525	82.69
295.756	96.69
295.987	113.69
296.217	136.69
296.448	118.69
296.679	90.69
296.909	94.69
297.14	92.69
297.37	82.69
297.601	97.69
297.831	85.69
298.062	78.69
298.292	86.69
298.523	80.69
298.753	77.69
298.984	92.69
299.214	76.69
299.445	84.69
299.675	86.69
299.905	92.69
300.136	75.69
300.366	90.69
300.597	92.69
300.827	82.69
301.057	101.69
301.288	95.69
301.518	93.69
301.748	96.69
301.979	97.69
302.209	106.69
302.439	91.69
302.669	99.69
302.9	94.69
303.13	90.69
303.36	85.69
303.59	119.69
303.82	113.69
304.051	99.69
304.281	93.69
304.511	79.69
304.741	88.69
304.971	80.69
305.201	82.69
305.431	83.69
305.661	85.69
305.891	91.69
306.121	80.69
306.352	100.69
306.582	97.69
306.812	90.69
307.042	93.69
307.272	87.69
307.502	97.69
307.731	100.69
307.961	90.69
308.191	100.69
308.421	93.69
308.651	95.69
308.881	91.69
309.111	96.69
309.341	101.69
309.571	98.69
309.8	76.69
310.03	95.69
310.26	92.69
310.49	92.69
310.72	89.69
310.949	87.69
311.179	96.69
311.409	95.69
311.639	91.69
311.868	89.69
312.098	96.69
312.328	88.69
312.557	96.69
312.787	105.69
313.017	101.69
313.246	92.69
313.476	80.69
313.706	94.69
313.935	91.69
314.165	90.69
314.394	94.69
314.624	91.69
314.853	107.69
315.083	82.69
315.312	79.69
315.542	89.69
315.771	99.69
316.001	101.69
316.23	79.69
316.46	95.69
316.689	101.69
316.919	95.69
317.148	95.69
317.377	94.69
317.607	81.69
317.836	94.69
318.065	90.69
318.295	89.69
318.524	86.69
318.753	91.69
318.983	91.69
319.212	101.69
319.441	113.69
319.67	97.69
319.9	100.69
320.129	96.69
320.358	98.69
320.587	80.69
320.816	98.69
321.046	102.69
321.275	95.69
321.504	91.69
321.733	106.69
321.962	97.69
322.191	107.69
322.42	78.69
322.649	118.69
322.878	113.69
323.108	109.69
323.337	113.69
323.566	134.69
323.795	135.69
324.024	180.69
324.253	347.69
324.482	724.69
324.71	1456.69
324.939	1923.69
325.168	693.69
325.397	202.69
325.626	143.69
325.855	131.69
326.084	125.69
326.313	121.69
326.542	141.69
326.77	209.69
326.999	413.69
327.228	813.69
327.457	1443.69
327.686	1137.69
327.914	344.69
328.143	181.69
328.372	131.69
328.6	113.69
328.829	113.69
329.058	108.69
329.287	122.69
329.515	99.69
329.744	93.69
329.972	106.69
330.201	90.69
330.43	104.69
330.658	104.69
330.887	127.69
331.115	105.69
331.344	102.69
331.572	104.69
331.801	90.69
332.03	103.69
332.258	101.69
332.486	85.69
332.715	88.69
332.943	90.69
333.172	96.69
333.4	90.69
333.629	85.69
333.857	123.69
334.085	107.69
334.314	92.69
334.542	105.69
334.771	104.69
334.999	82.69
335.227	95.69
335.455	96.69
335.684	82.69
335.912	98.69
336.14	85.69
336.369	86.69
336.597	96.69
336.825	101.69
337.053	78.69
337.281	88.69
337.51	79.69
337.738	96.69
337.966	88.69
338.194	84.69
338.422	99.69
338.65	105.69
338.878	97.69
339.106	99.69
339.334	92.69
339.562	93.69
339.79	96.69
340.018	96.69
340.246	82.69
340.474	89.69
340.702	85.69
340.93	81.69
341.158	92.69
341.386	99.69
341.614	100.69
341.842	109.69
342.07	82.69
342.298	94.69
342.526	96.69
342.754	80.69
342.981	88.69
343.209	75.69
343.437	96.69
343.665	82.69
343.893	96.69
344.12	104.69
344.348	75.69
344.576	84.69
344.804	75.69
345.031	93.69
345.259	105.69
345.487	85.69
345.714	77.69
345.942	84.69
346.17	76.69
346.397	103.69
346.625	85.69
346.853	85.69
347.08	83.69
347.308	75.69
347.535	84.69
347.763	98.69
347.99	101.69
348.218	99.69
348.445	97.69
348.673	89.69
348.9	96.69
349.128	92.69
349.355	94.69
349.583	90.69
349.81	101.69
350.037	101.69
350.265	96.69
350.492	92.69
350.72	88.69
350.947	118.69
351.174	106.69
351.402	98.69
351.629	98.69
351.856	94.69
352.083	99.69
352.311	117.69
352.538	111.69
352.765	109.69
352.992	88.69
353.22	107.69
353.447	100.69
353.674	98.69
353.901	101.69
354.128	97.69
354.355	99.69
354.583	100.69
354.81	100.69
355.037	103.69
355.264	98.69
355.491	93.69
355.718	101.69
355.945	105.69
356.172	91.69
356.399	99.69
356.626	90.69
356.853	88.69
357.08	100.69
357.307	93.69
357.534	89.69
357.761	96.69
357.988	90.69
358.215	104.69
358.441	100.69
358.668	89.69
358.895	83.69
359.122	78.69
359.349	81.69
359.576	92.69
359.802	112.69
360.029	101.69
360.256	101.69
360.483	90.69
360.709	99.69
360.936	96.69
361.163	88.69
361.39	96.69
361.616	93.69
361.843	95.69
362.07	100.69
362.296	101.69
362.523	92.69
362.749	80.69
362.976	94.69
363.203	80.69
363.429	73.69
363.656	88.69
363.882	92.69
364.109	91.69
364.335	92.69
364.562	81.69
364.788	100.69
365.015	88.69
365.241	93.69
365.468	106.69
365.694	113.69
365.92	104.69
366.147	94.69
366.373	96.69
366.599	92.69
366.826	81.69
367.052	88.69
367.278	99.69
367.505	90.69
367.731	97.69
367.957	82.69
368.184	91.69
368.41	109.69
368.636	109.69
368.862	115.69
369.089	112.69
369.315	81.69
369.541	94.69
369.767	96.69
369.993	92.69
370.219	91.69
370.445	83.69
370.672	94.69
370.898	94.69
371.124	70.69
371.35	78.69
371.576	96.69
371.802	78.69
372.028	89.69
372.254	85.69
372.48	94.69
372.706	81.69
372.932	93.69
373.158	85.69
373.384	77.69
373.61	103.69
373.835	93.69
374.061	85.69
374.287	92.69
374.513	94.69
374.739	94.69
374.965	96.69
375.191	79.69
375.416	82.69
375.642	89.69
375.868	84.69
376.094	86.69
376.319	72.69
376.545	90.69
376.771	88.69
376.997	90.69
377.222	90.69
377.448	88.69
377.674	100.69
377.899	89.69
378.125	86.69
378.35	93.69
378.576	78.69
378.802	93.69
379.027	96.69
379.253	94.69
379.478	105.69
379.704	99.69
379.929	95.69
380.155	90.69
380.38	92.69
380.606	88.69
380.831	94.69
381.057	106.69
381.282	95.69
381.507	100.69
381.733	97.69
381.958	87.69
382.184	100.69
382.409	89.69
382.634	98.69
382.86	98.69
383.085	95.69
383.31	101.69
383.535	84.69
383.761	83.69
383.986	93.69
384.211	93.69
384.436	86.69
384.662	101.69
384.887	111.69
385.112	105.69
385.337	92.69
385.562	104.69
385.787	108.69
386.013	103.69
386.238	116.69
386.463	96.69
386.688	91.69
386.913	100.69
387.138	83.69
387.363	98.69
387.588	98.69
387.813	88.69
388.038	107.69
388.263	96.69
388.488	88.69
388.713	85.69
388.938	91.69
389.163	90.69
389.387	99.69
389.612	106.69
389.837	101.69
390.062	94.69
390.287	98.69
390.512	101.69
390.736	95.69
390.961	92.69
391.186	82.69
391.411	90.69
391.636	83.69
391.86	83.69
392.085	85.69
392.31	93.69
392.534	80.69
392.759	90.69
392.984	75.69
393.208	92.69
393.433	88.69
393.658	99.69
393.882	91.69
394.107	90.69
394.331	88.69
394.556	63.69
394.78	96.69
395.005	94.69
395.229	95.69
395.454	90.69
395.678	83.69
395.903	84.69
396.127	99.69
396.352	104.69
396.576	85.69
396.801	88.69
397.025	68.69
397.249	91.69
397.474	91.69
397.698	80.69
397.922	97.69
398.147	93.69
398.371	72.69
398.595	84.69
398.82	85.69
399.044	66.69
399.268	72.69
399.492	93.69
399.717	104.69
399.941	77.69
400.165	69.69
400.389	86.69
400.613	87.69
400.837	96.69
401.062	93.69
401.286	96.69
401.51	102.69
401.734	90.69
401.958	99.69
402.182	133.69
402.406	143.69
402.63	102.69
402.854	82.69
403.078	101.69
403.302	82.69
403.526	86.69
403.75	79.69
403.974	76.69
404.198	77.69
404.422	82.69
404.645	83.69
404.869	88.69
405.093	85.69
405.317	93.69
405.541	105.69
405.765	88.69
405.988	108.69
406.212	181.69
406.436	214.69
406.66	137.69
406.883	106.69
407.107	96.69
407.331	92.69
407.555	98.69
407.778	94.69
408.002	82.69
408.226	94.69
408.449	83.69
408.673	104.69
408.896	93.69
409.12	91.69
409.344	88.69
409.567	94.69
409.791	80.69
410.014	96.69
410.238	94.69
410.461	100.69
410.685	90.69
410.908	100.69
411.132	101.69
411.355	93.69
411.578	82.69
411.802	76.69
412.025	80.69
412.249	101.69
412.472	101.69
412.695	82.69
412.919	86.69
413.142	70.69
413.365	76.69
413.589	88.69
413.812	65.69
414.035	77.69
414.258	99.69
414.482	93.69
414.705	80.69
414.928	96.69
415.151	104.69
415.374	87.69
415.597	83.69
415.821	84.69
416.044	79.69
416.267	82.69
416.49	80.69
416.713	94.69
416.936	80.69
417.159	91.69
417.382	84.69
417.605	80.69
417.828	82.69
418.051	96.69
418.274	93.69
418.497	84.69
418.72	83.69
418.943	82.69
419.166	96.69
419.389	97.69
419.611	78.69
419.834	98.69
420.057	82.69
420.28	77.69
420.503	89.69
420.726	83.69
420.948	79.69
421.171	93.69
421.394	104.69
421.617	83.69
421.839	91.69
422.062	93.69
422.285	94.69
422.507	100.69
422.73	92.69
422.953	90.69
423.175	85.69
423.398	91.69
423.621	100.69
423.843	81.69
424.066	83.69
424.288	82.69
424.511	81.69
424.733	101.69
424.956	116.69
425.178	87.69
425.401	108.69
425.623	92.69
425.846	104.69
426.068	78.69
426.291	92.69
426.513	82.69
426.735	77.69
426.958	92.69
427.18	100.69
427.402	117.69
427.625	148.69
427.847	108.69
428.069	84.69
428.292	81.69
428.514	107.69
428.736	70.69
428.958	69.69
429.181	96.69
429.403	80.69
429.625	84.69
429.847	90.69
430.069	96.69
430.292	104.69
430.514	86.69
430.736	82.69
430.958	79.69
431.18	85.69
431.402	94.69
431.624	86.69
431.846	85.69
432.068	81.69
432.29	94.69
432.512	92.69
432.734	84.69
432.956	85.69
433.178	95.69
433.4	109.69
433.622	85.69
433.844	91.69
434.066	98.69
434.287	95.69
434.509	86.69
434.731	85.69
434.953	89.69
435.175	81.69
435.397	82.69
435.618	92.69
435.84	98.69
436.062	97.69
436.284	110.69
436.505	100.69
436.727	101.69
436.949	82.69
437.17	92.69
437.392	84.69
437.614	112.69
437.835	97.69
438.057	109.69
438.278	105.69
438.5	102.69
438.721	128.69
438.943	97.69
439.165	93.69
439.386	82.69
439.608	99.69
439.829	97.69
440.05	130.69
440.272	122.69
440.493	108.69
440.715	102.69
440.936	95.69
441.158	82.69
441.379	81.69
441.6	91.69
441.822	90.69
442.043	90.69
442.264	111.69
442.486	111.69
442.707	113.69
442.928	98.69
443.149	115.69
443.371	120.69
443.592	95.69
443.813	101.69
444.034	108.69
444.255	89.69
444.476	80.69
444.698	84.69
444.919	91.69
445.14	140.69
445.361	120.69
445.582	108.69
445.803	118.69
446.024	122.69
446.245	108.69
446.466	107.69
446.687	90.69
446.908	97.69
447.129	86.69
447.35	91.69
447.571	80.69
447.792	104.69
448.013	115.69
448.234	98.69
448.455	98.69
448.675	103.69
448.896	107.69
449.117	94.69
449.338	89.69
449.559	127.69
449.779	119.69
450	99.69
450.221	82.69
450.442	92.69
450.662	78.69
450.883	104.69
451.104	114.69
451.324	93.69
451.545	88.69
451.766	96.69
451.986	95.69
452.207	90.69
452.428	89.69
452.648	105.69
452.869	126.69
453.089	111.69
453.31	99.69
453.53	96.69
453.751	92.69
453.971	102.69
454.192	99.69
454.412	101.69
454.633	86.69
454.853	87.69
455.073	85.69
455.294	94.69
455.514	88.69
455.734	88.69
455.955	89.69
456.175	91.69
456.395	80.69
456.616	82.69
456.836	73.69
457.056	86.69
457.276	82.69
457.497	88.69
457.717	90.69
457.937	95.69
458.157	85.69
458.377	87.69
458.598	84.69
458.818	141.69
459.038	144.69
459.258	113.69
459.478	98.69
459.698	83.69
459.918	77.69
460.138	84.69
460.358	93.69
460.578	85.69
460.798	92.69
461.018	86.69
461.238	85.69
461.458	97.69
461.678	101.69
461.898	92.69
462.118	96.69
462.338	88.69
462.558	96.69
462.777	84.69
462.997	91.69
463.217	82.69
463.437	72.69
463.657	90.69
463.876	84.69
464.096	93.69
464.316	83.69
464.536	76.69
464.755	90.69
464.975	103.69
465.195	150.69
465.414	144.69
465.634	104.69
465.854	89.69
466.073	78.69
466.293	107.69
466.512	93.69
466.732	85.69
466.951	97.69
467.171	98.69
467.391	93.69
467.61	102.69
467.829	105.69
468.049	96.69
468.268	91.69
468.488	78.69
468.707	99.69
468.927	85.69
469.146	92.69
469.365	86.69
469.585	92.69
469.804	93.69
470.023	90.69
470.243	96.69
470.462	92.69
470.681	107.69
470.901	84.69
471.12	100.69
471.339	72.69
471.558	90.69
471.777	73.69
471.997	84.69
472.216	92.69
472.435	89.69
472.654	77.69
472.873	89.69
473.092	84.69
473.311	85.69
473.53	89.69
473.749	96.69
473.968	89.69
474.187	103.69
474.406	98.69
474.625	91.69
474.844	96.69
475.063	81.69
475.282	75.69
475.501	83.69
475.72	92.69
475.939	82.69
476.158	85.69
476.377	95.69
476.596	88.69
476.814	91.69
477.033	83.69
477.252	94.69
477.471	92.69
477.69	98.69
477.908	81.69
478.127	108.69
478.346	98.69
478.564	90.69
478.783	83.69
479.002	90.69
479.22	86.69
479.439	90.69
479.658	105.69
479.876	86.69
480.095	90.69
480.313	98.69
480.532	113.69
480.751	101.69
480.969	97.69
481.188	109.69
481.406	100.69
481.624	96.69
481.843	86.69
482.061	82.69
482.28	94.69
482.498	83.69
482.717	99.69
482.935	88.69
483.153	95.69
483.372	96.69
483.59	88.69
483.808	86.69
484.027	92.69
484.245	101.69
484.463	83.69
484.681	82.69
484.9	84.69
485.118	89.69
485.336	85.69
485.554	97.69
485.772	110.69
485.99	96.69
486.209	84.69
486.427	98.69
486.645	110.69
486.863	111.69
487.081	97.69
487.299	97.69
487.517	89.69
487.735	92.69
487.953	94.69
488.171	82.69
488.389	93.69
488.607	96.69
488.825	93.69
489.043	88.69
489.261	76.69
489.479	88.69
489.696	82.69
489.914	99.69
490.132	91.69
490.35	93.69
490.568	90.69
490.786	92.69
491.003	92.69
491.221	91.69
491.439	82.69
491.657	92.69
491.874	89.69
492.092	73.69
492.31	85.69
492.527	89.69
492.745	83.69
492.963	94.69
493.18	80.69
493.398	93.69
493.615	96.69
493.833	77.69
494.05	85.69
494.268	97.69
494.485	92.69
494.703	84.69
494.92	88.69
495.138	77.69
495.355	81.69
495.573	104.69
495.79	87.69
496.008	98.69
496.225	84.69
496.442	93.69
496.66	107.69
496.877	93.69
497.094	91.69
497.312	86.69
497.529	96.69
497.746	96.69
497.963	101.69
498.181	90.69
498.398	95.69
498.615	90.69
498.832	103.69
499.049	94.69
499.267	94.69
499.484	81.69
499.701	92.69
499.918	86.69
500.135	85.69
500.352	74.69
500.569	89.69
500.786	91.69
501.003	97.69
501.22	92.69
501.437	105.69
501.654	92.69
501.871	115.69
502.088	105.69
502.305	92.69
502.522	88.69
502.739	91.69
502.956	92.69
503.172	92.69
503.389	91.69
503.606	96.69
503.823	100.69
504.04	101.69
504.256	85.69
504.473	86.69
504.69	94.69
504.907	89.69
505.123	93.69
505.34	95.69
505.557	101.69
505.773	92.69
505.99	92.69
506.207	78.69
506.423	96.69
506.64	88.69
506.856	91.69
507.073	75.69
507.289	97.69
507.506	104.69
507.722	96.69
507.939	104.69
508.155	99.69
508.372	83.69
508.588	90.69
508.805	90.69
509.021	101.69
509.238	106.69
509.454	111.69
509.67	104.69
509.887	105.69
510.103	125.69
510.319	201.69
510.536	728.69
510.752	2229.69
510.968	620.69
511.184	139.69
511.401	120.69
511.617	96.69
511.833	97.69
512.049	89.69
512.265	91.69
512.481	102.69
512.698	95.69
512.914	94.69
513.13	102.69
513.346	93.69
513.562	83.69
513.778	97.69
513.994	106.69
514.21	108.69
514.426	109.69
514.642	128.69
514.858	127.69
515.074	154.69
515.29	422.69
515.506	1319.69
515.721	504.69
515.937	152.69
516.153	104.69
