Data from Uncirc_1993_H10_HRD10591_00046.txt Node
Date: Wed Jan 03 11:43:01 EST 2024
User: Yrep
Spectrometer: HR+D1059
Trigger mode: 1
Integration Time (sec): 1.000000E-1
Scans to average: 1
Electric dark correction enabled: true
Nonlinearity correction enabled: false
Boxcar width: 0
XAxis mode: Wavelengths
Number of Pixels in Spectrum: 2048
>>>>>Begin Spectral Data<<<<<
223.165	-27.25
223.4	-27.25
223.635	-27.25
223.869	-6.25
224.104	-13.25
224.338	-8.25
224.573	-9.25
224.808	-16.25
225.042	-4.25
225.277	-20.25
225.511	-16.25
225.746	-11.25
225.98	15.75
226.215	10.75
226.449	17.75
226.683	32.75
226.918	29.75
227.152	25.75
227.387	14.75
227.621	37.75
227.856	43.75
228.09	33.75
228.324	59.75
228.559	55.75
228.793	51.75
229.027	58.75
229.262	63.75
229.496	67.75
229.73	79.75
229.964	88.75
230.199	68.75
230.433	71.75
230.667	74.75
230.901	77.75
231.136	71.75
231.37	92.75
231.604	88.75
231.838	84.75
232.072	79.75
232.306	71.75
232.541	77.75
232.775	91.75
233.009	83.75
233.243	78.75
233.477	75.75
233.711	81.75
233.945	84.75
234.179	71.75
234.413	84.75
234.647	63.75
234.881	79.75
235.115	80.75
235.349	82.75
235.583	84.75
235.817	73.75
236.051	69.75
236.285	65.75
236.519	72.75
236.753	79.75
236.987	74.75
237.221	81.75
237.455	81.75
237.689	83.75
237.922	82.75
238.156	72.75
238.39	78.75
238.624	73.75
238.858	84.75
239.091	95.75
239.325	69.75
239.559	77.75
239.793	78.75
240.027	90.75
240.26	69.75
240.494	83.75
240.728	75.75
240.961	82.75
241.195	78.75
241.429	74.75
241.662	77.75
241.896	78.75
242.13	75.75
242.363	67.75
242.597	93.75
242.83	83.75
243.064	68.75
243.298	75.75
243.531	79.75
243.765	89.75
243.998	79.75
244.232	82.75
244.465	80.75
244.699	69.75
244.932	86.75
245.166	95.75
245.399	81.75
245.633	85.75
245.866	61.75
246.099	77.75
246.333	83.75
246.566	57.75
246.8	78.75
247.033	82.75
247.266	72.75
247.5	98.75
247.733	66.75
247.966	72.75
248.2	76.75
248.433	90.75
248.666	86.75
248.899	65.75
249.133	82.75
249.366	86.75
249.599	84.75
249.832	63.75
250.066	65.75
250.299	86.75
250.532	67.75
250.765	80.75
250.998	81.75
251.231	77.75
251.465	82.75
251.698	60.75
251.931	88.75
252.164	97.75
252.397	74.75
252.63	92.75
252.863	70.75
253.096	73.75
253.329	81.75
253.562	96.75
253.795	71.75
254.028	62.75
254.261	82.75
254.494	81.75
254.727	99.75
254.96	87.75
255.193	67.75
255.426	73.75
255.659	106.75
255.892	88.75
256.124	77.75
256.357	72.75
256.59	65.75
256.823	78.75
257.056	93.75
257.289	91.75
257.521	91.75
257.754	87.75
257.987	81.75
258.22	66.75
258.452	62.75
258.685	73.75
258.918	62.75
259.151	77.75
259.383	75.75
259.616	86.75
259.849	75.75
260.081	66.75
260.314	80.75
260.547	83.75
260.779	68.75
261.012	96.75
261.244	92.75
261.477	83.75
261.71	102.75
261.942	117.75
262.175	101.75
262.407	83.75
262.64	75.75
262.872	87.75
263.105	89.75
263.337	67.75
263.57	81.75
263.802	89.75
264.035	82.75
264.267	71.75
264.499	85.75
264.732	83.75
264.964	69.75
265.197	79.75
265.429	64.75
265.661	71.75
265.894	89.75
266.126	85.75
266.358	85.75
266.591	77.75
266.823	85.75
267.055	95.75
267.287	78.75
267.52	79.75
267.752	71.75
267.984	85.75
268.216	81.75
268.448	81.75
268.681	83.75
268.913	88.75
269.145	79.75
269.377	81.75
269.609	84.75
269.841	90.75
270.073	77.75
270.306	98.75
270.538	84.75
270.77	71.75
271.002	86.75
271.234	72.75
271.466	80.75
271.698	82.75
271.93	81.75
272.162	92.75
272.394	88.75
272.626	81.75
272.858	73.75
273.09	86.75
273.322	78.75
273.553	84.75
273.785	94.75
274.017	90.75
274.249	78.75
274.481	86.75
274.713	83.75
274.945	82.75
275.176	82.75
275.408	85.75
275.64	88.75
275.872	76.75
276.104	86.75
276.335	87.75
276.567	84.75
276.799	97.75
277.031	87.75
277.262	83.75
277.494	97.75
277.726	88.75
277.957	83.75
278.189	98.75
278.421	76.75
278.652	89.75
278.884	83.75
279.115	77.75
279.347	89.75
279.579	77.75
279.81	82.75
280.042	93.75
280.273	91.75
280.505	84.75
280.736	78.75
280.968	76.75
281.199	92.75
281.431	90.75
281.662	78.75
281.894	93.75
282.125	80.75
282.356	129.75
282.588	131.75
282.819	122.75
283.051	88.75
283.282	84.75
283.513	92.75
283.745	89.75
283.976	85.75
284.207	72.75
284.439	81.75
284.67	87.75
284.901	81.75
285.132	95.75
285.364	89.75
285.595	83.75
285.826	75.75
286.057	94.75
286.288	100.75
286.52	90.75
286.751	83.75
286.982	96.75
287.213	92.75
287.444	90.75
287.675	83.75
287.906	78.75
288.138	84.75
288.369	94.75
288.6	107.75
288.831	79.75
289.062	81.75
289.293	100.75
289.524	91.75
289.755	92.75
289.986	91.75
290.217	88.75
290.448	87.75
290.679	101.75
290.91	101.75
291.141	91.75
291.371	81.75
291.602	86.75
291.833	90.75
292.064	78.75
292.295	83.75
292.526	93.75
292.757	89.75
292.987	83.75
293.218	83.75
293.449	85.75
293.68	81.75
293.91	96.75
294.141	75.75
294.372	87.75
294.603	88.75
294.833	98.75
295.064	96.75
295.295	92.75
295.525	94.75
295.756	100.75
295.987	111.75
296.217	108.75
296.448	114.75
296.679	89.75
296.909	77.75
297.14	98.75
297.37	89.75
297.601	88.75
297.831	83.75
298.062	91.75
298.292	99.75
298.523	88.75
298.753	99.75
298.984	93.75
299.214	87.75
299.445	93.75
299.675	87.75
299.905	95.75
300.136	83.75
300.366	82.75
300.597	94.75
300.827	104.75
301.057	112.75
301.288	91.75
301.518	88.75
301.748	94.75
301.979	96.75
302.209	84.75
302.439	78.75
302.669	68.75
302.9	76.75
303.13	92.75
303.36	89.75
303.59	97.75
303.82	107.75
304.051	99.75
304.281	80.75
304.511	91.75
304.741	94.75
304.971	91.75
305.201	79.75
305.431	86.75
305.661	83.75
305.891	105.75
306.121	91.75
306.352	90.75
306.582	82.75
306.812	88.75
307.042	79.75
307.272	95.75
307.502	85.75
307.731	82.75
307.961	88.75
308.191	91.75
308.421	91.75
308.651	95.75
308.881	91.75
309.111	82.75
309.341	89.75
309.571	100.75
309.8	98.75
310.03	97.75
310.26	92.75
310.49	86.75
310.72	96.75
310.949	97.75
311.179	90.75
311.409	91.75
311.639	93.75
311.868	87.75
312.098	84.75
312.328	103.75
312.557	94.75
312.787	93.75
313.017	93.75
313.246	94.75
313.476	102.75
313.706	93.75
313.935	93.75
314.165	82.75
314.394	91.75
314.624	91.75
314.853	88.75
315.083	87.75
315.312	89.75
315.542	101.75
315.771	89.75
316.001	92.75
316.23	92.75
316.46	77.75
316.689	93.75
316.919	85.75
317.148	76.75
317.377	95.75
317.607	106.75
317.836	79.75
318.065	87.75
318.295	89.75
318.524	92.75
318.753	87.75
318.983	76.75
319.212	98.75
319.441	96.75
319.67	107.75
319.9	88.75
320.129	91.75
320.358	89.75
320.587	99.75
320.816	92.75
321.046	88.75
321.275	89.75
321.504	97.75
321.733	79.75
321.962	100.75
322.191	107.75
322.42	105.75
322.649	93.75
322.878	105.75
323.108	99.75
323.337	107.75
323.566	126.75
323.795	142.75
324.024	173.75
324.253	330.75
324.482	659.75
324.71	1307.75
324.939	1693.75
325.168	649.75
325.397	223.75
325.626	139.75
325.855	114.75
326.084	112.75
326.313	121.75
326.542	131.75
326.77	201.75
326.999	382.75
327.228	737.75
327.457	1288.75
327.686	1045.75
327.914	292.75
328.143	169.75
328.372	129.75
328.6	112.75
328.829	105.75
329.058	112.75
329.287	112.75
329.515	109.75
329.744	112.75
329.972	98.75
330.201	107.75
330.43	86.75
330.658	108.75
330.887	129.75
331.115	121.75
331.344	78.75
331.572	99.75
331.801	85.75
332.03	93.75
332.258	101.75
332.486	91.75
332.715	101.75
332.943	109.75
333.172	105.75
333.4	85.75
333.629	103.75
333.857	106.75
334.085	106.75
334.314	105.75
334.542	101.75
334.771	88.75
334.999	100.75
335.227	84.75
335.455	91.75
335.684	90.75
335.912	110.75
336.14	107.75
336.369	116.75
336.597	100.75
336.825	100.75
337.053	95.75
337.281	98.75
337.51	65.75
337.738	96.75
337.966	103.75
338.194	85.75
338.422	89.75
338.65	90.75
338.878	87.75
339.106	91.75
339.334	90.75
339.562	86.75
339.79	91.75
340.018	89.75
340.246	107.75
340.474	104.75
340.702	80.75
340.93	90.75
341.158	100.75
341.386	81.75
341.614	107.75
341.842	107.75
342.07	98.75
342.298	95.75
342.526	93.75
342.754	83.75
342.981	85.75
343.209	88.75
343.437	97.75
343.665	85.75
343.893	85.75
344.12	92.75
344.348	100.75
344.576	87.75
344.804	101.75
345.031	86.75
345.259	96.75
345.487	103.75
345.714	87.75
345.942	96.75
346.17	90.75
346.397	75.75
346.625	90.75
346.853	85.75
347.08	88.75
347.308	91.75
347.535	92.75
347.763	97.75
347.99	88.75
348.218	112.75
348.445	92.75
348.673	105.75
348.9	95.75
349.128	83.75
349.355	88.75
349.583	113.75
349.81	92.75
350.037	100.75
350.265	101.75
350.492	96.75
350.72	92.75
350.947	93.75
351.174	99.75
351.402	90.75
351.629	104.75
351.856	98.75
352.083	107.75
352.311	104.75
352.538	114.75
352.765	111.75
352.992	107.75
353.22	114.75
353.447	99.75
353.674	113.75
353.901	73.75
354.128	80.75
354.355	88.75
354.583	82.75
354.81	111.75
355.037	83.75
355.264	91.75
355.491	101.75
355.718	79.75
355.945	95.75
356.172	87.75
356.399	84.75
356.626	91.75
356.853	94.75
357.08	94.75
357.307	98.75
357.534	87.75
357.761	95.75
357.988	103.75
358.215	96.75
358.441	87.75
358.668	76.75
358.895	76.75
359.122	92.75
359.349	97.75
359.576	88.75
359.802	89.75
360.029	106.75
360.256	100.75
360.483	90.75
360.709	88.75
360.936	90.75
361.163	89.75
361.39	93.75
361.616	104.75
361.843	83.75
362.07	91.75
362.296	90.75
362.523	81.75
362.749	94.75
362.976	92.75
363.203	111.75
363.429	91.75
363.656	91.75
363.882	82.75
364.109	76.75
364.335	101.75
364.562	98.75
364.788	59.75
365.015	97.75
365.241	101.75
365.468	106.75
365.694	86.75
365.92	101.75
366.147	96.75
366.373	93.75
366.599	95.75
366.826	90.75
367.052	72.75
367.278	75.75
367.505	92.75
367.731	92.75
367.957	89.75
368.184	92.75
368.41	93.75
368.636	88.75
368.862	128.75
369.089	100.75
369.315	85.75
369.541	94.75
369.767	91.75
369.993	71.75
370.219	90.75
370.445	75.75
370.672	77.75
370.898	89.75
371.124	84.75
371.35	81.75
371.576	90.75
371.802	88.75
372.028	89.75
372.254	88.75
372.48	77.75
372.706	99.75
372.932	93.75
373.158	92.75
373.384	88.75
373.61	100.75
373.835	77.75
374.061	88.75
374.287	107.75
374.513	76.75
374.739	74.75
374.965	74.75
375.191	90.75
375.416	97.75
375.642	91.75
375.868	102.75
376.094	79.75
376.319	83.75
376.545	79.75
376.771	65.75
376.997	83.75
377.222	84.75
377.448	98.75
377.674	93.75
377.899	85.75
378.125	84.75
378.35	93.75
378.576	69.75
378.802	100.75
379.027	95.75
379.253	101.75
379.478	83.75
379.704	83.75
379.929	78.75
380.155	83.75
380.38	80.75
380.606	92.75
380.831	91.75
381.057	97.75
381.282	94.75
381.507	92.75
381.733	106.75
381.958	95.75
382.184	81.75
382.409	106.75
382.634	92.75
382.86	89.75
383.085	103.75
383.31	91.75
383.535	101.75
383.761	96.75
383.986	99.75
384.211	88.75
384.436	97.75
384.662	104.75
384.887	94.75
385.112	81.75
385.337	110.75
385.562	99.75
385.787	99.75
386.013	110.75
386.238	113.75
386.463	103.75
386.688	105.75
386.913	92.75
387.138	90.75
387.363	110.75
387.588	95.75
387.813	99.75
388.038	103.75
388.263	106.75
388.488	98.75
388.713	99.75
388.938	84.75
389.163	93.75
389.387	84.75
389.612	95.75
389.837	95.75
390.062	88.75
390.287	99.75
390.512	110.75
390.736	98.75
390.961	103.75
391.186	99.75
391.411	101.75
391.636	101.75
391.86	80.75
392.085	80.75
392.31	59.75
392.534	91.75
392.759	85.75
392.984	92.75
393.208	85.75
393.433	89.75
393.658	75.75
393.882	94.75
394.107	73.75
394.331	83.75
394.556	80.75
394.78	77.75
395.005	88.75
395.229	80.75
395.454	100.75
395.678	94.75
395.903	88.75
396.127	80.75
396.352	77.75
396.576	87.75
396.801	85.75
397.025	81.75
397.249	89.75
397.474	102.75
397.698	88.75
397.922	94.75
398.147	78.75
398.371	72.75
398.595	100.75
398.82	84.75
399.044	82.75
399.268	88.75
399.492	83.75
399.717	92.75
399.941	87.75
400.165	95.75
400.389	92.75
400.613	77.75
400.837	84.75
401.062	84.75
401.286	90.75
401.51	107.75
401.734	67.75
401.958	87.75
402.182	126.75
402.406	148.75
402.63	101.75
402.854	93.75
403.078	103.75
403.302	82.75
403.526	84.75
403.75	88.75
403.974	79.75
404.198	88.75
404.422	69.75
404.645	77.75
404.869	74.75
405.093	93.75
405.317	95.75
405.541	95.75
405.765	98.75
405.988	108.75
406.212	151.75
406.436	193.75
406.66	132.75
406.883	101.75
407.107	98.75
407.331	93.75
407.555	91.75
407.778	93.75
408.002	92.75
408.226	77.75
408.449	80.75
408.673	84.75
408.896	89.75
409.12	107.75
409.344	93.75
409.567	90.75
409.791	80.75
410.014	78.75
410.238	91.75
410.461	87.75
410.685	100.75
410.908	108.75
411.132	112.75
411.355	96.75
411.578	82.75
411.802	84.75
412.025	85.75
412.249	86.75
412.472	91.75
412.695	99.75
412.919	88.75
413.142	85.75
413.365	87.75
413.589	84.75
413.812	88.75
414.035	76.75
414.258	88.75
414.482	91.75
414.705	103.75
414.928	81.75
415.151	94.75
415.374	94.75
415.597	87.75
415.821	87.75
416.044	92.75
416.267	83.75
416.49	76.75
416.713	84.75
416.936	97.75
417.159	79.75
417.382	84.75
417.605	86.75
417.828	95.75
418.051	87.75
418.274	82.75
418.497	85.75
418.72	90.75
418.943	87.75
419.166	68.75
419.389	102.75
419.611	77.75
419.834	83.75
420.057	105.75
420.28	86.75
420.503	100.75
420.726	93.75
420.948	93.75
421.171	96.75
421.394	91.75
421.617	90.75
421.839	82.75
422.062	89.75
422.285	82.75
422.507	112.75
422.73	114.75
422.953	104.75
423.175	79.75
423.398	95.75
423.621	93.75
423.843	93.75
424.066	95.75
424.288	77.75
424.511	84.75
424.733	114.75
424.956	102.75
425.178	95.75
425.401	93.75
425.623	104.75
425.846	84.75
426.068	90.75
426.291	88.75
426.513	97.75
426.735	89.75
426.958	94.75
427.18	98.75
427.402	133.75
427.625	129.75
427.847	105.75
428.069	100.75
428.292	89.75
428.514	85.75
428.736	78.75
428.958	83.75
429.181	92.75
429.403	88.75
429.625	99.75
429.847	98.75
430.069	96.75
430.292	99.75
430.514	77.75
430.736	71.75
430.958	82.75
431.18	74.75
431.402	85.75
431.624	82.75
431.846	93.75
432.068	84.75
432.29	84.75
432.512	83.75
432.734	88.75
432.956	74.75
433.178	86.75
433.4	93.75
433.622	89.75
433.844	103.75
434.066	93.75
434.287	89.75
434.509	80.75
434.731	94.75
434.953	92.75
435.175	95.75
435.397	106.75
435.618	89.75
435.84	91.75
436.062	109.75
436.284	109.75
436.505	99.75
436.727	99.75
436.949	90.75
437.17	82.75
437.392	79.75
437.614	79.75
437.835	87.75
438.057	101.75
438.278	106.75
438.5	88.75
438.721	108.75
438.943	107.75
439.165	96.75
439.386	96.75
439.608	81.75
439.829	95.75
440.05	118.75
440.272	125.75
440.493	84.75
440.715	92.75
440.936	83.75
441.158	75.75
441.379	77.75
441.6	88.75
441.822	90.75
442.043	92.75
442.264	107.75
442.486	82.75
442.707	85.75
442.928	92.75
443.149	108.75
443.371	114.75
443.592	104.75
443.813	93.75
444.034	100.75
444.255	93.75
444.476	80.75
444.698	85.75
444.919	96.75
445.14	114.75
445.361	110.75
445.582	108.75
445.803	115.75
446.024	127.75
446.245	120.75
446.466	103.75
446.687	99.75
446.908	83.75
447.129	85.75
447.35	85.75
447.571	81.75
447.792	83.75
448.013	101.75
448.234	95.75
448.455	95.75
448.675	97.75
448.896	115.75
449.117	106.75
449.338	104.75
449.559	119.75
449.779	123.75
450	90.75
450.221	88.75
450.442	101.75
450.662	85.75
450.883	103.75
451.104	96.75
451.324	95.75
451.545	84.75
451.766	82.75
451.986	82.75
452.207	98.75
452.428	97.75
452.648	99.75
452.869	113.75
453.089	112.75
453.31	117.75
453.53	100.75
453.751	92.75
453.971	99.75
454.192	90.75
454.412	88.75
454.633	87.75
454.853	69.75
455.073	76.75
455.294	85.75
455.514	110.75
455.734	102.75
455.955	88.75
456.175	93.75
456.395	98.75
456.616	77.75
456.836	92.75
457.056	83.75
457.276	94.75
457.497	88.75
457.717	94.75
457.937	80.75
458.157	81.75
458.377	91.75
458.598	81.75
458.818	127.75
459.038	132.75
459.258	90.75
459.478	81.75
459.698	88.75
459.918	105.75
460.138	92.75
460.358	82.75
460.578	85.75
460.798	96.75
461.018	90.75
461.238	101.75
461.458	77.75
461.678	89.75
461.898	91.75
462.118	76.75
462.338	88.75
462.558	85.75
462.777	90.75
462.997	85.75
463.217	79.75
463.437	106.75
463.657	95.75
463.876	88.75
464.096	90.75
464.316	90.75
464.536	76.75
464.755	98.75
464.975	103.75
465.195	140.75
465.414	123.75
465.634	100.75
465.854	80.75
466.073	74.75
466.293	83.75
466.512	113.75
466.732	81.75
466.951	86.75
467.171	97.75
467.391	106.75
467.61	84.75
467.829	87.75
468.049	92.75
468.268	78.75
468.488	83.75
468.707	86.75
468.927	87.75
469.146	87.75
469.365	69.75
469.585	95.75
469.804	91.75
470.023	81.75
470.243	88.75
470.462	93.75
470.681	99.75
470.901	85.75
471.12	84.75
471.339	80.75
471.558	83.75
471.777	97.75
471.997	79.75
472.216	79.75
472.435	108.75
472.654	83.75
472.873	92.75
473.092	100.75
473.311	83.75
473.53	84.75
473.749	87.75
473.968	101.75
474.187	108.75
474.406	100.75
474.625	75.75
474.844	98.75
475.063	83.75
475.282	91.75
475.501	90.75
475.72	92.75
475.939	96.75
476.158	91.75
476.377	80.75
476.596	75.75
476.814	103.75
477.033	83.75
477.252	94.75
477.471	83.75
477.69	78.75
477.908	75.75
478.127	96.75
478.346	81.75
478.564	107.75
478.783	103.75
479.002	105.75
479.22	91.75
479.439	94.75
479.658	100.75
479.876	89.75
480.095	91.75
480.313	84.75
480.532	92.75
480.751	89.75
480.969	99.75
481.188	101.75
481.406	99.75
481.624	87.75
481.843	95.75
482.061	99.75
482.28	94.75
482.498	90.75
482.717	96.75
482.935	99.75
483.153	96.75
483.372	89.75
483.59	101.75
483.808	88.75
484.027	93.75
484.245	109.75
484.463	94.75
484.681	92.75
484.9	87.75
485.118	88.75
485.336	88.75
485.554	96.75
485.772	81.75
485.99	96.75
486.209	107.75
486.427	112.75
486.645	118.75
486.863	97.75
487.081	103.75
487.299	84.75
487.517	99.75
487.735	105.75
487.953	86.75
488.171	96.75
488.389	96.75
488.607	91.75
488.825	91.75
489.043	102.75
489.261	89.75
489.479	91.75
489.696	74.75
489.914	92.75
490.132	91.75
490.35	95.75
490.568	93.75
490.786	81.75
491.003	93.75
491.221	84.75
491.439	100.75
491.657	89.75
491.874	98.75
492.092	88.75
492.31	87.75
492.527	79.75
492.745	92.75
492.963	75.75
493.18	73.75
493.398	91.75
493.615	98.75
493.833	97.75
494.05	94.75
494.268	97.75
494.485	92.75
494.703	87.75
494.92	92.75
495.138	83.75
495.355	83.75
495.573	97.75
495.79	77.75
496.008	84.75
496.225	95.75
496.442	90.75
496.66	95.75
496.877	103.75
497.094	84.75
497.312	77.75
497.529	81.75
497.746	105.75
497.963	106.75
498.181	94.75
498.398	87.75
498.615	87.75
498.832	106.75
499.049	92.75
499.267	88.75
499.484	112.75
499.701	91.75
499.918	87.75
500.135	85.75
500.352	99.75
500.569	95.75
500.786	91.75
501.003	83.75
501.22	92.75
501.437	99.75
501.654	91.75
501.871	100.75
502.088	95.75
502.305	77.75
502.522	83.75
502.739	94.75
502.956	104.75
503.172	93.75
503.389	93.75
503.606	112.75
503.823	85.75
504.04	85.75
504.256	100.75
504.473	99.75
504.69	80.75
504.907	87.75
505.123	93.75
505.34	68.75
505.557	92.75
505.773	89.75
505.99	83.75
506.207	84.75
506.423	89.75
506.64	106.75
506.856	85.75
507.073	89.75
507.289	92.75
507.506	89.75
507.722	102.75
507.939	98.75
508.155	96.75
508.372	101.75
508.588	96.75
508.805	96.75
509.021	96.75
509.238	109.75
509.454	103.75
509.67	107.75
509.887	98.75
510.103	123.75
510.319	205.75
510.536	683.75
510.752	2055.75
510.968	572.75
511.184	159.75
511.401	103.75
511.617	98.75
511.833	89.75
512.049	96.75
512.265	89.75
512.481	87.75
512.698	93.75
512.914	99.75
513.13	96.75
513.346	99.75
513.562	91.75
513.778	99.75
513.994	108.75
514.21	93.75
514.426	120.75
514.642	114.75
514.858	112.75
515.074	131.75
515.29	397.75
515.506	1223.75
515.721	444.75
515.937	153.75
516.153	99.75
516.369	90.75
