Data from Uncirc_1993_H10_HRD10591_00066.txt Node
Date: Wed Jan 03 11:43:05 EST 2024
User: Yrep
Spectrometer: HR+D1059
Trigger mode: 1
Integration Time (sec): 1.000000E-1
Scans to average: 1
Electric dark correction enabled: true
Nonlinearity correction enabled: false
Boxcar width: 0
XAxis mode: Wavelengths
Number of Pixels in Spectrum: 2048
>>>>>Begin Spectral Data<<<<<
223.165	-21.75
223.4	-21.75
223.635	-21.75
223.869	-21.75
224.104	-22.75
224.338	-9.75
224.573	-5.75
224.808	-0.75
225.042	-1.75
225.277	-13.75
225.511	-8.75
225.746	2.25
225.98	17.25
226.215	5.25
226.449	14.25
226.683	14.25
226.918	17.25
227.152	36.25
227.387	25.25
227.621	34.25
227.856	37.25
228.09	42.25
228.324	52.25
228.559	59.25
228.793	50.25
229.027	76.25
229.262	70.25
229.496	53.25
229.73	86.25
229.964	75.25
230.199	67.25
230.433	78.25
230.667	72.25
230.901	81.25
231.136	89.25
231.37	86.25
231.604	76.25
231.838	64.25
232.072	82.25
232.306	85.25
232.541	78.25
232.775	81.25
233.009	72.25
233.243	86.25
233.477	84.25
233.711	67.25
233.945	78.25
234.179	90.25
234.413	83.25
234.647	72.25
234.881	84.25
235.115	93.25
235.349	82.25
235.583	81.25
235.817	82.25
236.051	78.25
236.285	82.25
236.519	75.25
236.753	73.25
236.987	80.25
237.221	76.25
237.455	77.25
237.689	78.25
237.922	70.25
238.156	64.25
238.39	83.25
238.624	68.25
238.858	90.25
239.091	93.25
239.325	84.25
239.559	70.25
239.793	80.25
240.027	70.25
240.26	89.25
240.494	75.25
240.728	75.25
240.961	89.25
241.195	75.25
241.429	80.25
241.662	65.25
241.896	68.25
242.13	71.25
242.363	60.25
242.597	63.25
242.83	77.25
243.064	72.25
243.298	76.25
243.531	89.25
243.765	65.25
243.998	72.25
244.232	78.25
244.465	74.25
244.699	88.25
244.932	84.25
245.166	83.25
245.399	83.25
245.633	76.25
245.866	90.25
246.099	81.25
246.333	78.25
246.566	70.25
246.8	74.25
247.033	80.25
247.266	68.25
247.5	76.25
247.733	79.25
247.966	73.25
248.2	62.25
248.433	68.25
248.666	64.25
248.899	91.25
249.133	83.25
249.366	96.25
249.599	94.25
249.832	76.25
250.066	72.25
250.299	91.25
250.532	72.25
250.765	79.25
250.998	64.25
251.231	98.25
251.465	84.25
251.698	77.25
251.931	87.25
252.164	85.25
252.397	80.25
252.63	88.25
252.863	84.25
253.096	76.25
253.329	90.25
253.562	84.25
253.795	88.25
254.028	79.25
254.261	105.25
254.494	90.25
254.727	91.25
254.96	75.25
255.193	84.25
255.426	70.25
255.659	87.25
255.892	80.25
256.124	58.25
256.357	94.25
256.59	92.25
256.823	96.25
257.056	78.25
257.289	100.25
257.521	73.25
257.754	83.25
257.987	85.25
258.22	89.25
258.452	82.25
258.685	81.25
258.918	66.25
259.151	78.25
259.383	88.25
259.616	69.25
259.849	70.25
260.081	86.25
260.314	88.25
260.547	78.25
260.779	82.25
261.012	78.25
261.244	97.25
261.477	90.25
261.71	84.25
261.942	95.25
262.175	94.25
262.407	100.25
262.64	92.25
262.872	92.25
263.105	82.25
263.337	95.25
263.57	80.25
263.802	85.25
264.035	81.25
264.267	63.25
264.499	84.25
264.732	76.25
264.964	76.25
265.197	81.25
265.429	77.25
265.661	79.25
265.894	90.25
266.126	88.25
266.358	78.25
266.591	82.25
266.823	78.25
267.055	81.25
267.287	68.25
267.52	79.25
267.752	74.25
267.984	92.25
268.216	91.25
268.448	73.25
268.681	84.25
268.913	84.25
269.145	84.25
269.377	75.25
269.609	76.25
269.841	75.25
270.073	88.25
270.306	91.25
270.538	95.25
270.77	84.25
271.002	90.25
271.234	92.25
271.466	83.25
271.698	69.25
271.93	91.25
272.162	91.25
272.394	80.25
272.626	89.25
272.858	91.25
273.09	89.25
273.322	96.25
273.553	81.25
273.785	77.25
274.017	86.25
274.249	94.25
274.481	80.25
274.713	92.25
274.945	84.25
275.176	73.25
275.408	83.25
275.64	93.25
275.872	93.25
276.104	93.25
276.335	89.25
276.567	104.25
276.799	96.25
277.031	100.25
277.262	74.25
277.494	92.25
277.726	85.25
277.957	79.25
278.189	80.25
278.421	85.25
278.652	93.25
278.884	93.25
279.115	81.25
279.347	87.25
279.579	66.25
279.81	82.25
280.042	83.25
280.273	82.25
280.505	81.25
280.736	75.25
280.968	91.25
281.199	84.25
281.431	95.25
281.662	92.25
281.894	77.25
282.125	97.25
282.356	109.25
282.588	125.25
282.819	106.25
283.051	85.25
283.282	84.25
283.513	91.25
283.745	85.25
283.976	79.25
284.207	82.25
284.439	93.25
284.67	91.25
284.901	86.25
285.132	81.25
285.364	81.25
285.595	80.25
285.826	86.25
286.057	94.25
286.288	96.25
286.52	93.25
286.751	90.25
286.982	83.25
287.213	81.25
287.444	76.25
287.675	77.25
287.906	88.25
288.138	86.25
288.369	84.25
288.6	93.25
288.831	84.25
289.062	104.25
289.293	86.25
289.524	90.25
289.755	91.25
289.986	90.25
290.217	94.25
290.448	80.25
290.679	75.25
290.91	85.25
291.141	91.25
291.371	82.25
291.602	92.25
291.833	69.25
292.064	89.25
292.295	87.25
292.526	86.25
292.757	94.25
292.987	90.25
293.218	87.25
293.449	108.25
293.68	95.25
293.91	86.25
294.141	92.25
294.372	82.25
294.603	72.25
294.833	82.25
295.064	93.25
295.295	80.25
295.525	100.25
295.756	111.25
295.987	114.25
296.217	121.25
296.448	106.25
296.679	89.25
296.909	99.25
297.14	90.25
297.37	68.25
297.601	76.25
297.831	92.25
298.062	82.25
298.292	94.25
298.523	97.25
298.753	73.25
298.984	82.25
299.214	86.25
299.445	96.25
299.675	72.25
299.905	92.25
300.136	94.25
300.366	100.25
300.597	93.25
300.827	91.25
301.057	87.25
301.288	98.25
301.518	92.25
301.748	95.25
301.979	105.25
302.209	84.25
302.439	74.25
302.669	93.25
302.9	94.25
303.13	75.25
303.36	89.25
303.59	102.25
303.82	92.25
304.051	96.25
304.281	87.25
304.511	86.25
304.741	88.25
304.971	89.25
305.201	105.25
305.431	99.25
305.661	88.25
305.891	91.25
306.121	97.25
306.352	94.25
306.582	101.25
306.812	92.25
307.042	90.25
307.272	98.25
307.502	90.25
307.731	97.25
307.961	74.25
308.191	102.25
308.421	98.25
308.651	90.25
308.881	92.25
309.111	103.25
309.341	101.25
309.571	105.25
309.8	102.25
310.03	99.25
310.26	97.25
310.49	92.25
310.72	89.25
310.949	86.25
311.179	84.25
311.409	104.25
311.639	99.25
311.868	92.25
312.098	93.25
312.328	86.25
312.557	90.25
312.787	87.25
313.017	108.25
313.246	102.25
313.476	83.25
313.706	84.25
313.935	83.25
314.165	88.25
314.394	92.25
314.624	103.25
314.853	89.25
315.083	101.25
315.312	95.25
315.542	90.25
315.771	91.25
316.001	81.25
316.23	99.25
316.46	98.25
316.689	82.25
316.919	86.25
317.148	85.25
317.377	95.25
317.607	93.25
317.836	75.25
318.065	92.25
318.295	88.25
318.524	106.25
318.753	94.25
318.983	80.25
319.212	102.25
319.441	109.25
319.67	98.25
319.9	86.25
320.129	107.25
320.358	110.25
320.587	97.25
320.816	100.25
321.046	93.25
321.275	106.25
321.504	88.25
321.733	107.25
321.962	102.25
322.191	104.25
322.42	96.25
322.649	105.25
322.878	107.25
323.108	102.25
323.337	98.25
323.566	114.25
323.795	148.25
324.024	178.25
324.253	330.25
324.482	674.25
324.71	1292.25
324.939	1687.25
325.168	613.25
325.397	213.25
325.626	139.25
325.855	136.25
326.084	124.25
326.313	136.25
326.542	138.25
326.77	188.25
326.999	364.25
327.228	730.25
327.457	1306.25
327.686	1027.25
327.914	320.25
328.143	168.25
328.372	134.25
328.6	106.25
328.829	108.25
329.058	117.25
329.287	117.25
329.515	92.25
329.744	99.25
329.972	92.25
330.201	110.25
330.43	110.25
330.658	120.25
330.887	110.25
331.115	114.25
331.344	85.25
331.572	110.25
331.801	99.25
332.03	93.25
332.258	91.25
332.486	94.25
332.715	105.25
332.943	86.25
333.172	89.25
333.4	89.25
333.629	109.25
333.857	98.25
334.085	92.25
334.314	100.25
334.542	90.25
334.771	98.25
334.999	106.25
335.227	82.25
335.455	100.25
335.684	97.25
335.912	93.25
336.14	105.25
336.369	82.25
336.597	98.25
336.825	98.25
337.053	91.25
337.281	72.25
337.51	101.25
337.738	97.25
337.966	98.25
338.194	83.25
338.422	92.25
338.65	88.25
338.878	80.25
339.106	79.25
339.334	94.25
339.562	88.25
339.79	83.25
340.018	93.25
340.246	93.25
340.474	95.25
340.702	82.25
340.93	97.25
341.158	78.25
341.386	93.25
341.614	95.25
341.842	100.25
342.07	94.25
342.298	79.25
342.526	93.25
342.754	97.25
342.981	93.25
343.209	89.25
343.437	105.25
343.665	106.25
343.893	87.25
344.12	97.25
344.348	100.25
344.576	90.25
344.804	90.25
345.031	91.25
345.259	81.25
345.487	96.25
345.714	102.25
345.942	90.25
346.17	80.25
346.397	83.25
346.625	94.25
346.853	102.25
347.08	78.25
347.308	96.25
347.535	96.25
347.763	94.25
347.99	95.25
348.218	98.25
348.445	87.25
348.673	97.25
348.9	95.25
349.128	83.25
349.355	94.25
349.583	88.25
349.81	88.25
350.037	111.25
350.265	76.25
350.492	85.25
350.72	93.25
350.947	102.25
351.174	95.25
351.402	111.25
351.629	103.25
351.856	89.25
352.083	90.25
352.311	118.25
352.538	104.25
352.765	106.25
352.992	113.25
353.22	108.25
353.447	94.25
353.674	105.25
353.901	77.25
354.128	98.25
354.355	101.25
354.583	93.25
354.81	89.25
355.037	104.25
355.264	92.25
355.491	91.25
355.718	88.25
355.945	89.25
356.172	102.25
356.399	99.25
356.626	99.25
356.853	87.25
357.08	86.25
357.307	88.25
357.534	97.25
357.761	97.25
357.988	94.25
358.215	104.25
358.441	82.25
358.668	91.25
358.895	94.25
359.122	98.25
359.349	97.25
359.576	90.25
359.802	104.25
360.029	96.25
360.256	102.25
360.483	101.25
360.709	86.25
360.936	78.25
361.163	80.25
361.39	78.25
361.616	108.25
361.843	98.25
362.07	96.25
362.296	95.25
362.523	88.25
362.749	86.25
362.976	80.25
363.203	102.25
363.429	82.25
363.656	81.25
363.882	97.25
364.109	88.25
364.335	88.25
364.562	90.25
364.788	103.25
365.015	84.25
365.241	91.25
365.468	99.25
365.694	114.25
365.92	96.25
366.147	83.25
366.373	93.25
366.599	86.25
366.826	94.25
367.052	90.25
367.278	106.25
367.505	93.25
367.731	81.25
367.957	102.25
368.184	91.25
368.41	93.25
368.636	97.25
368.862	109.25
369.089	98.25
369.315	91.25
369.541	89.25
369.767	67.25
369.993	86.25
370.219	99.25
370.445	85.25
370.672	96.25
370.898	92.25
371.124	101.25
371.35	89.25
371.576	95.25
371.802	98.25
372.028	97.25
372.254	81.25
372.48	75.25
372.706	86.25
372.932	86.25
373.158	93.25
373.384	81.25
373.61	76.25
373.835	92.25
374.061	93.25
374.287	89.25
374.513	97.25
374.739	94.25
374.965	88.25
375.191	92.25
375.416	83.25
375.642	98.25
375.868	95.25
376.094	82.25
376.319	92.25
376.545	85.25
376.771	78.25
376.997	82.25
377.222	87.25
377.448	97.25
377.674	93.25
377.899	84.25
378.125	79.25
378.35	97.25
378.576	85.25
378.802	93.25
379.027	85.25
379.253	98.25
379.478	83.25
379.704	98.25
379.929	100.25
380.155	89.25
380.38	96.25
380.606	94.25
380.831	95.25
381.057	72.25
381.282	98.25
381.507	97.25
381.733	97.25
381.958	73.25
382.184	95.25
382.409	97.25
382.634	86.25
382.86	99.25
383.085	104.25
383.31	110.25
383.535	103.25
383.761	86.25
383.986	102.25
384.211	112.25
384.436	96.25
384.662	89.25
384.887	98.25
385.112	92.25
385.337	102.25
385.562	109.25
385.787	102.25
386.013	104.25
386.238	110.25
386.463	99.25
386.688	104.25
386.913	105.25
387.138	111.25
387.363	88.25
387.588	84.25
387.813	110.25
388.038	98.25
388.263	104.25
388.488	107.25
388.713	87.25
388.938	94.25
389.163	101.25
389.387	106.25
389.612	96.25
389.837	98.25
390.062	106.25
390.287	104.25
390.512	102.25
390.736	95.25
390.961	97.25
391.186	103.25
391.411	94.25
391.636	90.25
391.86	86.25
392.085	76.25
392.31	79.25
392.534	82.25
392.759	93.25
392.984	104.25
393.208	84.25
393.433	100.25
393.658	77.25
393.882	78.25
394.107	86.25
394.331	94.25
394.556	93.25
394.78	86.25
395.005	100.25
395.229	104.25
395.454	109.25
395.678	90.25
395.903	83.25
396.127	96.25
396.352	94.25
396.576	96.25
396.801	76.25
397.025	95.25
397.249	89.25
397.474	88.25
397.698	81.25
397.922	95.25
398.147	82.25
398.371	74.25
398.595	90.25
398.82	70.25
399.044	84.25
399.268	93.25
399.492	92.25
399.717	83.25
399.941	102.25
400.165	89.25
400.389	87.25
400.613	86.25
400.837	100.25
401.062	82.25
401.286	68.25
401.51	96.25
401.734	100.25
401.958	100.25
402.182	133.25
402.406	137.25
402.63	91.25
402.854	85.25
403.078	91.25
403.302	89.25
403.526	95.25
403.75	84.25
403.974	76.25
404.198	88.25
404.422	100.25
404.645	78.25
404.869	97.25
405.093	80.25
405.317	106.25
405.541	95.25
405.765	91.25
405.988	115.25
406.212	167.25
406.436	206.25
406.66	127.25
406.883	83.25
407.107	83.25
407.331	100.25
407.555	97.25
407.778	84.25
408.002	90.25
408.226	91.25
408.449	91.25
408.673	94.25
408.896	107.25
409.12	91.25
409.344	94.25
409.567	74.25
409.791	95.25
410.014	83.25
410.238	102.25
410.461	86.25
410.685	87.25
410.908	95.25
411.132	110.25
411.355	101.25
411.578	75.25
411.802	91.25
412.025	86.25
412.249	91.25
412.472	89.25
412.695	94.25
412.919	96.25
413.142	84.25
413.365	95.25
413.589	71.25
413.812	91.25
414.035	92.25
414.258	87.25
414.482	81.25
414.705	85.25
414.928	93.25
415.151	89.25
415.374	86.25
415.597	83.25
415.821	80.25
416.044	100.25
416.267	88.25
416.49	82.25
416.713	93.25
416.936	90.25
417.159	88.25
417.382	73.25
417.605	81.25
417.828	96.25
418.051	98.25
418.274	81.25
418.497	77.25
418.72	95.25
418.943	94.25
419.166	94.25
419.389	97.25
419.611	86.25
419.834	92.25
420.057	89.25
420.28	90.25
420.503	97.25
420.726	70.25
420.948	92.25
421.171	106.25
421.394	92.25
421.617	82.25
421.839	102.25
422.062	93.25
422.285	92.25
422.507	97.25
422.73	91.25
422.953	85.25
423.175	82.25
423.398	93.25
423.621	86.25
423.843	95.25
424.066	93.25
424.288	83.25
424.511	92.25
424.733	110.25
424.956	90.25
425.178	95.25
425.401	94.25
425.623	81.25
425.846	87.25
426.068	83.25
426.291	82.25
426.513	83.25
426.735	84.25
426.958	87.25
427.18	96.25
427.402	112.25
427.625	154.25
427.847	106.25
428.069	113.25
428.292	91.25
428.514	81.25
428.736	96.25
428.958	87.25
429.181	80.25
429.403	91.25
429.625	85.25
429.847	84.25
430.069	105.25
430.292	89.25
430.514	84.25
430.736	76.25
430.958	86.25
431.18	82.25
431.402	77.25
431.624	67.25
431.846	82.25
432.068	109.25
432.29	80.25
432.512	90.25
432.734	84.25
432.956	88.25
433.178	98.25
433.4	93.25
433.622	85.25
433.844	82.25
434.066	96.25
434.287	87.25
434.509	104.25
434.731	118.25
434.953	93.25
435.175	82.25
435.397	90.25
435.618	89.25
435.84	98.25
436.062	100.25
436.284	111.25
436.505	97.25
436.727	109.25
436.949	87.25
437.17	69.25
437.392	86.25
437.614	93.25
437.835	94.25
438.057	118.25
438.278	107.25
438.5	107.25
438.721	110.25
438.943	95.25
439.165	77.25
439.386	91.25
439.608	83.25
439.829	89.25
440.05	112.25
440.272	125.25
440.493	86.25
440.715	81.25
440.936	100.25
441.158	82.25
441.379	97.25
441.6	83.25
441.822	94.25
442.043	79.25
442.264	98.25
442.486	105.25
442.707	85.25
442.928	102.25
443.149	107.25
443.371	116.25
443.592	98.25
443.813	112.25
444.034	104.25
444.255	88.25
444.476	84.25
444.698	89.25
444.919	80.25
445.14	125.25
445.361	115.25
445.582	116.25
445.803	128.25
446.024	118.25
446.245	118.25
446.466	114.25
446.687	88.25
446.908	85.25
447.129	94.25
447.35	83.25
447.571	95.25
447.792	109.25
448.013	93.25
448.234	100.25
448.455	90.25
448.675	112.25
448.896	113.25
449.117	103.25
449.338	108.25
449.559	112.25
449.779	125.25
450	78.25
450.221	90.25
450.442	85.25
450.662	99.25
450.883	102.25
451.104	110.25
451.324	89.25
451.545	86.25
451.766	94.25
451.986	81.25
452.207	96.25
452.428	92.25
452.648	77.25
452.869	94.25
453.089	101.25
453.31	99.25
453.53	103.25
453.751	85.25
453.971	83.25
454.192	108.25
454.412	98.25
454.633	90.25
454.853	99.25
455.073	91.25
455.294	98.25
455.514	94.25
455.734	93.25
455.955	93.25
456.175	96.25
456.395	72.25
456.616	75.25
456.836	85.25
457.056	91.25
457.276	86.25
457.497	100.25
457.717	85.25
457.937	91.25
458.157	88.25
458.377	82.25
458.598	97.25
458.818	133.25
459.038	133.25
459.258	93.25
459.478	96.25
459.698	94.25
459.918	74.25
460.138	79.25
460.358	97.25
460.578	68.25
460.798	99.25
461.018	107.25
461.238	95.25
461.458	94.25
461.678	97.25
461.898	75.25
462.118	91.25
462.338	86.25
462.558	92.25
462.777	76.25
462.997	83.25
463.217	92.25
463.437	93.25
463.657	96.25
463.876	98.25
464.096	79.25
464.316	89.25
464.536	97.25
464.755	90.25
464.975	99.25
465.195	154.25
465.414	142.25
465.634	100.25
465.854	85.25
466.073	95.25
466.293	75.25
466.512	90.25
466.732	78.25
466.951	99.25
467.171	93.25
467.391	78.25
467.61	92.25
467.829	94.25
468.049	83.25
468.268	94.25
468.488	74.25
468.707	96.25
468.927	76.25
469.146	91.25
469.365	88.25
469.585	101.25
469.804	92.25
470.023	85.25
470.243	104.25
470.462	106.25
470.681	111.25
470.901	74.25
471.12	97.25
471.339	76.25
471.558	93.25
471.777	86.25
471.997	87.25
472.216	81.25
472.435	99.25
472.654	80.25
472.873	98.25
473.092	76.25
473.311	69.25
473.53	71.25
473.749	77.25
473.968	96.25
474.187	92.25
474.406	94.25
474.625	90.25
474.844	72.25
475.063	100.25
475.282	92.25
475.501	77.25
475.72	80.25
475.939	73.25
476.158	79.25
476.377	96.25
476.596	96.25
476.814	89.25
477.033	77.25
477.252	86.25
477.471	89.25
477.69	77.25
477.908	71.25
478.127	90.25
478.346	92.25
478.564	89.25
478.783	102.25
479.002	82.25
479.22	89.25
479.439	94.25
479.658	105.25
479.876	86.25
480.095	81.25
480.313	89.25
480.532	85.25
480.751	82.25
480.969	90.25
481.188	104.25
481.406	93.25
481.624	89.25
481.843	92.25
482.061	84.25
482.28	88.25
482.498	95.25
482.717	92.25
482.935	88.25
483.153	96.25
483.372	84.25
483.59	90.25
483.808	86.25
484.027	79.25
484.245	97.25
484.463	92.25
484.681	82.25
484.9	96.25
485.118	99.25
485.336	89.25
485.554	103.25
485.772	107.25
485.99	95.25
486.209	99.25
486.427	102.25
486.645	102.25
486.863	114.25
487.081	97.25
487.299	106.25
487.517	97.25
487.735	85.25
487.953	90.25
488.171	98.25
488.389	107.25
488.607	104.25
488.825	82.25
489.043	93.25
489.261	90.25
489.479	86.25
489.696	84.25
489.914	92.25
490.132	93.25
490.35	108.25
490.568	88.25
490.786	98.25
491.003	88.25
491.221	84.25
491.439	84.25
491.657	80.25
491.874	82.25
492.092	89.25
492.31	108.25
492.527	96.25
492.745	92.25
492.963	76.25
493.18	96.25
493.398	78.25
493.615	84.25
493.833	111.25
494.05	85.25
494.268	91.25
494.485	98.25
494.703	86.25
494.92	76.25
495.138	88.25
495.355	85.25
495.573	85.25
495.79	104.25
496.008	84.25
496.225	88.25
496.442	82.25
496.66	88.25
496.877	92.25
497.094	103.25
497.312	74.25
497.529	88.25
497.746	84.25
497.963	81.25
498.181	95.25
498.398	99.25
498.615	101.25
498.832	93.25
499.049	85.25
499.267	86.25
499.484	98.25
499.701	93.25
499.918	80.25
500.135	93.25
500.352	85.25
500.569	89.25
500.786	96.25
501.003	84.25
501.22	96.25
501.437	78.25
501.654	95.25
501.871	110.25
502.088	96.25
502.305	88.25
502.522	84.25
502.739	97.25
502.956	87.25
503.172	94.25
503.389	93.25
503.606	96.25
503.823	92.25
504.04	98.25
504.256	81.25
504.473	80.25
504.69	83.25
504.907	75.25
505.123	85.25
505.34	95.25
505.557	86.25
505.773	81.25
505.99	101.25
506.207	93.25
506.423	82.25
506.64	108.25
506.856	82.25
507.073	89.25
507.289	98.25
507.506	99.25
507.722	105.25
507.939	87.25
508.155	97.25
508.372	78.25
508.588	84.25
508.805	85.25
509.021	84.25
509.238	103.25
509.454	98.25
509.67	90.25
509.887	96.25
510.103	120.25
510.319	193.25
510.536	653.25
510.752	1984.25
510.968	544.25
511.184	140.25
511.401	112.25
511.617	96.25
511.833	94.25
512.049	98.25
512.265	97.25
512.481	81.25
512.698	94.25
512.914	88.25
513.13	100.25
513.346	94.25
513.562	93.25
513.778	103.25
513.994	92.25
514.21	111.25
514.426	115.25
514.642	108.25
514.858	112.25
515.074	154.25
515.29	392.25
515.506	1177.25
515.721	424.25
515.937	125.25
516.153	113.25
516.369	101.25
