Data from Uncirc_1993_H10_HRD10591_00054.txt Node
Date: Wed Jan 03 11:43:03 EST 2024
User: Yrep
Spectrometer: HR+D1059
Trigger mode: 1
Integration Time (sec): 1.000000E-1
Scans to average: 1
Electric dark correction enabled: true
Nonlinearity correction enabled: false
Boxcar width: 0
XAxis mode: Wavelengths
Number of Pixels in Spectrum: 2048
>>>>>Begin Spectral Data<<<<<
223.165	-19.62
223.4	-19.62
223.635	-19.62
223.869	-10.62
224.104	-24.62
224.338	-25.62
224.573	-7.62
224.808	-16.62
225.042	-12.62
225.277	-9.62
225.511	4.38
225.746	7.38
225.98	17.38
226.215	1.38
226.449	16.38
226.683	25.38
226.918	29.38
227.152	25.38
227.387	37.38
227.621	42.38
227.856	58.38
228.09	31.38
228.324	57.38
228.559	43.38
228.793	58.38
229.027	72.38
229.262	75.38
229.496	63.38
229.73	92.38
229.964	87.38
230.199	70.38
230.433	79.38
230.667	71.38
230.901	81.38
231.136	72.38
231.37	73.38
231.604	81.38
231.838	85.38
232.072	90.38
232.306	83.38
232.541	79.38
232.775	82.38
233.009	84.38
233.243	93.38
233.477	86.38
233.711	87.38
233.945	87.38
234.179	85.38
234.413	95.38
234.647	93.38
234.881	81.38
235.115	71.38
235.349	85.38
235.583	90.38
235.817	96.38
236.051	77.38
236.285	86.38
236.519	85.38
236.753	86.38
236.987	81.38
237.221	87.38
237.455	87.38
237.689	95.38
237.922	65.38
238.156	79.38
238.39	88.38
238.624	66.38
238.858	101.38
239.091	70.38
239.325	79.38
239.559	69.38
239.793	83.38
240.027	74.38
240.26	88.38
240.494	88.38
240.728	85.38
240.961	83.38
241.195	98.38
241.429	75.38
241.662	79.38
241.896	78.38
242.13	82.38
242.363	69.38
242.597	79.38
242.83	85.38
243.064	88.38
243.298	94.38
243.531	95.38
243.765	71.38
243.998	79.38
244.232	84.38
244.465	86.38
244.699	103.38
244.932	91.38
245.166	86.38
245.399	86.38
245.633	65.38
245.866	79.38
246.099	81.38
246.333	75.38
246.566	73.38
246.8	81.38
247.033	80.38
247.266	82.38
247.5	83.38
247.733	80.38
247.966	68.38
248.2	100.38
248.433	71.38
248.666	98.38
248.899	87.38
249.133	99.38
249.366	101.38
249.599	91.38
249.832	86.38
250.066	73.38
250.299	94.38
250.532	91.38
250.765	77.38
250.998	94.38
251.231	81.38
251.465	90.38
251.698	84.38
251.931	86.38
252.164	91.38
252.397	78.38
252.63	89.38
252.863	91.38
253.096	82.38
253.329	81.38
253.562	83.38
253.795	87.38
254.028	80.38
254.261	89.38
254.494	84.38
254.727	90.38
254.96	103.38
255.193	88.38
255.426	94.38
255.659	83.38
255.892	78.38
256.124	77.38
256.357	87.38
256.59	80.38
256.823	87.38
257.056	92.38
257.289	84.38
257.521	94.38
257.754	83.38
257.987	78.38
258.22	94.38
258.452	90.38
258.685	79.38
258.918	86.38
259.151	87.38
259.383	90.38
259.616	87.38
259.849	95.38
260.081	85.38
260.314	91.38
260.547	95.38
260.779	68.38
261.012	76.38
261.244	79.38
261.477	91.38
261.71	86.38
261.942	105.38
262.175	102.38
262.407	99.38
262.64	97.38
262.872	85.38
263.105	74.38
263.337	94.38
263.57	76.38
263.802	79.38
264.035	84.38
264.267	90.38
264.499	73.38
264.732	77.38
264.964	85.38
265.197	90.38
265.429	81.38
265.661	88.38
265.894	87.38
266.126	102.38
266.358	85.38
266.591	86.38
266.823	94.38
267.055	85.38
267.287	88.38
267.52	85.38
267.752	79.38
267.984	82.38
268.216	72.38
268.448	85.38
268.681	90.38
268.913	86.38
269.145	90.38
269.377	97.38
269.609	98.38
269.841	83.38
270.073	102.38
270.306	88.38
270.538	80.38
270.77	96.38
271.002	93.38
271.234	104.38
271.466	96.38
271.698	83.38
271.93	99.38
272.162	93.38
272.394	85.38
272.626	85.38
272.858	79.38
273.09	92.38
273.322	79.38
273.553	81.38
273.785	98.38
274.017	83.38
274.249	98.38
274.481	83.38
274.713	93.38
274.945	87.38
275.176	89.38
275.408	83.38
275.64	98.38
275.872	98.38
276.104	92.38
276.335	93.38
276.567	89.38
276.799	102.38
277.031	104.38
277.262	84.38
277.494	93.38
277.726	89.38
277.957	83.38
278.189	96.38
278.421	96.38
278.652	87.38
278.884	90.38
279.115	78.38
279.347	89.38
279.579	113.38
279.81	93.38
280.042	86.38
280.273	108.38
280.505	107.38
280.736	101.38
280.968	85.38
281.199	90.38
281.431	95.38
281.662	83.38
281.894	104.38
282.125	107.38
282.356	98.38
282.588	119.38
282.819	115.38
283.051	91.38
283.282	78.38
283.513	97.38
283.745	94.38
283.976	94.38
284.207	94.38
284.439	83.38
284.67	92.38
284.901	93.38
285.132	95.38
285.364	82.38
285.595	101.38
285.826	85.38
286.057	94.38
286.288	89.38
286.52	91.38
286.751	91.38
286.982	90.38
287.213	100.38
287.444	90.38
287.675	83.38
287.906	106.38
288.138	96.38
288.369	99.38
288.6	107.38
288.831	80.38
289.062	95.38
289.293	78.38
289.524	106.38
289.755	90.38
289.986	93.38
290.217	85.38
290.448	87.38
290.679	99.38
290.91	87.38
291.141	85.38
291.371	84.38
291.602	86.38
291.833	99.38
292.064	95.38
292.295	93.38
292.526	95.38
292.757	100.38
292.987	87.38
293.218	84.38
293.449	96.38
293.68	99.38
293.91	82.38
294.141	94.38
294.372	91.38
294.603	96.38
294.833	86.38
295.064	101.38
295.295	93.38
295.525	106.38
295.756	111.38
295.987	113.38
296.217	136.38
296.448	122.38
296.679	97.38
296.909	109.38
297.14	94.38
297.37	84.38
297.601	105.38
297.831	95.38
298.062	110.38
298.292	89.38
298.523	85.38
298.753	101.38
298.984	94.38
299.214	101.38
299.445	83.38
299.675	95.38
299.905	94.38
300.136	88.38
300.366	96.38
300.597	90.38
300.827	92.38
301.057	101.38
301.288	91.38
301.518	86.38
301.748	102.38
301.979	91.38
302.209	99.38
302.439	88.38
302.669	101.38
302.9	90.38
303.13	83.38
303.36	98.38
303.59	111.38
303.82	103.38
304.051	106.38
304.281	90.38
304.511	82.38
304.741	82.38
304.971	98.38
305.201	79.38
305.431	88.38
305.661	88.38
305.891	105.38
306.121	97.38
306.352	101.38
306.582	105.38
306.812	106.38
307.042	91.38
307.272	97.38
307.502	96.38
307.731	99.38
307.961	98.38
308.191	108.38
308.421	87.38
308.651	93.38
308.881	98.38
309.111	98.38
309.341	93.38
309.571	86.38
309.8	88.38
310.03	95.38
310.26	104.38
310.49	105.38
310.72	99.38
310.949	122.38
311.179	113.38
311.409	89.38
311.639	99.38
311.868	97.38
312.098	100.38
312.328	96.38
312.557	103.38
312.787	100.38
313.017	103.38
313.246	108.38
313.476	91.38
313.706	94.38
313.935	95.38
314.165	96.38
314.394	98.38
314.624	91.38
314.853	93.38
315.083	89.38
315.312	99.38
315.542	100.38
315.771	96.38
316.001	87.38
316.23	96.38
316.46	96.38
316.689	108.38
316.919	97.38
317.148	100.38
317.377	93.38
317.607	79.38
317.836	98.38
318.065	90.38
318.295	90.38
318.524	90.38
318.753	95.38
318.983	98.38
319.212	97.38
319.441	112.38
319.67	103.38
319.9	93.38
320.129	88.38
320.358	114.38
320.587	99.38
320.816	97.38
321.046	102.38
321.275	111.38
321.504	103.38
321.733	103.38
321.962	104.38
322.191	95.38
322.42	99.38
322.649	97.38
322.878	106.38
323.108	105.38
323.337	131.38
323.566	129.38
323.795	145.38
324.024	195.38
324.253	317.38
324.482	624.38
324.71	1257.38
324.939	1661.38
325.168	633.38
325.397	190.38
325.626	135.38
325.855	118.38
326.084	117.38
326.313	118.38
326.542	138.38
326.77	194.38
326.999	377.38
327.228	723.38
327.457	1280.38
327.686	980.38
327.914	293.38
328.143	147.38
328.372	142.38
328.6	113.38
328.829	111.38
329.058	119.38
329.287	109.38
329.515	102.38
329.744	103.38
329.972	100.38
330.201	95.38
330.43	116.38
330.658	125.38
330.887	120.38
331.115	115.38
331.344	99.38
331.572	102.38
331.801	112.38
332.03	97.38
332.258	95.38
332.486	83.38
332.715	107.38
332.943	95.38
333.172	71.38
333.4	112.38
333.629	115.38
333.857	115.38
334.085	99.38
334.314	99.38
334.542	103.38
334.771	102.38
334.999	103.38
335.227	103.38
335.455	90.38
335.684	79.38
335.912	87.38
336.14	119.38
336.369	97.38
336.597	91.38
336.825	106.38
337.053	97.38
337.281	105.38
337.51	85.38
337.738	95.38
337.966	82.38
338.194	86.38
338.422	102.38
338.65	85.38
338.878	97.38
339.106	83.38
339.334	87.38
339.562	91.38
339.79	82.38
340.018	101.38
340.246	83.38
340.474	111.38
340.702	86.38
340.93	92.38
341.158	96.38
341.386	91.38
341.614	93.38
341.842	97.38
342.07	102.38
342.298	112.38
342.526	97.38
342.754	90.38
342.981	89.38
343.209	101.38
343.437	98.38
343.665	102.38
343.893	90.38
344.12	85.38
344.348	88.38
344.576	96.38
344.804	106.38
345.031	90.38
345.259	95.38
345.487	92.38
345.714	102.38
345.942	104.38
346.17	114.38
346.397	113.38
346.625	79.38
346.853	95.38
347.08	102.38
347.308	90.38
347.535	87.38
347.763	88.38
347.99	99.38
348.218	100.38
348.445	108.38
348.673	104.38
348.9	84.38
349.128	100.38
349.355	100.38
349.583	82.38
349.81	89.38
350.037	88.38
350.265	101.38
350.492	102.38
350.72	95.38
350.947	105.38
351.174	101.38
351.402	100.38
351.629	106.38
351.856	100.38
352.083	100.38
352.311	91.38
352.538	91.38
352.765	104.38
352.992	124.38
353.22	101.38
353.447	106.38
353.674	99.38
353.901	101.38
354.128	86.38
354.355	107.38
354.583	96.38
354.81	104.38
355.037	99.38
355.264	105.38
355.491	93.38
355.718	91.38
355.945	96.38
356.172	95.38
356.399	95.38
356.626	99.38
356.853	102.38
357.08	88.38
357.307	103.38
357.534	97.38
357.761	99.38
357.988	92.38
358.215	98.38
358.441	103.38
358.668	98.38
358.895	91.38
359.122	99.38
359.349	99.38
359.576	103.38
359.802	99.38
360.029	106.38
360.256	101.38
360.483	99.38
360.709	90.38
360.936	94.38
361.163	106.38
361.39	95.38
361.616	85.38
361.843	93.38
362.07	98.38
362.296	108.38
362.523	89.38
362.749	94.38
362.976	93.38
363.203	107.38
363.429	88.38
363.656	89.38
363.882	101.38
364.109	92.38
364.335	107.38
364.562	101.38
364.788	97.38
365.015	95.38
365.241	102.38
365.468	104.38
365.694	107.38
365.92	96.38
366.147	94.38
366.373	101.38
366.599	89.38
366.826	101.38
367.052	94.38
367.278	88.38
367.505	92.38
367.731	87.38
367.957	101.38
368.184	100.38
368.41	108.38
368.636	115.38
368.862	113.38
369.089	96.38
369.315	97.38
369.541	87.38
369.767	99.38
369.993	104.38
370.219	92.38
370.445	76.38
370.672	97.38
370.898	81.38
371.124	97.38
371.35	94.38
371.576	84.38
371.802	95.38
372.028	88.38
372.254	109.38
372.48	95.38
372.706	96.38
372.932	88.38
373.158	86.38
373.384	98.38
373.61	107.38
373.835	95.38
374.061	93.38
374.287	97.38
374.513	107.38
374.739	99.38
374.965	99.38
375.191	101.38
375.416	101.38
375.642	87.38
375.868	80.38
376.094	100.38
376.319	94.38
376.545	98.38
376.771	99.38
376.997	93.38
377.222	83.38
377.448	87.38
377.674	81.38
377.899	79.38
378.125	100.38
378.35	86.38
378.576	88.38
378.802	94.38
379.027	81.38
379.253	104.38
379.478	102.38
379.704	74.38
379.929	86.38
380.155	81.38
380.38	98.38
380.606	85.38
380.831	98.38
381.057	105.38
381.282	92.38
381.507	98.38
381.733	99.38
381.958	86.38
382.184	95.38
382.409	86.38
382.634	110.38
382.86	103.38
383.085	104.38
383.31	105.38
383.535	108.38
383.761	102.38
383.986	111.38
384.211	98.38
384.436	106.38
384.662	102.38
384.887	99.38
385.112	105.38
385.337	105.38
385.562	101.38
385.787	106.38
386.013	95.38
386.238	104.38
386.463	115.38
386.688	107.38
386.913	86.38
387.138	105.38
387.363	90.38
387.588	107.38
387.813	106.38
388.038	95.38
388.263	105.38
388.488	107.38
388.713	101.38
388.938	90.38
389.163	105.38
389.387	106.38
389.612	107.38
389.837	98.38
390.062	89.38
390.287	99.38
390.512	94.38
390.736	98.38
390.961	96.38
391.186	105.38
391.411	102.38
391.636	92.38
391.86	98.38
392.085	96.38
392.31	98.38
392.534	95.38
392.759	83.38
392.984	99.38
393.208	85.38
393.433	96.38
393.658	80.38
393.882	96.38
394.107	93.38
394.331	93.38
394.556	97.38
394.78	96.38
395.005	80.38
395.229	87.38
395.454	77.38
395.678	85.38
395.903	101.38
396.127	109.38
396.352	77.38
396.576	84.38
396.801	94.38
397.025	96.38
397.249	102.38
397.474	92.38
397.698	98.38
397.922	97.38
398.147	99.38
398.371	86.38
398.595	95.38
398.82	83.38
399.044	89.38
399.268	81.38
399.492	90.38
399.717	93.38
399.941	105.38
400.165	86.38
400.389	95.38
400.613	98.38
400.837	98.38
401.062	81.38
401.286	85.38
401.51	86.38
401.734	102.38
401.958	115.38
402.182	117.38
402.406	142.38
402.63	101.38
402.854	108.38
403.078	85.38
403.302	105.38
403.526	89.38
403.75	93.38
403.974	74.38
404.198	85.38
404.422	107.38
404.645	102.38
404.869	86.38
405.093	93.38
405.317	84.38
405.541	97.38
405.765	110.38
405.988	110.38
406.212	143.38
406.436	197.38
406.66	120.38
406.883	101.38
407.107	102.38
407.331	95.38
407.555	82.38
407.778	111.38
408.002	85.38
408.226	102.38
408.449	109.38
408.673	81.38
408.896	97.38
409.12	93.38
409.344	91.38
409.567	99.38
409.791	97.38
410.014	99.38
410.238	89.38
410.461	89.38
410.685	104.38
410.908	94.38
411.132	90.38
411.355	104.38
411.578	92.38
411.802	103.38
412.025	98.38
412.249	92.38
412.472	80.38
412.695	87.38
412.919	87.38
413.142	90.38
413.365	88.38
413.589	97.38
413.812	98.38
414.035	97.38
414.258	91.38
414.482	90.38
414.705	96.38
414.928	87.38
415.151	96.38
415.374	97.38
415.597	90.38
415.821	88.38
416.044	89.38
416.267	100.38
416.49	96.38
416.713	85.38
416.936	85.38
417.159	91.38
417.382	98.38
417.605	81.38
417.828	109.38
418.051	93.38
418.274	86.38
418.497	94.38
418.72	84.38
418.943	96.38
419.166	91.38
419.389	102.38
419.611	85.38
419.834	98.38
420.057	100.38
420.28	81.38
420.503	72.38
420.726	99.38
420.948	91.38
421.171	93.38
421.394	88.38
421.617	83.38
421.839	75.38
422.062	86.38
422.285	105.38
422.507	112.38
422.73	118.38
422.953	99.38
423.175	93.38
423.398	88.38
423.621	90.38
423.843	103.38
424.066	96.38
424.288	91.38
424.511	84.38
424.733	93.38
424.956	88.38
425.178	88.38
425.401	104.38
425.623	94.38
425.846	88.38
426.068	103.38
426.291	84.38
426.513	85.38
426.735	103.38
426.958	90.38
427.18	111.38
427.402	126.38
427.625	147.38
427.847	122.38
428.069	106.38
428.292	82.38
428.514	102.38
428.736	85.38
428.958	89.38
429.181	95.38
429.403	78.38
429.625	84.38
429.847	100.38
430.069	91.38
430.292	90.38
430.514	79.38
430.736	80.38
430.958	89.38
431.18	84.38
431.402	83.38
431.624	93.38
431.846	89.38
432.068	78.38
432.29	93.38
432.512	70.38
432.734	77.38
432.956	99.38
433.178	102.38
433.4	106.38
433.622	96.38
433.844	83.38
434.066	89.38
434.287	102.38
434.509	92.38
434.731	95.38
434.953	97.38
435.175	85.38
435.397	87.38
435.618	107.38
435.84	93.38
436.062	115.38
436.284	105.38
436.505	103.38
436.727	88.38
436.949	101.38
437.17	97.38
437.392	96.38
437.614	84.38
437.835	110.38
438.057	107.38
438.278	96.38
438.5	103.38
438.721	109.38
438.943	103.38
439.165	81.38
439.386	96.38
439.608	110.38
439.829	99.38
440.05	119.38
440.272	130.38
440.493	86.38
440.715	105.38
440.936	90.38
441.158	97.38
441.379	95.38
441.6	94.38
441.822	74.38
442.043	78.38
442.264	101.38
442.486	100.38
442.707	107.38
442.928	95.38
443.149	113.38
443.371	113.38
443.592	98.38
443.813	99.38
444.034	83.38
444.255	96.38
444.476	100.38
444.698	91.38
444.919	99.38
445.14	143.38
445.361	131.38
445.582	113.38
445.803	101.38
446.024	111.38
446.245	105.38
446.466	105.38
446.687	98.38
446.908	77.38
447.129	83.38
447.35	90.38
447.571	107.38
447.792	96.38
448.013	93.38
448.234	105.38
448.455	107.38
448.675	102.38
448.896	100.38
449.117	102.38
449.338	102.38
449.559	123.38
449.779	127.38
450	104.38
450.221	95.38
450.442	97.38
450.662	106.38
450.883	121.38
451.104	96.38
451.324	97.38
451.545	84.38
451.766	85.38
451.986	94.38
452.207	105.38
452.428	89.38
452.648	113.38
452.869	111.38
453.089	105.38
453.31	111.38
453.53	93.38
453.751	106.38
453.971	101.38
454.192	111.38
454.412	93.38
454.633	101.38
454.853	91.38
455.073	81.38
455.294	77.38
455.514	105.38
455.734	94.38
455.955	98.38
456.175	87.38
456.395	89.38
456.616	86.38
456.836	101.38
457.056	75.38
457.276	79.38
457.497	83.38
457.717	80.38
457.937	93.38
458.157	84.38
458.377	84.38
458.598	95.38
458.818	151.38
459.038	133.38
459.258	106.38
459.478	90.38
459.698	90.38
459.918	101.38
460.138	86.38
460.358	94.38
460.578	109.38
460.798	91.38
461.018	100.38
461.238	88.38
461.458	77.38
461.678	90.38
461.898	80.38
462.118	83.38
462.338	99.38
462.558	95.38
462.777	81.38
462.997	101.38
463.217	86.38
463.437	94.38
463.657	112.38
463.876	85.38
464.096	97.38
464.316	99.38
464.536	88.38
464.755	98.38
464.975	102.38
465.195	144.38
465.414	135.38
465.634	101.38
465.854	94.38
466.073	87.38
466.293	90.38
466.512	88.38
466.732	89.38
466.951	91.38
467.171	86.38
467.391	101.38
467.61	88.38
467.829	95.38
468.049	89.38
468.268	97.38
468.488	86.38
468.707	100.38
468.927	107.38
469.146	95.38
469.365	82.38
469.585	83.38
469.804	97.38
470.023	99.38
470.243	95.38
470.462	91.38
470.681	109.38
470.901	87.38
471.12	95.38
471.339	90.38
471.558	77.38
471.777	91.38
471.997	93.38
472.216	94.38
472.435	99.38
472.654	91.38
472.873	90.38
473.092	91.38
473.311	97.38
473.53	73.38
473.749	97.38
473.968	102.38
474.187	101.38
474.406	82.38
474.625	89.38
474.844	97.38
475.063	77.38
475.282	91.38
475.501	90.38
475.72	97.38
475.939	91.38
476.158	90.38
476.377	106.38
476.596	79.38
476.814	105.38
477.033	94.38
477.252	91.38
477.471	103.38
477.69	100.38
477.908	92.38
478.127	87.38
478.346	83.38
478.564	97.38
478.783	120.38
479.002	102.38
479.22	98.38
479.439	99.38
479.658	106.38
479.876	100.38
480.095	84.38
480.313	107.38
480.532	83.38
480.751	86.38
480.969	96.38
481.188	101.38
481.406	111.38
481.624	102.38
481.843	87.38
482.061	102.38
482.28	89.38
482.498	101.38
482.717	87.38
482.935	96.38
483.153	87.38
483.372	97.38
483.59	100.38
483.808	93.38
484.027	87.38
484.245	103.38
484.463	99.38
484.681	110.38
484.9	94.38
485.118	93.38
485.336	89.38
485.554	97.38
485.772	98.38
485.99	99.38
486.209	103.38
486.427	106.38
486.645	102.38
486.863	121.38
487.081	103.38
487.299	109.38
487.517	114.38
487.735	91.38
487.953	79.38
488.171	94.38
488.389	91.38
488.607	84.38
488.825	97.38
489.043	97.38
489.261	102.38
489.479	104.38
489.696	104.38
489.914	71.38
490.132	93.38
490.35	91.38
490.568	102.38
490.786	96.38
491.003	90.38
491.221	93.38
491.439	95.38
491.657	90.38
491.874	83.38
492.092	96.38
492.31	113.38
492.527	93.38
492.745	105.38
492.963	90.38
493.18	97.38
493.398	109.38
493.615	104.38
493.833	102.38
494.05	97.38
494.268	87.38
494.485	101.38
494.703	102.38
494.92	95.38
495.138	85.38
495.355	107.38
495.573	104.38
495.79	99.38
496.008	95.38
496.225	95.38
496.442	100.38
496.66	105.38
496.877	94.38
497.094	96.38
497.312	102.38
497.529	89.38
497.746	104.38
497.963	93.38
498.181	90.38
498.398	99.38
498.615	113.38
498.832	115.38
499.049	88.38
499.267	93.38
499.484	83.38
499.701	96.38
499.918	91.38
500.135	82.38
500.352	83.38
500.569	95.38
500.786	101.38
501.003	93.38
501.22	103.38
501.437	99.38
501.654	100.38
501.871	99.38
502.088	103.38
502.305	85.38
502.522	88.38
502.739	87.38
502.956	98.38
503.172	94.38
503.389	90.38
503.606	99.38
503.823	108.38
504.04	101.38
504.256	102.38
504.473	89.38
504.69	107.38
504.907	97.38
505.123	86.38
505.34	101.38
505.557	101.38
505.773	101.38
505.99	92.38
506.207	88.38
506.423	89.38
506.64	90.38
506.856	95.38
507.073	93.38
507.289	94.38
507.506	88.38
507.722	117.38
507.939	105.38
508.155	105.38
508.372	104.38
508.588	99.38
508.805	117.38
509.021	102.38
509.238	109.38
509.454	111.38
509.67	95.38
509.887	109.38
510.103	118.38
510.319	203.38
510.536	675.38
510.752	2015.38
510.968	563.38
511.184	152.38
511.401	115.38
511.617	98.38
511.833	91.38
512.049	99.38
512.265	89.38
512.481	101.38
512.698	103.38
512.914	107.38
513.13	105.38
513.346	95.38
513.562	103.38
513.778	98.38
513.994	107.38
514.21	101.38
