Data from Uncirc_1993_H10_HRD10591_00099.txt Node
Date: Wed Jan 03 11:43:12 EST 2024
User: Yrep
Spectrometer: HR+D1059
Trigger mode: 1
Integration Time (sec): 1.000000E-1
Scans to average: 1
Electric dark correction enabled: true
Nonlinearity correction enabled: false
Boxcar width: 0
XAxis mode: Wavelengths
Number of Pixels in Spectrum: 2048
>>>>>Begin Spectral Data<<<<<
223.165	-8.81
223.4	-8.81
223.635	-8.81
223.869	-16.81
224.104	-18.81
224.338	-9.81
224.573	-9.81
224.808	-5.81
225.042	-2.81
225.277	-9.81
225.511	-0.81
225.746	-15.81
225.98	10.19
226.215	16.19
226.449	-0.81
226.683	28.19
226.918	14.19
227.152	31.19
227.387	39.19
227.621	38.19
227.856	32.19
228.09	42.19
228.324	56.19
228.559	63.19
228.793	67.19
229.027	63.19
229.262	63.19
229.496	67.19
229.73	77.19
229.964	84.19
230.199	74.19
230.433	82.19
230.667	68.19
230.901	80.19
231.136	78.19
231.37	63.19
231.604	80.19
231.838	82.19
232.072	77.19
232.306	94.19
232.541	82.19
232.775	75.19
233.009	74.19
233.243	81.19
233.477	60.19
233.711	69.19
233.945	87.19
234.179	60.19
234.413	77.19
234.647	74.19
234.881	77.19
235.115	75.19
235.349	65.19
235.583	75.19
235.817	73.19
236.051	81.19
236.285	69.19
236.519	76.19
236.753	78.19
236.987	70.19
237.221	83.19
237.455	78.19
237.689	85.19
237.922	74.19
238.156	78.19
238.39	75.19
238.624	73.19
238.858	84.19
239.091	86.19
239.325	71.19
239.559	77.19
239.793	65.19
240.027	75.19
240.26	70.19
240.494	80.19
240.728	72.19
240.961	72.19
241.195	83.19
241.429	78.19
241.662	82.19
241.896	66.19
242.13	66.19
242.363	71.19
242.597	82.19
242.83	72.19
243.064	77.19
243.298	76.19
243.531	82.19
243.765	71.19
243.998	70.19
244.232	81.19
244.465	80.19
244.699	78.19
244.932	68.19
245.166	72.19
245.399	73.19
245.633	75.19
245.866	84.19
246.099	82.19
246.333	81.19
246.566	76.19
246.8	77.19
247.033	73.19
247.266	59.19
247.5	88.19
247.733	59.19
247.966	60.19
248.2	80.19
248.433	88.19
248.666	90.19
248.899	65.19
249.133	80.19
249.366	103.19
249.599	95.19
249.832	79.19
250.066	86.19
250.299	80.19
250.532	73.19
250.765	76.19
250.998	84.19
251.231	74.19
251.465	84.19
251.698	73.19
251.931	80.19
252.164	77.19
252.397	84.19
252.63	62.19
252.863	76.19
253.096	82.19
253.329	75.19
253.562	79.19
253.795	76.19
254.028	78.19
254.261	72.19
254.494	76.19
254.727	85.19
254.96	71.19
255.193	80.19
255.426	79.19
255.659	63.19
255.892	73.19
256.124	81.19
256.357	80.19
256.59	70.19
256.823	77.19
257.056	61.19
257.289	69.19
257.521	66.19
257.754	81.19
257.987	83.19
258.22	94.19
258.452	70.19
258.685	81.19
258.918	95.19
259.151	79.19
259.383	83.19
259.616	71.19
259.849	83.19
260.081	82.19
260.314	79.19
260.547	77.19
260.779	80.19
261.012	68.19
261.244	86.19
261.477	90.19
261.71	86.19
261.942	106.19
262.175	104.19
262.407	79.19
262.64	83.19
262.872	87.19
263.105	76.19
263.337	83.19
263.57	63.19
263.802	65.19
264.035	83.19
264.267	81.19
264.499	86.19
264.732	86.19
264.964	79.19
265.197	78.19
265.429	94.19
265.661	89.19
265.894	86.19
266.126	76.19
266.358	86.19
266.591	93.19
266.823	74.19
267.055	89.19
267.287	91.19
267.52	88.19
267.752	92.19
267.984	83.19
268.216	80.19
268.448	95.19
268.681	83.19
268.913	65.19
269.145	78.19
269.377	91.19
269.609	85.19
269.841	82.19
270.073	89.19
270.306	92.19
270.538	76.19
270.77	75.19
271.002	89.19
271.234	83.19
271.466	92.19
271.698	88.19
271.93	73.19
272.162	87.19
272.394	94.19
272.626	80.19
272.858	89.19
273.09	80.19
273.322	73.19
273.553	74.19
273.785	78.19
274.017	87.19
274.249	87.19
274.481	96.19
274.713	89.19
274.945	87.19
275.176	87.19
275.408	80.19
275.64	98.19
275.872	87.19
276.104	79.19
276.335	86.19
276.567	100.19
276.799	101.19
277.031	80.19
277.262	79.19
277.494	89.19
277.726	87.19
277.957	75.19
278.189	93.19
278.421	91.19
278.652	83.19
278.884	84.19
279.115	107.19
279.347	98.19
279.579	80.19
279.81	81.19
280.042	66.19
280.273	75.19
280.505	88.19
280.736	89.19
280.968	86.19
281.199	80.19
281.431	87.19
281.662	95.19
281.894	91.19
282.125	89.19
282.356	104.19
282.588	144.19
282.819	117.19
283.051	86.19
283.282	90.19
283.513	77.19
283.745	85.19
283.976	99.19
284.207	86.19
284.439	82.19
284.67	74.19
284.901	84.19
285.132	86.19
285.364	84.19
285.595	86.19
285.826	88.19
286.057	82.19
286.288	76.19
286.52	88.19
286.751	82.19
286.982	80.19
287.213	80.19
287.444	83.19
287.675	83.19
287.906	80.19
288.138	89.19
288.369	98.19
288.6	84.19
288.831	88.19
289.062	81.19
289.293	78.19
289.524	83.19
289.755	82.19
289.986	80.19
290.217	79.19
290.448	73.19
290.679	86.19
290.91	99.19
291.141	96.19
291.371	87.19
291.602	83.19
291.833	90.19
292.064	85.19
292.295	87.19
292.526	81.19
292.757	79.19
292.987	72.19
293.218	89.19
293.449	82.19
293.68	94.19
293.91	82.19
294.141	84.19
294.372	79.19
294.603	81.19
294.833	86.19
295.064	92.19
295.295	106.19
295.525	99.19
295.756	105.19
295.987	118.19
296.217	122.19
296.448	113.19
296.679	86.19
296.909	80.19
297.14	86.19
297.37	86.19
297.601	86.19
297.831	89.19
298.062	92.19
298.292	84.19
298.523	75.19
298.753	63.19
298.984	75.19
299.214	86.19
299.445	82.19
299.675	94.19
299.905	89.19
300.136	81.19
300.366	74.19
300.597	77.19
300.827	86.19
301.057	95.19
301.288	104.19
301.518	91.19
301.748	99.19
301.979	102.19
302.209	85.19
302.439	90.19
302.669	83.19
302.9	91.19
303.13	99.19
303.36	93.19
303.59	100.19
303.82	111.19
304.051	97.19
304.281	85.19
304.511	82.19
304.741	88.19
304.971	81.19
305.201	82.19
305.431	87.19
305.661	82.19
305.891	96.19
306.121	104.19
306.352	93.19
306.582	100.19
306.812	102.19
307.042	90.19
307.272	93.19
307.502	91.19
307.731	89.19
307.961	95.19
308.191	81.19
308.421	70.19
308.651	93.19
308.881	82.19
309.111	90.19
309.341	105.19
309.571	109.19
309.8	91.19
310.03	91.19
310.26	90.19
310.49	76.19
310.72	79.19
310.949	115.19
311.179	86.19
311.409	89.19
311.639	76.19
311.868	94.19
312.098	93.19
312.328	101.19
312.557	103.19
312.787	96.19
313.017	97.19
313.246	88.19
313.476	83.19
313.706	92.19
313.935	84.19
314.165	93.19
314.394	108.19
314.624	90.19
314.853	82.19
315.083	99.19
315.312	84.19
315.542	78.19
315.771	80.19
316.001	77.19
316.23	92.19
316.46	94.19
316.689	89.19
316.919	88.19
317.148	84.19
317.377	97.19
317.607	96.19
317.836	79.19
318.065	103.19
318.295	92.19
318.524	87.19
318.753	100.19
318.983	103.19
319.212	94.19
319.441	108.19
319.67	107.19
319.9	91.19
320.129	84.19
320.358	88.19
320.587	98.19
320.816	90.19
321.046	91.19
321.275	90.19
321.504	97.19
321.733	97.19
321.962	100.19
322.191	87.19
322.42	105.19
322.649	111.19
322.878	110.19
323.108	109.19
323.337	128.19
323.566	131.19
323.795	135.19
324.024	193.19
324.253	357.19
324.482	718.19
324.71	1452.19
324.939	1865.19
325.168	664.19
325.397	206.19
325.626	115.19
325.855	112.19
326.084	99.19
326.313	115.19
326.542	138.19
326.77	201.19
326.999	388.19
327.228	798.19
327.457	1398.19
327.686	1117.19
327.914	302.19
328.143	171.19
328.372	135.19
328.6	111.19
328.829	95.19
329.058	124.19
329.287	120.19
329.515	108.19
329.744	96.19
329.972	88.19
330.201	97.19
330.43	104.19
330.658	117.19
330.887	134.19
331.115	93.19
331.344	103.19
331.572	94.19
331.801	95.19
332.03	104.19
332.258	83.19
332.486	93.19
332.715	106.19
332.943	96.19
333.172	106.19
333.4	96.19
333.629	90.19
333.857	103.19
334.085	95.19
334.314	88.19
334.542	89.19
334.771	67.19
334.999	92.19
335.227	94.19
335.455	97.19
335.684	78.19
335.912	86.19
336.14	90.19
336.369	94.19
336.597	101.19
336.825	89.19
337.053	95.19
337.281	92.19
337.51	96.19
337.738	90.19
337.966	100.19
338.194	91.19
338.422	100.19
338.65	96.19
338.878	93.19
339.106	99.19
339.334	93.19
339.562	97.19
339.79	86.19
340.018	84.19
340.246	95.19
340.474	90.19
340.702	87.19
340.93	94.19
341.158	89.19
341.386	78.19
341.614	84.19
341.842	104.19
342.07	84.19
342.298	78.19
342.526	92.19
342.754	94.19
342.981	78.19
343.209	86.19
343.437	99.19
343.665	95.19
343.893	102.19
344.12	86.19
344.348	94.19
344.576	103.19
344.804	97.19
345.031	95.19
345.259	88.19
345.487	97.19
345.714	93.19
345.942	80.19
346.17	89.19
346.397	95.19
346.625	92.19
346.853	95.19
347.08	81.19
347.308	100.19
347.535	94.19
347.763	105.19
347.99	94.19
348.218	106.19
348.445	105.19
348.673	89.19
348.9	93.19
349.128	81.19
349.355	89.19
349.583	100.19
349.81	94.19
350.037	85.19
350.265	80.19
350.492	86.19
350.72	80.19
350.947	90.19
351.174	97.19
351.402	102.19
351.629	98.19
351.856	94.19
352.083	95.19
352.311	107.19
352.538	123.19
352.765	95.19
352.992	90.19
353.22	106.19
353.447	121.19
353.674	113.19
353.901	110.19
354.128	80.19
354.355	97.19
354.583	99.19
354.81	100.19
355.037	99.19
355.264	102.19
355.491	87.19
355.718	88.19
355.945	83.19
356.172	105.19
356.399	95.19
356.626	93.19
356.853	86.19
357.08	91.19
357.307	101.19
357.534	81.19
357.761	93.19
357.988	97.19
358.215	93.19
358.441	92.19
358.668	78.19
358.895	82.19
359.122	87.19
359.349	82.19
359.576	81.19
359.802	106.19
360.029	96.19
360.256	103.19
360.483	89.19
360.709	89.19
360.936	98.19
361.163	86.19
361.39	94.19
361.616	99.19
361.843	94.19
362.07	88.19
362.296	84.19
362.523	90.19
362.749	81.19
362.976	76.19
363.203	90.19
363.429	82.19
363.656	97.19
363.882	100.19
364.109	86.19
364.335	84.19
364.562	99.19
364.788	89.19
365.015	94.19
365.241	98.19
365.468	119.19
365.694	92.19
365.92	106.19
366.147	83.19
366.373	90.19
366.599	103.19
366.826	103.19
367.052	82.19
367.278	97.19
367.505	98.19
367.731	88.19
367.957	81.19
368.184	93.19
368.41	89.19
368.636	99.19
368.862	118.19
369.089	106.19
369.315	83.19
369.541	83.19
369.767	89.19
369.993	82.19
370.219	90.19
370.445	91.19
370.672	72.19
370.898	88.19
371.124	82.19
371.35	77.19
371.576	93.19
371.802	82.19
372.028	63.19
372.254	100.19
372.48	86.19
372.706	99.19
372.932	83.19
373.158	93.19
373.384	86.19
373.61	85.19
373.835	90.19
374.061	79.19
374.287	88.19
374.513	90.19
374.739	72.19
374.965	91.19
375.191	81.19
375.416	99.19
375.642	87.19
375.868	82.19
376.094	86.19
376.319	83.19
376.545	86.19
376.771	90.19
376.997	101.19
377.222	89.19
377.448	98.19
377.674	99.19
377.899	97.19
378.125	85.19
378.35	100.19
378.576	96.19
378.802	83.19
379.027	89.19
379.253	91.19
379.478	96.19
379.704	86.19
379.929	86.19
380.155	83.19
380.38	100.19
380.606	87.19
380.831	88.19
381.057	94.19
381.282	108.19
381.507	88.19
381.733	94.19
381.958	87.19
382.184	91.19
382.409	92.19
382.634	98.19
382.86	84.19
383.085	94.19
383.31	90.19
383.535	94.19
383.761	85.19
383.986	92.19
384.211	92.19
384.436	90.19
384.662	96.19
384.887	84.19
385.112	87.19
385.337	94.19
385.562	88.19
385.787	94.19
386.013	98.19
386.238	110.19
386.463	87.19
386.688	105.19
386.913	102.19
387.138	92.19
387.363	82.19
387.588	98.19
387.813	89.19
388.038	103.19
388.263	93.19
388.488	95.19
388.713	84.19
388.938	88.19
389.163	91.19
389.387	103.19
389.612	90.19
389.837	86.19
390.062	94.19
390.287	105.19
390.512	91.19
390.736	93.19
390.961	93.19
391.186	86.19
391.411	98.19
391.636	91.19
391.86	79.19
392.085	69.19
392.31	75.19
392.534	68.19
392.759	85.19
392.984	79.19
393.208	78.19
393.433	76.19
393.658	94.19
393.882	78.19
394.107	82.19
394.331	79.19
394.556	81.19
394.78	78.19
395.005	80.19
395.229	73.19
395.454	82.19
395.678	77.19
395.903	83.19
396.127	91.19
396.352	72.19
396.576	67.19
396.801	89.19
397.025	82.19
397.249	78.19
397.474	100.19
397.698	69.19
397.922	67.19
398.147	85.19
398.371	90.19
398.595	78.19
398.82	95.19
399.044	90.19
399.268	71.19
399.492	78.19
399.717	90.19
399.941	83.19
400.165	87.19
400.389	89.19
400.613	83.19
400.837	95.19
401.062	101.19
401.286	76.19
401.51	86.19
401.734	99.19
401.958	104.19
402.182	98.19
402.406	137.19
402.63	108.19
402.854	93.19
403.078	91.19
403.302	95.19
403.526	85.19
403.75	83.19
403.974	87.19
404.198	90.19
404.422	96.19
404.645	82.19
404.869	77.19
405.093	88.19
405.317	97.19
405.541	82.19
405.765	104.19
405.988	103.19
406.212	151.19
406.436	203.19
406.66	136.19
406.883	87.19
407.107	87.19
407.331	96.19
407.555	95.19
407.778	90.19
408.002	88.19
408.226	81.19
408.449	94.19
408.673	94.19
408.896	97.19
409.12	93.19
409.344	96.19
409.567	84.19
409.791	91.19
410.014	92.19
410.238	94.19
410.461	104.19
410.685	95.19
410.908	89.19
411.132	106.19
411.355	98.19
411.578	83.19
411.802	96.19
412.025	93.19
412.249	91.19
412.472	84.19
412.695	95.19
412.919	87.19
413.142	93.19
413.365	97.19
413.589	77.19
413.812	89.19
414.035	101.19
414.258	89.19
414.482	88.19
414.705	99.19
414.928	81.19
415.151	105.19
415.374	86.19
415.597	83.19
415.821	89.19
416.044	82.19
416.267	83.19
416.49	93.19
416.713	96.19
416.936	90.19
417.159	94.19
417.382	100.19
417.605	89.19
417.828	74.19
418.051	84.19
418.274	83.19
418.497	86.19
418.72	94.19
418.943	95.19
419.166	83.19
419.389	95.19
419.611	94.19
419.834	95.19
420.057	103.19
420.28	92.19
420.503	84.19
420.726	77.19
420.948	82.19
421.171	92.19
421.394	84.19
421.617	83.19
421.839	75.19
422.062	83.19
422.285	107.19
422.507	101.19
422.73	90.19
422.953	86.19
423.175	87.19
423.398	92.19
423.621	82.19
423.843	95.19
424.066	98.19
424.288	94.19
424.511	86.19
424.733	95.19
424.956	87.19
425.178	101.19
425.401	82.19
425.623	87.19
425.846	90.19
426.068	74.19
426.291	80.19
426.513	81.19
426.735	84.19
426.958	89.19
427.18	103.19
427.402	121.19
427.625	155.19
427.847	107.19
428.069	94.19
428.292	95.19
428.514	94.19
428.736	84.19
428.958	79.19
429.181	99.19
429.403	86.19
429.625	90.19
429.847	86.19
430.069	100.19
430.292	96.19
430.514	100.19
430.736	77.19
430.958	67.19
431.18	67.19
431.402	82.19
431.624	86.19
431.846	91.19
432.068	79.19
432.29	83.19
432.512	85.19
432.734	82.19
432.956	94.19
433.178	93.19
433.4	92.19
433.622	90.19
433.844	94.19
434.066	93.19
434.287	78.19
434.509	82.19
434.731	80.19
434.953	84.19
435.175	92.19
435.397	92.19
435.618	86.19
435.84	95.19
436.062	111.19
436.284	95.19
436.505	95.19
436.727	93.19
436.949	94.19
437.17	83.19
437.392	75.19
437.614	82.19
437.835	88.19
438.057	100.19
438.278	100.19
438.5	112.19
438.721	110.19
438.943	89.19
439.165	90.19
439.386	82.19
439.608	83.19
439.829	94.19
440.05	96.19
440.272	116.19
440.493	99.19
440.715	80.19
440.936	91.19
441.158	75.19
441.379	79.19
441.6	98.19
441.822	95.19
442.043	101.19
442.264	89.19
442.486	108.19
442.707	83.19
442.928	87.19
443.149	117.19
443.371	128.19
443.592	100.19
443.813	116.19
444.034	99.19
444.255	80.19
444.476	88.19
444.698	103.19
444.919	80.19
445.14	135.19
445.361	131.19
445.582	106.19
445.803	120.19
446.024	130.19
446.245	124.19
446.466	100.19
446.687	91.19
446.908	77.19
447.129	82.19
447.35	72.19
447.571	81.19
447.792	93.19
448.013	106.19
448.234	113.19
448.455	99.19
448.675	115.19
448.896	110.19
449.117	96.19
449.338	112.19
449.559	119.19
449.779	123.19
450	81.19
450.221	87.19
450.442	90.19
450.662	84.19
450.883	98.19
451.104	122.19
451.324	86.19
451.545	94.19
451.766	87.19
451.986	92.19
452.207	102.19
452.428	96.19
452.648	96.19
452.869	116.19
453.089	104.19
453.31	109.19
453.53	97.19
453.751	80.19
453.971	88.19
454.192	100.19
454.412	90.19
454.633	94.19
454.853	68.19
455.073	99.19
455.294	83.19
455.514	77.19
455.734	91.19
455.955	76.19
456.175	84.19
456.395	82.19
456.616	80.19
456.836	77.19
457.056	78.19
457.276	79.19
457.497	74.19
457.717	82.19
457.937	80.19
458.157	86.19
458.377	68.19
458.598	90.19
458.818	139.19
459.038	137.19
459.258	100.19
459.478	87.19
459.698	82.19
459.918	80.19
460.138	95.19
460.358	91.19
460.578	87.19
460.798	84.19
461.018	93.19
461.238	86.19
461.458	91.19
461.678	73.19
461.898	73.19
462.118	88.19
462.338	75.19
462.558	70.19
462.777	80.19
462.997	89.19
463.217	100.19
463.437	75.19
463.657	91.19
463.876	87.19
464.096	92.19
464.316	87.19
464.536	94.19
464.755	95.19
464.975	102.19
465.195	162.19
465.414	137.19
465.634	97.19
465.854	92.19
466.073	91.19
466.293	84.19
466.512	95.19
466.732	90.19
466.951	94.19
467.171	93.19
467.391	96.19
467.61	94.19
467.829	100.19
468.049	93.19
468.268	94.19
468.488	91.19
468.707	77.19
468.927	81.19
469.146	75.19
469.365	87.19
469.585	92.19
469.804	74.19
470.023	86.19
470.243	98.19
470.462	89.19
470.681	107.19
470.901	88.19
471.12	90.19
471.339	86.19
471.558	86.19
471.777	96.19
471.997	88.19
472.216	86.19
472.435	97.19
472.654	81.19
472.873	84.19
473.092	85.19
473.311	92.19
473.53	93.19
473.749	88.19
473.968	74.19
474.187	99.19
474.406	103.19
474.625	90.19
474.844	75.19
475.063	80.19
475.282	84.19
475.501	69.19
475.72	96.19
475.939	84.19
476.158	84.19
476.377	70.19
476.596	79.19
476.814	89.19
477.033	86.19
477.252	96.19
477.471	94.19
477.69	86.19
477.908	90.19
478.127	87.19
478.346	84.19
478.564	89.19
478.783	92.19
479.002	94.19
479.22	91.19
479.439	94.19
479.658	99.19
479.876	79.19
480.095	94.19
480.313	102.19
480.532	99.19
480.751	91.19
480.969	63.19
481.188	111.19
481.406	88.19
481.624	79.19
481.843	86.19
482.061	94.19
482.28	93.19
482.498	90.19
482.717	77.19
482.935	82.19
483.153	93.19
483.372	88.19
483.59	82.19
483.808	76.19
484.027	85.19
484.245	87.19
484.463	86.19
484.681	98.19
484.9	90.19
485.118	80.19
485.336	93.19
485.554	98.19
485.772	110.19
485.99	102.19
486.209	102.19
486.427	119.19
486.645	114.19
486.863	114.19
487.081	99.19
487.299	91.19
487.517	94.19
487.735	90.19
487.953	79.19
488.171	69.19
488.389	85.19
488.607	93.19
488.825	86.19
489.043	77.19
489.261	89.19
489.479	74.19
489.696	91.19
489.914	91.19
490.132	91.19
490.35	87.19
490.568	86.19
490.786	88.19
491.003	87.19
491.221	78.19
491.439	80.19
491.657	96.19
491.874	89.19
492.092	93.19
492.31	92.19
492.527	97.19
492.745	82.19
492.963	82.19
493.18	88.19
493.398	93.19
493.615	93.19
493.833	90.19
494.05	86.19
494.268	95.19
494.485	83.19
494.703	71.19
494.92	88.19
495.138	76.19
495.355	82.19
495.573	95.19
495.79	93.19
496.008	92.19
496.225	87.19
496.442	90.19
496.66	78.19
496.877	88.19
497.094	95.19
497.312	77.19
497.529	83.19
497.746	97.19
497.963	80.19
498.181	100.19
498.398	90.19
498.615	103.19
498.832	76.19
499.049	82.19
499.267	91.19
499.484	91.19
499.701	74.19
499.918	80.19
500.135	100.19
500.352	91.19
500.569	66.19
500.786	95.19
501.003	95.19
501.22	89.19
501.437	91.19
501.654	86.19
501.871	105.19
502.088	96.19
502.305	90.19
502.522	83.19
502.739	87.19
502.956	91.19
503.172	85.19
503.389	80.19
503.606	109.19
503.823	102.19
504.04	93.19
504.256	106.19
504.473	91.19
504.69	93.19
504.907	76.19
505.123	76.19
505.34	95.19
505.557	89.19
505.773	83.19
505.99	96.19
506.207	109.19
506.423	88.19
506.64	80.19
506.856	105.19
507.073	102.19
507.289	94.19
507.506	93.19
507.722	103.19
507.939	113.19
508.155	89.19
508.372	88.19
508.588	88.19
508.805	93.19
509.021	85.19
509.238	101.19
509.454	98.19
509.67	96.19
509.887	104.19
510.103	141.19
510.319	205.19
510.536	720.19
510.752	2156.19
510.968	593.19
511.184	128.19
511.401	119.19
511.617	87.19
511.833	93.19
512.049	88.19
512.265	84.19
512.481	82.19
512.698	87.19
512.914	89.19
513.13	72.19
513.346	96.19
513.562	81.19
513.778	84.19
513.994	94.19
514.21	105.19
514.426	100.19
514.642	121.19
514.858	136.19
515.074	150.19
515.29	416.19
515.506	1291.19
515.721	492.19
515.937	126.19
516.153	95.19
516.369	89.19
516.585	92.19
516.801	79.19
517.016	84.19
