Data from Uncirc_1993_H10_HRD10591_00086.txt Node
Date: Wed Jan 03 11:43:09 EST 2024
User: Yrep
Spectrometer: HR+D1059
Trigger mode: 1
Integration Time (sec): 1.000000E-1
Scans to average: 1
Electric dark correction enabled: true
Nonlinearity correction enabled: false
Boxcar width: 0
XAxis mode: Wavelengths
Number of Pixels in Spectrum: 2048
>>>>>Begin Spectral Data<<<<<
223.165	-18.06
223.4	-18.06
223.635	-18.06
223.869	-19.06
224.104	-15.06
224.338	-24.06
224.573	-26.06
224.808	-25.06
225.042	-14.06
225.277	-3.06
225.511	-4.06
225.746	0.94
225.98	-1.06
226.215	26.94
226.449	24.94
226.683	29.94
226.918	29.94
227.152	36.94
227.387	45.94
227.621	54.94
227.856	51.94
228.09	41.94
228.324	52.94
228.559	73.94
228.793	45.94
229.027	67.94
229.262	74.94
229.496	78.94
229.73	82.94
229.964	69.94
230.199	70.94
230.433	78.94
230.667	72.94
230.901	72.94
231.136	81.94
231.37	85.94
231.604	78.94
231.838	75.94
232.072	87.94
232.306	75.94
232.541	83.94
232.775	72.94
233.009	79.94
233.243	85.94
233.477	82.94
233.711	70.94
233.945	79.94
234.179	66.94
234.413	93.94
234.647	76.94
234.881	78.94
235.115	86.94
235.349	87.94
235.583	80.94
235.817	86.94
236.051	85.94
236.285	75.94
236.519	81.94
236.753	70.94
236.987	86.94
237.221	83.94
237.455	82.94
237.689	75.94
237.922	79.94
238.156	80.94
238.39	73.94
238.624	95.94
238.858	66.94
239.091	66.94
239.325	77.94
239.559	88.94
239.793	75.94
240.027	82.94
240.26	85.94
240.494	77.94
240.728	79.94
240.961	79.94
241.195	91.94
241.429	65.94
241.662	77.94
241.896	85.94
242.13	62.94
242.363	78.94
242.597	73.94
242.83	80.94
243.064	80.94
243.298	79.94
243.531	66.94
243.765	84.94
243.998	91.94
244.232	92.94
244.465	81.94
244.699	79.94
244.932	80.94
245.166	87.94
245.399	84.94
245.633	76.94
245.866	85.94
246.099	60.94
246.333	78.94
246.566	92.94
246.8	82.94
247.033	84.94
247.266	80.94
247.5	83.94
247.733	89.94
247.966	84.94
248.2	64.94
248.433	80.94
248.666	90.94
248.899	99.94
249.133	87.94
249.366	113.94
249.599	96.94
249.832	84.94
250.066	94.94
250.299	87.94
250.532	70.94
250.765	74.94
250.998	82.94
251.231	68.94
251.465	90.94
251.698	79.94
251.931	84.94
252.164	75.94
252.397	72.94
252.63	93.94
252.863	79.94
253.096	85.94
253.329	83.94
253.562	71.94
253.795	90.94
254.028	87.94
254.261	73.94
254.494	73.94
254.727	73.94
254.96	89.94
255.193	100.94
255.426	85.94
255.659	78.94
255.892	88.94
256.124	71.94
256.357	81.94
256.59	85.94
256.823	81.94
257.056	78.94
257.289	82.94
257.521	80.94
257.754	86.94
257.987	76.94
258.22	78.94
258.452	85.94
258.685	85.94
258.918	66.94
259.151	84.94
259.383	66.94
259.616	85.94
259.849	73.94
260.081	70.94
260.314	94.94
260.547	91.94
260.779	78.94
261.012	67.94
261.244	88.94
261.477	97.94
261.71	76.94
261.942	104.94
262.175	98.94
262.407	84.94
262.64	89.94
262.872	90.94
263.105	81.94
263.337	92.94
263.57	74.94
263.802	76.94
264.035	86.94
264.267	76.94
264.499	77.94
264.732	82.94
264.964	82.94
265.197	100.94
265.429	97.94
265.661	87.94
265.894	88.94
266.126	87.94
266.358	76.94
266.591	86.94
266.823	82.94
267.055	78.94
267.287	89.94
267.52	86.94
267.752	72.94
267.984	92.94
268.216	88.94
268.448	76.94
268.681	90.94
268.913	83.94
269.145	76.94
269.377	75.94
269.609	83.94
269.841	87.94
270.073	92.94
270.306	84.94
270.538	78.94
270.77	73.94
271.002	92.94
271.234	80.94
271.466	84.94
271.698	94.94
271.93	89.94
272.162	72.94
272.394	84.94
272.626	89.94
272.858	94.94
273.09	78.94
273.322	90.94
273.553	94.94
273.785	93.94
274.017	86.94
274.249	93.94
274.481	70.94
274.713	62.94
274.945	91.94
275.176	80.94
275.408	85.94
275.64	78.94
275.872	91.94
276.104	93.94
276.335	98.94
276.567	105.94
276.799	102.94
277.031	90.94
277.262	81.94
277.494	88.94
277.726	82.94
277.957	80.94
278.189	82.94
278.421	84.94
278.652	71.94
278.884	62.94
279.115	78.94
279.347	84.94
279.579	81.94
279.81	82.94
280.042	85.94
280.273	95.94
280.505	83.94
280.736	81.94
280.968	75.94
281.199	86.94
281.431	90.94
281.662	97.94
281.894	90.94
282.125	110.94
282.356	111.94
282.588	132.94
282.819	108.94
283.051	74.94
283.282	85.94
283.513	79.94
283.745	87.94
283.976	88.94
284.207	81.94
284.439	76.94
284.67	88.94
284.901	100.94
285.132	91.94
285.364	88.94
285.595	93.94
285.826	85.94
286.057	86.94
286.288	94.94
286.52	86.94
286.751	85.94
286.982	85.94
287.213	97.94
287.444	90.94
287.675	97.94
287.906	93.94
288.138	88.94
288.369	90.94
288.6	101.94
288.831	82.94
289.062	90.94
289.293	82.94
289.524	95.94
289.755	93.94
289.986	86.94
290.217	82.94
290.448	79.94
290.679	91.94
290.91	76.94
291.141	84.94
291.371	84.94
291.602	86.94
291.833	76.94
292.064	114.94
292.295	100.94
292.526	90.94
292.757	88.94
292.987	68.94
293.218	90.94
293.449	78.94
293.68	91.94
293.91	92.94
294.141	84.94
294.372	91.94
294.603	83.94
294.833	88.94
295.064	84.94
295.295	89.94
295.525	106.94
295.756	97.94
295.987	106.94
296.217	138.94
296.448	127.94
296.679	96.94
296.909	91.94
297.14	93.94
297.37	99.94
297.601	84.94
297.831	93.94
298.062	89.94
298.292	104.94
298.523	77.94
298.753	86.94
298.984	97.94
299.214	89.94
299.445	104.94
299.675	84.94
299.905	93.94
300.136	80.94
300.366	96.94
300.597	77.94
300.827	109.94
301.057	101.94
301.288	96.94
301.518	92.94
301.748	95.94
301.979	112.94
302.209	85.94
302.439	88.94
302.669	96.94
302.9	97.94
303.13	88.94
303.36	80.94
303.59	88.94
303.82	93.94
304.051	80.94
304.281	82.94
304.511	85.94
304.741	90.94
304.971	91.94
305.201	87.94
305.431	94.94
305.661	98.94
305.891	92.94
306.121	93.94
306.352	97.94
306.582	115.94
306.812	96.94
307.042	73.94
307.272	89.94
307.502	80.94
307.731	93.94
307.961	83.94
308.191	102.94
308.421	87.94
308.651	89.94
308.881	89.94
309.111	108.94
309.341	86.94
309.571	92.94
309.8	93.94
310.03	100.94
310.26	98.94
310.49	104.94
310.72	101.94
310.949	91.94
311.179	101.94
311.409	86.94
311.639	94.94
311.868	95.94
312.098	110.94
312.328	88.94
312.557	85.94
312.787	82.94
313.017	82.94
313.246	102.94
313.476	91.94
313.706	93.94
313.935	93.94
314.165	81.94
314.394	97.94
314.624	95.94
314.853	78.94
315.083	91.94
315.312	89.94
315.542	88.94
315.771	92.94
316.001	79.94
316.23	82.94
316.46	103.94
316.689	89.94
316.919	94.94
317.148	78.94
317.377	99.94
317.607	86.94
317.836	76.94
318.065	86.94
318.295	99.94
318.524	93.94
318.753	97.94
318.983	96.94
319.212	107.94
319.441	95.94
319.67	100.94
319.9	92.94
320.129	106.94
320.358	90.94
320.587	97.94
320.816	107.94
321.046	90.94
321.275	99.94
321.504	103.94
321.733	99.94
321.962	93.94
322.191	107.94
322.42	96.94
322.649	91.94
322.878	92.94
323.108	112.94
323.337	112.94
323.566	118.94
323.795	128.94
324.024	178.94
324.253	325.94
324.482	670.94
324.71	1314.94
324.939	1704.94
325.168	649.94
325.397	193.94
325.626	130.94
325.855	120.94
326.084	114.94
326.313	129.94
326.542	137.94
326.77	183.94
326.999	382.94
327.228	735.94
327.457	1319.94
327.686	1032.94
327.914	304.94
328.143	150.94
328.372	125.94
328.6	119.94
328.829	114.94
329.058	124.94
329.287	115.94
329.515	110.94
329.744	113.94
329.972	94.94
330.201	97.94
330.43	109.94
330.658	111.94
330.887	120.94
331.115	100.94
331.344	95.94
331.572	115.94
331.801	95.94
332.03	107.94
332.258	99.94
332.486	104.94
332.715	86.94
332.943	95.94
333.172	89.94
333.4	91.94
333.629	101.94
333.857	107.94
334.085	93.94
334.314	95.94
334.542	101.94
334.771	107.94
334.999	102.94
335.227	89.94
335.455	93.94
335.684	87.94
335.912	84.94
336.14	114.94
336.369	95.94
336.597	105.94
336.825	98.94
337.053	89.94
337.281	98.94
337.51	78.94
337.738	91.94
337.966	87.94
338.194	98.94
338.422	101.94
338.65	99.94
338.878	93.94
339.106	98.94
339.334	98.94
339.562	99.94
339.79	82.94
340.018	78.94
340.246	105.94
340.474	94.94
340.702	96.94
340.93	92.94
341.158	98.94
341.386	77.94
341.614	99.94
341.842	89.94
342.07	90.94
342.298	102.94
342.526	103.94
342.754	94.94
342.981	96.94
343.209	79.94
343.437	101.94
343.665	85.94
343.893	79.94
344.12	98.94
344.348	95.94
344.576	93.94
344.804	95.94
345.031	87.94
345.259	86.94
345.487	89.94
345.714	81.94
345.942	100.94
346.17	98.94
346.397	88.94
346.625	91.94
346.853	99.94
347.08	93.94
347.308	97.94
347.535	85.94
347.763	100.94
347.99	97.94
348.218	98.94
348.445	109.94
348.673	98.94
348.9	91.94
349.128	93.94
349.355	88.94
349.583	92.94
349.81	90.94
350.037	96.94
350.265	94.94
350.492	100.94
350.72	83.94
350.947	92.94
351.174	111.94
351.402	98.94
351.629	90.94
351.856	88.94
352.083	118.94
352.311	108.94
352.538	116.94
352.765	105.94
352.992	106.94
353.22	107.94
353.447	93.94
353.674	89.94
353.901	104.94
354.128	96.94
354.355	88.94
354.583	99.94
354.81	86.94
355.037	101.94
355.264	94.94
355.491	96.94
355.718	92.94
355.945	101.94
356.172	92.94
356.399	95.94
356.626	93.94
356.853	86.94
357.08	88.94
357.307	105.94
357.534	85.94
357.761	104.94
357.988	92.94
358.215	93.94
358.441	79.94
358.668	92.94
358.895	84.94
359.122	101.94
359.349	81.94
359.576	88.94
359.802	92.94
360.029	102.94
360.256	101.94
360.483	86.94
360.709	81.94
360.936	84.94
361.163	88.94
361.39	89.94
361.616	97.94
361.843	99.94
362.07	105.94
362.296	100.94
362.523	85.94
362.749	88.94
362.976	84.94
363.203	87.94
363.429	74.94
363.656	84.94
363.882	85.94
364.109	106.94
364.335	102.94
364.562	92.94
364.788	80.94
365.015	88.94
365.241	101.94
365.468	107.94
365.694	99.94
365.92	104.94
366.147	80.94
366.373	88.94
366.599	83.94
366.826	92.94
367.052	83.94
367.278	106.94
367.505	84.94
367.731	79.94
367.957	78.94
368.184	72.94
368.41	92.94
368.636	112.94
368.862	124.94
369.089	105.94
369.315	99.94
369.541	87.94
369.767	114.94
369.993	96.94
370.219	91.94
370.445	96.94
370.672	92.94
370.898	83.94
371.124	104.94
371.35	91.94
371.576	89.94
371.802	89.94
372.028	89.94
372.254	88.94
372.48	97.94
372.706	97.94
372.932	100.94
373.158	98.94
373.384	89.94
373.61	93.94
373.835	98.94
374.061	90.94
374.287	89.94
374.513	96.94
374.739	81.94
374.965	81.94
375.191	85.94
375.416	93.94
375.642	92.94
375.868	107.94
376.094	82.94
376.319	86.94
376.545	79.94
376.771	91.94
376.997	85.94
377.222	83.94
377.448	95.94
377.674	88.94
377.899	90.94
378.125	89.94
378.35	94.94
378.576	85.94
378.802	104.94
379.027	99.94
379.253	90.94
379.478	86.94
379.704	97.94
379.929	92.94
380.155	97.94
380.38	84.94
380.606	99.94
380.831	82.94
381.057	80.94
381.282	87.94
381.507	103.94
381.733	103.94
381.958	101.94
382.184	93.94
382.409	106.94
382.634	108.94
382.86	104.94
383.085	100.94
383.31	115.94
383.535	89.94
383.761	96.94
383.986	107.94
384.211	101.94
384.436	93.94
384.662	92.94
384.887	100.94
385.112	88.94
385.337	115.94
385.562	101.94
385.787	109.94
386.013	101.94
386.238	107.94
386.463	99.94
386.688	100.94
386.913	99.94
387.138	90.94
387.363	90.94
387.588	101.94
387.813	96.94
388.038	101.94
388.263	113.94
388.488	105.94
388.713	86.94
388.938	99.94
389.163	89.94
389.387	98.94
389.612	97.94
389.837	87.94
390.062	83.94
390.287	91.94
390.512	97.94
390.736	97.94
390.961	95.94
391.186	102.94
391.411	102.94
391.636	91.94
391.86	88.94
392.085	61.94
392.31	74.94
392.534	92.94
392.759	72.94
392.984	93.94
393.208	95.94
393.433	107.94
393.658	86.94
393.882	86.94
394.107	74.94
394.331	81.94
394.556	81.94
394.78	90.94
395.005	86.94
395.229	86.94
395.454	84.94
395.678	77.94
395.903	100.94
396.127	88.94
396.352	81.94
396.576	84.94
396.801	101.94
397.025	96.94
397.249	86.94
397.474	90.94
397.698	76.94
397.922	83.94
398.147	90.94
398.371	86.94
398.595	85.94
398.82	92.94
399.044	79.94
399.268	80.94
399.492	89.94
399.717	97.94
399.941	86.94
400.165	101.94
400.389	84.94
400.613	101.94
400.837	84.94
401.062	88.94
401.286	91.94
401.51	86.94
401.734	89.94
401.958	115.94
402.182	115.94
402.406	146.94
402.63	98.94
402.854	85.94
403.078	92.94
403.302	89.94
403.526	90.94
403.75	83.94
403.974	87.94
404.198	92.94
404.422	102.94
404.645	80.94
404.869	95.94
405.093	89.94
405.317	92.94
405.541	94.94
405.765	98.94
405.988	114.94
406.212	141.94
406.436	197.94
406.66	144.94
406.883	92.94
407.107	101.94
407.331	100.94
407.555	99.94
407.778	89.94
408.002	86.94
408.226	87.94
408.449	80.94
408.673	87.94
408.896	103.94
409.12	79.94
409.344	93.94
409.567	94.94
409.791	88.94
410.014	95.94
410.238	76.94
410.461	92.94
410.685	98.94
410.908	94.94
411.132	111.94
411.355	96.94
411.578	89.94
411.802	87.94
412.025	83.94
412.249	96.94
412.472	92.94
412.695	97.94
412.919	91.94
413.142	89.94
413.365	89.94
413.589	82.94
413.812	74.94
414.035	83.94
414.258	80.94
414.482	89.94
414.705	82.94
414.928	88.94
415.151	96.94
415.374	81.94
415.597	85.94
415.821	83.94
416.044	81.94
416.267	96.94
416.49	84.94
416.713	78.94
416.936	83.94
417.159	85.94
417.382	81.94
417.605	88.94
417.828	90.94
418.051	90.94
418.274	94.94
418.497	98.94
418.72	81.94
418.943	93.94
419.166	85.94
419.389	91.94
419.611	93.94
419.834	89.94
420.057	85.94
420.28	88.94
420.503	78.94
420.726	95.94
420.948	88.94
421.171	90.94
421.394	69.94
421.617	98.94
421.839	95.94
422.062	105.94
422.285	84.94
422.507	100.94
422.73	89.94
422.953	79.94
423.175	85.94
423.398	88.94
423.621	98.94
423.843	101.94
424.066	64.94
424.288	75.94
424.511	84.94
424.733	90.94
424.956	99.94
425.178	88.94
425.401	101.94
425.623	98.94
425.846	89.94
426.068	92.94
426.291	88.94
426.513	89.94
426.735	90.94
426.958	96.94
427.18	98.94
427.402	122.94
427.625	156.94
427.847	120.94
428.069	94.94
428.292	83.94
428.514	90.94
428.736	72.94
428.958	88.94
429.181	91.94
429.403	75.94
429.625	77.94
429.847	93.94
430.069	90.94
430.292	91.94
430.514	85.94
430.736	92.94
430.958	94.94
431.18	85.94
431.402	91.94
431.624	76.94
431.846	85.94
432.068	83.94
432.29	78.94
432.512	86.94
432.734	89.94
432.956	83.94
433.178	100.94
433.4	98.94
433.622	96.94
433.844	86.94
434.066	97.94
434.287	93.94
434.509	73.94
434.731	91.94
434.953	90.94
435.175	84.94
435.397	88.94
435.618	84.94
435.84	97.94
436.062	102.94
436.284	97.94
436.505	103.94
436.727	97.94
436.949	85.94
437.17	95.94
437.392	95.94
437.614	88.94
437.835	87.94
438.057	101.94
438.278	99.94
438.5	85.94
438.721	103.94
438.943	100.94
439.165	93.94
439.386	100.94
439.608	84.94
439.829	90.94
440.05	112.94
440.272	121.94
440.493	89.94
440.715	88.94
440.936	99.94
441.158	86.94
441.379	93.94
441.6	84.94
441.822	84.94
442.043	99.94
442.264	93.94
442.486	90.94
442.707	81.94
442.928	91.94
443.149	104.94
443.371	108.94
443.592	106.94
443.813	108.94
444.034	107.94
444.255	79.94
444.476	82.94
444.698	80.94
444.919	91.94
445.14	137.94
445.361	131.94
445.582	115.94
445.803	112.94
446.024	114.94
446.245	108.94
446.466	97.94
446.687	93.94
446.908	90.94
447.129	75.94
447.35	92.94
447.571	82.94
447.792	65.94
448.013	90.94
448.234	93.94
448.455	89.94
448.675	98.94
448.896	100.94
449.117	97.94
449.338	85.94
449.559	115.94
449.779	89.94
450	85.94
450.221	83.94
450.442	110.94
450.662	101.94
450.883	82.94
451.104	96.94
451.324	92.94
451.545	89.94
451.766	77.94
451.986	86.94
452.207	86.94
452.428	90.94
452.648	104.94
452.869	80.94
453.089	112.94
453.31	104.94
453.53	92.94
453.751	97.94
453.971	94.94
454.192	101.94
454.412	104.94
454.633	93.94
454.853	82.94
455.073	68.94
455.294	92.94
455.514	90.94
455.734	102.94
455.955	80.94
456.175	81.94
456.395	83.94
456.616	89.94
456.836	73.94
457.056	93.94
457.276	89.94
457.497	92.94
457.717	87.94
457.937	82.94
458.157	92.94
458.377	100.94
458.598	102.94
458.818	122.94
459.038	138.94
459.258	100.94
459.478	83.94
459.698	90.94
459.918	68.94
460.138	81.94
460.358	88.94
460.578	94.94
460.798	90.94
461.018	89.94
461.238	84.94
461.458	81.94
461.678	95.94
461.898	77.94
462.118	89.94
462.338	67.94
462.558	86.94
462.777	86.94
462.997	74.94
463.217	84.94
463.437	87.94
463.657	100.94
463.876	93.94
464.096	82.94
464.316	99.94
464.536	80.94
464.755	102.94
464.975	103.94
465.195	143.94
465.414	141.94
465.634	99.94
465.854	80.94
466.073	81.94
466.293	86.94
466.512	85.94
466.732	86.94
466.951	73.94
467.171	80.94
467.391	105.94
467.61	105.94
467.829	103.94
468.049	97.94
468.268	102.94
468.488	89.94
468.707	88.94
468.927	86.94
469.146	77.94
469.365	97.94
469.585	102.94
469.804	91.94
470.023	97.94
470.243	88.94
470.462	97.94
470.681	99.94
470.901	74.94
471.12	91.94
471.339	81.94
471.558	87.94
471.777	88.94
471.997	91.94
472.216	95.94
472.435	99.94
472.654	74.94
472.873	82.94
473.092	102.94
473.311	90.94
473.53	100.94
473.749	89.94
473.968	81.94
474.187	94.94
474.406	64.94
474.625	75.94
474.844	98.94
475.063	81.94
475.282	77.94
475.501	79.94
475.72	90.94
475.939	72.94
476.158	82.94
476.377	83.94
476.596	87.94
476.814	100.94
477.033	104.94
477.252	90.94
477.471	90.94
477.69	88.94
477.908	76.94
478.127	88.94
478.346	91.94
478.564	90.94
478.783	91.94
479.002	93.94
479.22	89.94
479.439	105.94
479.658	99.94
479.876	83.94
480.095	94.94
480.313	82.94
480.532	95.94
480.751	91.94
480.969	98.94
481.188	106.94
481.406	110.94
481.624	81.94
481.843	78.94
482.061	93.94
482.28	83.94
482.498	87.94
482.717	94.94
482.935	91.94
483.153	82.94
483.372	82.94
483.59	81.94
483.808	88.94
484.027	94.94
484.245	93.94
484.463	86.94
484.681	102.94
484.9	87.94
485.118	90.94
485.336	97.94
485.554	95.94
485.772	110.94
485.99	83.94
486.209	102.94
486.427	92.94
486.645	90.94
486.863	102.94
487.081	102.94
487.299	98.94
487.517	95.94
487.735	88.94
487.953	90.94
488.171	79.94
488.389	78.94
488.607	90.94
488.825	91.94
489.043	86.94
489.261	77.94
489.479	96.94
489.696	81.94
489.914	92.94
490.132	92.94
490.35	85.94
490.568	81.94
490.786	92.94
491.003	89.94
491.221	94.94
491.439	91.94
491.657	96.94
491.874	108.94
492.092	102.94
492.31	89.94
492.527	91.94
492.745	101.94
492.963	92.94
493.18	89.94
493.398	97.94
493.615	100.94
493.833	85.94
494.05	96.94
494.268	94.94
494.485	112.94
494.703	101.94
494.92	88.94
495.138	72.94
495.355	80.94
495.573	89.94
495.79	100.94
496.008	97.94
496.225	72.94
496.442	86.94
496.66	88.94
496.877	73.94
497.094	78.94
497.312	100.94
497.529	88.94
497.746	87.94
497.963	91.94
498.181	97.94
498.398	96.94
498.615	101.94
498.832	96.94
499.049	94.94
499.267	89.94
499.484	86.94
499.701	86.94
499.918	87.94
500.135	89.94
500.352	88.94
500.569	106.94
500.786	86.94
501.003	81.94
501.22	97.94
501.437	78.94
501.654	91.94
501.871	99.94
502.088	109.94
502.305	94.94
502.522	91.94
502.739	93.94
502.956	86.94
503.172	96.94
503.389	92.94
503.606	89.94
503.823	83.94
504.04	88.94
504.256	90.94
504.473	73.94
504.69	93.94
504.907	84.94
505.123	89.94
505.34	102.94
505.557	82.94
505.773	85.94
505.99	93.94
506.207	96.94
506.423	91.94
506.64	89.94
506.856	93.94
507.073	82.94
507.289	82.94
507.506	102.94
507.722	114.94
507.939	108.94
508.155	88.94
508.372	81.94
508.588	96.94
508.805	98.94
509.021	95.94
509.238	94.94
509.454	92.94
509.67	88.94
509.887	96.94
510.103	147.94
510.319	200.94
510.536	672.94
510.752	2076.94
510.968	594.94
511.184	143.94
511.401	96.94
511.617	92.94
511.833	81.94
512.049	99.94
512.265	103.94
512.481	85.94
512.698	94.94
512.914	82.94
513.13	95.94
513.346	91.94
513.562	90.94
513.778	101.94
513.994	102.94
514.21	97.94
514.426	96.94
514.642	124.94
514.858	113.94
515.074	152.94
515.29	402.94
515.506	1225.94
515.721	462.94
515.937	133.94
516.153	106.94
516.369	98.94
