Data from Uncirc_1993_H10_HRD10591_00085.txt Node
Date: Wed Jan 03 11:43:09 EST 2024
User: Yrep
Spectrometer: HR+D1059
Trigger mode: 1
Integration Time (sec): 1.000000E-1
Scans to average: 1
Electric dark correction enabled: true
Nonlinearity correction enabled: false
Boxcar width: 0
XAxis mode: Wavelengths
Number of Pixels in Spectrum: 2048
>>>>>Begin Spectral Data<<<<<
223.165	-15.56
223.4	-15.56
223.635	-15.56
223.869	-9.56
224.104	-16.56
224.338	-22.56
224.573	-18.56
224.808	-26.56
225.042	-3.56
225.277	-1.56
225.511	-11.56
225.746	0.44
225.98	-1.56
226.215	19.44
226.449	16.44
226.683	28.44
226.918	29.44
227.152	33.44
227.387	27.44
227.621	50.44
227.856	55.44
228.09	53.44
228.324	59.44
228.559	56.44
228.793	50.44
229.027	61.44
229.262	63.44
229.496	84.44
229.73	83.44
229.964	98.44
230.199	84.44
230.433	81.44
230.667	115.44
230.901	79.44
231.136	88.44
231.37	94.44
231.604	87.44
231.838	89.44
232.072	81.44
232.306	85.44
232.541	100.44
232.775	85.44
233.009	81.44
233.243	83.44
233.477	80.44
233.711	80.44
233.945	98.44
234.179	74.44
234.413	89.44
234.647	88.44
234.881	84.44
235.115	71.44
235.349	85.44
235.583	78.44
235.817	71.44
236.051	80.44
236.285	88.44
236.519	77.44
236.753	80.44
236.987	75.44
237.221	82.44
237.455	85.44
237.689	74.44
237.922	71.44
238.156	86.44
238.39	80.44
238.624	81.44
238.858	69.44
239.091	82.44
239.325	91.44
239.559	78.44
239.793	93.44
240.027	82.44
240.26	81.44
240.494	70.44
240.728	85.44
240.961	90.44
241.195	84.44
241.429	81.44
241.662	79.44
241.896	68.44
242.13	72.44
242.363	79.44
242.597	72.44
242.83	74.44
243.064	78.44
243.298	82.44
243.531	64.44
243.765	83.44
243.998	93.44
244.232	89.44
244.465	106.44
244.699	87.44
244.932	84.44
245.166	81.44
245.399	82.44
245.633	88.44
245.866	83.44
246.099	91.44
246.333	92.44
246.566	97.44
246.8	89.44
247.033	80.44
247.266	76.44
247.5	83.44
247.733	87.44
247.966	95.44
248.2	87.44
248.433	90.44
248.666	81.44
248.899	71.44
249.133	103.44
249.366	97.44
249.599	107.44
249.832	83.44
250.066	69.44
250.299	91.44
250.532	98.44
250.765	101.44
250.998	78.44
251.231	101.44
251.465	62.44
251.698	86.44
251.931	79.44
252.164	81.44
252.397	85.44
252.63	83.44
252.863	82.44
253.096	82.44
253.329	73.44
253.562	78.44
253.795	103.44
254.028	96.44
254.261	91.44
254.494	80.44
254.727	96.44
254.96	93.44
255.193	81.44
255.426	92.44
255.659	89.44
255.892	68.44
256.124	79.44
256.357	68.44
256.59	91.44
256.823	85.44
257.056	79.44
257.289	73.44
257.521	88.44
257.754	92.44
257.987	86.44
258.22	92.44
258.452	90.44
258.685	90.44
258.918	91.44
259.151	88.44
259.383	80.44
259.616	94.44
259.849	80.44
260.081	83.44
260.314	86.44
260.547	85.44
260.779	99.44
261.012	105.44
261.244	88.44
261.477	83.44
261.71	81.44
261.942	125.44
262.175	133.44
262.407	99.44
262.64	96.44
262.872	89.44
263.105	90.44
263.337	97.44
263.57	83.44
263.802	86.44
264.035	81.44
264.267	90.44
264.499	93.44
264.732	86.44
264.964	97.44
265.197	86.44
265.429	98.44
265.661	91.44
265.894	81.44
266.126	87.44
266.358	80.44
266.591	73.44
266.823	96.44
267.055	81.44
267.287	106.44
267.52	85.44
267.752	82.44
267.984	84.44
268.216	93.44
268.448	78.44
268.681	84.44
268.913	77.44
269.145	84.44
269.377	82.44
269.609	87.44
269.841	81.44
270.073	91.44
270.306	82.44
270.538	82.44
270.77	92.44
271.002	89.44
271.234	99.44
271.466	101.44
271.698	79.44
271.93	79.44
272.162	96.44
272.394	94.44
272.626	103.44
272.858	87.44
273.09	100.44
273.322	97.44
273.553	104.44
273.785	90.44
274.017	74.44
274.249	99.44
274.481	106.44
274.713	92.44
274.945	93.44
275.176	96.44
275.408	95.44
275.64	96.44
275.872	92.44
276.104	103.44
276.335	95.44
276.567	116.44
276.799	110.44
277.031	101.44
277.262	96.44
277.494	101.44
277.726	84.44
277.957	83.44
278.189	74.44
278.421	90.44
278.652	97.44
278.884	86.44
279.115	82.44
279.347	89.44
279.579	96.44
279.81	71.44
280.042	78.44
280.273	87.44
280.505	85.44
280.736	89.44
280.968	93.44
281.199	92.44
281.431	79.44
281.662	81.44
281.894	86.44
282.125	94.44
282.356	119.44
282.588	131.44
282.819	116.44
283.051	89.44
283.282	93.44
283.513	103.44
283.745	90.44
283.976	80.44
284.207	92.44
284.439	95.44
284.67	98.44
284.901	106.44
285.132	89.44
285.364	76.44
285.595	88.44
285.826	99.44
286.057	80.44
286.288	86.44
286.52	96.44
286.751	88.44
286.982	85.44
287.213	95.44
287.444	89.44
287.675	87.44
287.906	81.44
288.138	89.44
288.369	93.44
288.6	81.44
288.831	102.44
289.062	109.44
289.293	105.44
289.524	80.44
289.755	87.44
289.986	92.44
290.217	101.44
290.448	89.44
290.679	97.44
290.91	98.44
291.141	87.44
291.371	94.44
291.602	94.44
291.833	85.44
292.064	92.44
292.295	93.44
292.526	93.44
292.757	98.44
292.987	77.44
293.218	98.44
293.449	94.44
293.68	88.44
293.91	85.44
294.141	86.44
294.372	94.44
294.603	104.44
294.833	109.44
295.064	96.44
295.295	97.44
295.525	93.44
295.756	112.44
295.987	114.44
296.217	135.44
296.448	126.44
296.679	88.44
296.909	96.44
297.14	89.44
297.37	90.44
297.601	85.44
297.831	88.44
298.062	87.44
298.292	105.44
298.523	98.44
298.753	86.44
298.984	94.44
299.214	102.44
299.445	92.44
299.675	105.44
299.905	89.44
300.136	90.44
300.366	98.44
300.597	99.44
300.827	87.44
301.057	94.44
301.288	104.44
301.518	99.44
301.748	97.44
301.979	114.44
302.209	84.44
302.439	94.44
302.669	87.44
302.9	94.44
303.13	101.44
303.36	103.44
303.59	103.44
303.82	107.44
304.051	96.44
304.281	91.44
304.511	108.44
304.741	90.44
304.971	93.44
305.201	112.44
305.431	89.44
305.661	95.44
305.891	88.44
306.121	94.44
306.352	106.44
306.582	116.44
306.812	97.44
307.042	107.44
307.272	103.44
307.502	109.44
307.731	102.44
307.961	101.44
308.191	104.44
308.421	105.44
308.651	99.44
308.881	94.44
309.111	100.44
309.341	104.44
309.571	110.44
309.8	102.44
310.03	102.44
310.26	89.44
310.49	108.44
310.72	111.44
310.949	102.44
311.179	110.44
311.409	96.44
311.639	86.44
311.868	96.44
312.098	96.44
312.328	105.44
312.557	100.44
312.787	111.44
313.017	118.44
313.246	101.44
313.476	93.44
313.706	96.44
313.935	90.44
314.165	95.44
314.394	97.44
314.624	106.44
314.853	99.44
315.083	98.44
315.312	100.44
315.542	105.44
315.771	110.44
316.001	92.44
316.23	86.44
316.46	104.44
316.689	104.44
316.919	107.44
317.148	108.44
317.377	101.44
317.607	95.44
317.836	85.44
318.065	102.44
318.295	98.44
318.524	89.44
318.753	99.44
318.983	97.44
319.212	109.44
319.441	120.44
319.67	109.44
319.9	99.44
320.129	95.44
320.358	106.44
320.587	99.44
320.816	99.44
321.046	102.44
321.275	110.44
321.504	98.44
321.733	94.44
321.962	117.44
322.191	103.44
322.42	99.44
322.649	112.44
322.878	114.44
323.108	126.44
323.337	128.44
323.566	133.44
323.795	129.44
324.024	177.44
324.253	345.44
324.482	683.44
324.71	1358.44
324.939	1777.44
325.168	686.44
325.397	216.44
325.626	122.44
325.855	119.44
326.084	126.44
326.313	127.44
326.542	125.44
326.77	212.44
326.999	374.44
327.228	764.44
327.457	1394.44
327.686	1088.44
327.914	302.44
328.143	177.44
328.372	148.44
328.6	113.44
328.829	115.44
329.058	126.44
329.287	136.44
329.515	109.44
329.744	116.44
329.972	99.44
330.201	97.44
330.43	110.44
330.658	125.44
330.887	142.44
331.115	126.44
331.344	103.44
331.572	100.44
331.801	96.44
332.03	102.44
332.258	91.44
332.486	101.44
332.715	106.44
332.943	95.44
333.172	99.44
333.4	93.44
333.629	104.44
333.857	115.44
334.085	118.44
334.314	90.44
334.542	102.44
334.771	93.44
334.999	104.44
335.227	84.44
335.455	104.44
335.684	90.44
335.912	84.44
336.14	89.44
336.369	104.44
336.597	100.44
336.825	95.44
337.053	94.44
337.281	102.44
337.51	101.44
337.738	99.44
337.966	94.44
338.194	93.44
338.422	107.44
338.65	105.44
338.878	93.44
339.106	84.44
339.334	101.44
339.562	109.44
339.79	99.44
340.018	106.44
340.246	97.44
340.474	101.44
340.702	88.44
340.93	103.44
341.158	84.44
341.386	99.44
341.614	102.44
341.842	95.44
342.07	92.44
342.298	86.44
342.526	85.44
342.754	104.44
342.981	96.44
343.209	102.44
343.437	101.44
343.665	98.44
343.893	89.44
344.12	90.44
344.348	106.44
344.576	93.44
344.804	95.44
345.031	102.44
345.259	87.44
345.487	99.44
345.714	100.44
345.942	98.44
346.17	102.44
346.397	108.44
346.625	97.44
346.853	97.44
347.08	90.44
347.308	89.44
347.535	90.44
347.763	92.44
347.99	113.44
348.218	95.44
348.445	120.44
348.673	104.44
348.9	92.44
349.128	110.44
349.355	108.44
349.583	92.44
349.81	94.44
350.037	89.44
350.265	101.44
350.492	103.44
350.72	105.44
350.947	96.44
351.174	117.44
351.402	115.44
351.629	98.44
351.856	99.44
352.083	105.44
352.311	109.44
352.538	102.44
352.765	123.44
352.992	118.44
353.22	110.44
353.447	109.44
353.674	111.44
353.901	102.44
354.128	103.44
354.355	101.44
354.583	113.44
354.81	125.44
355.037	96.44
355.264	89.44
355.491	98.44
355.718	89.44
355.945	84.44
356.172	100.44
356.399	96.44
356.626	98.44
356.853	93.44
357.08	94.44
357.307	94.44
357.534	107.44
357.761	84.44
357.988	97.44
358.215	107.44
358.441	97.44
358.668	86.44
358.895	92.44
359.122	82.44
359.349	82.44
359.576	112.44
359.802	106.44
360.029	105.44
360.256	116.44
360.483	114.44
360.709	93.44
360.936	106.44
361.163	95.44
361.39	100.44
361.616	116.44
361.843	87.44
362.07	105.44
362.296	89.44
362.523	85.44
362.749	87.44
362.976	101.44
363.203	101.44
363.429	90.44
363.656	97.44
363.882	96.44
364.109	101.44
364.335	94.44
364.562	83.44
364.788	97.44
365.015	106.44
365.241	97.44
365.468	100.44
365.694	112.44
365.92	106.44
366.147	105.44
366.373	94.44
366.599	86.44
366.826	97.44
367.052	110.44
367.278	80.44
367.505	88.44
367.731	106.44
367.957	96.44
368.184	88.44
368.41	100.44
368.636	111.44
368.862	115.44
369.089	116.44
369.315	115.44
369.541	113.44
369.767	97.44
369.993	101.44
370.219	98.44
370.445	91.44
370.672	91.44
370.898	93.44
371.124	87.44
371.35	97.44
371.576	87.44
371.802	81.44
372.028	101.44
372.254	102.44
372.48	107.44
372.706	108.44
372.932	98.44
373.158	86.44
373.384	98.44
373.61	99.44
373.835	87.44
374.061	96.44
374.287	88.44
374.513	80.44
374.739	92.44
374.965	99.44
375.191	91.44
375.416	91.44
375.642	76.44
375.868	98.44
376.094	94.44
376.319	85.44
376.545	94.44
376.771	105.44
376.997	100.44
377.222	110.44
377.448	93.44
377.674	101.44
377.899	97.44
378.125	92.44
378.35	103.44
378.576	105.44
378.802	92.44
379.027	102.44
379.253	102.44
379.478	94.44
379.704	83.44
379.929	97.44
380.155	96.44
380.38	78.44
380.606	97.44
380.831	92.44
381.057	90.44
381.282	80.44
381.507	109.44
381.733	106.44
381.958	92.44
382.184	90.44
382.409	82.44
382.634	88.44
382.86	105.44
383.085	105.44
383.31	85.44
383.535	97.44
383.761	95.44
383.986	111.44
384.211	92.44
384.436	108.44
384.662	99.44
384.887	104.44
385.112	102.44
385.337	90.44
385.562	109.44
385.787	98.44
386.013	112.44
386.238	107.44
386.463	110.44
386.688	113.44
386.913	105.44
387.138	98.44
387.363	99.44
387.588	101.44
387.813	113.44
388.038	110.44
388.263	101.44
388.488	111.44
388.713	104.44
388.938	101.44
389.163	109.44
389.387	111.44
389.612	102.44
389.837	97.44
390.062	98.44
390.287	83.44
390.512	96.44
390.736	83.44
390.961	98.44
391.186	105.44
391.411	98.44
391.636	101.44
391.86	98.44
392.085	92.44
392.31	87.44
392.534	84.44
392.759	102.44
392.984	84.44
393.208	82.44
393.433	90.44
393.658	96.44
393.882	100.44
394.107	70.44
394.331	91.44
394.556	90.44
394.78	100.44
395.005	83.44
395.229	85.44
395.454	90.44
395.678	86.44
395.903	93.44
396.127	89.44
396.352	101.44
396.576	113.44
396.801	98.44
397.025	101.44
397.249	97.44
397.474	98.44
397.698	93.44
397.922	104.44
398.147	76.44
398.371	88.44
398.595	94.44
398.82	94.44
399.044	96.44
399.268	91.44
399.492	104.44
399.717	90.44
399.941	97.44
400.165	95.44
400.389	101.44
400.613	78.44
400.837	95.44
401.062	103.44
401.286	92.44
401.51	92.44
401.734	83.44
401.958	95.44
402.182	121.44
402.406	144.44
402.63	114.44
402.854	97.44
403.078	88.44
403.302	98.44
403.526	105.44
403.75	89.44
403.974	87.44
404.198	97.44
404.422	92.44
404.645	71.44
404.869	85.44
405.093	99.44
405.317	101.44
405.541	103.44
405.765	111.44
405.988	118.44
406.212	169.44
406.436	218.44
406.66	144.44
406.883	103.44
407.107	94.44
407.331	90.44
407.555	108.44
407.778	104.44
408.002	89.44
408.226	86.44
408.449	78.44
408.673	86.44
408.896	94.44
409.12	98.44
409.344	97.44
409.567	108.44
409.791	106.44
410.014	96.44
410.238	96.44
410.461	102.44
410.685	100.44
410.908	111.44
411.132	107.44
411.355	105.44
411.578	103.44
411.802	79.44
412.025	94.44
412.249	79.44
412.472	94.44
412.695	94.44
412.919	86.44
413.142	95.44
413.365	89.44
413.589	104.44
413.812	103.44
414.035	92.44
414.258	99.44
414.482	94.44
414.705	98.44
414.928	95.44
415.151	82.44
415.374	95.44
415.597	95.44
415.821	99.44
416.044	83.44
416.267	78.44
416.49	79.44
416.713	102.44
416.936	103.44
417.159	81.44
417.382	85.44
417.605	94.44
417.828	97.44
418.051	92.44
418.274	80.44
418.497	92.44
418.72	97.44
418.943	94.44
419.166	89.44
419.389	88.44
419.611	79.44
419.834	76.44
420.057	105.44
420.28	94.44
420.503	102.44
420.726	90.44
420.948	98.44
421.171	107.44
421.394	87.44
421.617	100.44
421.839	88.44
422.062	92.44
422.285	102.44
422.507	122.44
422.73	104.44
422.953	75.44
423.175	88.44
423.398	98.44
423.621	76.44
423.843	95.44
424.066	89.44
424.288	89.44
424.511	93.44
424.733	107.44
424.956	97.44
425.178	81.44
425.401	99.44
425.623	92.44
425.846	97.44
426.068	96.44
426.291	88.44
426.513	91.44
426.735	92.44
426.958	97.44
427.18	99.44
427.402	121.44
427.625	147.44
427.847	122.44
428.069	101.44
428.292	114.44
428.514	98.44
428.736	92.44
428.958	90.44
429.181	97.44
429.403	82.44
429.625	91.44
429.847	103.44
430.069	98.44
430.292	97.44
430.514	93.44
430.736	81.44
430.958	92.44
431.18	88.44
431.402	97.44
431.624	96.44
431.846	108.44
432.068	92.44
432.29	95.44
432.512	96.44
432.734	77.44
432.956	94.44
433.178	86.44
433.4	106.44
433.622	94.44
433.844	94.44
434.066	92.44
434.287	86.44
434.509	95.44
434.731	93.44
434.953	102.44
435.175	90.44
435.397	97.44
435.618	94.44
435.84	101.44
436.062	107.44
436.284	106.44
436.505	107.44
436.727	101.44
436.949	88.44
437.17	92.44
437.392	88.44
437.614	78.44
437.835	99.44
438.057	114.44
438.278	114.44
438.5	116.44
438.721	119.44
438.943	94.44
439.165	102.44
439.386	86.44
439.608	96.44
439.829	94.44
440.05	101.44
440.272	125.44
440.493	106.44
440.715	92.44
440.936	100.44
441.158	92.44
441.379	92.44
441.6	102.44
441.822	106.44
442.043	102.44
442.264	96.44
442.486	98.44
442.707	87.44
442.928	113.44
443.149	114.44
443.371	112.44
443.592	110.44
443.813	95.44
444.034	104.44
444.255	105.44
444.476	89.44
444.698	91.44
444.919	82.44
445.14	132.44
445.361	118.44
445.582	109.44
445.803	130.44
446.024	120.44
446.245	114.44
446.466	113.44
446.687	101.44
446.908	98.44
447.129	88.44
447.35	92.44
447.571	89.44
447.792	88.44
448.013	98.44
448.234	124.44
448.455	100.44
448.675	109.44
448.896	111.44
449.117	101.44
449.338	105.44
449.559	133.44
449.779	130.44
450	99.44
450.221	93.44
450.442	81.44
450.662	87.44
450.883	103.44
451.104	98.44
451.324	96.44
451.545	90.44
451.766	85.44
451.986	106.44
452.207	90.44
452.428	109.44
452.648	110.44
452.869	111.44
453.089	111.44
453.31	120.44
453.53	99.44
453.751	79.44
453.971	99.44
454.192	109.44
454.412	101.44
454.633	94.44
454.853	99.44
455.073	93.44
455.294	90.44
455.514	100.44
455.734	98.44
455.955	89.44
456.175	80.44
456.395	90.44
456.616	82.44
456.836	97.44
457.056	109.44
457.276	92.44
457.497	89.44
457.717	82.44
457.937	95.44
458.157	100.44
458.377	101.44
458.598	98.44
458.818	144.44
459.038	164.44
459.258	112.44
459.478	96.44
459.698	93.44
459.918	73.44
460.138	93.44
460.358	87.44
460.578	79.44
460.798	85.44
461.018	83.44
461.238	89.44
461.458	89.44
461.678	103.44
461.898	88.44
462.118	95.44
462.338	108.44
462.558	84.44
462.777	97.44
462.997	101.44
463.217	93.44
463.437	98.44
463.657	95.44
463.876	88.44
464.096	89.44
464.316	88.44
464.536	95.44
464.755	98.44
464.975	105.44
465.195	156.44
465.414	150.44
465.634	90.44
465.854	103.44
466.073	92.44
466.293	102.44
466.512	72.44
466.732	80.44
466.951	93.44
467.171	87.44
467.391	95.44
467.61	117.44
467.829	97.44
468.049	86.44
468.268	80.44
468.488	96.44
468.707	86.44
468.927	94.44
469.146	90.44
469.365	95.44
469.585	94.44
469.804	77.44
470.023	95.44
470.243	88.44
470.462	97.44
470.681	106.44
470.901	98.44
471.12	92.44
471.339	93.44
471.558	88.44
471.777	90.44
471.997	85.44
472.216	87.44
472.435	100.44
472.654	97.44
472.873	106.44
473.092	83.44
473.311	82.44
473.53	93.44
473.749	83.44
473.968	90.44
474.187	90.44
474.406	103.44
474.625	96.44
474.844	95.44
475.063	102.44
475.282	88.44
475.501	94.44
475.72	96.44
475.939	92.44
476.158	88.44
476.377	83.44
476.596	97.44
476.814	115.44
477.033	105.44
477.252	82.44
477.471	78.44
477.69	87.44
477.908	100.44
478.127	88.44
478.346	86.44
478.564	88.44
478.783	101.44
479.002	95.44
479.22	105.44
479.439	93.44
479.658	98.44
479.876	98.44
480.095	111.44
480.313	83.44
480.532	93.44
480.751	91.44
480.969	86.44
481.188	105.44
481.406	96.44
481.624	101.44
481.843	92.44
482.061	93.44
482.28	88.44
482.498	96.44
482.717	94.44
482.935	99.44
483.153	99.44
483.372	93.44
483.59	94.44
483.808	100.44
484.027	78.44
484.245	108.44
484.463	94.44
484.681	92.44
484.9	101.44
485.118	106.44
485.336	88.44
485.554	92.44
485.772	98.44
485.99	102.44
486.209	97.44
486.427	110.44
486.645	122.44
486.863	100.44
487.081	101.44
487.299	99.44
487.517	101.44
487.735	89.44
487.953	90.44
488.171	111.44
488.389	96.44
488.607	103.44
488.825	85.44
489.043	86.44
489.261	92.44
489.479	97.44
489.696	87.44
489.914	90.44
490.132	105.44
490.35	83.44
490.568	91.44
490.786	84.44
491.003	71.44
491.221	81.44
491.439	90.44
491.657	104.44
491.874	103.44
492.092	94.44
492.31	89.44
492.527	76.44
492.745	87.44
492.963	85.44
493.18	91.44
493.398	93.44
493.615	90.44
493.833	89.44
494.05	92.44
494.268	88.44
494.485	101.44
494.703	104.44
494.92	102.44
495.138	83.44
495.355	89.44
495.573	89.44
495.79	103.44
496.008	102.44
496.225	97.44
496.442	96.44
496.66	77.44
496.877	87.44
497.094	105.44
497.312	98.44
497.529	89.44
497.746	94.44
497.963	85.44
498.181	89.44
498.398	87.44
498.615	105.44
498.832	104.44
499.049	104.44
499.267	99.44
499.484	100.44
499.701	94.44
499.918	97.44
500.135	96.44
500.352	76.44
500.569	95.44
500.786	101.44
501.003	89.44
501.22	82.44
501.437	97.44
501.654	93.44
501.871	95.44
502.088	93.44
502.305	101.44
502.522	89.44
502.739	93.44
502.956	89.44
503.172	100.44
503.389	113.44
503.606	110.44
503.823	104.44
504.04	109.44
504.256	84.44
504.473	92.44
504.69	101.44
504.907	77.44
505.123	86.44
505.34	99.44
505.557	90.44
505.773	96.44
505.99	84.44
506.207	84.44
506.423	80.44
506.64	98.44
506.856	106.44
507.073	85.44
507.289	98.44
507.506	103.44
507.722	116.44
507.939	117.44
508.155	93.44
508.372	103.44
508.588	103.44
508.805	106.44
509.021	83.44
509.238	92.44
509.454	105.44
509.67	110.44
509.887	110.44
510.103	129.44
510.319	210.44
510.536	739.44
510.752	2210.44
510.968	635.44
511.184	168.44
511.401	124.44
511.617	110.44
511.833	88.44
512.049	94.44
512.265	101.44
512.481	89.44
512.698	80.44
512.914	92.44
513.13	88.44
513.346	84.44
513.562	100.44
513.778	92.44
