Data from Uncirc_1993_H10_HRD10591_00029.txt Node
Date: Wed Jan 03 11:42:58 EST 2024
User: Yrep
Spectrometer: HR+D1059
Trigger mode: 1
Integration Time (sec): 1.000000E-1
Scans to average: 1
Electric dark correction enabled: true
Nonlinearity correction enabled: false
Boxcar width: 0
XAxis mode: Wavelengths
Number of Pixels in Spectrum: 2048
>>>>>Begin Spectral Data<<<<<
223.165	-18.94
223.4	-18.94
223.635	-18.94
223.869	-16.94
224.104	-32.94
224.338	-25.94
224.573	-15.94
224.808	-12.94
225.042	-6.94
225.277	-3.94
225.511	2.06
225.746	8.06
225.98	18.06
226.215	23.06
226.449	23.06
226.683	5.06
226.918	19.06
227.152	36.06
227.387	42.06
227.621	47.06
227.856	48.06
228.09	65.06
228.324	54.06
228.559	64.06
228.793	62.06
229.027	71.06
229.262	81.06
229.496	70.06
229.73	88.06
229.964	90.06
230.199	83.06
230.433	73.06
230.667	86.06
230.901	85.06
231.136	71.06
231.37	81.06
231.604	79.06
231.838	88.06
232.072	75.06
232.306	78.06
232.541	79.06
232.775	91.06
233.009	86.06
233.243	89.06
233.477	91.06
233.711	85.06
233.945	72.06
234.179	83.06
234.413	78.06
234.647	93.06
234.881	80.06
235.115	83.06
235.349	83.06
235.583	79.06
235.817	72.06
236.051	88.06
236.285	84.06
236.519	75.06
236.753	77.06
236.987	79.06
237.221	86.06
237.455	99.06
237.689	81.06
237.922	88.06
238.156	88.06
238.39	81.06
238.624	86.06
238.858	79.06
239.091	87.06
239.325	88.06
239.559	75.06
239.793	84.06
240.027	93.06
240.26	79.06
240.494	83.06
240.728	87.06
240.961	81.06
241.195	73.06
241.429	84.06
241.662	83.06
241.896	79.06
242.13	66.06
242.363	81.06
242.597	88.06
242.83	66.06
243.064	82.06
243.298	59.06
243.531	75.06
243.765	77.06
243.998	73.06
244.232	76.06
244.465	75.06
244.699	82.06
244.932	97.06
245.166	95.06
245.399	68.06
245.633	81.06
245.866	79.06
246.099	87.06
246.333	85.06
246.566	77.06
246.8	84.06
247.033	77.06
247.266	78.06
247.5	81.06
247.733	107.06
247.966	77.06
248.2	79.06
248.433	84.06
248.666	95.06
248.899	86.06
249.133	94.06
249.366	104.06
249.599	101.06
249.832	73.06
250.066	88.06
250.299	81.06
250.532	84.06
250.765	85.06
250.998	70.06
251.231	79.06
251.465	83.06
251.698	85.06
251.931	76.06
252.164	81.06
252.397	75.06
252.63	86.06
252.863	78.06
253.096	94.06
253.329	79.06
253.562	96.06
253.795	88.06
254.028	73.06
254.261	83.06
254.494	80.06
254.727	97.06
254.96	78.06
255.193	82.06
255.426	85.06
255.659	86.06
255.892	77.06
256.124	73.06
256.357	91.06
256.59	80.06
256.823	86.06
257.056	81.06
257.289	71.06
257.521	83.06
257.754	73.06
257.987	82.06
258.22	91.06
258.452	84.06
258.685	96.06
258.918	80.06
259.151	76.06
259.383	86.06
259.616	94.06
259.849	102.06
260.081	92.06
260.314	100.06
260.547	79.06
260.779	89.06
261.012	81.06
261.244	85.06
261.477	83.06
261.71	79.06
261.942	87.06
262.175	115.06
262.407	95.06
262.64	89.06
262.872	81.06
263.105	98.06
263.337	90.06
263.57	89.06
263.802	83.06
264.035	85.06
264.267	76.06
264.499	80.06
264.732	90.06
264.964	77.06
265.197	82.06
265.429	72.06
265.661	82.06
265.894	69.06
266.126	83.06
266.358	91.06
266.591	96.06
266.823	97.06
267.055	84.06
267.287	68.06
267.52	91.06
267.752	80.06
267.984	66.06
268.216	69.06
268.448	92.06
268.681	91.06
268.913	83.06
269.145	92.06
269.377	81.06
269.609	84.06
269.841	73.06
270.073	94.06
270.306	84.06
270.538	79.06
270.77	94.06
271.002	83.06
271.234	85.06
271.466	87.06
271.698	77.06
271.93	80.06
272.162	83.06
272.394	88.06
272.626	83.06
272.858	95.06
273.09	87.06
273.322	96.06
273.553	86.06
273.785	83.06
274.017	88.06
274.249	89.06
274.481	91.06
274.713	95.06
274.945	82.06
275.176	85.06
275.408	81.06
275.64	86.06
275.872	98.06
276.104	87.06
276.335	104.06
276.567	103.06
276.799	110.06
277.031	94.06
277.262	108.06
277.494	73.06
277.726	70.06
277.957	73.06
278.189	81.06
278.421	90.06
278.652	87.06
278.884	85.06
279.115	80.06
279.347	95.06
279.579	96.06
279.81	87.06
280.042	88.06
280.273	78.06
280.505	83.06
280.736	97.06
280.968	82.06
281.199	82.06
281.431	95.06
281.662	103.06
281.894	93.06
282.125	91.06
282.356	110.06
282.588	128.06
282.819	112.06
283.051	98.06
283.282	92.06
283.513	93.06
283.745	93.06
283.976	86.06
284.207	92.06
284.439	87.06
284.67	73.06
284.901	67.06
285.132	95.06
285.364	88.06
285.595	94.06
285.826	98.06
286.057	94.06
286.288	85.06
286.52	91.06
286.751	84.06
286.982	91.06
287.213	102.06
287.444	85.06
287.675	95.06
287.906	80.06
288.138	76.06
288.369	95.06
288.6	108.06
288.831	83.06
289.062	80.06
289.293	81.06
289.524	80.06
289.755	91.06
289.986	87.06
290.217	85.06
290.448	75.06
290.679	88.06
290.91	93.06
291.141	95.06
291.371	85.06
291.602	86.06
291.833	77.06
292.064	92.06
292.295	103.06
292.526	81.06
292.757	89.06
292.987	90.06
293.218	92.06
293.449	94.06
293.68	92.06
293.91	87.06
294.141	97.06
294.372	93.06
294.603	96.06
294.833	77.06
295.064	95.06
295.295	95.06
295.525	82.06
295.756	99.06
295.987	106.06
296.217	118.06
296.448	124.06
296.679	98.06
296.909	96.06
297.14	110.06
297.37	101.06
297.601	111.06
297.831	92.06
298.062	91.06
298.292	95.06
298.523	90.06
298.753	82.06
298.984	81.06
299.214	95.06
299.445	95.06
299.675	94.06
299.905	94.06
300.136	84.06
300.366	93.06
300.597	94.06
300.827	99.06
301.057	101.06
301.288	99.06
301.518	106.06
301.748	84.06
301.979	96.06
302.209	111.06
302.439	81.06
302.669	92.06
302.9	94.06
303.13	100.06
303.36	97.06
303.59	112.06
303.82	104.06
304.051	104.06
304.281	96.06
304.511	91.06
304.741	83.06
304.971	89.06
305.201	79.06
305.431	103.06
305.661	100.06
305.891	87.06
306.121	96.06
306.352	113.06
306.582	105.06
306.812	95.06
307.042	89.06
307.272	91.06
307.502	87.06
307.731	96.06
307.961	89.06
308.191	79.06
308.421	87.06
308.651	84.06
308.881	95.06
309.111	106.06
309.341	112.06
309.571	104.06
309.8	99.06
310.03	100.06
310.26	104.06
310.49	110.06
310.72	98.06
310.949	102.06
311.179	105.06
311.409	92.06
311.639	94.06
311.868	107.06
312.098	98.06
312.328	89.06
312.557	112.06
312.787	110.06
313.017	95.06
313.246	106.06
313.476	96.06
313.706	98.06
313.935	101.06
314.165	103.06
314.394	98.06
314.624	100.06
314.853	97.06
315.083	97.06
315.312	88.06
315.542	89.06
315.771	98.06
316.001	94.06
316.23	105.06
316.46	85.06
316.689	100.06
316.919	88.06
317.148	98.06
317.377	95.06
317.607	85.06
317.836	100.06
318.065	101.06
318.295	97.06
318.524	91.06
318.753	88.06
318.983	103.06
319.212	95.06
319.441	96.06
319.67	108.06
319.9	93.06
320.129	103.06
320.358	95.06
320.587	96.06
320.816	96.06
321.046	99.06
321.275	91.06
321.504	97.06
321.733	112.06
321.962	98.06
322.191	99.06
322.42	105.06
322.649	111.06
322.878	102.06
323.108	116.06
323.337	123.06
323.566	131.06
323.795	145.06
324.024	203.06
324.253	333.06
324.482	635.06
324.71	1299.06
324.939	1664.06
325.168	652.06
325.397	225.06
325.626	139.06
325.855	113.06
326.084	108.06
326.313	116.06
326.542	133.06
326.77	190.06
326.999	365.06
327.228	749.06
327.457	1304.06
327.686	1006.06
327.914	291.06
328.143	172.06
328.372	121.06
328.6	118.06
328.829	112.06
329.058	120.06
329.287	116.06
329.515	100.06
329.744	97.06
329.972	91.06
330.201	102.06
330.43	109.06
330.658	116.06
330.887	119.06
331.115	112.06
331.344	102.06
331.572	95.06
331.801	103.06
332.03	99.06
332.258	110.06
332.486	89.06
332.715	100.06
332.943	100.06
333.172	86.06
333.4	93.06
333.629	127.06
333.857	102.06
334.085	94.06
334.314	99.06
334.542	91.06
334.771	97.06
334.999	83.06
335.227	83.06
335.455	92.06
335.684	103.06
335.912	109.06
336.14	91.06
336.369	89.06
336.597	98.06
336.825	89.06
337.053	95.06
337.281	85.06
337.51	100.06
337.738	96.06
337.966	93.06
338.194	112.06
338.422	70.06
338.65	96.06
338.878	99.06
339.106	96.06
339.334	84.06
339.562	88.06
339.79	96.06
340.018	80.06
340.246	83.06
340.474	85.06
340.702	87.06
340.93	99.06
341.158	99.06
341.386	102.06
341.614	102.06
341.842	102.06
342.07	95.06
342.298	97.06
342.526	101.06
342.754	105.06
342.981	90.06
343.209	89.06
343.437	111.06
343.665	80.06
343.893	101.06
344.12	102.06
344.348	96.06
344.576	84.06
344.804	85.06
345.031	88.06
345.259	92.06
345.487	99.06
345.714	97.06
345.942	99.06
346.17	94.06
346.397	85.06
346.625	102.06
346.853	85.06
347.08	96.06
347.308	94.06
347.535	92.06
347.763	100.06
347.99	94.06
348.218	91.06
348.445	96.06
348.673	102.06
348.9	93.06
349.128	91.06
349.355	89.06
349.583	106.06
349.81	87.06
350.037	98.06
350.265	111.06
350.492	101.06
350.72	102.06
350.947	93.06
351.174	111.06
351.402	108.06
351.629	119.06
351.856	91.06
352.083	95.06
352.311	97.06
352.538	111.06
352.765	109.06
352.992	110.06
353.22	105.06
353.447	117.06
353.674	95.06
353.901	92.06
354.128	85.06
354.355	107.06
354.583	98.06
354.81	96.06
355.037	101.06
355.264	96.06
355.491	101.06
355.718	92.06
355.945	91.06
356.172	94.06
356.399	102.06
356.626	95.06
356.853	91.06
357.08	96.06
357.307	94.06
357.534	97.06
357.761	97.06
357.988	95.06
358.215	96.06
358.441	93.06
358.668	79.06
358.895	96.06
359.122	86.06
359.349	89.06
359.576	98.06
359.802	92.06
360.029	118.06
360.256	107.06
360.483	112.06
360.709	104.06
360.936	95.06
361.163	87.06
361.39	99.06
361.616	83.06
361.843	89.06
362.07	84.06
362.296	99.06
362.523	79.06
362.749	95.06
362.976	99.06
363.203	91.06
363.429	95.06
363.656	95.06
363.882	92.06
364.109	99.06
364.335	104.06
364.562	92.06
364.788	92.06
365.015	101.06
365.241	95.06
365.468	103.06
365.694	96.06
365.92	91.06
366.147	87.06
366.373	89.06
366.599	90.06
366.826	94.06
367.052	89.06
367.278	101.06
367.505	94.06
367.731	94.06
367.957	103.06
368.184	99.06
368.41	109.06
368.636	95.06
368.862	119.06
369.089	97.06
369.315	94.06
369.541	91.06
369.767	83.06
369.993	81.06
370.219	84.06
370.445	94.06
370.672	90.06
370.898	97.06
371.124	84.06
371.35	90.06
371.576	90.06
371.802	81.06
372.028	97.06
372.254	87.06
372.48	92.06
372.706	78.06
372.932	90.06
373.158	91.06
373.384	91.06
373.61	81.06
373.835	99.06
374.061	85.06
374.287	100.06
374.513	93.06
374.739	94.06
374.965	91.06
375.191	97.06
375.416	80.06
375.642	85.06
375.868	94.06
376.094	107.06
376.319	77.06
376.545	88.06
376.771	92.06
376.997	97.06
377.222	88.06
377.448	85.06
377.674	88.06
377.899	81.06
378.125	102.06
378.35	91.06
378.576	89.06
378.802	93.06
379.027	96.06
379.253	82.06
379.478	95.06
379.704	105.06
379.929	81.06
380.155	98.06
380.38	103.06
380.606	103.06
380.831	99.06
381.057	96.06
381.282	99.06
381.507	85.06
381.733	87.06
381.958	76.06
382.184	104.06
382.409	94.06
382.634	111.06
382.86	100.06
383.085	99.06
383.31	99.06
383.535	103.06
383.761	96.06
383.986	102.06
384.211	102.06
384.436	90.06
384.662	96.06
384.887	109.06
385.112	97.06
385.337	100.06
385.562	88.06
385.787	87.06
386.013	103.06
386.238	109.06
386.463	104.06
386.688	118.06
386.913	112.06
387.138	122.06
387.363	103.06
387.588	86.06
387.813	86.06
388.038	98.06
388.263	107.06
388.488	119.06
388.713	103.06
388.938	102.06
389.163	93.06
389.387	106.06
389.612	88.06
389.837	105.06
390.062	103.06
390.287	98.06
390.512	98.06
390.736	90.06
390.961	96.06
391.186	85.06
391.411	119.06
391.636	90.06
391.86	93.06
392.085	94.06
392.31	85.06
392.534	96.06
392.759	103.06
392.984	97.06
393.208	93.06
393.433	88.06
393.658	90.06
393.882	73.06
394.107	88.06
394.331	94.06
394.556	85.06
394.78	91.06
395.005	88.06
395.229	88.06
395.454	83.06
395.678	79.06
395.903	87.06
396.127	90.06
396.352	108.06
396.576	96.06
396.801	100.06
397.025	99.06
397.249	97.06
397.474	84.06
397.698	93.06
397.922	89.06
398.147	102.06
398.371	77.06
398.595	97.06
398.82	84.06
399.044	94.06
399.268	87.06
399.492	96.06
399.717	93.06
399.941	89.06
400.165	105.06
400.389	105.06
400.613	96.06
400.837	95.06
401.062	81.06
401.286	73.06
401.51	84.06
401.734	112.06
401.958	99.06
402.182	122.06
402.406	148.06
402.63	109.06
402.854	84.06
403.078	84.06
403.302	88.06
403.526	99.06
403.75	88.06
403.974	81.06
404.198	95.06
404.422	93.06
404.645	86.06
404.869	73.06
405.093	86.06
405.317	99.06
405.541	100.06
405.765	111.06
405.988	113.06
406.212	149.06
406.436	194.06
406.66	142.06
406.883	91.06
407.107	87.06
407.331	84.06
407.555	96.06
407.778	94.06
408.002	95.06
408.226	90.06
408.449	75.06
408.673	90.06
408.896	97.06
409.12	87.06
409.344	89.06
409.567	80.06
409.791	101.06
410.014	89.06
410.238	92.06
410.461	78.06
410.685	103.06
410.908	90.06
411.132	117.06
411.355	107.06
411.578	101.06
411.802	91.06
412.025	89.06
412.249	89.06
412.472	99.06
412.695	92.06
412.919	96.06
413.142	80.06
413.365	103.06
413.589	85.06
413.812	104.06
414.035	93.06
414.258	91.06
414.482	96.06
414.705	89.06
414.928	95.06
415.151	94.06
415.374	98.06
415.597	87.06
415.821	99.06
416.044	87.06
416.267	93.06
416.49	91.06
416.713	75.06
416.936	77.06
417.159	82.06
417.382	85.06
417.605	86.06
417.828	84.06
418.051	93.06
418.274	88.06
418.497	99.06
418.72	83.06
418.943	95.06
419.166	89.06
419.389	99.06
419.611	105.06
419.834	93.06
420.057	96.06
420.28	102.06
420.503	87.06
420.726	91.06
420.948	82.06
421.171	86.06
421.394	98.06
421.617	93.06
421.839	95.06
422.062	88.06
422.285	90.06
422.507	102.06
422.73	101.06
422.953	90.06
423.175	89.06
423.398	87.06
423.621	92.06
423.843	93.06
424.066	89.06
424.288	94.06
424.511	81.06
424.733	104.06
424.956	112.06
425.178	107.06
425.401	100.06
425.623	103.06
425.846	109.06
426.068	98.06
426.291	91.06
426.513	94.06
426.735	90.06
426.958	100.06
427.18	93.06
427.402	127.06
427.625	151.06
427.847	117.06
428.069	109.06
428.292	92.06
428.514	80.06
428.736	95.06
428.958	90.06
429.181	93.06
429.403	99.06
429.625	91.06
429.847	90.06
430.069	108.06
430.292	83.06
430.514	73.06
430.736	100.06
430.958	100.06
431.18	80.06
431.402	84.06
431.624	96.06
431.846	92.06
432.068	94.06
432.29	87.06
432.512	92.06
432.734	98.06
432.956	79.06
433.178	84.06
433.4	110.06
433.622	92.06
433.844	101.06
434.066	90.06
434.287	95.06
434.509	92.06
434.731	91.06
434.953	100.06
435.175	89.06
435.397	84.06
435.618	79.06
435.84	109.06
436.062	97.06
436.284	120.06
436.505	89.06
436.727	93.06
436.949	102.06
437.17	103.06
437.392	75.06
437.614	81.06
437.835	102.06
438.057	109.06
438.278	98.06
438.5	89.06
438.721	114.06
438.943	97.06
439.165	99.06
439.386	92.06
439.608	100.06
439.829	75.06
440.05	100.06
440.272	124.06
440.493	103.06
440.715	83.06
440.936	100.06
441.158	99.06
441.379	107.06
441.6	93.06
441.822	102.06
442.043	91.06
442.264	105.06
442.486	103.06
442.707	93.06
442.928	103.06
443.149	132.06
443.371	113.06
443.592	109.06
443.813	102.06
444.034	98.06
444.255	78.06
444.476	92.06
444.698	82.06
444.919	89.06
445.14	129.06
445.361	116.06
445.582	112.06
445.803	136.06
446.024	98.06
446.245	109.06
446.466	102.06
446.687	88.06
446.908	92.06
447.129	88.06
447.35	94.06
447.571	97.06
447.792	90.06
448.013	92.06
448.234	95.06
448.455	107.06
448.675	100.06
448.896	101.06
449.117	97.06
449.338	102.06
449.559	115.06
449.779	126.06
450	99.06
450.221	93.06
450.442	82.06
450.662	96.06
450.883	99.06
451.104	128.06
451.324	97.06
451.545	66.06
451.766	83.06
451.986	89.06
452.207	93.06
452.428	89.06
452.648	111.06
452.869	105.06
453.089	109.06
453.31	105.06
453.53	94.06
453.751	81.06
453.971	112.06
454.192	110.06
454.412	94.06
454.633	94.06
454.853	88.06
455.073	88.06
455.294	82.06
455.514	96.06
455.734	99.06
455.955	94.06
456.175	96.06
456.395	89.06
456.616	83.06
456.836	84.06
457.056	88.06
457.276	84.06
457.497	80.06
457.717	80.06
457.937	108.06
458.157	92.06
458.377	97.06
458.598	111.06
458.818	144.06
459.038	144.06
459.258	84.06
459.478	80.06
459.698	85.06
459.918	85.06
460.138	91.06
460.358	88.06
460.578	94.06
460.798	102.06
461.018	91.06
461.238	101.06
461.458	95.06
461.678	81.06
461.898	96.06
462.118	92.06
462.338	90.06
462.558	92.06
462.777	95.06
462.997	95.06
463.217	96.06
463.437	83.06
463.657	83.06
463.876	101.06
464.096	91.06
464.316	91.06
464.536	104.06
464.755	99.06
464.975	100.06
465.195	166.06
465.414	147.06
465.634	85.06
465.854	75.06
466.073	79.06
466.293	86.06
466.512	87.06
466.732	97.06
466.951	87.06
467.171	91.06
467.391	96.06
467.61	97.06
467.829	89.06
468.049	83.06
468.268	92.06
468.488	96.06
468.707	80.06
468.927	86.06
469.146	88.06
469.365	82.06
469.585	79.06
469.804	107.06
470.023	102.06
470.243	94.06
470.462	113.06
470.681	96.06
470.901	98.06
471.12	72.06
471.339	94.06
471.558	87.06
471.777	89.06
471.997	104.06
472.216	101.06
472.435	83.06
472.654	95.06
472.873	84.06
473.092	81.06
473.311	77.06
473.53	90.06
473.749	88.06
473.968	107.06
474.187	99.06
474.406	90.06
474.625	82.06
474.844	85.06
475.063	82.06
475.282	88.06
475.501	82.06
475.72	95.06
475.939	102.06
476.158	96.06
476.377	80.06
476.596	101.06
476.814	90.06
477.033	88.06
477.252	82.06
477.471	78.06
477.69	97.06
477.908	89.06
478.127	93.06
478.346	92.06
478.564	87.06
478.783	85.06
479.002	103.06
479.22	98.06
479.439	95.06
479.658	109.06
479.876	93.06
480.095	88.06
480.313	92.06
480.532	88.06
480.751	100.06
480.969	93.06
481.188	101.06
481.406	99.06
481.624	97.06
481.843	98.06
482.061	86.06
482.28	92.06
482.498	109.06
482.717	88.06
482.935	83.06
483.153	97.06
483.372	104.06
483.59	97.06
483.808	81.06
484.027	109.06
484.245	92.06
484.463	98.06
484.681	80.06
484.9	104.06
485.118	88.06
485.336	104.06
485.554	95.06
485.772	106.06
485.99	100.06
486.209	116.06
486.427	103.06
486.645	102.06
486.863	110.06
487.081	98.06
487.299	102.06
487.517	97.06
487.735	97.06
487.953	84.06
488.171	98.06
488.389	96.06
488.607	96.06
488.825	89.06
489.043	105.06
489.261	91.06
489.479	92.06
489.696	92.06
489.914	96.06
490.132	72.06
490.35	81.06
490.568	86.06
490.786	99.06
491.003	101.06
491.221	87.06
491.439	84.06
491.657	95.06
491.874	101.06
492.092	109.06
492.31	100.06
492.527	87.06
492.745	90.06
492.963	91.06
493.18	98.06
493.398	83.06
493.615	90.06
493.833	100.06
494.05	91.06
494.268	105.06
494.485	100.06
494.703	91.06
494.92	75.06
495.138	100.06
495.355	94.06
495.573	94.06
495.79	100.06
496.008	113.06
496.225	92.06
496.442	90.06
496.66	104.06
496.877	89.06
497.094	105.06
497.312	101.06
497.529	98.06
497.746	89.06
497.963	91.06
498.181	102.06
498.398	105.06
498.615	112.06
498.832	108.06
499.049	102.06
499.267	100.06
499.484	93.06
499.701	90.06
499.918	86.06
500.135	97.06
500.352	88.06
500.569	86.06
500.786	82.06
501.003	108.06
501.22	95.06
501.437	81.06
501.654	81.06
501.871	88.06
502.088	104.06
502.305	92.06
502.522	89.06
502.739	90.06
502.956	87.06
503.172	96.06
503.389	96.06
503.606	102.06
503.823	97.06
504.04	112.06
504.256	83.06
504.473	90.06
504.69	89.06
504.907	93.06
505.123	87.06
505.34	95.06
505.557	80.06
505.773	86.06
505.99	97.06
506.207	88.06
506.423	84.06
506.64	91.06
506.856	95.06
507.073	91.06
507.289	99.06
507.506	97.06
507.722	119.06
507.939	109.06
508.155	99.06
508.372	100.06
508.588	105.06
508.805	94.06
509.021	99.06
509.238	104.06
509.454	105.06
509.67	89.06
509.887	124.06
510.103	133.06
510.319	183.06
510.536	700.06
510.752	1974.06
510.968	562.06
511.184	158.06
511.401	110.06
511.617	114.06
511.833	93.06
512.049	101.06
512.265	95.06
512.481	90.06
512.698	97.06
512.914	87.06
513.13	98.06
513.346	95.06
513.562	95.06
513.778	95.06
513.994	95.06
514.21	106.06
514.426	121.06
514.642	131.06
514.858	129.06
515.074	132.06
515.29	376.06
