Data from Uncirc_1993_H10_HRD10591_00082.txt Node
Date: Wed Jan 03 11:43:08 EST 2024
User: Yrep
Spectrometer: HR+D1059
Trigger mode: 1
Integration Time (sec): 1.000000E-1
Scans to average: 1
Electric dark correction enabled: true
Nonlinearity correction enabled: false
Boxcar width: 0
XAxis mode: Wavelengths
Number of Pixels in Spectrum: 2048
>>>>>Begin Spectral Data<<<<<
223.165	-20.44
223.4	-20.44
223.635	-20.44
223.869	-27.44
224.104	-17.44
224.338	-21.44
224.573	-14.44
224.808	-15.44
225.042	-1.44
225.277	-8.44
225.511	3.56
225.746	3.56
225.98	-3.44
226.215	3.56
226.449	24.56
226.683	24.56
226.918	33.56
227.152	36.56
227.387	36.56
227.621	34.56
227.856	37.56
228.09	41.56
228.324	38.56
228.559	54.56
228.793	53.56
229.027	57.56
229.262	78.56
229.496	66.56
229.73	82.56
229.964	85.56
230.199	71.56
230.433	73.56
230.667	74.56
230.901	77.56
231.136	73.56
231.37	83.56
231.604	71.56
231.838	89.56
232.072	76.56
232.306	79.56
232.541	81.56
232.775	67.56
233.009	103.56
233.243	59.56
233.477	76.56
233.711	80.56
233.945	73.56
234.179	72.56
234.413	74.56
234.647	76.56
234.881	80.56
235.115	75.56
235.349	79.56
235.583	79.56
235.817	76.56
236.051	87.56
236.285	94.56
236.519	59.56
236.753	68.56
236.987	82.56
237.221	94.56
237.455	65.56
237.689	69.56
237.922	73.56
238.156	61.56
238.39	67.56
238.624	88.56
238.858	89.56
239.091	95.56
239.325	65.56
239.559	76.56
239.793	90.56
240.027	83.56
240.26	65.56
240.494	89.56
240.728	77.56
240.961	79.56
241.195	91.56
241.429	79.56
241.662	77.56
241.896	87.56
242.13	81.56
242.363	82.56
242.597	79.56
242.83	77.56
243.064	63.56
243.298	71.56
243.531	80.56
243.765	74.56
243.998	68.56
244.232	80.56
244.465	87.56
244.699	78.56
244.932	79.56
245.166	71.56
245.399	82.56
245.633	81.56
245.866	76.56
246.099	79.56
246.333	77.56
246.566	73.56
246.8	84.56
247.033	75.56
247.266	79.56
247.5	85.56
247.733	95.56
247.966	71.56
248.2	89.56
248.433	89.56
248.666	72.56
248.899	67.56
249.133	73.56
249.366	96.56
249.599	103.56
249.832	73.56
250.066	73.56
250.299	64.56
250.532	73.56
250.765	81.56
250.998	73.56
251.231	84.56
251.465	73.56
251.698	87.56
251.931	81.56
252.164	79.56
252.397	68.56
252.63	82.56
252.863	82.56
253.096	71.56
253.329	83.56
253.562	95.56
253.795	85.56
254.028	93.56
254.261	79.56
254.494	76.56
254.727	95.56
254.96	73.56
255.193	77.56
255.426	80.56
255.659	72.56
255.892	75.56
256.124	75.56
256.357	91.56
256.59	69.56
256.823	75.56
257.056	75.56
257.289	75.56
257.521	86.56
257.754	88.56
257.987	99.56
258.22	79.56
258.452	73.56
258.685	77.56
258.918	93.56
259.151	76.56
259.383	83.56
259.616	85.56
259.849	83.56
260.081	76.56
260.314	85.56
260.547	87.56
260.779	89.56
261.012	77.56
261.244	71.56
261.477	86.56
261.71	90.56
261.942	115.56
262.175	101.56
262.407	94.56
262.64	85.56
262.872	86.56
263.105	83.56
263.337	73.56
263.57	93.56
263.802	87.56
264.035	79.56
264.267	75.56
264.499	83.56
264.732	90.56
264.964	73.56
265.197	82.56
265.429	88.56
265.661	78.56
265.894	92.56
266.126	97.56
266.358	75.56
266.591	88.56
266.823	87.56
267.055	68.56
267.287	75.56
267.52	73.56
267.752	82.56
267.984	88.56
268.216	78.56
268.448	77.56
268.681	82.56
268.913	81.56
269.145	72.56
269.377	86.56
269.609	88.56
269.841	77.56
270.073	88.56
270.306	87.56
270.538	102.56
270.77	87.56
271.002	97.56
271.234	77.56
271.466	99.56
271.698	89.56
271.93	91.56
272.162	84.56
272.394	86.56
272.626	84.56
272.858	76.56
273.09	79.56
273.322	80.56
273.553	76.56
273.785	82.56
274.017	86.56
274.249	91.56
274.481	83.56
274.713	79.56
274.945	90.56
275.176	74.56
275.408	92.56
275.64	92.56
275.872	97.56
276.104	82.56
276.335	78.56
276.567	82.56
276.799	120.56
277.031	87.56
277.262	87.56
277.494	90.56
277.726	81.56
277.957	79.56
278.189	67.56
278.421	85.56
278.652	83.56
278.884	82.56
279.115	97.56
279.347	99.56
279.579	95.56
279.81	85.56
280.042	84.56
280.273	85.56
280.505	83.56
280.736	82.56
280.968	88.56
281.199	73.56
281.431	84.56
281.662	89.56
281.894	82.56
282.125	101.56
282.356	113.56
282.588	133.56
282.819	104.56
283.051	91.56
283.282	89.56
283.513	85.56
283.745	98.56
283.976	91.56
284.207	83.56
284.439	83.56
284.67	97.56
284.901	89.56
285.132	77.56
285.364	78.56
285.595	88.56
285.826	73.56
286.057	66.56
286.288	87.56
286.52	94.56
286.751	93.56
286.982	81.56
287.213	88.56
287.444	94.56
287.675	81.56
287.906	84.56
288.138	74.56
288.369	90.56
288.6	88.56
288.831	85.56
289.062	92.56
289.293	93.56
289.524	84.56
289.755	91.56
289.986	83.56
290.217	91.56
290.448	99.56
290.679	89.56
290.91	96.56
291.141	84.56
291.371	93.56
291.602	88.56
291.833	82.56
292.064	81.56
292.295	92.56
292.526	87.56
292.757	88.56
292.987	99.56
293.218	89.56
293.449	83.56
293.68	93.56
293.91	77.56
294.141	80.56
294.372	92.56
294.603	95.56
294.833	77.56
295.064	90.56
295.295	79.56
295.525	85.56
295.756	100.56
295.987	121.56
296.217	140.56
296.448	128.56
296.679	89.56
296.909	83.56
297.14	88.56
297.37	85.56
297.601	91.56
297.831	80.56
298.062	85.56
298.292	102.56
298.523	81.56
298.753	87.56
298.984	99.56
299.214	88.56
299.445	88.56
299.675	93.56
299.905	98.56
300.136	91.56
300.366	75.56
300.597	95.56
300.827	88.56
301.057	90.56
301.288	109.56
301.518	89.56
301.748	81.56
301.979	91.56
302.209	101.56
302.439	82.56
302.669	84.56
302.9	91.56
303.13	83.56
303.36	94.56
303.59	111.56
303.82	94.56
304.051	96.56
304.281	107.56
304.511	83.56
304.741	85.56
304.971	80.56
305.201	90.56
305.431	85.56
305.661	95.56
305.891	92.56
306.121	87.56
306.352	99.56
306.582	98.56
306.812	90.56
307.042	90.56
307.272	83.56
307.502	82.56
307.731	84.56
307.961	79.56
308.191	89.56
308.421	90.56
308.651	89.56
308.881	91.56
309.111	84.56
309.341	79.56
309.571	89.56
309.8	81.56
310.03	97.56
310.26	93.56
310.49	95.56
310.72	89.56
310.949	103.56
311.179	101.56
311.409	87.56
311.639	92.56
311.868	91.56
312.098	96.56
312.328	104.56
312.557	110.56
312.787	108.56
313.017	96.56
313.246	100.56
313.476	75.56
313.706	87.56
313.935	92.56
314.165	94.56
314.394	100.56
314.624	101.56
314.853	93.56
315.083	101.56
315.312	89.56
315.542	88.56
315.771	92.56
316.001	92.56
316.23	96.56
316.46	79.56
316.689	85.56
316.919	99.56
317.148	96.56
317.377	104.56
317.607	84.56
317.836	97.56
318.065	88.56
318.295	83.56
318.524	95.56
318.753	91.56
318.983	91.56
319.212	110.56
319.441	111.56
319.67	104.56
319.9	107.56
320.129	86.56
320.358	88.56
320.587	101.56
320.816	113.56
321.046	93.56
321.275	82.56
321.504	95.56
321.733	95.56
321.962	101.56
322.191	108.56
322.42	87.56
322.649	106.56
322.878	107.56
323.108	105.56
323.337	111.56
323.566	129.56
323.795	152.56
324.024	213.56
324.253	357.56
324.482	770.56
324.71	1519.56
324.939	1933.56
325.168	729.56
325.397	224.56
325.626	148.56
325.855	120.56
326.084	122.56
326.313	125.56
326.542	160.56
326.77	205.56
326.999	431.56
327.228	857.56
327.457	1494.56
327.686	1172.56
327.914	330.56
328.143	181.56
328.372	137.56
328.6	113.56
328.829	132.56
329.058	117.56
329.287	131.56
329.515	103.56
329.744	90.56
329.972	90.56
330.201	108.56
330.43	106.56
330.658	122.56
330.887	133.56
331.115	114.56
331.344	83.56
331.572	101.56
331.801	104.56
332.03	99.56
332.258	98.56
332.486	91.56
332.715	108.56
332.943	100.56
333.172	83.56
333.4	94.56
333.629	105.56
333.857	97.56
334.085	98.56
334.314	83.56
334.542	100.56
334.771	93.56
334.999	96.56
335.227	97.56
335.455	98.56
335.684	114.56
335.912	83.56
336.14	100.56
336.369	98.56
336.597	96.56
336.825	98.56
337.053	98.56
337.281	103.56
337.51	94.56
337.738	87.56
337.966	90.56
338.194	102.56
338.422	88.56
338.65	94.56
338.878	99.56
339.106	92.56
339.334	92.56
339.562	90.56
339.79	90.56
340.018	96.56
340.246	83.56
340.474	79.56
340.702	80.56
340.93	97.56
341.158	91.56
341.386	77.56
341.614	106.56
341.842	94.56
342.07	73.56
342.298	98.56
342.526	103.56
342.754	93.56
342.981	107.56
343.209	86.56
343.437	89.56
343.665	101.56
343.893	96.56
344.12	89.56
344.348	81.56
344.576	95.56
344.804	101.56
345.031	95.56
345.259	87.56
345.487	93.56
345.714	84.56
345.942	77.56
346.17	75.56
346.397	92.56
346.625	83.56
346.853	90.56
347.08	96.56
347.308	92.56
347.535	74.56
347.763	99.56
347.99	104.56
348.218	104.56
348.445	112.56
348.673	105.56
348.9	93.56
349.128	105.56
349.355	104.56
349.583	99.56
349.81	93.56
350.037	94.56
350.265	102.56
350.492	99.56
350.72	98.56
350.947	101.56
351.174	116.56
351.402	93.56
351.629	99.56
351.856	103.56
352.083	103.56
352.311	99.56
352.538	98.56
352.765	109.56
352.992	103.56
353.22	109.56
353.447	118.56
353.674	87.56
353.901	104.56
354.128	86.56
354.355	74.56
354.583	96.56
354.81	107.56
355.037	92.56
355.264	93.56
355.491	89.56
355.718	92.56
355.945	90.56
356.172	84.56
356.399	91.56
356.626	89.56
356.853	95.56
357.08	95.56
357.307	97.56
357.534	99.56
357.761	91.56
357.988	102.56
358.215	93.56
358.441	84.56
358.668	99.56
358.895	88.56
359.122	80.56
359.349	73.56
359.576	86.56
359.802	105.56
360.029	111.56
360.256	106.56
360.483	93.56
360.709	86.56
360.936	87.56
361.163	74.56
361.39	93.56
361.616	90.56
361.843	88.56
362.07	107.56
362.296	91.56
362.523	91.56
362.749	92.56
362.976	104.56
363.203	92.56
363.429	71.56
363.656	95.56
363.882	83.56
364.109	91.56
364.335	93.56
364.562	96.56
364.788	85.56
365.015	104.56
365.241	94.56
365.468	92.56
365.694	90.56
365.92	95.56
366.147	82.56
366.373	96.56
366.599	101.56
366.826	88.56
367.052	87.56
367.278	89.56
367.505	88.56
367.731	103.56
367.957	87.56
368.184	97.56
368.41	98.56
368.636	113.56
368.862	123.56
369.089	89.56
369.315	95.56
369.541	82.56
369.767	92.56
369.993	92.56
370.219	92.56
370.445	81.56
370.672	77.56
370.898	91.56
371.124	88.56
371.35	89.56
371.576	86.56
371.802	96.56
372.028	78.56
372.254	89.56
372.48	77.56
372.706	92.56
372.932	92.56
373.158	92.56
373.384	94.56
373.61	98.56
373.835	91.56
374.061	79.56
374.287	91.56
374.513	96.56
374.739	93.56
374.965	89.56
375.191	79.56
375.416	73.56
375.642	109.56
375.868	92.56
376.094	89.56
376.319	91.56
376.545	86.56
376.771	87.56
376.997	92.56
377.222	98.56
377.448	89.56
377.674	97.56
377.899	87.56
378.125	96.56
378.35	93.56
378.576	80.56
378.802	86.56
379.027	105.56
379.253	87.56
379.478	88.56
379.704	92.56
379.929	76.56
380.155	94.56
380.38	91.56
380.606	88.56
380.831	89.56
381.057	100.56
381.282	84.56
381.507	87.56
381.733	89.56
381.958	94.56
382.184	99.56
382.409	101.56
382.634	93.56
382.86	94.56
383.085	88.56
383.31	88.56
383.535	87.56
383.761	90.56
383.986	116.56
384.211	89.56
384.436	96.56
384.662	96.56
384.887	93.56
385.112	92.56
385.337	77.56
385.562	93.56
385.787	97.56
386.013	103.56
386.238	104.56
386.463	93.56
386.688	111.56
386.913	101.56
387.138	98.56
387.363	97.56
387.588	84.56
387.813	109.56
388.038	79.56
388.263	98.56
388.488	93.56
388.713	78.56
388.938	86.56
389.163	101.56
389.387	92.56
389.612	88.56
389.837	104.56
390.062	89.56
390.287	81.56
390.512	81.56
390.736	91.56
390.961	93.56
391.186	87.56
391.411	76.56
391.636	88.56
391.86	87.56
392.085	101.56
392.31	98.56
392.534	89.56
392.759	89.56
392.984	83.56
393.208	80.56
393.433	92.56
393.658	83.56
393.882	79.56
394.107	93.56
394.331	83.56
394.556	94.56
394.78	91.56
395.005	72.56
395.229	84.56
395.454	87.56
395.678	89.56
395.903	73.56
396.127	96.56
396.352	86.56
396.576	82.56
396.801	88.56
397.025	87.56
397.249	83.56
397.474	83.56
397.698	90.56
397.922	88.56
398.147	93.56
398.371	81.56
398.595	81.56
398.82	91.56
399.044	77.56
399.268	79.56
399.492	98.56
399.717	85.56
399.941	83.56
400.165	83.56
400.389	74.56
400.613	73.56
400.837	75.56
401.062	80.56
401.286	102.56
401.51	94.56
401.734	91.56
401.958	98.56
402.182	112.56
402.406	157.56
402.63	124.56
402.854	108.56
403.078	80.56
403.302	81.56
403.526	92.56
403.75	87.56
403.974	81.56
404.198	88.56
404.422	95.56
404.645	89.56
404.869	84.56
405.093	95.56
405.317	93.56
405.541	94.56
405.765	93.56
405.988	119.56
406.212	166.56
406.436	216.56
406.66	127.56
406.883	90.56
407.107	91.56
407.331	79.56
407.555	96.56
407.778	105.56
408.002	86.56
408.226	98.56
408.449	74.56
408.673	83.56
408.896	100.56
409.12	87.56
409.344	93.56
409.567	85.56
409.791	84.56
410.014	102.56
410.238	97.56
410.461	101.56
410.685	88.56
410.908	104.56
411.132	90.56
411.355	98.56
411.578	92.56
411.802	75.56
412.025	81.56
412.249	91.56
412.472	77.56
412.695	93.56
412.919	74.56
413.142	82.56
413.365	87.56
413.589	88.56
413.812	92.56
414.035	79.56
414.258	90.56
414.482	92.56
414.705	90.56
414.928	88.56
415.151	84.56
415.374	100.56
415.597	96.56
415.821	77.56
416.044	82.56
416.267	88.56
416.49	101.56
416.713	84.56
416.936	89.56
417.159	89.56
417.382	94.56
417.605	84.56
417.828	98.56
418.051	93.56
418.274	89.56
418.497	95.56
418.72	81.56
418.943	76.56
419.166	77.56
419.389	86.56
419.611	89.56
419.834	92.56
420.057	79.56
420.28	92.56
420.503	84.56
420.726	83.56
420.948	90.56
421.171	87.56
421.394	93.56
421.617	91.56
421.839	92.56
422.062	105.56
422.285	94.56
422.507	112.56
422.73	104.56
422.953	83.56
423.175	87.56
423.398	94.56
423.621	86.56
423.843	97.56
424.066	97.56
424.288	79.56
424.511	88.56
424.733	83.56
424.956	96.56
425.178	98.56
425.401	102.56
425.623	92.56
425.846	97.56
426.068	95.56
426.291	108.56
426.513	89.56
426.735	82.56
426.958	95.56
427.18	104.56
427.402	122.56
427.625	151.56
427.847	118.56
428.069	97.56
428.292	84.56
428.514	99.56
428.736	82.56
428.958	75.56
429.181	72.56
429.403	87.56
429.625	92.56
429.847	92.56
430.069	102.56
430.292	80.56
430.514	68.56
430.736	82.56
430.958	83.56
431.18	73.56
431.402	84.56
431.624	77.56
431.846	86.56
432.068	84.56
432.29	87.56
432.512	81.56
432.734	76.56
432.956	84.56
433.178	76.56
433.4	90.56
433.622	88.56
433.844	83.56
434.066	95.56
434.287	92.56
434.509	90.56
434.731	97.56
434.953	89.56
435.175	87.56
435.397	79.56
435.618	66.56
435.84	97.56
436.062	109.56
436.284	109.56
436.505	83.56
436.727	97.56
436.949	104.56
437.17	87.56
437.392	85.56
437.614	83.56
437.835	107.56
438.057	84.56
438.278	96.56
438.5	94.56
438.721	124.56
438.943	92.56
439.165	84.56
439.386	76.56
439.608	93.56
439.829	94.56
440.05	124.56
440.272	127.56
440.493	102.56
440.715	84.56
440.936	88.56
441.158	95.56
441.379	97.56
441.6	89.56
441.822	107.56
442.043	92.56
442.264	89.56
442.486	91.56
442.707	95.56
442.928	100.56
443.149	118.56
443.371	131.56
443.592	92.56
443.813	123.56
444.034	99.56
444.255	87.56
444.476	93.56
444.698	85.56
444.919	89.56
445.14	132.56
445.361	126.56
445.582	115.56
445.803	121.56
446.024	127.56
446.245	120.56
446.466	97.56
446.687	101.56
446.908	84.56
447.129	94.56
447.35	101.56
447.571	99.56
447.792	87.56
448.013	91.56
448.234	95.56
448.455	113.56
448.675	104.56
448.896	111.56
449.117	92.56
449.338	95.56
449.559	116.56
449.779	132.56
450	96.56
450.221	88.56
450.442	95.56
450.662	93.56
450.883	99.56
451.104	129.56
451.324	97.56
451.545	90.56
451.766	75.56
451.986	92.56
452.207	83.56
452.428	98.56
452.648	103.56
452.869	107.56
453.089	112.56
453.31	114.56
453.53	97.56
453.751	93.56
453.971	98.56
454.192	103.56
454.412	96.56
454.633	72.56
454.853	82.56
455.073	80.56
455.294	88.56
455.514	96.56
455.734	92.56
455.955	86.56
456.175	80.56
456.395	91.56
456.616	92.56
456.836	84.56
457.056	81.56
457.276	76.56
457.497	85.56
457.717	80.56
457.937	87.56
458.157	77.56
458.377	101.56
458.598	115.56
458.818	152.56
459.038	164.56
459.258	115.56
459.478	95.56
459.698	95.56
459.918	88.56
460.138	86.56
460.358	77.56
460.578	80.56
460.798	81.56
461.018	86.56
461.238	78.56
461.458	85.56
461.678	81.56
461.898	94.56
462.118	92.56
462.338	96.56
462.558	89.56
462.777	79.56
462.997	88.56
463.217	83.56
463.437	75.56
463.657	84.56
463.876	100.56
464.096	101.56
464.316	96.56
464.536	77.56
464.755	87.56
464.975	83.56
465.195	154.56
465.414	142.56
465.634	94.56
465.854	92.56
466.073	85.56
466.293	99.56
466.512	87.56
466.732	76.56
466.951	87.56
467.171	87.56
467.391	89.56
467.61	106.56
467.829	100.56
468.049	87.56
468.268	78.56
468.488	69.56
468.707	83.56
468.927	78.56
469.146	75.56
469.365	95.56
469.585	92.56
469.804	93.56
470.023	95.56
470.243	94.56
470.462	95.56
470.681	114.56
470.901	82.56
471.12	87.56
471.339	87.56
471.558	92.56
471.777	100.56
471.997	80.56
472.216	82.56
472.435	82.56
472.654	84.56
472.873	87.56
473.092	89.56
473.311	75.56
473.53	91.56
473.749	84.56
473.968	102.56
474.187	99.56
474.406	96.56
474.625	85.56
474.844	86.56
475.063	78.56
475.282	75.56
475.501	76.56
475.72	76.56
475.939	77.56
476.158	94.56
476.377	82.56
476.596	86.56
476.814	93.56
477.033	71.56
477.252	82.56
477.471	79.56
477.69	90.56
477.908	87.56
478.127	93.56
478.346	83.56
478.564	72.56
478.783	95.56
479.002	81.56
479.22	108.56
479.439	100.56
479.658	99.56
479.876	97.56
480.095	87.56
480.313	96.56
480.532	76.56
480.751	98.56
480.969	83.56
481.188	96.56
481.406	107.56
481.624	103.56
481.843	82.56
482.061	96.56
482.28	86.56
482.498	92.56
482.717	79.56
482.935	85.56
483.153	81.56
483.372	82.56
483.59	89.56
483.808	89.56
484.027	94.56
484.245	86.56
484.463	95.56
484.681	102.56
484.9	101.56
485.118	88.56
485.336	96.56
485.554	100.56
485.772	100.56
485.99	108.56
486.209	112.56
486.427	114.56
486.645	110.56
486.863	113.56
487.081	116.56
487.299	94.56
487.517	90.56
487.735	85.56
487.953	77.56
488.171	95.56
488.389	96.56
488.607	96.56
488.825	96.56
489.043	99.56
489.261	94.56
489.479	75.56
489.696	95.56
489.914	92.56
490.132	97.56
490.35	96.56
490.568	90.56
490.786	104.56
491.003	89.56
491.221	93.56
491.439	95.56
491.657	89.56
491.874	91.56
492.092	79.56
492.31	70.56
492.527	79.56
492.745	73.56
492.963	89.56
493.18	84.56
493.398	93.56
493.615	95.56
493.833	95.56
494.05	94.56
494.268	83.56
494.485	93.56
494.703	95.56
494.92	93.56
495.138	71.56
495.355	87.56
495.573	98.56
495.79	77.56
496.008	106.56
496.225	95.56
496.442	91.56
496.66	97.56
496.877	76.56
497.094	87.56
497.312	89.56
497.529	95.56
497.746	87.56
497.963	87.56
498.181	90.56
498.398	85.56
498.615	90.56
498.832	105.56
499.049	95.56
499.267	89.56
499.484	90.56
499.701	92.56
499.918	89.56
500.135	92.56
500.352	90.56
500.569	88.56
500.786	96.56
501.003	92.56
501.22	91.56
501.437	91.56
501.654	89.56
501.871	107.56
502.088	92.56
502.305	76.56
502.522	84.56
502.739	97.56
502.956	87.56
503.172	95.56
503.389	91.56
503.606	93.56
503.823	88.56
504.04	95.56
504.256	89.56
504.473	85.56
504.69	78.56
504.907	105.56
505.123	92.56
505.34	83.56
505.557	86.56
505.773	95.56
505.99	87.56
506.207	85.56
506.423	73.56
506.64	95.56
506.856	85.56
507.073	93.56
507.289	83.56
507.506	100.56
507.722	97.56
507.939	124.56
508.155	104.56
508.372	93.56
508.588	97.56
508.805	82.56
509.021	106.56
509.238	95.56
509.454	97.56
509.67	105.56
509.887	114.56
510.103	128.56
510.319	221.56
510.536	771.56
510.752	2363.56
510.968	638.56
511.184	143.56
511.401	112.56
511.617	106.56
511.833	88.56
512.049	99.56
512.265	100.56
512.481	95.56
512.698	87.56
512.914	82.56
513.13	77.56
513.346	74.56
513.562	97.56
513.778	96.56
513.994	120.56
514.21	98.56
514.426	125.56
514.642	128.56
514.858	121.56
515.074	161.56
515.29	469.56
515.506	1555.56
515.721	542.56
515.937	164.56
516.153	114.56
516.369	103.56
516.585	96.56
