Data from Uncirc_1993_H10_HRD10591_00052.txt Node
Date: Wed Jan 03 11:43:02 EST 2024
User: Yrep
Spectrometer: HR+D1059
Trigger mode: 1
Integration Time (sec): 1.000000E-1
Scans to average: 1
Electric dark correction enabled: true
Nonlinearity correction enabled: false
Boxcar width: 0
XAxis mode: Wavelengths
Number of Pixels in Spectrum: 2048
>>>>>Begin Spectral Data<<<<<
223.165	-24.5
223.4	-24.5
223.635	-24.5
223.869	-17.5
224.104	-17.5
224.338	5.5
224.573	-13.5
224.808	-13.5
225.042	-2.5
225.277	-6.5
225.511	-4.5
225.746	0.5
225.98	1.5
226.215	18.5
226.449	12.5
226.683	12.5
226.918	23.5
227.152	25.5
227.387	45.5
227.621	40.5
227.856	36.5
228.09	54.5
228.324	81.5
228.559	65.5
228.793	64.5
229.027	63.5
229.262	76.5
229.496	66.5
229.73	92.5
229.964	85.5
230.199	75.5
230.433	65.5
230.667	66.5
230.901	70.5
231.136	77.5
231.37	79.5
231.604	78.5
231.838	75.5
232.072	74.5
232.306	90.5
232.541	87.5
232.775	86.5
233.009	95.5
233.243	80.5
233.477	78.5
233.711	84.5
233.945	77.5
234.179	94.5
234.413	87.5
234.647	85.5
234.881	81.5
235.115	80.5
235.349	74.5
235.583	82.5
235.817	84.5
236.051	82.5
236.285	79.5
236.519	75.5
236.753	78.5
236.987	81.5
237.221	83.5
237.455	87.5
237.689	77.5
237.922	93.5
238.156	91.5
238.39	80.5
238.624	80.5
238.858	75.5
239.091	67.5
239.325	70.5
239.559	69.5
239.793	81.5
240.027	77.5
240.26	82.5
240.494	85.5
240.728	80.5
240.961	78.5
241.195	81.5
241.429	85.5
241.662	82.5
241.896	77.5
242.13	71.5
242.363	102.5
242.597	85.5
242.83	83.5
243.064	80.5
243.298	76.5
243.531	64.5
243.765	84.5
243.998	68.5
244.232	68.5
244.465	78.5
244.699	88.5
244.932	79.5
245.166	74.5
245.399	86.5
245.633	64.5
245.866	74.5
246.099	84.5
246.333	75.5
246.566	79.5
246.8	71.5
247.033	75.5
247.266	83.5
247.5	93.5
247.733	80.5
247.966	93.5
248.2	78.5
248.433	91.5
248.666	78.5
248.899	76.5
249.133	82.5
249.366	99.5
249.599	107.5
249.832	78.5
250.066	86.5
250.299	85.5
250.532	81.5
250.765	80.5
250.998	66.5
251.231	74.5
251.465	86.5
251.698	77.5
251.931	66.5
252.164	76.5
252.397	78.5
252.63	83.5
252.863	99.5
253.096	96.5
253.329	89.5
253.562	96.5
253.795	75.5
254.028	90.5
254.261	75.5
254.494	85.5
254.727	84.5
254.96	91.5
255.193	79.5
255.426	80.5
255.659	72.5
255.892	90.5
256.124	82.5
256.357	76.5
256.59	79.5
256.823	79.5
257.056	101.5
257.289	81.5
257.521	86.5
257.754	76.5
257.987	87.5
258.22	84.5
258.452	82.5
258.685	90.5
258.918	90.5
259.151	71.5
259.383	82.5
259.616	89.5
259.849	84.5
260.081	82.5
260.314	86.5
260.547	92.5
260.779	97.5
261.012	78.5
261.244	77.5
261.477	94.5
261.71	92.5
261.942	110.5
262.175	91.5
262.407	104.5
262.64	92.5
262.872	91.5
263.105	95.5
263.337	92.5
263.57	76.5
263.802	78.5
264.035	81.5
264.267	90.5
264.499	81.5
264.732	91.5
264.964	79.5
265.197	95.5
265.429	86.5
265.661	91.5
265.894	65.5
266.126	71.5
266.358	90.5
266.591	90.5
266.823	75.5
267.055	75.5
267.287	87.5
267.52	90.5
267.752	84.5
267.984	76.5
268.216	87.5
268.448	89.5
268.681	93.5
268.913	81.5
269.145	88.5
269.377	87.5
269.609	85.5
269.841	81.5
270.073	88.5
270.306	68.5
270.538	104.5
270.77	77.5
271.002	98.5
271.234	85.5
271.466	90.5
271.698	84.5
271.93	94.5
272.162	96.5
272.394	80.5
272.626	94.5
272.858	92.5
273.09	91.5
273.322	78.5
273.553	80.5
273.785	79.5
274.017	82.5
274.249	85.5
274.481	78.5
274.713	83.5
274.945	82.5
275.176	87.5
275.408	96.5
275.64	82.5
275.872	72.5
276.104	88.5
276.335	86.5
276.567	86.5
276.799	95.5
277.031	100.5
277.262	82.5
277.494	90.5
277.726	80.5
277.957	100.5
278.189	70.5
278.421	87.5
278.652	87.5
278.884	101.5
279.115	96.5
279.347	87.5
279.579	87.5
279.81	100.5
280.042	84.5
280.273	91.5
280.505	82.5
280.736	84.5
280.968	93.5
281.199	74.5
281.431	87.5
281.662	80.5
281.894	106.5
282.125	96.5
282.356	96.5
282.588	148.5
282.819	114.5
283.051	86.5
283.282	99.5
283.513	90.5
283.745	72.5
283.976	90.5
284.207	94.5
284.439	81.5
284.67	94.5
284.901	77.5
285.132	77.5
285.364	78.5
285.595	90.5
285.826	101.5
286.057	101.5
286.288	78.5
286.52	95.5
286.751	102.5
286.982	87.5
287.213	90.5
287.444	105.5
287.675	84.5
287.906	93.5
288.138	94.5
288.369	96.5
288.6	99.5
288.831	102.5
289.062	102.5
289.293	91.5
289.524	88.5
289.755	71.5
289.986	85.5
290.217	85.5
290.448	84.5
290.679	94.5
290.91	90.5
291.141	83.5
291.371	98.5
291.602	88.5
291.833	90.5
292.064	85.5
292.295	82.5
292.526	95.5
292.757	80.5
292.987	86.5
293.218	93.5
293.449	87.5
293.68	92.5
293.91	66.5
294.141	83.5
294.372	104.5
294.603	97.5
294.833	94.5
295.064	71.5
295.295	84.5
295.525	92.5
295.756	106.5
295.987	115.5
296.217	122.5
296.448	102.5
296.679	101.5
296.909	90.5
297.14	84.5
297.37	93.5
297.601	93.5
297.831	84.5
298.062	93.5
298.292	98.5
298.523	86.5
298.753	92.5
298.984	89.5
299.214	93.5
299.445	87.5
299.675	96.5
299.905	88.5
300.136	74.5
300.366	92.5
300.597	99.5
300.827	104.5
301.057	86.5
301.288	100.5
301.518	96.5
301.748	97.5
301.979	99.5
302.209	103.5
302.439	88.5
302.669	96.5
302.9	91.5
303.13	94.5
303.36	92.5
303.59	87.5
303.82	110.5
304.051	98.5
304.281	90.5
304.511	79.5
304.741	93.5
304.971	101.5
305.201	88.5
305.431	89.5
305.661	82.5
305.891	88.5
306.121	93.5
306.352	99.5
306.582	95.5
306.812	86.5
307.042	97.5
307.272	96.5
307.502	92.5
307.731	83.5
307.961	87.5
308.191	77.5
308.421	91.5
308.651	86.5
308.881	106.5
309.111	108.5
309.341	102.5
309.571	103.5
309.8	107.5
310.03	95.5
310.26	107.5
310.49	102.5
310.72	110.5
310.949	95.5
311.179	89.5
311.409	99.5
311.639	85.5
311.868	113.5
312.098	92.5
312.328	92.5
312.557	100.5
312.787	98.5
313.017	99.5
313.246	107.5
313.476	105.5
313.706	96.5
313.935	93.5
314.165	96.5
314.394	101.5
314.624	103.5
314.853	95.5
315.083	104.5
315.312	86.5
315.542	84.5
315.771	83.5
316.001	75.5
316.23	89.5
316.46	83.5
316.689	91.5
316.919	81.5
317.148	87.5
317.377	96.5
317.607	111.5
317.836	97.5
318.065	81.5
318.295	88.5
318.524	78.5
318.753	100.5
318.983	106.5
319.212	111.5
319.441	104.5
319.67	105.5
319.9	114.5
320.129	93.5
320.358	95.5
320.587	102.5
320.816	102.5
321.046	101.5
321.275	107.5
321.504	95.5
321.733	101.5
321.962	105.5
322.191	101.5
322.42	112.5
322.649	115.5
322.878	113.5
323.108	117.5
323.337	108.5
323.566	123.5
323.795	132.5
324.024	176.5
324.253	327.5
324.482	669.5
324.71	1264.5
324.939	1693.5
325.168	629.5
325.397	215.5
325.626	133.5
325.855	119.5
326.084	120.5
326.313	124.5
326.542	122.5
326.77	185.5
326.999	370.5
327.228	736.5
327.457	1272.5
327.686	990.5
327.914	283.5
328.143	174.5
328.372	134.5
328.6	111.5
328.829	116.5
329.058	115.5
329.287	106.5
329.515	116.5
329.744	91.5
329.972	95.5
330.201	95.5
330.43	103.5
330.658	110.5
330.887	133.5
331.115	118.5
331.344	93.5
331.572	103.5
331.801	98.5
332.03	108.5
332.258	93.5
332.486	98.5
332.715	95.5
332.943	106.5
333.172	99.5
333.4	86.5
333.629	115.5
333.857	117.5
334.085	111.5
334.314	100.5
334.542	105.5
334.771	114.5
334.999	92.5
335.227	93.5
335.455	102.5
335.684	97.5
335.912	89.5
336.14	93.5
336.369	84.5
336.597	99.5
336.825	98.5
337.053	103.5
337.281	91.5
337.51	90.5
337.738	88.5
337.966	95.5
338.194	96.5
338.422	86.5
338.65	93.5
338.878	97.5
339.106	94.5
339.334	115.5
339.562	86.5
339.79	95.5
340.018	94.5
340.246	88.5
340.474	87.5
340.702	100.5
340.93	80.5
341.158	105.5
341.386	107.5
341.614	104.5
341.842	94.5
342.07	98.5
342.298	105.5
342.526	91.5
342.754	88.5
342.981	91.5
343.209	94.5
343.437	93.5
343.665	87.5
343.893	80.5
344.12	98.5
344.348	87.5
344.576	90.5
344.804	92.5
345.031	92.5
345.259	107.5
345.487	88.5
345.714	77.5
345.942	87.5
346.17	96.5
346.397	94.5
346.625	97.5
346.853	96.5
347.08	102.5
347.308	86.5
347.535	108.5
347.763	109.5
347.99	95.5
348.218	106.5
348.445	112.5
348.673	93.5
348.9	97.5
349.128	93.5
349.355	103.5
349.583	94.5
349.81	89.5
350.037	100.5
350.265	102.5
350.492	101.5
350.72	111.5
350.947	99.5
351.174	114.5
351.402	98.5
351.629	108.5
351.856	107.5
352.083	101.5
352.311	106.5
352.538	98.5
352.765	105.5
352.992	117.5
353.22	107.5
353.447	112.5
353.674	103.5
353.901	96.5
354.128	96.5
354.355	107.5
354.583	102.5
354.81	111.5
355.037	112.5
355.264	95.5
355.491	86.5
355.718	105.5
355.945	101.5
356.172	91.5
356.399	95.5
356.626	110.5
356.853	96.5
357.08	91.5
357.307	89.5
357.534	90.5
357.761	83.5
357.988	92.5
358.215	99.5
358.441	99.5
358.668	99.5
358.895	95.5
359.122	79.5
359.349	92.5
359.576	89.5
359.802	98.5
360.029	96.5
360.256	97.5
360.483	101.5
360.709	103.5
360.936	105.5
361.163	86.5
361.39	94.5
361.616	103.5
361.843	78.5
362.07	87.5
362.296	87.5
362.523	100.5
362.749	91.5
362.976	95.5
363.203	92.5
363.429	92.5
363.656	84.5
363.882	90.5
364.109	90.5
364.335	91.5
364.562	96.5
364.788	99.5
365.015	99.5
365.241	87.5
365.468	92.5
365.694	98.5
365.92	93.5
366.147	84.5
366.373	84.5
366.599	88.5
366.826	98.5
367.052	81.5
367.278	94.5
367.505	92.5
367.731	98.5
367.957	83.5
368.184	95.5
368.41	102.5
368.636	104.5
368.862	115.5
369.089	114.5
369.315	93.5
369.541	90.5
369.767	90.5
369.993	98.5
370.219	92.5
370.445	98.5
370.672	84.5
370.898	89.5
371.124	94.5
371.35	102.5
371.576	88.5
371.802	88.5
372.028	65.5
372.254	87.5
372.48	101.5
372.706	84.5
372.932	103.5
373.158	103.5
373.384	92.5
373.61	97.5
373.835	108.5
374.061	95.5
374.287	96.5
374.513	103.5
374.739	95.5
374.965	95.5
375.191	81.5
375.416	90.5
375.642	93.5
375.868	87.5
376.094	86.5
376.319	67.5
376.545	105.5
376.771	87.5
376.997	92.5
377.222	94.5
377.448	88.5
377.674	90.5
377.899	106.5
378.125	78.5
378.35	92.5
378.576	93.5
378.802	100.5
379.027	87.5
379.253	93.5
379.478	103.5
379.704	82.5
379.929	90.5
380.155	91.5
380.38	83.5
380.606	90.5
380.831	83.5
381.057	104.5
381.282	95.5
381.507	98.5
381.733	100.5
381.958	97.5
382.184	98.5
382.409	103.5
382.634	98.5
382.86	103.5
383.085	91.5
383.31	102.5
383.535	100.5
383.761	86.5
383.986	101.5
384.211	98.5
384.436	88.5
384.662	102.5
384.887	111.5
385.112	108.5
385.337	95.5
385.562	96.5
385.787	104.5
386.013	106.5
386.238	107.5
386.463	109.5
386.688	110.5
386.913	108.5
387.138	104.5
387.363	111.5
387.588	107.5
387.813	93.5
388.038	106.5
388.263	107.5
388.488	111.5
388.713	90.5
388.938	97.5
389.163	83.5
389.387	105.5
389.612	88.5
389.837	87.5
390.062	93.5
390.287	99.5
390.512	86.5
390.736	92.5
390.961	101.5
391.186	89.5
391.411	95.5
391.636	94.5
391.86	87.5
392.085	94.5
392.31	86.5
392.534	86.5
392.759	79.5
392.984	93.5
393.208	98.5
393.433	90.5
393.658	92.5
393.882	74.5
394.107	87.5
394.331	96.5
394.556	77.5
394.78	95.5
395.005	87.5
395.229	84.5
395.454	90.5
395.678	86.5
395.903	87.5
396.127	94.5
396.352	92.5
396.576	85.5
396.801	96.5
397.025	85.5
397.249	78.5
397.474	83.5
397.698	116.5
397.922	87.5
398.147	86.5
398.371	100.5
398.595	81.5
398.82	96.5
399.044	92.5
399.268	84.5
399.492	86.5
399.717	95.5
399.941	78.5
400.165	78.5
400.389	95.5
400.613	91.5
400.837	100.5
401.062	74.5
401.286	98.5
401.51	90.5
401.734	92.5
401.958	103.5
402.182	123.5
402.406	142.5
402.63	109.5
402.854	98.5
403.078	95.5
403.302	93.5
403.526	83.5
403.75	74.5
403.974	84.5
404.198	86.5
404.422	96.5
404.645	94.5
404.869	98.5
405.093	108.5
405.317	97.5
405.541	100.5
405.765	103.5
405.988	112.5
406.212	160.5
406.436	195.5
406.66	140.5
406.883	93.5
407.107	91.5
407.331	101.5
407.555	96.5
407.778	82.5
408.002	96.5
408.226	91.5
408.449	96.5
408.673	86.5
408.896	85.5
409.12	89.5
409.344	97.5
409.567	98.5
409.791	101.5
410.014	103.5
410.238	89.5
410.461	98.5
410.685	85.5
410.908	91.5
411.132	103.5
411.355	102.5
411.578	82.5
411.802	86.5
412.025	79.5
412.249	104.5
412.472	86.5
412.695	94.5
412.919	84.5
413.142	87.5
413.365	87.5
413.589	92.5
413.812	78.5
414.035	97.5
414.258	91.5
414.482	98.5
414.705	80.5
414.928	102.5
415.151	94.5
415.374	95.5
415.597	91.5
415.821	79.5
416.044	106.5
416.267	99.5
416.49	75.5
416.713	91.5
416.936	87.5
417.159	90.5
417.382	88.5
417.605	95.5
417.828	88.5
418.051	88.5
418.274	85.5
418.497	84.5
418.72	91.5
418.943	87.5
419.166	72.5
419.389	92.5
419.611	98.5
419.834	104.5
420.057	101.5
420.28	96.5
420.503	78.5
420.726	86.5
420.948	77.5
421.171	97.5
421.394	84.5
421.617	84.5
421.839	78.5
422.062	94.5
422.285	84.5
422.507	102.5
422.73	107.5
422.953	94.5
423.175	78.5
423.398	84.5
423.621	92.5
423.843	97.5
424.066	82.5
424.288	80.5
424.511	83.5
424.733	82.5
424.956	98.5
425.178	100.5
425.401	93.5
425.623	97.5
425.846	104.5
426.068	94.5
426.291	91.5
426.513	82.5
426.735	91.5
426.958	98.5
427.18	95.5
427.402	138.5
427.625	139.5
427.847	123.5
428.069	95.5
428.292	87.5
428.514	92.5
428.736	88.5
428.958	75.5
429.181	93.5
429.403	91.5
429.625	87.5
429.847	96.5
430.069	104.5
430.292	87.5
430.514	82.5
430.736	78.5
430.958	76.5
431.18	83.5
431.402	72.5
431.624	94.5
431.846	94.5
432.068	97.5
432.29	99.5
432.512	91.5
432.734	98.5
432.956	98.5
433.178	83.5
433.4	109.5
433.622	83.5
433.844	100.5
434.066	85.5
434.287	106.5
434.509	95.5
434.731	91.5
434.953	90.5
435.175	79.5
435.397	92.5
435.618	104.5
435.84	98.5
436.062	119.5
436.284	108.5
436.505	100.5
436.727	94.5
436.949	98.5
437.17	82.5
437.392	86.5
437.614	99.5
437.835	88.5
438.057	109.5
438.278	88.5
438.5	95.5
438.721	94.5
438.943	97.5
439.165	79.5
439.386	81.5
439.608	75.5
439.829	85.5
440.05	101.5
440.272	118.5
440.493	88.5
440.715	97.5
440.936	90.5
441.158	92.5
441.379	84.5
441.6	97.5
441.822	95.5
442.043	96.5
442.264	98.5
442.486	103.5
442.707	104.5
442.928	125.5
443.149	118.5
443.371	122.5
443.592	106.5
443.813	102.5
444.034	106.5
444.255	96.5
444.476	91.5
444.698	77.5
444.919	107.5
445.14	130.5
445.361	113.5
445.582	105.5
445.803	131.5
446.024	118.5
446.245	119.5
446.466	102.5
446.687	92.5
446.908	84.5
447.129	99.5
447.35	87.5
447.571	78.5
447.792	78.5
448.013	91.5
448.234	103.5
448.455	80.5
448.675	111.5
448.896	126.5
449.117	98.5
449.338	105.5
449.559	101.5
449.779	107.5
450	89.5
450.221	85.5
450.442	81.5
450.662	93.5
450.883	100.5
451.104	98.5
451.324	110.5
451.545	83.5
451.766	74.5
451.986	88.5
452.207	74.5
452.428	86.5
452.648	91.5
452.869	105.5
453.089	119.5
453.31	112.5
453.53	96.5
453.751	100.5
453.971	88.5
454.192	113.5
454.412	101.5
454.633	84.5
454.853	81.5
455.073	85.5
455.294	87.5
455.514	73.5
455.734	77.5
455.955	86.5
456.175	89.5
456.395	86.5
456.616	87.5
456.836	107.5
457.056	86.5
457.276	94.5
457.497	90.5
457.717	91.5
457.937	67.5
458.157	80.5
458.377	102.5
458.598	107.5
458.818	146.5
459.038	140.5
459.258	119.5
459.478	78.5
459.698	78.5
459.918	81.5
460.138	100.5
460.358	70.5
460.578	86.5
460.798	91.5
461.018	96.5
461.238	90.5
461.458	94.5
461.678	75.5
461.898	86.5
462.118	93.5
462.338	76.5
462.558	78.5
462.777	95.5
462.997	88.5
463.217	104.5
463.437	87.5
463.657	84.5
463.876	88.5
464.096	100.5
464.316	99.5
464.536	101.5
464.755	91.5
464.975	99.5
465.195	147.5
465.414	138.5
465.634	110.5
465.854	76.5
466.073	97.5
466.293	92.5
466.512	90.5
466.732	78.5
466.951	88.5
467.171	93.5
467.391	109.5
467.61	112.5
467.829	88.5
468.049	88.5
468.268	88.5
468.488	83.5
468.707	79.5
468.927	73.5
469.146	96.5
469.365	96.5
469.585	68.5
469.804	93.5
470.023	90.5
470.243	85.5
470.462	90.5
470.681	117.5
470.901	97.5
471.12	88.5
471.339	72.5
471.558	75.5
471.777	71.5
471.997	95.5
472.216	82.5
472.435	94.5
472.654	88.5
472.873	69.5
473.092	78.5
473.311	100.5
473.53	84.5
473.749	88.5
473.968	102.5
474.187	102.5
474.406	105.5
474.625	84.5
474.844	103.5
475.063	91.5
475.282	94.5
475.501	85.5
475.72	86.5
475.939	92.5
476.158	69.5
476.377	88.5
476.596	94.5
476.814	84.5
477.033	87.5
477.252	89.5
477.471	90.5
477.69	85.5
477.908	101.5
478.127	88.5
478.346	96.5
478.564	92.5
478.783	90.5
479.002	85.5
479.22	84.5
479.439	93.5
479.658	98.5
479.876	94.5
480.095	95.5
480.313	94.5
480.532	98.5
480.751	96.5
480.969	90.5
481.188	121.5
481.406	111.5
481.624	94.5
481.843	104.5
482.061	100.5
482.28	99.5
482.498	101.5
482.717	77.5
482.935	77.5
483.153	86.5
483.372	88.5
483.59	87.5
483.808	94.5
484.027	93.5
484.245	91.5
484.463	92.5
484.681	97.5
484.9	90.5
485.118	92.5
485.336	97.5
485.554	93.5
485.772	113.5
485.99	95.5
486.209	119.5
486.427	99.5
486.645	102.5
486.863	101.5
487.081	98.5
487.299	108.5
487.517	93.5
487.735	90.5
487.953	88.5
488.171	86.5
488.389	90.5
488.607	99.5
488.825	87.5
489.043	88.5
489.261	97.5
489.479	77.5
489.696	96.5
489.914	91.5
490.132	92.5
490.35	83.5
490.568	71.5
490.786	86.5
491.003	90.5
491.221	96.5
491.439	98.5
491.657	96.5
491.874	90.5
492.092	93.5
492.31	81.5
492.527	85.5
492.745	95.5
492.963	87.5
493.18	76.5
493.398	78.5
493.615	94.5
493.833	111.5
494.05	80.5
494.268	92.5
494.485	84.5
494.703	87.5
494.92	79.5
495.138	82.5
495.355	93.5
495.573	95.5
495.79	93.5
496.008	93.5
496.225	80.5
496.442	84.5
496.66	92.5
496.877	105.5
497.094	99.5
497.312	91.5
497.529	79.5
497.746	83.5
497.963	95.5
498.181	95.5
498.398	99.5
498.615	99.5
498.832	112.5
499.049	87.5
499.267	85.5
499.484	85.5
499.701	95.5
499.918	96.5
500.135	88.5
500.352	90.5
500.569	91.5
500.786	92.5
501.003	94.5
501.22	86.5
501.437	86.5
501.654	94.5
501.871	103.5
502.088	92.5
502.305	87.5
502.522	87.5
502.739	94.5
502.956	84.5
503.172	103.5
503.389	109.5
503.606	100.5
503.823	89.5
504.04	92.5
504.256	92.5
504.473	88.5
504.69	94.5
504.907	91.5
505.123	95.5
505.34	90.5
505.557	88.5
505.773	101.5
505.99	82.5
506.207	97.5
506.423	84.5
506.64	96.5
506.856	78.5
507.073	104.5
507.289	92.5
507.506	115.5
507.722	102.5
507.939	104.5
508.155	88.5
508.372	108.5
508.588	89.5
508.805	98.5
509.021	92.5
509.238	81.5
509.454	87.5
509.67	80.5
509.887	121.5
510.103	125.5
510.319	193.5
510.536	689.5
510.752	2137.5
510.968	586.5
511.184	146.5
511.401	103.5
511.617	109.5
511.833	83.5
512.049	90.5
512.265	98.5
512.481	85.5
512.698	91.5
512.914	88.5
513.13	92.5
513.346	93.5
513.562	100.5
513.778	103.5
513.994	93.5
514.21	99.5
514.426	117.5
514.642	113.5
514.858	101.5
515.074	158.5
515.29	410.5
515.506	1278.5
515.721	453.5
515.937	137.5
516.153	106.5
516.369	96.5
516.585	102.5
516.801	86.5
517.016	83.5
517.232	87.5
517.448	84.5
517.664	102.5
517.879	91.5
518.095	92.5
518.311	111.5
518.527	81.5
518.742	92.5
518.958	92.5
519.173	102.5
519.389	82.5
519.605	96.5
519.82	84.5
520.036	119.5
520.251	109.5
520.467	118.5
520.682	113.5
520.898	109.5
521.113	114.5
521.329	122.5
521.544	191.5
521.76	505.5
521.975	2100.5
522.19	1255.5
522.406	260.5
522.621	106.5
522.836	90.5
523.052	98.5
523.267	101.5
523.482	110.5
523.698	107.5
523.913	117.5
524.128	99.5
524.343	94.5
524.559	96.5
524.774	99.5
524.989	91.5
525.204	104.5
525.419	95.5
525.634	78.5
525.849	98.5
526.064	96.5
526.28	103.5
526.495	84.5
526.71	94.5
526.925	101.5
527.14	88.5
527.355	98.5
527.57	91.5
527.785	94.5
527.999	106.5
528.214	94.5
528.429	103.5
528.644	90.5
528.859	85.5
529.074	91.5
529.289	121.5
529.503	149.5
529.718	89.5
529.933	82.5
530.148	86.5
530.363	80.5
530.577	92.5
530.792	98.5
531.007	99.5
531.221	91.5
531.436	100.5
531.651	107.5
531.865	92.5
532.08	95.5
532.295	108.5
532.509	87.5
532.724	99.5
532.938	88.5
533.153	93.5
533.367	100.5
533.582	84.5
533.796	89.5
534.011	95.5
534.225	100.5
534.44	92.5
534.654	105.5
534.868	88.5
535.083	103.5
