Data from Uncirc_1993_H10_HRD10591_00056.txt Node
Date: Wed Jan 03 11:43:03 EST 2024
User: Yrep
Spectrometer: HR+D1059
Trigger mode: 1
Integration Time (sec): 1.000000E-1
Scans to average: 1
Electric dark correction enabled: true
Nonlinearity correction enabled: false
Boxcar width: 0
XAxis mode: Wavelengths
Number of Pixels in Spectrum: 2048
>>>>>Begin Spectral Data<<<<<
223.165	-1.44
223.4	-1.44
223.635	-1.44
223.869	-11.44
224.104	-14.44
224.338	-13.44
224.573	-18.44
224.808	5.56
225.042	-16.44
225.277	-5.44
225.511	-15.44
225.746	5.56
225.98	0.56
226.215	6.56
226.449	14.56
226.683	13.56
226.918	17.56
227.152	32.56
227.387	32.56
227.621	31.56
227.856	60.56
228.09	51.56
228.324	43.56
228.559	65.56
228.793	51.56
229.027	69.56
229.262	59.56
229.496	73.56
229.73	72.56
229.964	89.56
230.199	78.56
230.433	73.56
230.667	89.56
230.901	83.56
231.136	71.56
231.37	89.56
231.604	76.56
231.838	74.56
232.072	78.56
232.306	90.56
232.541	90.56
232.775	76.56
233.009	84.56
233.243	92.56
233.477	79.56
233.711	71.56
233.945	78.56
234.179	79.56
234.413	78.56
234.647	75.56
234.881	76.56
235.115	74.56
235.349	82.56
235.583	69.56
235.817	75.56
236.051	68.56
236.285	81.56
236.519	85.56
236.753	71.56
236.987	90.56
237.221	85.56
237.455	93.56
237.689	76.56
237.922	80.56
238.156	79.56
238.39	65.56
238.624	77.56
238.858	82.56
239.091	65.56
239.325	80.56
239.559	79.56
239.793	77.56
240.027	70.56
240.26	69.56
240.494	81.56
240.728	75.56
240.961	86.56
241.195	84.56
241.429	82.56
241.662	65.56
241.896	69.56
242.13	88.56
242.363	71.56
242.597	77.56
242.83	67.56
243.064	73.56
243.298	78.56
243.531	77.56
243.765	86.56
243.998	73.56
244.232	82.56
244.465	78.56
244.699	83.56
244.932	80.56
245.166	73.56
245.399	87.56
245.633	89.56
245.866	85.56
246.099	74.56
246.333	87.56
246.566	85.56
246.8	81.56
247.033	77.56
247.266	70.56
247.5	78.56
247.733	65.56
247.966	76.56
248.2	87.56
248.433	85.56
248.666	77.56
248.899	82.56
249.133	86.56
249.366	98.56
249.599	85.56
249.832	91.56
250.066	78.56
250.299	67.56
250.532	87.56
250.765	75.56
250.998	85.56
251.231	69.56
251.465	73.56
251.698	86.56
251.931	77.56
252.164	85.56
252.397	87.56
252.63	81.56
252.863	92.56
253.096	82.56
253.329	80.56
253.562	81.56
253.795	87.56
254.028	83.56
254.261	80.56
254.494	78.56
254.727	77.56
254.96	79.56
255.193	84.56
255.426	89.56
255.659	81.56
255.892	80.56
256.124	83.56
256.357	76.56
256.59	79.56
256.823	86.56
257.056	88.56
257.289	79.56
257.521	92.56
257.754	71.56
257.987	83.56
258.22	78.56
258.452	96.56
258.685	79.56
258.918	86.56
259.151	84.56
259.383	76.56
259.616	74.56
259.849	87.56
260.081	74.56
260.314	82.56
260.547	90.56
260.779	85.56
261.012	84.56
261.244	81.56
261.477	87.56
261.71	86.56
261.942	94.56
262.175	106.56
262.407	86.56
262.64	69.56
262.872	81.56
263.105	76.56
263.337	97.56
263.57	87.56
263.802	70.56
264.035	79.56
264.267	77.56
264.499	79.56
264.732	97.56
264.964	82.56
265.197	85.56
265.429	90.56
265.661	81.56
265.894	83.56
266.126	71.56
266.358	75.56
266.591	83.56
266.823	94.56
267.055	87.56
267.287	84.56
267.52	96.56
267.752	74.56
267.984	70.56
268.216	84.56
268.448	85.56
268.681	63.56
268.913	83.56
269.145	91.56
269.377	78.56
269.609	81.56
269.841	86.56
270.073	77.56
270.306	86.56
270.538	91.56
270.77	80.56
271.002	83.56
271.234	89.56
271.466	90.56
271.698	85.56
271.93	69.56
272.162	98.56
272.394	94.56
272.626	88.56
272.858	71.56
273.09	91.56
273.322	89.56
273.553	71.56
273.785	75.56
274.017	86.56
274.249	81.56
274.481	84.56
274.713	80.56
274.945	88.56
275.176	75.56
275.408	91.56
275.64	78.56
275.872	86.56
276.104	84.56
276.335	86.56
276.567	90.56
276.799	94.56
277.031	101.56
277.262	74.56
277.494	83.56
277.726	93.56
277.957	89.56
278.189	94.56
278.421	82.56
278.652	88.56
278.884	79.56
279.115	94.56
279.347	82.56
279.579	89.56
279.81	83.56
280.042	81.56
280.273	82.56
280.505	87.56
280.736	95.56
280.968	85.56
281.199	89.56
281.431	87.56
281.662	70.56
281.894	91.56
282.125	89.56
282.356	96.56
282.588	133.56
282.819	97.56
283.051	83.56
283.282	98.56
283.513	93.56
283.745	91.56
283.976	93.56
284.207	77.56
284.439	70.56
284.67	97.56
284.901	103.56
285.132	85.56
285.364	95.56
285.595	72.56
285.826	85.56
286.057	83.56
286.288	77.56
286.52	87.56
286.751	77.56
286.982	89.56
287.213	90.56
287.444	95.56
287.675	93.56
287.906	85.56
288.138	86.56
288.369	89.56
288.6	86.56
288.831	66.56
289.062	95.56
289.293	84.56
289.524	87.56
289.755	94.56
289.986	70.56
290.217	89.56
290.448	81.56
290.679	92.56
290.91	82.56
291.141	83.56
291.371	86.56
291.602	89.56
291.833	91.56
292.064	76.56
292.295	95.56
292.526	104.56
292.757	87.56
292.987	91.56
293.218	96.56
293.449	74.56
293.68	90.56
293.91	85.56
294.141	91.56
294.372	97.56
294.603	100.56
294.833	103.56
295.064	107.56
295.295	88.56
295.525	73.56
295.756	90.56
295.987	102.56
296.217	117.56
296.448	109.56
296.679	82.56
296.909	88.56
297.14	81.56
297.37	80.56
297.601	87.56
297.831	84.56
298.062	99.56
298.292	82.56
298.523	82.56
298.753	70.56
298.984	89.56
299.214	82.56
299.445	94.56
299.675	97.56
299.905	99.56
300.136	76.56
300.366	95.56
300.597	87.56
300.827	88.56
301.057	84.56
301.288	68.56
301.518	92.56
301.748	98.56
301.979	99.56
302.209	90.56
302.439	96.56
302.669	103.56
302.9	79.56
303.13	92.56
303.36	89.56
303.59	106.56
303.82	107.56
304.051	94.56
304.281	82.56
304.511	93.56
304.741	98.56
304.971	98.56
305.201	87.56
305.431	83.56
305.661	76.56
305.891	90.56
306.121	92.56
306.352	110.56
306.582	92.56
306.812	99.56
307.042	89.56
307.272	92.56
307.502	94.56
307.731	74.56
307.961	76.56
308.191	93.56
308.421	90.56
308.651	95.56
308.881	99.56
309.111	102.56
309.341	97.56
309.571	111.56
309.8	117.56
310.03	96.56
310.26	99.56
310.49	99.56
310.72	92.56
310.949	111.56
311.179	98.56
311.409	86.56
311.639	87.56
311.868	104.56
312.098	90.56
312.328	97.56
312.557	115.56
312.787	95.56
313.017	101.56
313.246	86.56
313.476	95.56
313.706	100.56
313.935	87.56
314.165	89.56
314.394	93.56
314.624	102.56
314.853	91.56
315.083	101.56
315.312	105.56
315.542	87.56
315.771	97.56
316.001	82.56
316.23	79.56
316.46	106.56
316.689	93.56
316.919	100.56
317.148	93.56
317.377	87.56
317.607	107.56
317.836	84.56
318.065	94.56
318.295	91.56
318.524	78.56
318.753	89.56
318.983	92.56
319.212	91.56
319.441	102.56
319.67	107.56
319.9	107.56
320.129	92.56
320.358	94.56
320.587	92.56
320.816	113.56
321.046	99.56
321.275	97.56
321.504	90.56
321.733	102.56
321.962	83.56
322.191	99.56
322.42	88.56
322.649	106.56
322.878	114.56
323.108	124.56
323.337	120.56
323.566	139.56
323.795	151.56
324.024	192.56
324.253	341.56
324.482	618.56
324.71	1287.56
324.939	1668.56
325.168	616.56
325.397	208.56
325.626	145.56
325.855	109.56
326.084	105.56
326.313	129.56
326.542	132.56
326.77	212.56
326.999	379.56
327.228	755.56
327.457	1320.56
327.686	1031.56
327.914	296.56
328.143	165.56
328.372	140.56
328.6	108.56
328.829	111.56
329.058	116.56
329.287	121.56
329.515	105.56
329.744	94.56
329.972	93.56
330.201	104.56
330.43	102.56
330.658	110.56
330.887	139.56
331.115	111.56
331.344	102.56
331.572	104.56
331.801	103.56
332.03	103.56
332.258	100.56
332.486	90.56
332.715	87.56
332.943	102.56
333.172	94.56
333.4	111.56
333.629	107.56
333.857	114.56
334.085	98.56
334.314	82.56
334.542	99.56
334.771	116.56
334.999	95.56
335.227	102.56
335.455	88.56
335.684	90.56
335.912	94.56
336.14	85.56
336.369	99.56
336.597	90.56
336.825	103.56
337.053	93.56
337.281	92.56
337.51	103.56
337.738	90.56
337.966	95.56
338.194	98.56
338.422	87.56
338.65	86.56
338.878	87.56
339.106	97.56
339.334	81.56
339.562	95.56
339.79	89.56
340.018	77.56
340.246	87.56
340.474	96.56
340.702	86.56
340.93	92.56
341.158	98.56
341.386	102.56
341.614	95.56
341.842	100.56
342.07	86.56
342.298	92.56
342.526	84.56
342.754	85.56
342.981	85.56
343.209	82.56
343.437	103.56
343.665	92.56
343.893	101.56
344.12	93.56
344.348	104.56
344.576	86.56
344.804	100.56
345.031	105.56
345.259	116.56
345.487	98.56
345.714	106.56
345.942	101.56
346.17	85.56
346.397	87.56
346.625	98.56
346.853	96.56
347.08	94.56
347.308	95.56
347.535	116.56
347.763	95.56
347.99	104.56
348.218	101.56
348.445	97.56
348.673	93.56
348.9	84.56
349.128	99.56
349.355	98.56
349.583	106.56
349.81	91.56
350.037	97.56
350.265	85.56
350.492	81.56
350.72	94.56
350.947	100.56
351.174	105.56
351.402	126.56
351.629	98.56
351.856	98.56
352.083	97.56
352.311	94.56
352.538	102.56
352.765	117.56
352.992	116.56
353.22	105.56
353.447	103.56
353.674	99.56
353.901	97.56
354.128	100.56
354.355	102.56
354.583	95.56
354.81	98.56
355.037	100.56
355.264	92.56
355.491	107.56
355.718	84.56
355.945	109.56
356.172	101.56
356.399	96.56
356.626	87.56
356.853	91.56
357.08	97.56
357.307	96.56
357.534	99.56
357.761	101.56
357.988	78.56
358.215	94.56
358.441	85.56
358.668	103.56
358.895	87.56
359.122	79.56
359.349	93.56
359.576	102.56
359.802	95.56
360.029	93.56
360.256	100.56
360.483	101.56
360.709	93.56
360.936	93.56
361.163	97.56
361.39	68.56
361.616	84.56
361.843	100.56
362.07	95.56
362.296	98.56
362.523	95.56
362.749	90.56
362.976	87.56
363.203	94.56
363.429	98.56
363.656	84.56
363.882	87.56
364.109	79.56
364.335	98.56
364.562	89.56
364.788	91.56
365.015	98.56
365.241	74.56
365.468	99.56
365.694	100.56
365.92	97.56
366.147	89.56
366.373	84.56
366.599	89.56
366.826	98.56
367.052	101.56
367.278	96.56
367.505	97.56
367.731	83.56
367.957	98.56
368.184	78.56
368.41	96.56
368.636	106.56
368.862	106.56
369.089	100.56
369.315	71.56
369.541	100.56
369.767	84.56
369.993	100.56
370.219	94.56
370.445	87.56
370.672	95.56
370.898	87.56
371.124	106.56
371.35	95.56
371.576	95.56
371.802	75.56
372.028	102.56
372.254	82.56
372.48	90.56
372.706	82.56
372.932	85.56
373.158	100.56
373.384	90.56
373.61	79.56
373.835	93.56
374.061	95.56
374.287	93.56
374.513	86.56
374.739	81.56
374.965	97.56
375.191	96.56
375.416	87.56
375.642	86.56
375.868	91.56
376.094	97.56
376.319	93.56
376.545	81.56
376.771	80.56
376.997	106.56
377.222	77.56
377.448	94.56
377.674	79.56
377.899	85.56
378.125	86.56
378.35	89.56
378.576	101.56
378.802	101.56
379.027	93.56
379.253	96.56
379.478	85.56
379.704	101.56
379.929	88.56
380.155	89.56
380.38	87.56
380.606	84.56
380.831	90.56
381.057	101.56
381.282	94.56
381.507	94.56
381.733	95.56
381.958	107.56
382.184	97.56
382.409	108.56
382.634	100.56
382.86	105.56
383.085	89.56
383.31	97.56
383.535	92.56
383.761	97.56
383.986	95.56
384.211	93.56
384.436	103.56
384.662	102.56
384.887	95.56
385.112	98.56
385.337	81.56
385.562	93.56
385.787	105.56
386.013	109.56
386.238	115.56
386.463	101.56
386.688	104.56
386.913	97.56
387.138	97.56
387.363	102.56
387.588	87.56
387.813	89.56
388.038	99.56
388.263	100.56
388.488	103.56
388.713	112.56
388.938	94.56
389.163	90.56
389.387	79.56
389.612	92.56
389.837	82.56
390.062	83.56
390.287	81.56
390.512	99.56
390.736	95.56
390.961	82.56
391.186	95.56
391.411	79.56
391.636	91.56
391.86	93.56
392.085	86.56
392.31	77.56
392.534	84.56
392.759	86.56
392.984	95.56
393.208	79.56
393.433	84.56
393.658	76.56
393.882	87.56
394.107	86.56
394.331	75.56
394.556	79.56
394.78	101.56
395.005	81.56
395.229	80.56
395.454	90.56
395.678	83.56
395.903	73.56
396.127	93.56
396.352	101.56
396.576	90.56
396.801	86.56
397.025	89.56
397.249	86.56
397.474	91.56
397.698	69.56
397.922	87.56
398.147	92.56
398.371	89.56
398.595	87.56
398.82	87.56
399.044	89.56
399.268	89.56
399.492	92.56
399.717	83.56
399.941	95.56
400.165	81.56
400.389	99.56
400.613	85.56
400.837	91.56
401.062	76.56
401.286	87.56
401.51	89.56
401.734	88.56
401.958	88.56
402.182	122.56
402.406	139.56
402.63	109.56
402.854	87.56
403.078	87.56
403.302	73.56
403.526	78.56
403.75	84.56
403.974	82.56
404.198	90.56
404.422	85.56
404.645	89.56
404.869	103.56
405.093	82.56
405.317	89.56
405.541	95.56
405.765	103.56
405.988	106.56
406.212	145.56
406.436	175.56
406.66	133.56
406.883	89.56
407.107	84.56
407.331	85.56
407.555	90.56
407.778	95.56
408.002	90.56
408.226	94.56
408.449	94.56
408.673	83.56
408.896	87.56
409.12	101.56
409.344	91.56
409.567	99.56
409.791	98.56
410.014	95.56
410.238	87.56
410.461	94.56
410.685	100.56
410.908	102.56
411.132	101.56
411.355	90.56
411.578	99.56
411.802	88.56
412.025	86.56
412.249	83.56
412.472	93.56
412.695	87.56
412.919	77.56
413.142	81.56
413.365	87.56
413.589	89.56
413.812	91.56
414.035	99.56
414.258	95.56
414.482	86.56
414.705	93.56
414.928	89.56
415.151	94.56
415.374	94.56
415.597	80.56
415.821	113.56
416.044	94.56
416.267	92.56
416.49	84.56
416.713	99.56
416.936	78.56
417.159	89.56
417.382	98.56
417.605	78.56
417.828	89.56
418.051	94.56
418.274	96.56
418.497	94.56
418.72	87.56
418.943	93.56
419.166	96.56
419.389	85.56
419.611	101.56
419.834	88.56
420.057	93.56
420.28	93.56
420.503	90.56
420.726	82.56
420.948	74.56
421.171	83.56
421.394	89.56
421.617	85.56
421.839	90.56
422.062	96.56
422.285	92.56
422.507	88.56
422.73	103.56
422.953	89.56
423.175	73.56
423.398	87.56
423.621	82.56
423.843	75.56
424.066	83.56
424.288	88.56
424.511	91.56
424.733	99.56
424.956	109.56
425.178	85.56
425.401	105.56
425.623	102.56
425.846	89.56
426.068	87.56
426.291	97.56
426.513	94.56
426.735	98.56
426.958	88.56
427.18	87.56
427.402	118.56
427.625	159.56
427.847	130.56
428.069	91.56
428.292	89.56
428.514	83.56
428.736	84.56
428.958	89.56
429.181	86.56
429.403	77.56
429.625	94.56
429.847	94.56
430.069	113.56
430.292	89.56
430.514	92.56
430.736	83.56
430.958	92.56
431.18	89.56
431.402	94.56
431.624	89.56
431.846	94.56
432.068	97.56
432.29	79.56
432.512	93.56
432.734	82.56
432.956	86.56
433.178	92.56
433.4	109.56
433.622	91.56
433.844	101.56
434.066	78.56
434.287	101.56
434.509	92.56
434.731	84.56
434.953	89.56
435.175	98.56
435.397	84.56
435.618	86.56
435.84	99.56
436.062	94.56
436.284	104.56
436.505	103.56
436.727	96.56
436.949	81.56
437.17	91.56
437.392	75.56
437.614	77.56
437.835	83.56
438.057	115.56
438.278	104.56
438.5	93.56
438.721	109.56
438.943	73.56
439.165	85.56
439.386	77.56
439.608	96.56
439.829	99.56
440.05	105.56
440.272	106.56
440.493	97.56
440.715	86.56
440.936	88.56
441.158	82.56
441.379	91.56
441.6	107.56
441.822	89.56
442.043	85.56
442.264	99.56
442.486	96.56
442.707	83.56
442.928	116.56
443.149	117.56
443.371	119.56
443.592	107.56
443.813	92.56
444.034	106.56
444.255	87.56
444.476	79.56
444.698	91.56
444.919	82.56
445.14	121.56
445.361	102.56
445.582	107.56
445.803	126.56
446.024	103.56
446.245	123.56
446.466	96.56
446.687	89.56
446.908	80.56
447.129	86.56
447.35	83.56
447.571	110.56
447.792	83.56
448.013	95.56
448.234	106.56
448.455	98.56
448.675	102.56
448.896	118.56
449.117	92.56
449.338	106.56
449.559	122.56
449.779	133.56
450	98.56
450.221	105.56
450.442	90.56
450.662	78.56
450.883	90.56
451.104	102.56
451.324	92.56
451.545	92.56
451.766	91.56
451.986	68.56
452.207	84.56
452.428	89.56
452.648	104.56
452.869	101.56
453.089	114.56
453.31	100.56
453.53	84.56
453.751	86.56
453.971	101.56
454.192	105.56
454.412	103.56
454.633	81.56
454.853	85.56
455.073	79.56
455.294	81.56
455.514	97.56
455.734	96.56
455.955	81.56
456.175	89.56
456.395	85.56
456.616	94.56
456.836	91.56
457.056	89.56
457.276	78.56
457.497	91.56
457.717	87.56
457.937	89.56
458.157	83.56
458.377	85.56
458.598	101.56
458.818	127.56
459.038	129.56
459.258	105.56
459.478	83.56
459.698	90.56
459.918	82.56
460.138	86.56
460.358	89.56
460.578	93.56
460.798	84.56
461.018	91.56
461.238	91.56
461.458	78.56
461.678	85.56
461.898	89.56
462.118	87.56
462.338	104.56
462.558	83.56
462.777	87.56
462.997	88.56
463.217	62.56
463.437	89.56
463.657	86.56
463.876	94.56
464.096	78.56
464.316	90.56
464.536	92.56
464.755	87.56
464.975	103.56
465.195	150.56
465.414	125.56
465.634	104.56
465.854	81.56
466.073	96.56
466.293	90.56
466.512	98.56
466.732	93.56
466.951	90.56
467.171	86.56
467.391	98.56
467.61	87.56
467.829	99.56
468.049	95.56
468.268	85.56
468.488	85.56
468.707	92.56
468.927	89.56
469.146	86.56
469.365	77.56
469.585	69.56
469.804	95.56
470.023	94.56
470.243	101.56
470.462	93.56
470.681	98.56
470.901	79.56
471.12	82.56
471.339	100.56
471.558	81.56
471.777	89.56
471.997	91.56
472.216	95.56
472.435	105.56
472.654	93.56
472.873	91.56
473.092	98.56
473.311	84.56
473.53	83.56
473.749	77.56
473.968	98.56
474.187	108.56
474.406	86.56
474.625	89.56
474.844	85.56
475.063	90.56
475.282	95.56
475.501	83.56
475.72	90.56
475.939	74.56
476.158	71.56
476.377	91.56
476.596	87.56
476.814	95.56
477.033	84.56
477.252	90.56
477.471	81.56
477.69	90.56
477.908	90.56
478.127	82.56
478.346	92.56
478.564	99.56
478.783	99.56
479.002	94.56
479.22	91.56
479.439	99.56
479.658	100.56
479.876	86.56
480.095	87.56
480.313	95.56
480.532	86.56
480.751	89.56
480.969	79.56
481.188	113.56
481.406	86.56
481.624	109.56
481.843	92.56
482.061	93.56
482.28	75.56
482.498	85.56
482.717	83.56
482.935	74.56
483.153	87.56
483.372	96.56
483.59	90.56
483.808	98.56
484.027	84.56
484.245	85.56
484.463	112.56
484.681	81.56
484.9	86.56
485.118	86.56
485.336	92.56
485.554	93.56
485.772	93.56
485.99	106.56
486.209	95.56
486.427	106.56
486.645	111.56
486.863	116.56
487.081	96.56
487.299	97.56
487.517	100.56
487.735	97.56
487.953	97.56
488.171	94.56
488.389	89.56
488.607	95.56
488.825	101.56
489.043	92.56
489.261	92.56
489.479	97.56
489.696	85.56
489.914	84.56
490.132	87.56
490.35	89.56
490.568	103.56
490.786	98.56
491.003	95.56
491.221	103.56
491.439	84.56
491.657	113.56
491.874	86.56
492.092	79.56
492.31	70.56
492.527	73.56
492.745	92.56
492.963	92.56
493.18	103.56
493.398	100.56
493.615	93.56
493.833	99.56
494.05	97.56
494.268	77.56
494.485	96.56
494.703	79.56
494.92	79.56
495.138	106.56
495.355	103.56
495.573	102.56
495.79	94.56
496.008	80.56
496.225	88.56
496.442	100.56
496.66	92.56
496.877	91.56
497.094	100.56
497.312	91.56
497.529	102.56
497.746	89.56
497.963	89.56
498.181	90.56
498.398	93.56
498.615	99.56
498.832	93.56
499.049	97.56
499.267	94.56
499.484	84.56
499.701	89.56
499.918	89.56
500.135	100.56
500.352	90.56
500.569	73.56
500.786	93.56
501.003	73.56
501.22	98.56
501.437	101.56
501.654	101.56
501.871	93.56
502.088	90.56
502.305	95.56
502.522	82.56
502.739	96.56
502.956	84.56
503.172	90.56
503.389	88.56
503.606	96.56
503.823	83.56
504.04	91.56
504.256	95.56
504.473	83.56
504.69	89.56
504.907	99.56
505.123	92.56
505.34	91.56
505.557	87.56
505.773	91.56
505.99	89.56
506.207	93.56
506.423	88.56
506.64	100.56
506.856	82.56
507.073	101.56
507.289	98.56
507.506	103.56
507.722	103.56
507.939	91.56
508.155	93.56
508.372	109.56
508.588	88.56
508.805	93.56
509.021	95.56
509.238	105.56
509.454	91.56
509.67	97.56
509.887	99.56
510.103	131.56
510.319	201.56
510.536	673.56
510.752	1995.56
510.968	541.56
511.184	134.56
511.401	107.56
511.617	97.56
511.833	97.56
512.049	103.56
512.265	108.56
512.481	96.56
512.698	89.56
512.914	98.56
513.13	73.56
513.346	89.56
513.562	92.56
513.778	98.56
513.994	97.56
514.21	109.56
514.426	96.56
514.642	118.56
514.858	117.56
515.074	155.56
515.29	386.56
515.506	1179.56
515.721	422.56
515.937	133.56
516.153	98.56
