Data from Uncirc_1993_H10_HRD10591_00031.txt Node
Date: Wed Jan 03 11:42:58 EST 2024
User: Yrep
Spectrometer: HR+D1059
Trigger mode: 1
Integration Time (sec): 1.000000E-1
Scans to average: 1
Electric dark correction enabled: true
Nonlinearity correction enabled: false
Boxcar width: 0
XAxis mode: Wavelengths
Number of Pixels in Spectrum: 2048
>>>>>Begin Spectral Data<<<<<
223.165	-26
223.4	-26
223.635	-26
223.869	-23
224.104	-19
224.338	-24
224.573	-8
224.808	-15
225.042	-13
225.277	-3
225.511	10
225.746	1
225.98	14
226.215	6
226.449	23
226.683	22
226.918	26
227.152	29
227.387	42
227.621	40
227.856	54
228.09	40
228.324	54
228.559	48
228.793	59
229.027	56
229.262	64
229.496	87
229.73	78
229.964	75
230.199	71
230.433	72
230.667	72
230.901	61
231.136	75
231.37	76
231.604	72
231.838	72
232.072	71
232.306	68
232.541	75
232.775	73
233.009	83
233.243	78
233.477	87
233.711	72
233.945	67
234.179	86
234.413	77
234.647	75
234.881	84
235.115	72
235.349	70
235.583	88
235.817	67
236.051	86
236.285	70
236.519	66
236.753	53
236.987	71
237.221	72
237.455	90
237.689	70
237.922	82
238.156	83
238.39	83
238.624	71
238.858	69
239.091	91
239.325	67
239.559	80
239.793	69
240.027	82
240.26	76
240.494	79
240.728	67
240.961	72
241.195	74
241.429	74
241.662	86
241.896	70
242.13	75
242.363	88
242.597	68
242.83	69
243.064	79
243.298	63
243.531	76
243.765	66
243.998	87
244.232	72
244.465	80
244.699	66
244.932	76
245.166	70
245.399	75
245.633	75
245.866	65
246.099	76
246.333	75
246.566	86
246.8	79
247.033	87
247.266	76
247.5	64
247.733	70
247.966	87
248.2	92
248.433	84
248.666	78
248.899	74
249.133	78
249.366	94
249.599	84
249.832	88
250.066	78
250.299	70
250.532	83
250.765	68
250.998	66
251.231	82
251.465	81
251.698	68
251.931	73
252.164	85
252.397	67
252.63	72
252.863	63
253.096	87
253.329	87
253.562	70
253.795	73
254.028	82
254.261	79
254.494	85
254.727	77
254.96	87
255.193	82
255.426	83
255.659	76
255.892	79
256.124	75
256.357	82
256.59	77
256.823	77
257.056	78
257.289	76
257.521	75
257.754	75
257.987	74
258.22	97
258.452	78
258.685	61
258.918	72
259.151	88
259.383	73
259.616	76
259.849	80
260.081	75
260.314	81
260.547	80
260.779	79
261.012	80
261.244	84
261.477	92
261.71	78
261.942	98
262.175	104
262.407	88
262.64	65
262.872	90
263.105	78
263.337	80
263.57	82
263.802	80
264.035	78
264.267	89
264.499	77
264.732	83
264.964	74
265.197	72
265.429	82
265.661	64
265.894	76
266.126	66
266.358	80
266.591	72
266.823	82
267.055	84
267.287	79
267.52	74
267.752	80
267.984	96
268.216	85
268.448	84
268.681	70
268.913	92
269.145	76
269.377	86
269.609	80
269.841	90
270.073	71
270.306	79
270.538	78
270.77	77
271.002	85
271.234	71
271.466	73
271.698	81
271.93	90
272.162	102
272.394	84
272.626	88
272.858	90
273.09	68
273.322	77
273.553	74
273.785	80
274.017	84
274.249	72
274.481	85
274.713	86
274.945	79
275.176	75
275.408	90
275.64	95
275.872	82
276.104	87
276.335	87
276.567	91
276.799	105
277.031	98
277.262	78
277.494	88
277.726	76
277.957	79
278.189	76
278.421	80
278.652	72
278.884	78
279.115	83
279.347	66
279.579	85
279.81	76
280.042	86
280.273	83
280.505	74
280.736	85
280.968	90
281.199	78
281.431	75
281.662	80
281.894	82
282.125	95
282.356	103
282.588	129
282.819	98
283.051	91
283.282	82
283.513	84
283.745	80
283.976	88
284.207	91
284.439	81
284.67	91
284.901	72
285.132	95
285.364	83
285.595	68
285.826	86
286.057	94
286.288	86
286.52	90
286.751	92
286.982	72
287.213	76
287.444	80
287.675	84
287.906	99
288.138	79
288.369	83
288.6	69
288.831	89
289.062	85
289.293	76
289.524	96
289.755	78
289.986	77
290.217	95
290.448	78
290.679	93
290.91	88
291.141	80
291.371	88
291.602	85
291.833	73
292.064	95
292.295	98
292.526	83
292.757	92
292.987	79
293.218	85
293.449	88
293.68	106
293.91	83
294.141	87
294.372	95
294.603	82
294.833	82
295.064	92
295.295	84
295.525	77
295.756	87
295.987	93
296.217	122
296.448	107
296.679	89
296.909	85
297.14	87
297.37	75
297.601	86
297.831	95
298.062	79
298.292	78
298.523	110
298.753	73
298.984	82
299.214	89
299.445	80
299.675	87
299.905	100
300.136	84
300.366	88
300.597	103
300.827	99
301.057	91
301.288	94
301.518	95
301.748	93
301.979	103
302.209	93
302.439	96
302.669	94
302.9	80
303.13	86
303.36	94
303.59	102
303.82	80
304.051	83
304.281	82
304.511	91
304.741	91
304.971	102
305.201	95
305.431	90
305.661	85
305.891	92
306.121	99
306.352	91
306.582	82
306.812	82
307.042	88
307.272	94
307.502	78
307.731	97
307.961	74
308.191	77
308.421	94
308.651	97
308.881	86
309.111	88
309.341	100
309.571	94
309.8	87
310.03	90
310.26	87
310.49	99
310.72	104
310.949	95
311.179	95
311.409	92
311.639	86
311.868	99
312.098	66
312.328	87
312.557	84
312.787	83
313.017	89
313.246	88
313.476	90
313.706	92
313.935	97
314.165	94
314.394	82
314.624	84
314.853	92
315.083	94
315.312	85
315.542	81
315.771	74
316.001	84
316.23	86
316.46	86
316.689	96
316.919	92
317.148	88
317.377	72
317.607	97
317.836	78
318.065	86
318.295	89
318.524	100
318.753	92
318.983	93
319.212	106
319.441	102
319.67	103
319.9	91
320.129	93
320.358	96
320.587	97
320.816	95
321.046	93
321.275	93
321.504	90
321.733	104
321.962	82
322.191	100
322.42	94
322.649	95
322.878	109
323.108	107
323.337	110
323.566	111
323.795	127
324.024	169
324.253	325
324.482	656
324.71	1299
324.939	1657
325.168	648
325.397	208
325.626	144
325.855	128
326.084	108
326.313	110
326.542	118
326.77	211
326.999	390
327.228	710
327.457	1283
327.686	1042
327.914	278
328.143	176
328.372	134
328.6	108
328.829	112
329.058	99
329.287	123
329.515	104
329.744	98
329.972	88
330.201	91
330.43	82
330.658	124
330.887	130
331.115	121
331.344	97
331.572	95
331.801	94
332.03	82
332.258	83
332.486	85
332.715	105
332.943	90
333.172	92
333.4	84
333.629	107
333.857	99
334.085	87
334.314	87
334.542	94
334.771	104
334.999	94
335.227	84
335.455	86
335.684	97
335.912	92
336.14	86
336.369	97
336.597	80
336.825	87
337.053	81
337.281	92
337.51	106
337.738	88
337.966	83
338.194	76
338.422	84
338.65	106
338.878	88
339.106	98
339.334	91
339.562	87
339.79	75
340.018	95
340.246	85
340.474	92
340.702	76
340.93	94
341.158	86
341.386	94
341.614	89
341.842	93
342.07	68
342.298	94
342.526	93
342.754	87
342.981	93
343.209	92
343.437	95
343.665	96
343.893	85
344.12	92
344.348	78
344.576	75
344.804	90
345.031	90
345.259	98
345.487	86
345.714	80
345.942	86
346.17	84
346.397	95
346.625	103
346.853	83
347.08	81
347.308	97
347.535	87
347.763	104
347.99	85
348.218	83
348.445	86
348.673	98
348.9	81
349.128	95
349.355	89
349.583	80
349.81	75
350.037	87
350.265	102
350.492	92
350.72	97
350.947	100
351.174	98
351.402	107
351.629	113
351.856	93
352.083	98
352.311	94
352.538	104
352.765	90
352.992	102
353.22	106
353.447	106
353.674	103
353.901	86
354.128	97
354.355	90
354.583	107
354.81	99
355.037	96
355.264	91
355.491	94
355.718	92
355.945	89
356.172	99
356.399	91
356.626	94
356.853	90
357.08	103
357.307	93
357.534	88
357.761	91
357.988	100
358.215	98
358.441	102
358.668	86
358.895	93
359.122	84
359.349	96
359.576	91
359.802	85
360.029	108
360.256	113
360.483	103
360.709	76
360.936	92
361.163	87
361.39	84
361.616	96
361.843	98
362.07	93
362.296	86
362.523	79
362.749	93
362.976	80
363.203	87
363.429	83
363.656	79
363.882	97
364.109	88
364.335	77
364.562	87
364.788	82
365.015	97
365.241	103
365.468	100
365.694	84
365.92	91
366.147	87
366.373	84
366.599	95
366.826	101
367.052	87
367.278	93
367.505	87
367.731	112
367.957	90
368.184	92
368.41	92
368.636	102
368.862	113
369.089	99
369.315	89
369.541	91
369.767	89
369.993	91
370.219	84
370.445	86
370.672	76
370.898	100
371.124	89
371.35	84
371.576	89
371.802	74
372.028	91
372.254	77
372.48	95
372.706	97
372.932	94
373.158	75
373.384	91
373.61	104
373.835	72
374.061	91
374.287	83
374.513	78
374.739	79
374.965	70
375.191	74
375.416	85
375.642	80
375.868	70
376.094	85
376.319	75
376.545	99
376.771	78
376.997	72
377.222	83
377.448	84
377.674	94
377.899	88
378.125	74
378.35	103
378.576	93
378.802	85
379.027	88
379.253	93
379.478	86
379.704	105
379.929	95
380.155	88
380.38	94
380.606	84
380.831	87
381.057	86
381.282	91
381.507	91
381.733	99
381.958	77
382.184	95
382.409	86
382.634	93
382.86	90
383.085	92
383.31	92
383.535	86
383.761	87
383.986	107
384.211	97
384.436	108
384.662	91
384.887	85
385.112	111
385.337	92
385.562	101
385.787	93
386.013	106
386.238	113
386.463	108
386.688	104
386.913	97
387.138	100
387.363	104
387.588	86
387.813	98
388.038	80
388.263	107
388.488	91
388.713	96
388.938	82
389.163	88
389.387	97
389.612	97
389.837	100
390.062	95
390.287	85
390.512	113
390.736	111
390.961	81
391.186	104
391.411	91
391.636	85
391.86	89
392.085	78
392.31	78
392.534	85
392.759	85
392.984	75
393.208	75
393.433	84
393.658	89
393.882	79
394.107	82
394.331	77
394.556	87
394.78	93
395.005	81
395.229	84
395.454	74
395.678	72
395.903	91
396.127	96
396.352	82
396.576	78
396.801	88
397.025	83
397.249	83
397.474	86
397.698	92
397.922	78
398.147	98
398.371	79
398.595	98
398.82	92
399.044	74
399.268	65
399.492	93
399.717	98
399.941	85
400.165	94
400.389	84
400.613	76
400.837	94
401.062	91
401.286	85
401.51	74
401.734	91
401.958	93
402.182	129
402.406	138
402.63	121
402.854	77
403.078	85
403.302	78
403.526	87
403.75	75
403.974	87
404.198	78
404.422	90
404.645	89
404.869	97
405.093	76
405.317	76
405.541	90
405.765	107
405.988	105
406.212	157
406.436	210
406.66	128
406.883	82
407.107	83
407.331	89
407.555	95
407.778	106
408.002	85
408.226	86
408.449	95
408.673	81
408.896	86
409.12	98
409.344	85
409.567	77
409.791	86
410.014	105
410.238	88
410.461	76
410.685	88
410.908	94
411.132	98
411.355	94
411.578	81
411.802	74
412.025	83
412.249	90
412.472	77
412.695	88
412.919	81
413.142	89
413.365	80
413.589	86
413.812	83
414.035	90
414.258	80
414.482	84
414.705	84
414.928	76
415.151	91
415.374	92
415.597	98
415.821	86
416.044	89
416.267	84
416.49	95
416.713	90
416.936	80
417.159	87
417.382	93
417.605	91
417.828	90
418.051	102
418.274	96
418.497	90
418.72	87
418.943	89
419.166	87
419.389	93
419.611	88
419.834	83
420.057	79
420.28	78
420.503	84
420.726	81
420.948	81
421.171	89
421.394	86
421.617	86
421.839	89
422.062	73
422.285	66
422.507	88
422.73	90
422.953	83
423.175	76
423.398	95
423.621	86
423.843	84
424.066	82
424.288	79
424.511	87
424.733	95
424.956	93
425.178	97
425.401	90
425.623	89
425.846	94
426.068	98
426.291	90
426.513	92
426.735	88
426.958	95
427.18	95
427.402	128
427.625	129
427.847	115
428.069	84
428.292	91
428.514	80
428.736	82
428.958	90
429.181	70
429.403	89
429.625	82
429.847	91
430.069	85
430.292	84
430.514	75
430.736	78
430.958	82
431.18	85
431.402	74
431.624	73
431.846	73
432.068	92
432.29	78
432.512	88
432.734	82
432.956	79
433.178	93
433.4	91
433.622	83
433.844	84
434.066	80
434.287	87
434.509	74
434.731	79
434.953	79
435.175	63
435.397	78
435.618	81
435.84	92
436.062	104
436.284	98
436.505	95
436.727	87
436.949	91
437.17	86
437.392	78
437.614	100
437.835	109
438.057	103
438.278	97
438.5	86
438.721	98
438.943	99
439.165	88
439.386	90
439.608	95
439.829	92
440.05	99
440.272	117
440.493	75
440.715	76
440.936	72
441.158	87
441.379	89
441.6	103
441.822	83
442.043	78
442.264	97
442.486	104
442.707	83
442.928	105
443.149	104
443.371	100
443.592	92
443.813	91
444.034	97
444.255	92
444.476	76
444.698	84
444.919	89
445.14	126
445.361	107
445.582	84
445.803	106
446.024	108
446.245	123
446.466	91
446.687	91
446.908	84
447.129	90
447.35	79
447.571	95
447.792	79
448.013	83
448.234	101
448.455	88
448.675	106
448.896	120
449.117	109
449.338	87
449.559	114
449.779	125
450	97
450.221	88
450.442	83
450.662	77
450.883	89
451.104	99
451.324	89
451.545	81
451.766	94
451.986	73
452.207	76
452.428	87
452.648	91
452.869	115
453.089	112
453.31	106
453.53	90
453.751	81
453.971	92
454.192	95
454.412	90
454.633	86
454.853	93
455.073	90
455.294	84
455.514	105
455.734	88
455.955	68
456.175	83
456.395	82
456.616	81
456.836	83
457.056	91
457.276	86
457.497	84
457.717	83
457.937	88
458.157	91
458.377	79
458.598	87
458.818	123
459.038	142
459.258	115
459.478	80
459.698	85
459.918	84
460.138	91
460.358	75
460.578	74
460.798	80
461.018	91
461.238	79
461.458	77
461.678	75
461.898	76
462.118	83
462.338	77
462.558	80
462.777	83
462.997	72
463.217	79
463.437	87
463.657	80
463.876	92
464.096	84
464.316	83
464.536	86
464.755	81
464.975	98
465.195	139
465.414	125
465.634	94
465.854	74
466.073	78
466.293	76
466.512	93
466.732	74
466.951	86
467.171	88
467.391	96
467.61	106
467.829	88
468.049	89
468.268	79
468.488	90
468.707	81
468.927	80
469.146	90
469.365	67
469.585	72
469.804	88
470.023	92
470.243	98
470.462	90
470.681	90
470.901	82
471.12	100
471.339	83
471.558	89
471.777	92
471.997	79
472.216	85
472.435	90
472.654	81
472.873	88
473.092	85
473.311	88
473.53	77
473.749	84
473.968	86
474.187	96
474.406	87
474.625	73
474.844	98
475.063	84
475.282	92
475.501	78
475.72	88
475.939	87
476.158	86
476.377	67
476.596	93
476.814	90
477.033	94
477.252	85
477.471	86
477.69	79
477.908	75
478.127	97
478.346	87
478.564	82
478.783	79
479.002	75
479.22	108
479.439	98
479.658	114
479.876	88
480.095	88
480.313	92
480.532	95
480.751	89
480.969	85
481.188	93
481.406	96
481.624	106
481.843	92
482.061	89
482.28	76
482.498	83
482.717	87
482.935	84
483.153	78
483.372	92
483.59	78
483.808	79
484.027	78
484.245	75
484.463	89
484.681	104
484.9	86
485.118	88
485.336	93
485.554	94
485.772	100
485.99	95
486.209	97
486.427	108
486.645	98
486.863	99
487.081	108
487.299	82
487.517	100
487.735	97
487.953	83
488.171	89
488.389	87
488.607	100
488.825	91
489.043	85
489.261	84
489.479	97
489.696	93
489.914	84
490.132	80
490.35	85
490.568	69
490.786	94
491.003	76
491.221	95
491.439	78
491.657	89
491.874	92
492.092	83
492.31	76
492.527	76
492.745	79
492.963	90
493.18	84
493.398	87
493.615	88
493.833	100
494.05	84
494.268	83
494.485	87
494.703	90
494.92	91
495.138	83
495.355	92
495.573	90
495.79	81
496.008	82
496.225	78
496.442	68
496.66	100
496.877	86
497.094	88
497.312	83
497.529	83
497.746	86
497.963	90
498.181	77
498.398	80
498.615	101
498.832	91
499.049	79
499.267	83
499.484	94
499.701	89
499.918	79
500.135	89
500.352	90
500.569	90
500.786	91
501.003	83
501.22	81
501.437	82
501.654	88
501.871	113
502.088	78
502.305	90
502.522	88
502.739	95
502.956	90
503.172	85
503.389	82
503.606	96
503.823	79
504.04	84
504.256	90
504.473	82
504.69	81
504.907	92
505.123	83
505.34	90
505.557	102
505.773	60
505.99	79
506.207	86
506.423	82
506.64	74
506.856	91
507.073	79
507.289	81
507.506	88
507.722	81
507.939	103
508.155	90
508.372	86
508.588	79
508.805	88
509.021	90
509.238	76
509.454	106
509.67	109
509.887	108
510.103	121
510.319	185
510.536	651
510.752	2009
510.968	552
511.184	138
511.401	102
511.617	101
511.833	102
512.049	82
512.265	90
512.481	86
512.698	94
512.914	99
513.13	83
513.346	95
513.562	97
513.778	97
513.994	88
514.21	95
514.426	112
514.642	123
514.858	124
515.074	155
515.29	358
515.506	1187
515.721	441
515.937	125
516.153	100
516.369	95
516.585	86
516.801	83
517.016	76
517.232	84
517.448	90
517.664	95
517.879	90
518.095	80
518.311	88
518.527	92
518.742	91
518.958	87
519.173	95
519.389	93
519.605	95
519.82	89
520.036	91
520.251	110
520.467	106
520.682	102
520.898	98
521.113	109
521.329	121
521.544	177
521.76	449
521.975	1944
522.19	1170
522.406	265
522.621	117
522.836	92
523.052	91
523.267	96
523.482	106
523.698	86
523.913	118
524.128	91
524.343	97
524.559	90
524.774	93
524.989	83
525.204	110
525.419	83
525.634	86
525.849	91
526.064	92
526.28	91
526.495	81
526.71	100
526.925	86
527.14	86
527.355	87
527.57	100
527.785	87
527.999	95
528.214	95
528.429	97
528.644	84
528.859	98
529.074	79
529.289	113
529.503	172
529.718	107
529.933	99
530.148	74
530.363	80
530.577	94
530.792	87
531.007	94
531.221	94
531.436	101
531.651	86
531.865	95
532.08	80
532.295	87
532.509	97
532.724	83
532.938	98
533.153	99
533.367	88
533.582	95
533.796	88
534.011	87
534.225	86
534.44	95
534.654	99
534.868	92
535.083	100
535.297	94
535.511	98
535.726	96
535.94	87
536.154	76
536.369	90
536.583	98
536.797	103
537.011	98
537.225	78
537.44	78
537.654	76
537.868	81
538.082	83
538.296	81
538.51	81
538.724	96
538.938	84
539.153	83
539.367	91
539.581	88
539.795	76
540.009	72
540.222	95
540.436	72
540.65	87
540.864	82
541.078	88
541.292	88
541.506	100
541.72	85
541.934	82
542.147	90
542.361	78
542.575	78
542.789	92
543.002	89
543.216	73
543.43	101
543.644	92
543.857	105
544.071	95
544.285	98
544.498	84
544.712	85
544.925	88
545.139	82
545.352	79
545.566	81
545.779	90
545.993	85
546.206	89
546.42	88
546.633	96
546.847	78
547.06	78
547.274	83
547.487	97
547.7	92
547.914	91
548.127	86
548.34	86
548.554	83
548.767	84
548.98	79
549.193	83
549.407	91
549.62	74
549.833	90
550.046	97
550.259	68
550.473	79
550.686	89
550.899	80
551.112	89
551.325	80
551.538	90
551.751	77
551.964	80
552.177	87
552.39	86
552.603	89
552.816	101
553.029	87
553.242	91
553.455	80
553.667	95
553.88	92
554.093	84
554.306	89
554.519	95
554.732	75
554.944	87
555.157	105
555.37	97
555.583	80
555.795	104
556.008	80
556.221	93
556.433	90
556.646	96
556.859	99
557.071	91
557.284	86
557.496	80
557.709	89
557.921	94
558.134	80
558.346	83
558.559	97
558.771	82
558.984	95
559.196	76
559.409	90
559.621	83
559.833	78
560.046	75
560.258	87
560.47	104
560.683	95
560.895	89
561.107	99
561.32	83
561.532	95
561.744	76
561.956	88
562.168	99
562.381	94
562.593	74
562.805	90
563.017	87
563.229	86
563.441	87
563.653	95
563.865	91
564.077	85
564.289	82
564.501	85
564.713	89
564.925	90
565.137	92
565.349	83
565.561	84
565.773	75
565.985	95
566.197	76
566.408	80
566.62	87
566.832	88
567.044	83
567.255	80
567.467	83
567.679	83
567.891	76
568.102	92
568.314	79
568.526	80
568.737	93
568.949	92
569.161	76
569.372	87
569.584	83
569.795	99
570.007	106
570.218	226
570.43	111
570.641	84
570.853	81
571.064	86
571.276	93
571.487	75
571.698	86
571.91	94
572.121	88
572.333	92
572.544	98
572.755	88
572.966	72
573.178	92
573.389	83
573.6	94
573.811	86
574.023	89
574.234	83
574.445	88
574.656	99
574.867	82
575.078	89
575.289	97
575.501	83
575.712	67
575.923	84
576.134	87
576.345	72
576.556	85
576.767	93
576.978	86
577.188	86
577.399	80
577.61	99
577.821	86
578.032	107
578.243	244
578.454	669
578.665	190
578.875	110
579.086	81
579.297	83
579.508	88
579.718	90
579.929	84
580.14	73
580.35	64
580.561	86
580.772	90
580.982	68
581.193	84
581.403	86
581.614	86
581.825	97
582.035	75
582.246	93
582.456	89
582.667	77
582.877	74
583.087	90
583.298	88
583.508	86
583.719	94
583.929	75
584.139	85
584.35	87
584.56	88
584.77	96
584.981	90
585.191	86
585.401	92
585.611	95
585.821	81
586.032	87
586.242	92
586.452	88
586.662	95
586.872	81
