Data from Uncirc_1993_H10_HRD10591_00033.txt Node
Date: Wed Jan 03 11:42:58 EST 2024
User: Yrep
Spectrometer: HR+D1059
Trigger mode: 1
Integration Time (sec): 1.000000E-1
Scans to average: 1
Electric dark correction enabled: true
Nonlinearity correction enabled: false
Boxcar width: 0
XAxis mode: Wavelengths
Number of Pixels in Spectrum: 2048
>>>>>Begin Spectral Data<<<<<
223.165	-22.38
223.4	-22.38
223.635	-22.38
223.869	-23.38
224.104	-19.38
224.338	-11.38
224.573	-9.38
224.808	-15.38
225.042	6.62
225.277	-8.38
225.511	-6.38
225.746	2.62
225.98	12.62
226.215	14.62
226.449	19.62
226.683	21.62
226.918	15.62
227.152	22.62
227.387	37.62
227.621	40.62
227.856	40.62
228.09	43.62
228.324	49.62
228.559	56.62
228.793	56.62
229.027	57.62
229.262	54.62
229.496	61.62
229.73	86.62
229.964	94.62
230.199	82.62
230.433	74.62
230.667	83.62
230.901	89.62
231.136	82.62
231.37	90.62
231.604	84.62
231.838	83.62
232.072	84.62
232.306	83.62
232.541	79.62
232.775	76.62
233.009	89.62
233.243	75.62
233.477	85.62
233.711	76.62
233.945	82.62
234.179	81.62
234.413	82.62
234.647	78.62
234.881	61.62
235.115	91.62
235.349	66.62
235.583	88.62
235.817	99.62
236.051	76.62
236.285	75.62
236.519	75.62
236.753	89.62
236.987	62.62
237.221	78.62
237.455	79.62
237.689	84.62
237.922	67.62
238.156	78.62
238.39	80.62
238.624	66.62
238.858	75.62
239.091	72.62
239.325	74.62
239.559	84.62
239.793	83.62
240.027	72.62
240.26	67.62
240.494	74.62
240.728	67.62
240.961	63.62
241.195	82.62
241.429	70.62
241.662	64.62
241.896	81.62
242.13	87.62
242.363	51.62
242.597	75.62
242.83	79.62
243.064	87.62
243.298	81.62
243.531	85.62
243.765	76.62
243.998	83.62
244.232	69.62
244.465	68.62
244.699	92.62
244.932	93.62
245.166	74.62
245.399	74.62
245.633	81.62
245.866	83.62
246.099	67.62
246.333	94.62
246.566	80.62
246.8	67.62
247.033	94.62
247.266	69.62
247.5	91.62
247.733	72.62
247.966	82.62
248.2	77.62
248.433	75.62
248.666	80.62
248.899	82.62
249.133	82.62
249.366	93.62
249.599	87.62
249.832	66.62
250.066	88.62
250.299	78.62
250.532	67.62
250.765	76.62
250.998	80.62
251.231	89.62
251.465	70.62
251.698	87.62
251.931	79.62
252.164	63.62
252.397	67.62
252.63	73.62
252.863	75.62
253.096	76.62
253.329	68.62
253.562	88.62
253.795	80.62
254.028	76.62
254.261	78.62
254.494	88.62
254.727	84.62
254.96	74.62
255.193	80.62
255.426	89.62
255.659	86.62
255.892	66.62
256.124	68.62
256.357	85.62
256.59	79.62
256.823	67.62
257.056	58.62
257.289	65.62
257.521	67.62
257.754	72.62
257.987	78.62
258.22	78.62
258.452	79.62
258.685	84.62
258.918	74.62
259.151	91.62
259.383	73.62
259.616	76.62
259.849	76.62
260.081	70.62
260.314	84.62
260.547	78.62
260.779	80.62
261.012	81.62
261.244	82.62
261.477	83.62
261.71	71.62
261.942	114.62
262.175	123.62
262.407	81.62
262.64	71.62
262.872	66.62
263.105	87.62
263.337	91.62
263.57	87.62
263.802	95.62
264.035	71.62
264.267	76.62
264.499	83.62
264.732	77.62
264.964	98.62
265.197	77.62
265.429	83.62
265.661	65.62
265.894	72.62
266.126	74.62
266.358	92.62
266.591	70.62
266.823	59.62
267.055	64.62
267.287	88.62
267.52	74.62
267.752	87.62
267.984	76.62
268.216	71.62
268.448	81.62
268.681	88.62
268.913	96.62
269.145	87.62
269.377	82.62
269.609	84.62
269.841	82.62
270.073	88.62
270.306	84.62
270.538	92.62
270.77	84.62
271.002	79.62
271.234	87.62
271.466	82.62
271.698	79.62
271.93	92.62
272.162	89.62
272.394	78.62
272.626	75.62
272.858	84.62
273.09	68.62
273.322	76.62
273.553	82.62
273.785	93.62
274.017	84.62
274.249	92.62
274.481	72.62
274.713	79.62
274.945	104.62
275.176	73.62
275.408	83.62
275.64	92.62
275.872	82.62
276.104	79.62
276.335	66.62
276.567	88.62
276.799	97.62
277.031	106.62
277.262	102.62
277.494	91.62
277.726	88.62
277.957	86.62
278.189	87.62
278.421	96.62
278.652	83.62
278.884	81.62
279.115	90.62
279.347	78.62
279.579	77.62
279.81	86.62
280.042	90.62
280.273	81.62
280.505	108.62
280.736	84.62
280.968	90.62
281.199	83.62
281.431	90.62
281.662	106.62
281.894	76.62
282.125	88.62
282.356	100.62
282.588	123.62
282.819	102.62
283.051	85.62
283.282	79.62
283.513	74.62
283.745	83.62
283.976	82.62
284.207	85.62
284.439	89.62
284.67	92.62
284.901	96.62
285.132	72.62
285.364	71.62
285.595	93.62
285.826	96.62
286.057	79.62
286.288	62.62
286.52	79.62
286.751	86.62
286.982	83.62
287.213	79.62
287.444	77.62
287.675	90.62
287.906	91.62
288.138	74.62
288.369	90.62
288.6	90.62
288.831	90.62
289.062	92.62
289.293	96.62
289.524	89.62
289.755	91.62
289.986	91.62
290.217	89.62
290.448	91.62
290.679	88.62
290.91	82.62
291.141	97.62
291.371	74.62
291.602	88.62
291.833	91.62
292.064	103.62
292.295	86.62
292.526	87.62
292.757	85.62
292.987	95.62
293.218	91.62
293.449	99.62
293.68	84.62
293.91	103.62
294.141	86.62
294.372	86.62
294.603	82.62
294.833	92.62
295.064	86.62
295.295	92.62
295.525	88.62
295.756	86.62
295.987	106.62
296.217	122.62
296.448	110.62
296.679	93.62
296.909	91.62
297.14	91.62
297.37	93.62
297.601	86.62
297.831	75.62
298.062	102.62
298.292	96.62
298.523	88.62
298.753	90.62
298.984	92.62
299.214	87.62
299.445	83.62
299.675	88.62
299.905	85.62
300.136	93.62
300.366	78.62
300.597	77.62
300.827	90.62
301.057	90.62
301.288	104.62
301.518	80.62
301.748	76.62
301.979	94.62
302.209	89.62
302.439	86.62
302.669	86.62
302.9	94.62
303.13	87.62
303.36	97.62
303.59	99.62
303.82	99.62
304.051	90.62
304.281	81.62
304.511	96.62
304.741	91.62
304.971	86.62
305.201	95.62
305.431	92.62
305.661	108.62
305.891	88.62
306.121	85.62
306.352	94.62
306.582	95.62
306.812	102.62
307.042	80.62
307.272	91.62
307.502	93.62
307.731	83.62
307.961	93.62
308.191	83.62
308.421	82.62
308.651	89.62
308.881	88.62
309.111	85.62
309.341	92.62
309.571	102.62
309.8	83.62
310.03	90.62
310.26	88.62
310.49	92.62
310.72	95.62
310.949	92.62
311.179	88.62
311.409	101.62
311.639	99.62
311.868	97.62
312.098	93.62
312.328	90.62
312.557	92.62
312.787	93.62
313.017	104.62
313.246	90.62
313.476	98.62
313.706	94.62
313.935	96.62
314.165	96.62
314.394	91.62
314.624	92.62
314.853	111.62
315.083	91.62
315.312	102.62
315.542	77.62
315.771	107.62
316.001	84.62
316.23	89.62
316.46	83.62
316.689	89.62
316.919	103.62
317.148	103.62
317.377	88.62
317.607	99.62
317.836	107.62
318.065	83.62
318.295	78.62
318.524	84.62
318.753	73.62
318.983	91.62
319.212	91.62
319.441	107.62
319.67	99.62
319.9	92.62
320.129	82.62
320.358	99.62
320.587	83.62
320.816	96.62
321.046	96.62
321.275	87.62
321.504	92.62
321.733	88.62
321.962	94.62
322.191	108.62
322.42	112.62
322.649	105.62
322.878	95.62
323.108	109.62
323.337	126.62
323.566	117.62
323.795	136.62
324.024	188.62
324.253	330.62
324.482	664.62
324.71	1304.62
324.939	1685.62
325.168	638.62
325.397	200.62
325.626	127.62
325.855	117.62
326.084	122.62
326.313	122.62
326.542	132.62
326.77	206.62
326.999	369.62
327.228	723.62
327.457	1287.62
327.686	1025.62
327.914	315.62
328.143	174.62
328.372	136.62
328.6	126.62
328.829	120.62
329.058	115.62
329.287	124.62
329.515	109.62
329.744	93.62
329.972	92.62
330.201	100.62
330.43	100.62
330.658	114.62
330.887	119.62
331.115	116.62
331.344	102.62
331.572	88.62
331.801	109.62
332.03	96.62
332.258	99.62
332.486	66.62
332.715	95.62
332.943	98.62
333.172	96.62
333.4	89.62
333.629	110.62
333.857	97.62
334.085	90.62
334.314	105.62
334.542	94.62
334.771	102.62
334.999	95.62
335.227	92.62
335.455	84.62
335.684	73.62
335.912	86.62
336.14	106.62
336.369	101.62
336.597	99.62
336.825	84.62
337.053	97.62
337.281	95.62
337.51	89.62
337.738	91.62
337.966	94.62
338.194	98.62
338.422	93.62
338.65	88.62
338.878	108.62
339.106	90.62
339.334	91.62
339.562	99.62
339.79	103.62
340.018	89.62
340.246	96.62
340.474	96.62
340.702	96.62
340.93	89.62
341.158	91.62
341.386	76.62
341.614	95.62
341.842	92.62
342.07	83.62
342.298	97.62
342.526	85.62
342.754	84.62
342.981	73.62
343.209	86.62
343.437	96.62
343.665	77.62
343.893	78.62
344.12	80.62
344.348	86.62
344.576	81.62
344.804	87.62
345.031	91.62
345.259	88.62
345.487	99.62
345.714	81.62
345.942	96.62
346.17	98.62
346.397	74.62
346.625	94.62
346.853	102.62
347.08	97.62
347.308	89.62
347.535	100.62
347.763	93.62
347.99	92.62
348.218	104.62
348.445	95.62
348.673	95.62
348.9	89.62
349.128	84.62
349.355	83.62
349.583	86.62
349.81	92.62
350.037	94.62
350.265	96.62
350.492	98.62
350.72	94.62
350.947	86.62
351.174	106.62
351.402	111.62
351.629	103.62
351.856	97.62
352.083	95.62
352.311	97.62
352.538	97.62
352.765	102.62
352.992	109.62
353.22	109.62
353.447	96.62
353.674	108.62
353.901	88.62
354.128	83.62
354.355	95.62
354.583	95.62
354.81	88.62
355.037	89.62
355.264	88.62
355.491	94.62
355.718	89.62
355.945	86.62
356.172	94.62
356.399	83.62
356.626	74.62
356.853	84.62
357.08	86.62
357.307	92.62
357.534	103.62
357.761	92.62
357.988	90.62
358.215	95.62
358.441	74.62
358.668	72.62
358.895	86.62
359.122	90.62
359.349	86.62
359.576	84.62
359.802	91.62
360.029	89.62
360.256	101.62
360.483	81.62
360.709	70.62
360.936	87.62
361.163	98.62
361.39	104.62
361.616	90.62
361.843	83.62
362.07	94.62
362.296	82.62
362.523	82.62
362.749	76.62
362.976	82.62
363.203	91.62
363.429	101.62
363.656	80.62
363.882	85.62
364.109	89.62
364.335	102.62
364.562	103.62
364.788	91.62
365.015	92.62
365.241	98.62
365.468	100.62
365.694	99.62
365.92	90.62
366.147	86.62
366.373	88.62
366.599	95.62
366.826	95.62
367.052	84.62
367.278	81.62
367.505	91.62
367.731	97.62
367.957	100.62
368.184	87.62
368.41	83.62
368.636	102.62
368.862	104.62
369.089	94.62
369.315	89.62
369.541	94.62
369.767	98.62
369.993	76.62
370.219	85.62
370.445	107.62
370.672	83.62
370.898	85.62
371.124	97.62
371.35	88.62
371.576	85.62
371.802	98.62
372.028	86.62
372.254	76.62
372.48	101.62
372.706	87.62
372.932	76.62
373.158	90.62
373.384	94.62
373.61	87.62
373.835	84.62
374.061	85.62
374.287	79.62
374.513	82.62
374.739	99.62
374.965	89.62
375.191	78.62
375.416	89.62
375.642	89.62
375.868	93.62
376.094	99.62
376.319	95.62
376.545	95.62
376.771	67.62
376.997	98.62
377.222	96.62
377.448	83.62
377.674	89.62
377.899	87.62
378.125	99.62
378.35	95.62
378.576	92.62
378.802	83.62
379.027	86.62
379.253	84.62
379.478	84.62
379.704	67.62
379.929	92.62
380.155	91.62
380.38	104.62
380.606	85.62
380.831	93.62
381.057	91.62
381.282	104.62
381.507	84.62
381.733	85.62
381.958	96.62
382.184	105.62
382.409	84.62
382.634	96.62
382.86	103.62
383.085	106.62
383.31	99.62
383.535	99.62
383.761	89.62
383.986	104.62
384.211	102.62
384.436	96.62
384.662	101.62
384.887	107.62
385.112	106.62
385.337	103.62
385.562	114.62
385.787	85.62
386.013	104.62
386.238	103.62
386.463	94.62
386.688	105.62
386.913	90.62
387.138	103.62
387.363	102.62
387.588	86.62
387.813	89.62
388.038	100.62
388.263	104.62
388.488	104.62
388.713	98.62
388.938	94.62
389.163	93.62
389.387	82.62
389.612	95.62
389.837	97.62
390.062	105.62
390.287	87.62
390.512	94.62
390.736	99.62
390.961	91.62
391.186	83.62
391.411	95.62
391.636	106.62
391.86	99.62
392.085	94.62
392.31	95.62
392.534	97.62
392.759	86.62
392.984	104.62
393.208	105.62
393.433	91.62
393.658	88.62
393.882	87.62
394.107	89.62
394.331	85.62
394.556	87.62
394.78	84.62
395.005	88.62
395.229	74.62
395.454	88.62
395.678	91.62
395.903	80.62
396.127	89.62
396.352	72.62
396.576	93.62
396.801	77.62
397.025	86.62
397.249	81.62
397.474	74.62
397.698	63.62
397.922	88.62
398.147	80.62
398.371	78.62
398.595	81.62
398.82	85.62
399.044	78.62
399.268	93.62
399.492	83.62
399.717	78.62
399.941	88.62
400.165	93.62
400.389	86.62
400.613	84.62
400.837	78.62
401.062	77.62
401.286	84.62
401.51	89.62
401.734	86.62
401.958	89.62
402.182	114.62
402.406	154.62
402.63	102.62
402.854	92.62
403.078	84.62
403.302	99.62
403.526	91.62
403.75	84.62
403.974	70.62
404.198	80.62
404.422	96.62
404.645	82.62
404.869	87.62
405.093	80.62
405.317	90.62
405.541	99.62
405.765	97.62
405.988	103.62
406.212	160.62
406.436	214.62
406.66	131.62
406.883	96.62
407.107	104.62
407.331	99.62
407.555	94.62
407.778	88.62
408.002	100.62
408.226	76.62
408.449	91.62
408.673	88.62
408.896	82.62
409.12	90.62
409.344	86.62
409.567	90.62
409.791	88.62
410.014	94.62
410.238	100.62
410.461	94.62
410.685	95.62
410.908	94.62
411.132	96.62
411.355	98.62
411.578	84.62
411.802	90.62
412.025	82.62
412.249	80.62
412.472	86.62
412.695	99.62
412.919	80.62
413.142	74.62
413.365	79.62
413.589	78.62
413.812	82.62
414.035	81.62
414.258	81.62
414.482	80.62
414.705	82.62
414.928	78.62
415.151	74.62
415.374	95.62
415.597	88.62
415.821	94.62
416.044	106.62
416.267	90.62
416.49	85.62
416.713	81.62
416.936	80.62
417.159	78.62
417.382	89.62
417.605	85.62
417.828	77.62
418.051	94.62
418.274	97.62
418.497	88.62
418.72	87.62
418.943	93.62
419.166	78.62
419.389	91.62
419.611	88.62
419.834	81.62
420.057	82.62
420.28	100.62
420.503	80.62
420.726	86.62
420.948	76.62
421.171	99.62
421.394	84.62
421.617	83.62
421.839	97.62
422.062	78.62
422.285	94.62
422.507	99.62
422.73	84.62
422.953	84.62
423.175	75.62
423.398	85.62
423.621	93.62
423.843	84.62
424.066	74.62
424.288	97.62
424.511	75.62
424.733	82.62
424.956	80.62
425.178	75.62
425.401	90.62
425.623	87.62
425.846	90.62
426.068	90.62
426.291	89.62
426.513	98.62
426.735	92.62
426.958	96.62
427.18	101.62
427.402	127.62
427.625	155.62
427.847	103.62
428.069	106.62
428.292	90.62
428.514	83.62
428.736	83.62
428.958	86.62
429.181	90.62
429.403	87.62
429.625	76.62
429.847	83.62
430.069	87.62
430.292	84.62
430.514	73.62
430.736	92.62
430.958	102.62
431.18	91.62
431.402	84.62
431.624	79.62
431.846	81.62
432.068	89.62
432.29	82.62
432.512	91.62
432.734	93.62
432.956	80.62
433.178	105.62
433.4	92.62
433.622	84.62
433.844	72.62
434.066	91.62
434.287	74.62
434.509	97.62
434.731	90.62
434.953	75.62
435.175	86.62
435.397	93.62
435.618	92.62
435.84	93.62
436.062	117.62
436.284	102.62
436.505	108.62
436.727	93.62
436.949	90.62
437.17	99.62
437.392	82.62
437.614	81.62
437.835	93.62
438.057	109.62
438.278	102.62
438.5	94.62
438.721	104.62
438.943	84.62
439.165	100.62
439.386	81.62
439.608	89.62
439.829	104.62
440.05	105.62
440.272	130.62
440.493	103.62
440.715	88.62
440.936	92.62
441.158	97.62
441.379	104.62
441.6	90.62
441.822	80.62
442.043	88.62
442.264	94.62
442.486	90.62
442.707	87.62
442.928	98.62
443.149	109.62
443.371	99.62
443.592	103.62
443.813	107.62
444.034	96.62
444.255	91.62
444.476	81.62
444.698	86.62
444.919	81.62
445.14	122.62
445.361	108.62
445.582	113.62
445.803	127.62
446.024	120.62
446.245	111.62
446.466	95.62
446.687	93.62
446.908	91.62
447.129	71.62
447.35	84.62
447.571	79.62
447.792	78.62
448.013	82.62
448.234	98.62
448.455	113.62
448.675	97.62
448.896	108.62
449.117	94.62
449.338	98.62
449.559	108.62
449.779	110.62
450	92.62
450.221	87.62
450.442	96.62
450.662	92.62
450.883	104.62
451.104	117.62
451.324	93.62
451.545	83.62
451.766	98.62
451.986	78.62
452.207	81.62
452.428	95.62
452.648	91.62
452.869	98.62
453.089	105.62
453.31	104.62
453.53	71.62
453.751	83.62
453.971	97.62
454.192	106.62
454.412	89.62
454.633	74.62
454.853	87.62
455.073	91.62
455.294	97.62
455.514	92.62
455.734	81.62
455.955	79.62
456.175	79.62
456.395	83.62
456.616	87.62
456.836	81.62
457.056	84.62
457.276	78.62
457.497	90.62
457.717	95.62
457.937	85.62
458.157	89.62
458.377	83.62
458.598	98.62
458.818	135.62
459.038	134.62
459.258	93.62
459.478	86.62
459.698	92.62
459.918	77.62
460.138	86.62
460.358	90.62
460.578	77.62
460.798	81.62
461.018	80.62
461.238	82.62
461.458	83.62
461.678	69.62
461.898	84.62
462.118	90.62
462.338	77.62
462.558	80.62
462.777	74.62
462.997	100.62
463.217	80.62
463.437	93.62
463.657	72.62
463.876	93.62
464.096	86.62
464.316	99.62
464.536	91.62
464.755	87.62
464.975	108.62
465.195	137.62
465.414	132.62
465.634	84.62
465.854	76.62
466.073	75.62
466.293	92.62
466.512	91.62
466.732	78.62
466.951	105.62
467.171	89.62
467.391	73.62
467.61	93.62
467.829	90.62
468.049	88.62
468.268	84.62
468.488	79.62
468.707	90.62
468.927	81.62
469.146	62.62
469.365	70.62
469.585	74.62
469.804	79.62
470.023	92.62
470.243	80.62
470.462	79.62
470.681	104.62
470.901	82.62
471.12	98.62
471.339	81.62
471.558	73.62
471.777	83.62
471.997	93.62
472.216	90.62
472.435	98.62
472.654	84.62
472.873	84.62
473.092	84.62
473.311	83.62
473.53	62.62
473.749	86.62
473.968	98.62
474.187	95.62
474.406	95.62
474.625	98.62
474.844	96.62
475.063	95.62
475.282	93.62
475.501	82.62
475.72	88.62
475.939	87.62
476.158	84.62
476.377	84.62
476.596	72.62
476.814	71.62
477.033	88.62
477.252	83.62
477.471	82.62
477.69	83.62
477.908	91.62
478.127	103.62
478.346	74.62
478.564	82.62
478.783	80.62
479.002	91.62
479.22	72.62
479.439	98.62
479.658	102.62
479.876	90.62
480.095	89.62
480.313	95.62
480.532	86.62
480.751	82.62
480.969	70.62
481.188	105.62
481.406	98.62
481.624	89.62
481.843	92.62
482.061	78.62
482.28	81.62
482.498	80.62
482.717	80.62
482.935	86.62
483.153	87.62
483.372	87.62
483.59	102.62
483.808	90.62
484.027	95.62
484.245	92.62
484.463	88.62
484.681	92.62
484.9	92.62
485.118	86.62
485.336	94.62
485.554	91.62
485.772	92.62
485.99	89.62
486.209	98.62
486.427	100.62
486.645	98.62
486.863	108.62
487.081	106.62
487.299	97.62
487.517	96.62
487.735	90.62
487.953	87.62
488.171	103.62
488.389	74.62
488.607	109.62
488.825	89.62
489.043	86.62
489.261	82.62
489.479	83.62
489.696	81.62
489.914	90.62
490.132	88.62
490.35	77.62
490.568	86.62
490.786	87.62
491.003	77.62
491.221	78.62
491.439	87.62
491.657	82.62
491.874	95.62
492.092	88.62
492.31	81.62
492.527	74.62
492.745	81.62
492.963	88.62
493.18	80.62
493.398	88.62
493.615	91.62
493.833	89.62
494.05	86.62
494.268	60.62
494.485	88.62
494.703	91.62
494.92	96.62
495.138	82.62
495.355	98.62
495.573	97.62
495.79	98.62
496.008	93.62
496.225	99.62
496.442	82.62
496.66	95.62
496.877	84.62
497.094	90.62
497.312	101.62
497.529	89.62
497.746	82.62
497.963	93.62
498.181	84.62
498.398	94.62
498.615	96.62
498.832	86.62
499.049	84.62
499.267	95.62
499.484	95.62
499.701	96.62
499.918	97.62
500.135	88.62
500.352	91.62
500.569	90.62
500.786	105.62
501.003	96.62
501.22	90.62
501.437	89.62
501.654	83.62
501.871	93.62
502.088	83.62
502.305	83.62
502.522	82.62
502.739	79.62
502.956	75.62
503.172	83.62
503.389	91.62
503.606	87.62
503.823	87.62
504.04	82.62
504.256	90.62
504.473	81.62
504.69	70.62
504.907	99.62
505.123	83.62
505.34	74.62
505.557	86.62
505.773	89.62
505.99	91.62
506.207	87.62
506.423	76.62
506.64	90.62
506.856	97.62
507.073	92.62
507.289	95.62
507.506	85.62
507.722	104.62
507.939	92.62
508.155	120.62
508.372	83.62
508.588	91.62
508.805	91.62
509.021	87.62
509.238	96.62
509.454	106.62
509.67	103.62
509.887	111.62
510.103	117.62
510.319	212.62
510.536	684.62
510.752	2070.62
510.968	561.62
511.184	141.62
511.401	88.62
511.617	93.62
511.833	82.62
512.049	99.62
512.265	85.62
512.481	98.62
512.698	81.62
512.914	100.62
513.13	102.62
513.346	112.62
513.562	99.62
513.778	86.62
513.994	96.62
514.21	95.62
514.426	102.62
514.642	122.62
514.858	122.62
515.074	155.62
515.29	408.62
515.506	1262.62
515.721	466.62
515.937	140.62
516.153	114.62
516.369	104.62
516.585	88.62
516.801	88.62
517.016	86.62
