Data from Uncirc_1993_H10_HRD10591_00001.txt Node
Date: Wed Jan 03 11:42:52 EST 2024
User: Yrep
Spectrometer: HR+D1059
Trigger mode: 1
Integration Time (sec): 1.000000E-1
Scans to average: 1
Electric dark correction enabled: true
Nonlinearity correction enabled: false
Boxcar width: 0
XAxis mode: Wavelengths
Number of Pixels in Spectrum: 2048
>>>>>Begin Spectral Data<<<<<
223.165	-16.38
223.4	-16.38
223.635	-16.38
223.869	-25.38
224.104	-16.38
224.338	-18.38
224.573	-2.38
224.808	-4.38
225.042	-5.38
225.277	-11.38
225.511	-4.38
225.746	9.62
225.98	0.62
226.215	-5.38
226.449	8.62
226.683	35.62
226.918	24.62
227.152	30.62
227.387	33.62
227.621	46.62
227.856	45.62
228.09	38.62
228.324	57.62
228.559	50.62
228.793	54.62
229.027	47.62
229.262	69.62
229.496	85.62
229.73	80.62
229.964	70.62
230.199	61.62
230.433	73.62
230.667	80.62
230.901	79.62
231.136	83.62
231.37	82.62
231.604	83.62
231.838	73.62
232.072	83.62
232.306	76.62
232.541	76.62
232.775	81.62
233.009	80.62
233.243	74.62
233.477	68.62
233.711	84.62
233.945	79.62
234.179	73.62
234.413	82.62
234.647	70.62
234.881	81.62
235.115	98.62
235.349	63.62
235.583	90.62
235.817	79.62
236.051	62.62
236.285	79.62
236.519	69.62
236.753	75.62
236.987	76.62
237.221	78.62
237.455	81.62
237.689	76.62
237.922	80.62
238.156	73.62
238.39	82.62
238.624	75.62
238.858	84.62
239.091	74.62
239.325	70.62
239.559	89.62
239.793	83.62
240.027	80.62
240.26	80.62
240.494	81.62
240.728	73.62
240.961	77.62
241.195	68.62
241.429	84.62
241.662	75.62
241.896	67.62
242.13	71.62
242.363	61.62
242.597	67.62
242.83	64.62
243.064	86.62
243.298	81.62
243.531	81.62
243.765	72.62
243.998	75.62
244.232	79.62
244.465	83.62
244.699	54.62
244.932	73.62
245.166	78.62
245.399	82.62
245.633	84.62
245.866	70.62
246.099	82.62
246.333	67.62
246.566	76.62
246.8	76.62
247.033	87.62
247.266	75.62
247.5	77.62
247.733	77.62
247.966	73.62
248.2	75.62
248.433	82.62
248.666	89.62
248.899	76.62
249.133	90.62
249.366	86.62
249.599	89.62
249.832	78.62
250.066	78.62
250.299	90.62
250.532	80.62
250.765	81.62
250.998	66.62
251.231	89.62
251.465	79.62
251.698	82.62
251.931	98.62
252.164	72.62
252.397	77.62
252.63	84.62
252.863	85.62
253.096	79.62
253.329	88.62
253.562	83.62
253.795	81.62
254.028	71.62
254.261	76.62
254.494	84.62
254.727	84.62
254.96	73.62
255.193	87.62
255.426	68.62
255.659	82.62
255.892	84.62
256.124	85.62
256.357	80.62
256.59	75.62
256.823	79.62
257.056	82.62
257.289	66.62
257.521	72.62
257.754	84.62
257.987	79.62
258.22	82.62
258.452	78.62
258.685	84.62
258.918	69.62
259.151	78.62
259.383	94.62
259.616	81.62
259.849	88.62
260.081	83.62
260.314	93.62
260.547	80.62
260.779	91.62
261.012	76.62
261.244	70.62
261.477	78.62
261.71	85.62
261.942	104.62
262.175	109.62
262.407	70.62
262.64	78.62
262.872	68.62
263.105	78.62
263.337	89.62
263.57	89.62
263.802	91.62
264.035	91.62
264.267	81.62
264.499	93.62
264.732	79.62
264.964	72.62
265.197	84.62
265.429	75.62
265.661	90.62
265.894	70.62
266.126	80.62
266.358	81.62
266.591	91.62
266.823	76.62
267.055	85.62
267.287	75.62
267.52	88.62
267.752	102.62
267.984	76.62
268.216	85.62
268.448	71.62
268.681	75.62
268.913	78.62
269.145	84.62
269.377	83.62
269.609	66.62
269.841	80.62
270.073	68.62
270.306	74.62
270.538	83.62
270.77	86.62
271.002	86.62
271.234	93.62
271.466	80.62
271.698	85.62
271.93	96.62
272.162	84.62
272.394	90.62
272.626	88.62
272.858	70.62
273.09	92.62
273.322	90.62
273.553	74.62
273.785	85.62
274.017	88.62
274.249	98.62
274.481	85.62
274.713	73.62
274.945	98.62
275.176	93.62
275.408	80.62
275.64	83.62
275.872	83.62
276.104	99.62
276.335	84.62
276.567	87.62
276.799	86.62
277.031	87.62
277.262	88.62
277.494	78.62
277.726	90.62
277.957	79.62
278.189	84.62
278.421	92.62
278.652	85.62
278.884	98.62
279.115	93.62
279.347	86.62
279.579	74.62
279.81	80.62
280.042	85.62
280.273	93.62
280.505	86.62
280.736	89.62
280.968	82.62
281.199	78.62
281.431	86.62
281.662	81.62
281.894	81.62
282.125	92.62
282.356	110.62
282.588	120.62
282.819	100.62
283.051	86.62
283.282	77.62
283.513	91.62
283.745	78.62
283.976	89.62
284.207	84.62
284.439	78.62
284.67	92.62
284.901	90.62
285.132	85.62
285.364	93.62
285.595	91.62
285.826	98.62
286.057	93.62
286.288	84.62
286.52	82.62
286.751	67.62
286.982	80.62
287.213	83.62
287.444	95.62
287.675	88.62
287.906	85.62
288.138	95.62
288.369	97.62
288.6	88.62
288.831	82.62
289.062	85.62
289.293	82.62
289.524	89.62
289.755	79.62
289.986	77.62
290.217	102.62
290.448	96.62
290.679	84.62
290.91	93.62
291.141	68.62
291.371	79.62
291.602	81.62
291.833	93.62
292.064	106.62
292.295	96.62
292.526	81.62
292.757	90.62
292.987	85.62
293.218	74.62
293.449	104.62
293.68	104.62
293.91	100.62
294.141	85.62
294.372	115.62
294.603	82.62
294.833	83.62
295.064	77.62
295.295	80.62
295.525	92.62
295.756	102.62
295.987	104.62
296.217	131.62
296.448	110.62
296.679	96.62
296.909	80.62
297.14	89.62
297.37	79.62
297.601	78.62
297.831	96.62
298.062	83.62
298.292	76.62
298.523	88.62
298.753	93.62
298.984	88.62
299.214	84.62
299.445	88.62
299.675	101.62
299.905	111.62
300.136	88.62
300.366	97.62
300.597	91.62
300.827	99.62
301.057	92.62
301.288	94.62
301.518	72.62
301.748	90.62
301.979	89.62
302.209	84.62
302.439	92.62
302.669	82.62
302.9	93.62
303.13	89.62
303.36	84.62
303.59	93.62
303.82	99.62
304.051	100.62
304.281	93.62
304.511	84.62
304.741	102.62
304.971	86.62
305.201	96.62
305.431	90.62
305.661	89.62
305.891	93.62
306.121	101.62
306.352	104.62
306.582	87.62
306.812	86.62
307.042	93.62
307.272	91.62
307.502	100.62
307.731	97.62
307.961	89.62
308.191	92.62
308.421	93.62
308.651	102.62
308.881	94.62
309.111	93.62
309.341	70.62
309.571	99.62
309.8	102.62
310.03	91.62
310.26	86.62
310.49	82.62
310.72	105.62
310.949	94.62
311.179	80.62
311.409	104.62
311.639	97.62
311.868	98.62
312.098	84.62
312.328	89.62
312.557	119.62
312.787	101.62
313.017	98.62
313.246	91.62
313.476	87.62
313.706	83.62
313.935	104.62
314.165	100.62
314.394	97.62
314.624	98.62
314.853	95.62
315.083	94.62
315.312	80.62
315.542	79.62
315.771	97.62
316.001	91.62
316.23	84.62
316.46	75.62
316.689	103.62
316.919	103.62
317.148	96.62
317.377	86.62
317.607	88.62
317.836	86.62
318.065	92.62
318.295	84.62
318.524	91.62
318.753	88.62
318.983	97.62
319.212	91.62
319.441	97.62
319.67	89.62
319.9	100.62
320.129	87.62
320.358	95.62
320.587	81.62
320.816	94.62
321.046	99.62
321.275	84.62
321.504	83.62
321.733	91.62
321.962	99.62
322.191	94.62
322.42	104.62
322.649	112.62
322.878	114.62
323.108	115.62
323.337	102.62
323.566	120.62
323.795	115.62
324.024	173.62
324.253	305.62
324.482	629.62
324.71	1163.62
324.939	1560.62
325.168	590.62
325.397	186.62
325.626	126.62
325.855	110.62
326.084	128.62
326.313	112.62
326.542	152.62
326.77	200.62
326.999	330.62
327.228	724.62
327.457	1236.62
327.686	950.62
327.914	280.62
328.143	164.62
328.372	118.62
328.6	116.62
328.829	113.62
329.058	117.62
329.287	121.62
329.515	96.62
329.744	108.62
329.972	102.62
330.201	78.62
330.43	85.62
330.658	94.62
330.887	123.62
331.115	112.62
331.344	97.62
331.572	102.62
331.801	89.62
332.03	100.62
332.258	103.62
332.486	99.62
332.715	85.62
332.943	90.62
333.172	102.62
333.4	92.62
333.629	91.62
333.857	99.62
334.085	104.62
334.314	97.62
334.542	85.62
334.771	108.62
334.999	92.62
335.227	84.62
335.455	90.62
335.684	100.62
335.912	88.62
336.14	110.62
336.369	92.62
336.597	92.62
336.825	103.62
337.053	88.62
337.281	89.62
337.51	82.62
337.738	97.62
337.966	82.62
338.194	87.62
338.422	100.62
338.65	82.62
338.878	84.62
339.106	98.62
339.334	91.62
339.562	94.62
339.79	100.62
340.018	80.62
340.246	89.62
340.474	109.62
340.702	88.62
340.93	99.62
341.158	95.62
341.386	84.62
341.614	73.62
341.842	82.62
342.07	108.62
342.298	103.62
342.526	99.62
342.754	88.62
342.981	98.62
343.209	100.62
343.437	93.62
343.665	94.62
343.893	96.62
344.12	92.62
344.348	84.62
344.576	89.62
344.804	102.62
345.031	93.62
345.259	77.62
345.487	77.62
345.714	82.62
345.942	103.62
346.17	83.62
346.397	95.62
346.625	99.62
346.853	100.62
347.08	88.62
347.308	85.62
347.535	97.62
347.763	94.62
347.99	90.62
348.218	93.62
348.445	109.62
348.673	106.62
348.9	89.62
349.128	90.62
349.355	90.62
349.583	93.62
349.81	93.62
350.037	99.62
350.265	95.62
350.492	80.62
350.72	91.62
350.947	87.62
351.174	99.62
351.402	97.62
351.629	104.62
351.856	102.62
352.083	117.62
352.311	92.62
352.538	104.62
352.765	109.62
352.992	109.62
353.22	106.62
353.447	113.62
353.674	114.62
353.901	74.62
354.128	105.62
354.355	97.62
354.583	99.62
354.81	105.62
355.037	95.62
355.264	85.62
355.491	94.62
355.718	96.62
355.945	96.62
356.172	101.62
356.399	104.62
356.626	97.62
356.853	87.62
357.08	93.62
357.307	96.62
357.534	84.62
357.761	93.62
357.988	84.62
358.215	99.62
358.441	101.62
358.668	95.62
358.895	89.62
359.122	96.62
359.349	77.62
359.576	100.62
359.802	92.62
360.029	99.62
360.256	93.62
360.483	108.62
360.709	105.62
360.936	111.62
361.163	95.62
361.39	102.62
361.616	87.62
361.843	81.62
362.07	84.62
362.296	82.62
362.523	83.62
362.749	98.62
362.976	83.62
363.203	91.62
363.429	65.62
363.656	75.62
363.882	85.62
364.109	93.62
364.335	92.62
364.562	89.62
364.788	95.62
365.015	98.62
365.241	112.62
365.468	109.62
365.694	109.62
365.92	104.62
366.147	80.62
366.373	86.62
366.599	99.62
366.826	91.62
367.052	84.62
367.278	75.62
367.505	95.62
367.731	94.62
367.957	78.62
368.184	80.62
368.41	97.62
368.636	107.62
368.862	109.62
369.089	88.62
369.315	86.62
369.541	93.62
369.767	90.62
369.993	101.62
370.219	92.62
370.445	81.62
370.672	96.62
370.898	92.62
371.124	89.62
371.35	88.62
371.576	70.62
371.802	82.62
372.028	99.62
372.254	97.62
372.48	99.62
372.706	86.62
372.932	90.62
373.158	74.62
373.384	92.62
373.61	88.62
373.835	92.62
374.061	85.62
374.287	90.62
374.513	82.62
374.739	92.62
374.965	80.62
375.191	94.62
375.416	85.62
375.642	93.62
375.868	100.62
376.094	99.62
376.319	79.62
376.545	87.62
376.771	92.62
376.997	84.62
377.222	88.62
377.448	98.62
377.674	80.62
377.899	89.62
378.125	100.62
378.35	91.62
378.576	78.62
378.802	87.62
379.027	87.62
379.253	101.62
379.478	92.62
379.704	99.62
379.929	98.62
380.155	103.62
380.38	101.62
380.606	101.62
380.831	93.62
381.057	100.62
381.282	101.62
381.507	92.62
381.733	88.62
381.958	112.62
382.184	105.62
382.409	103.62
382.634	91.62
382.86	90.62
383.085	111.62
383.31	107.62
383.535	93.62
383.761	113.62
383.986	102.62
384.211	102.62
384.436	100.62
384.662	99.62
384.887	107.62
385.112	88.62
385.337	100.62
385.562	100.62
385.787	110.62
386.013	104.62
386.238	109.62
386.463	98.62
386.688	84.62
386.913	99.62
387.138	91.62
387.363	97.62
387.588	92.62
387.813	96.62
388.038	106.62
388.263	101.62
388.488	112.62
388.713	104.62
388.938	98.62
389.163	84.62
389.387	86.62
389.612	99.62
389.837	90.62
390.062	96.62
390.287	93.62
390.512	86.62
390.736	74.62
390.961	99.62
391.186	99.62
391.411	95.62
391.636	94.62
391.86	87.62
392.085	84.62
392.31	74.62
392.534	92.62
392.759	89.62
392.984	96.62
393.208	97.62
393.433	88.62
393.658	74.62
393.882	92.62
394.107	86.62
394.331	88.62
394.556	82.62
394.78	85.62
395.005	89.62
395.229	84.62
395.454	88.62
395.678	93.62
395.903	101.62
396.127	76.62
396.352	78.62
396.576	85.62
396.801	80.62
397.025	86.62
397.249	84.62
397.474	82.62
397.698	88.62
397.922	78.62
398.147	100.62
398.371	92.62
398.595	96.62
398.82	82.62
399.044	74.62
399.268	80.62
399.492	93.62
399.717	85.62
399.941	91.62
400.165	106.62
400.389	102.62
400.613	85.62
400.837	84.62
401.062	83.62
401.286	69.62
401.51	94.62
401.734	99.62
401.958	92.62
402.182	120.62
402.406	138.62
402.63	96.62
402.854	92.62
403.078	83.62
403.302	80.62
403.526	90.62
403.75	92.62
403.974	93.62
404.198	87.62
404.422	95.62
404.645	81.62
404.869	77.62
405.093	90.62
405.317	97.62
405.541	105.62
405.765	96.62
405.988	103.62
406.212	146.62
406.436	188.62
406.66	123.62
406.883	92.62
407.107	104.62
407.331	88.62
407.555	86.62
407.778	107.62
408.002	106.62
408.226	90.62
408.449	85.62
408.673	75.62
408.896	87.62
409.12	101.62
409.344	86.62
409.567	90.62
409.791	93.62
410.014	94.62
410.238	93.62
410.461	88.62
410.685	96.62
410.908	99.62
411.132	105.62
411.355	97.62
411.578	83.62
411.802	81.62
412.025	99.62
412.249	88.62
412.472	80.62
412.695	102.62
412.919	89.62
413.142	88.62
413.365	91.62
413.589	99.62
413.812	87.62
414.035	69.62
414.258	83.62
414.482	83.62
414.705	89.62
414.928	92.62
415.151	105.62
415.374	101.62
415.597	80.62
415.821	86.62
416.044	96.62
416.267	91.62
416.49	87.62
416.713	89.62
416.936	86.62
417.159	97.62
417.382	85.62
417.605	104.62
417.828	107.62
418.051	76.62
418.274	95.62
418.497	88.62
418.72	84.62
418.943	95.62
419.166	100.62
419.389	98.62
419.611	96.62
419.834	91.62
420.057	96.62
420.28	89.62
420.503	90.62
420.726	72.62
420.948	86.62
421.171	86.62
421.394	88.62
421.617	82.62
421.839	80.62
422.062	81.62
422.285	74.62
422.507	98.62
422.73	102.62
422.953	87.62
423.175	82.62
423.398	99.62
423.621	89.62
423.843	86.62
424.066	85.62
424.288	91.62
424.511	90.62
424.733	96.62
424.956	119.62
425.178	89.62
425.401	112.62
425.623	88.62
425.846	88.62
426.068	94.62
426.291	91.62
426.513	106.62
426.735	101.62
426.958	97.62
427.18	101.62
427.402	116.62
427.625	134.62
427.847	110.62
428.069	84.62
428.292	93.62
428.514	96.62
428.736	78.62
428.958	85.62
429.181	80.62
429.403	80.62
429.625	84.62
429.847	91.62
430.069	91.62
430.292	105.62
430.514	97.62
430.736	79.62
430.958	95.62
431.18	95.62
431.402	84.62
431.624	76.62
431.846	74.62
432.068	98.62
432.29	88.62
432.512	90.62
432.734	92.62
432.956	100.62
433.178	100.62
433.4	93.62
433.622	94.62
433.844	92.62
434.066	85.62
434.287	85.62
434.509	67.62
434.731	96.62
434.953	87.62
435.175	86.62
435.397	89.62
435.618	90.62
435.84	94.62
436.062	110.62
436.284	107.62
436.505	97.62
436.727	87.62
436.949	100.62
437.17	95.62
437.392	88.62
437.614	98.62
437.835	95.62
438.057	117.62
438.278	94.62
438.5	84.62
438.721	112.62
438.943	102.62
439.165	87.62
439.386	97.62
439.608	95.62
439.829	98.62
440.05	104.62
440.272	117.62
440.493	93.62
440.715	94.62
440.936	94.62
441.158	91.62
441.379	81.62
441.6	83.62
441.822	68.62
442.043	89.62
442.264	92.62
442.486	92.62
442.707	98.62
442.928	105.62
443.149	133.62
443.371	108.62
443.592	108.62
443.813	111.62
444.034	100.62
444.255	78.62
444.476	75.62
444.698	99.62
444.919	67.62
445.14	137.62
445.361	118.62
445.582	109.62
445.803	108.62
446.024	111.62
446.245	117.62
446.466	104.62
446.687	83.62
446.908	95.62
447.129	86.62
447.35	97.62
447.571	96.62
447.792	92.62
448.013	90.62
448.234	102.62
448.455	109.62
448.675	103.62
448.896	88.62
449.117	96.62
449.338	89.62
449.559	100.62
449.779	117.62
450	95.62
450.221	94.62
450.442	85.62
450.662	79.62
450.883	94.62
451.104	110.62
451.324	100.62
451.545	89.62
451.766	85.62
451.986	80.62
452.207	108.62
452.428	104.62
452.648	85.62
452.869	98.62
453.089	95.62
453.31	94.62
453.53	88.62
453.751	85.62
453.971	104.62
454.192	102.62
454.412	89.62
454.633	85.62
454.853	94.62
455.073	74.62
455.294	80.62
455.514	95.62
455.734	96.62
455.955	83.62
456.175	91.62
456.395	76.62
456.616	80.62
456.836	89.62
457.056	86.62
457.276	98.62
457.497	91.62
457.717	86.62
457.937	77.62
458.157	76.62
458.377	88.62
458.598	91.62
458.818	134.62
459.038	137.62
459.258	98.62
459.478	98.62
459.698	81.62
459.918	91.62
460.138	95.62
460.358	89.62
460.578	85.62
460.798	75.62
461.018	77.62
461.238	72.62
461.458	85.62
461.678	85.62
461.898	81.62
462.118	95.62
462.338	95.62
462.558	103.62
462.777	101.62
462.997	93.62
463.217	96.62
463.437	94.62
463.657	86.62
463.876	93.62
464.096	93.62
464.316	101.62
464.536	92.62
464.755	92.62
464.975	97.62
465.195	133.62
465.414	126.62
465.634	100.62
465.854	92.62
466.073	97.62
466.293	97.62
466.512	77.62
466.732	73.62
466.951	90.62
467.171	95.62
467.391	93.62
467.61	115.62
467.829	102.62
468.049	96.62
468.268	85.62
468.488	81.62
468.707	81.62
468.927	83.62
469.146	86.62
469.365	89.62
469.585	93.62
469.804	99.62
470.023	98.62
470.243	87.62
470.462	97.62
470.681	80.62
470.901	96.62
471.12	77.62
471.339	88.62
471.558	65.62
471.777	74.62
471.997	90.62
472.216	96.62
472.435	89.62
472.654	84.62
472.873	86.62
473.092	100.62
473.311	88.62
473.53	99.62
473.749	97.62
473.968	101.62
474.187	105.62
474.406	86.62
474.625	81.62
474.844	84.62
475.063	86.62
475.282	98.62
475.501	91.62
475.72	92.62
475.939	82.62
476.158	81.62
476.377	90.62
476.596	101.62
476.814	80.62
477.033	83.62
477.252	84.62
477.471	94.62
477.69	91.62
477.908	83.62
478.127	96.62
478.346	90.62
478.564	101.62
478.783	97.62
479.002	103.62
479.22	89.62
479.439	99.62
479.658	95.62
479.876	94.62
480.095	77.62
480.313	85.62
480.532	89.62
480.751	94.62
480.969	108.62
481.188	101.62
481.406	96.62
481.624	86.62
481.843	78.62
482.061	69.62
482.28	96.62
482.498	90.62
482.717	89.62
482.935	87.62
483.153	99.62
483.372	85.62
483.59	100.62
483.808	84.62
484.027	92.62
484.245	84.62
484.463	85.62
484.681	101.62
484.9	101.62
485.118	107.62
485.336	92.62
485.554	105.62
485.772	105.62
485.99	93.62
486.209	96.62
486.427	108.62
486.645	102.62
486.863	107.62
487.081	99.62
487.299	91.62
487.517	97.62
487.735	77.62
487.953	104.62
488.171	82.62
488.389	92.62
488.607	101.62
488.825	105.62
489.043	88.62
489.261	105.62
489.479	85.62
489.696	89.62
489.914	78.62
490.132	83.62
490.35	93.62
490.568	85.62
490.786	87.62
491.003	96.62
491.221	102.62
491.439	80.62
491.657	93.62
491.874	79.62
492.092	103.62
492.31	100.62
492.527	89.62
492.745	93.62
492.963	88.62
493.18	90.62
493.398	82.62
493.615	96.62
493.833	94.62
494.05	89.62
494.268	83.62
494.485	87.62
494.703	89.62
494.92	84.62
495.138	92.62
495.355	86.62
495.573	83.62
495.79	98.62
496.008	90.62
496.225	96.62
496.442	87.62
496.66	99.62
496.877	103.62
497.094	100.62
497.312	81.62
497.529	85.62
497.746	107.62
497.963	87.62
498.181	84.62
498.398	108.62
498.615	110.62
498.832	90.62
499.049	88.62
499.267	99.62
499.484	91.62
499.701	84.62
499.918	78.62
500.135	85.62
500.352	90.62
500.569	90.62
500.786	108.62
501.003	100.62
501.22	89.62
501.437	86.62
501.654	85.62
501.871	106.62
502.088	109.62
502.305	98.62
502.522	101.62
502.739	76.62
502.956	89.62
503.172	92.62
503.389	94.62
503.606	101.62
503.823	99.62
504.04	97.62
504.256	90.62
504.473	91.62
504.69	75.62
504.907	87.62
505.123	91.62
505.34	95.62
505.557	101.62
505.773	101.62
505.99	80.62
506.207	97.62
506.423	86.62
506.64	89.62
506.856	75.62
507.073	92.62
507.289	96.62
507.506	78.62
507.722	106.62
507.939	106.62
508.155	106.62
508.372	104.62
508.588	95.62
508.805	103.62
509.021	86.62
509.238	86.62
509.454	99.62
509.67	89.62
509.887	99.62
510.103	123.62
510.319	182.62
510.536	618.62
510.752	1753.62
510.968	504.62
511.184	143.62
511.401	104.62
511.617	89.62
511.833	85.62
512.049	98.62
512.265	103.62
512.481	81.62
512.698	90.62
512.914	94.62
513.13	85.62
513.346	85.62
513.562	101.62
513.778	114.62
513.994	106.62
514.21	103.62
514.426	115.62
514.642	111.62
514.858	107.62
515.074	134.62
515.29	358.62
515.506	1041.62
515.721	383.62
515.937	120.62
516.153	100.62
