Data from Uncirc_1993_H10_HRD10591_00067.txt Node
Date: Wed Jan 03 11:43:05 EST 2024
User: Yrep
Spectrometer: HR+D1059
Trigger mode: 1
Integration Time (sec): 1.000000E-1
Scans to average: 1
Electric dark correction enabled: true
Nonlinearity correction enabled: false
Boxcar width: 0
XAxis mode: Wavelengths
Number of Pixels in Spectrum: 2048
>>>>>Begin Spectral Data<<<<<
223.165	-30.81
223.4	-30.81
223.635	-30.81
223.869	-21.81
224.104	-1.81
224.338	-22.81
224.573	-11.81
224.808	-3.81
225.042	-10.81
225.277	-9.81
225.511	-0.81
225.746	-6.81
225.98	4.19
226.215	11.19
226.449	23.19
226.683	24.19
226.918	29.19
227.152	29.19
227.387	39.19
227.621	23.19
227.856	45.19
228.09	59.19
228.324	45.19
228.559	74.19
228.793	64.19
229.027	59.19
229.262	61.19
229.496	68.19
229.73	77.19
229.964	74.19
230.199	80.19
230.433	71.19
230.667	91.19
230.901	70.19
231.136	77.19
231.37	76.19
231.604	88.19
231.838	77.19
232.072	80.19
232.306	80.19
232.541	86.19
232.775	76.19
233.009	68.19
233.243	85.19
233.477	69.19
233.711	72.19
233.945	75.19
234.179	76.19
234.413	73.19
234.647	87.19
234.881	72.19
235.115	77.19
235.349	80.19
235.583	78.19
235.817	64.19
236.051	77.19
236.285	89.19
236.519	81.19
236.753	81.19
236.987	87.19
237.221	77.19
237.455	86.19
237.689	70.19
237.922	83.19
238.156	75.19
238.39	77.19
238.624	83.19
238.858	72.19
239.091	85.19
239.325	74.19
239.559	64.19
239.793	81.19
240.027	64.19
240.26	82.19
240.494	76.19
240.728	84.19
240.961	71.19
241.195	83.19
241.429	76.19
241.662	87.19
241.896	82.19
242.13	65.19
242.363	81.19
242.597	80.19
242.83	72.19
243.064	63.19
243.298	84.19
243.531	64.19
243.765	76.19
243.998	85.19
244.232	84.19
244.465	65.19
244.699	68.19
244.932	77.19
245.166	71.19
245.399	73.19
245.633	86.19
245.866	74.19
246.099	69.19
246.333	67.19
246.566	76.19
246.8	86.19
247.033	81.19
247.266	87.19
247.5	71.19
247.733	82.19
247.966	76.19
248.2	68.19
248.433	83.19
248.666	91.19
248.899	80.19
249.133	89.19
249.366	81.19
249.599	93.19
249.832	75.19
250.066	71.19
250.299	84.19
250.532	68.19
250.765	67.19
250.998	70.19
251.231	84.19
251.465	72.19
251.698	73.19
251.931	77.19
252.164	81.19
252.397	77.19
252.63	68.19
252.863	83.19
253.096	84.19
253.329	79.19
253.562	85.19
253.795	92.19
254.028	81.19
254.261	74.19
254.494	75.19
254.727	60.19
254.96	85.19
255.193	84.19
255.426	69.19
255.659	73.19
255.892	88.19
256.124	90.19
256.357	87.19
256.59	90.19
256.823	72.19
257.056	90.19
257.289	74.19
257.521	88.19
257.754	96.19
257.987	86.19
258.22	87.19
258.452	82.19
258.685	96.19
258.918	88.19
259.151	73.19
259.383	79.19
259.616	84.19
259.849	77.19
260.081	75.19
260.314	87.19
260.547	88.19
260.779	87.19
261.012	79.19
261.244	86.19
261.477	83.19
261.71	88.19
261.942	97.19
262.175	101.19
262.407	80.19
262.64	82.19
262.872	89.19
263.105	87.19
263.337	78.19
263.57	80.19
263.802	77.19
264.035	87.19
264.267	75.19
264.499	70.19
264.732	75.19
264.964	89.19
265.197	58.19
265.429	83.19
265.661	77.19
265.894	85.19
266.126	89.19
266.358	77.19
266.591	91.19
266.823	77.19
267.055	82.19
267.287	87.19
267.52	75.19
267.752	74.19
267.984	80.19
268.216	78.19
268.448	82.19
268.681	68.19
268.913	75.19
269.145	74.19
269.377	73.19
269.609	77.19
269.841	80.19
270.073	90.19
270.306	93.19
270.538	92.19
270.77	93.19
271.002	88.19
271.234	95.19
271.466	88.19
271.698	73.19
271.93	81.19
272.162	84.19
272.394	82.19
272.626	70.19
272.858	63.19
273.09	77.19
273.322	82.19
273.553	82.19
273.785	81.19
274.017	79.19
274.249	90.19
274.481	94.19
274.713	95.19
274.945	76.19
275.176	74.19
275.408	79.19
275.64	73.19
275.872	76.19
276.104	87.19
276.335	97.19
276.567	94.19
276.799	101.19
277.031	87.19
277.262	79.19
277.494	87.19
277.726	90.19
277.957	78.19
278.189	92.19
278.421	91.19
278.652	83.19
278.884	69.19
279.115	83.19
279.347	90.19
279.579	95.19
279.81	77.19
280.042	95.19
280.273	77.19
280.505	94.19
280.736	99.19
280.968	83.19
281.199	80.19
281.431	100.19
281.662	86.19
281.894	94.19
282.125	86.19
282.356	111.19
282.588	116.19
282.819	110.19
283.051	82.19
283.282	80.19
283.513	95.19
283.745	95.19
283.976	79.19
284.207	71.19
284.439	71.19
284.67	85.19
284.901	77.19
285.132	82.19
285.364	89.19
285.595	83.19
285.826	88.19
286.057	85.19
286.288	79.19
286.52	90.19
286.751	62.19
286.982	86.19
287.213	79.19
287.444	91.19
287.675	83.19
287.906	89.19
288.138	78.19
288.369	79.19
288.6	87.19
288.831	70.19
289.062	80.19
289.293	81.19
289.524	81.19
289.755	95.19
289.986	89.19
290.217	74.19
290.448	87.19
290.679	75.19
290.91	79.19
291.141	95.19
291.371	86.19
291.602	80.19
291.833	76.19
292.064	71.19
292.295	81.19
292.526	79.19
292.757	86.19
292.987	75.19
293.218	90.19
293.449	65.19
293.68	84.19
293.91	83.19
294.141	87.19
294.372	90.19
294.603	92.19
294.833	98.19
295.064	96.19
295.295	83.19
295.525	88.19
295.756	93.19
295.987	85.19
296.217	111.19
296.448	95.19
296.679	82.19
296.909	77.19
297.14	91.19
297.37	84.19
297.601	84.19
297.831	75.19
298.062	77.19
298.292	89.19
298.523	84.19
298.753	68.19
298.984	89.19
299.214	88.19
299.445	91.19
299.675	84.19
299.905	79.19
300.136	85.19
300.366	90.19
300.597	84.19
300.827	69.19
301.057	98.19
301.288	98.19
301.518	91.19
301.748	88.19
301.979	84.19
302.209	95.19
302.439	84.19
302.669	80.19
302.9	91.19
303.13	99.19
303.36	91.19
303.59	87.19
303.82	99.19
304.051	82.19
304.281	90.19
304.511	83.19
304.741	89.19
304.971	76.19
305.201	83.19
305.431	88.19
305.661	101.19
305.891	92.19
306.121	93.19
306.352	98.19
306.582	97.19
306.812	105.19
307.042	85.19
307.272	83.19
307.502	76.19
307.731	82.19
307.961	74.19
308.191	91.19
308.421	84.19
308.651	81.19
308.881	98.19
309.111	89.19
309.341	95.19
309.571	98.19
309.8	96.19
310.03	89.19
310.26	64.19
310.49	80.19
310.72	85.19
310.949	95.19
311.179	100.19
311.409	91.19
311.639	90.19
311.868	89.19
312.098	89.19
312.328	95.19
312.557	92.19
312.787	98.19
313.017	104.19
313.246	105.19
313.476	77.19
313.706	93.19
313.935	83.19
314.165	95.19
314.394	84.19
314.624	96.19
314.853	89.19
315.083	85.19
315.312	91.19
315.542	102.19
315.771	89.19
316.001	89.19
316.23	87.19
316.46	97.19
316.689	87.19
316.919	94.19
317.148	93.19
317.377	92.19
317.607	89.19
317.836	96.19
318.065	92.19
318.295	98.19
318.524	80.19
318.753	99.19
318.983	84.19
319.212	75.19
319.441	96.19
319.67	95.19
319.9	95.19
320.129	93.19
320.358	85.19
320.587	91.19
320.816	92.19
321.046	94.19
321.275	98.19
321.504	98.19
321.733	96.19
321.962	88.19
322.191	85.19
322.42	101.19
322.649	100.19
322.878	103.19
323.108	110.19
323.337	108.19
323.566	108.19
323.795	129.19
324.024	189.19
324.253	311.19
324.482	634.19
324.71	1177.19
324.939	1547.19
325.168	580.19
325.397	189.19
325.626	124.19
325.855	118.19
326.084	107.19
326.313	115.19
326.542	134.19
326.77	177.19
326.999	338.19
327.228	672.19
327.457	1203.19
327.686	953.19
327.914	263.19
328.143	149.19
328.372	123.19
328.6	110.19
328.829	105.19
329.058	126.19
329.287	111.19
329.515	104.19
329.744	84.19
329.972	93.19
330.201	83.19
330.43	112.19
330.658	116.19
330.887	114.19
331.115	122.19
331.344	94.19
331.572	101.19
331.801	109.19
332.03	106.19
332.258	71.19
332.486	84.19
332.715	90.19
332.943	89.19
333.172	98.19
333.4	95.19
333.629	104.19
333.857	99.19
334.085	104.19
334.314	108.19
334.542	94.19
334.771	85.19
334.999	90.19
335.227	99.19
335.455	89.19
335.684	103.19
335.912	101.19
336.14	87.19
336.369	94.19
336.597	89.19
336.825	77.19
337.053	86.19
337.281	80.19
337.51	89.19
337.738	96.19
337.966	98.19
338.194	86.19
338.422	74.19
338.65	98.19
338.878	94.19
339.106	88.19
339.334	83.19
339.562	85.19
339.79	84.19
340.018	79.19
340.246	80.19
340.474	90.19
340.702	102.19
340.93	87.19
341.158	88.19
341.386	89.19
341.614	99.19
341.842	87.19
342.07	77.19
342.298	77.19
342.526	89.19
342.754	83.19
342.981	79.19
343.209	83.19
343.437	90.19
343.665	96.19
343.893	84.19
344.12	89.19
344.348	97.19
344.576	95.19
344.804	85.19
345.031	89.19
345.259	93.19
345.487	100.19
345.714	90.19
345.942	91.19
346.17	91.19
346.397	88.19
346.625	95.19
346.853	84.19
347.08	87.19
347.308	89.19
347.535	88.19
347.763	85.19
347.99	96.19
348.218	103.19
348.445	101.19
348.673	98.19
348.9	94.19
349.128	94.19
349.355	93.19
349.583	95.19
349.81	99.19
350.037	101.19
350.265	98.19
350.492	101.19
350.72	95.19
350.947	93.19
351.174	96.19
351.402	89.19
351.629	94.19
351.856	108.19
352.083	99.19
352.311	101.19
352.538	99.19
352.765	95.19
352.992	107.19
353.22	99.19
353.447	99.19
353.674	90.19
353.901	99.19
354.128	104.19
354.355	98.19
354.583	99.19
354.81	93.19
355.037	100.19
355.264	105.19
355.491	88.19
355.718	100.19
355.945	91.19
356.172	86.19
356.399	101.19
356.626	89.19
356.853	93.19
357.08	90.19
357.307	98.19
357.534	96.19
357.761	91.19
357.988	93.19
358.215	91.19
358.441	103.19
358.668	97.19
358.895	85.19
359.122	82.19
359.349	97.19
359.576	83.19
359.802	95.19
360.029	99.19
360.256	116.19
360.483	95.19
360.709	87.19
360.936	83.19
361.163	90.19
361.39	88.19
361.616	93.19
361.843	79.19
362.07	85.19
362.296	94.19
362.523	86.19
362.749	105.19
362.976	107.19
363.203	101.19
363.429	91.19
363.656	96.19
363.882	89.19
364.109	80.19
364.335	83.19
364.562	90.19
364.788	94.19
365.015	98.19
365.241	81.19
365.468	87.19
365.694	109.19
365.92	92.19
366.147	89.19
366.373	93.19
366.599	95.19
366.826	89.19
367.052	80.19
367.278	89.19
367.505	94.19
367.731	88.19
367.957	76.19
368.184	93.19
368.41	90.19
368.636	106.19
368.862	106.19
369.089	91.19
369.315	95.19
369.541	83.19
369.767	79.19
369.993	94.19
370.219	98.19
370.445	76.19
370.672	74.19
370.898	70.19
371.124	87.19
371.35	87.19
371.576	80.19
371.802	76.19
372.028	94.19
372.254	91.19
372.48	76.19
372.706	76.19
372.932	76.19
373.158	75.19
373.384	84.19
373.61	96.19
373.835	81.19
374.061	96.19
374.287	66.19
374.513	90.19
374.739	98.19
374.965	89.19
375.191	95.19
375.416	76.19
375.642	90.19
375.868	83.19
376.094	97.19
376.319	91.19
376.545	83.19
376.771	81.19
376.997	83.19
377.222	72.19
377.448	77.19
377.674	90.19
377.899	87.19
378.125	99.19
378.35	87.19
378.576	81.19
378.802	88.19
379.027	81.19
379.253	102.19
379.478	80.19
379.704	94.19
379.929	93.19
380.155	90.19
380.38	87.19
380.606	96.19
380.831	94.19
381.057	102.19
381.282	83.19
381.507	95.19
381.733	85.19
381.958	83.19
382.184	81.19
382.409	88.19
382.634	93.19
382.86	104.19
383.085	103.19
383.31	89.19
383.535	99.19
383.761	101.19
383.986	91.19
384.211	97.19
384.436	91.19
384.662	91.19
384.887	111.19
385.112	93.19
385.337	108.19
385.562	89.19
385.787	100.19
386.013	104.19
386.238	97.19
386.463	103.19
386.688	98.19
386.913	95.19
387.138	83.19
387.363	101.19
387.588	81.19
387.813	106.19
388.038	83.19
388.263	103.19
388.488	96.19
388.713	98.19
388.938	83.19
389.163	102.19
389.387	94.19
389.612	92.19
389.837	95.19
390.062	92.19
390.287	77.19
390.512	84.19
390.736	77.19
390.961	77.19
391.186	91.19
391.411	97.19
391.636	96.19
391.86	92.19
392.085	80.19
392.31	79.19
392.534	93.19
392.759	91.19
392.984	83.19
393.208	77.19
393.433	74.19
393.658	77.19
393.882	90.19
394.107	77.19
394.331	90.19
394.556	81.19
394.78	92.19
395.005	105.19
395.229	87.19
395.454	93.19
395.678	95.19
395.903	105.19
396.127	89.19
396.352	84.19
396.576	95.19
396.801	79.19
397.025	91.19
397.249	90.19
397.474	92.19
397.698	91.19
397.922	90.19
398.147	75.19
398.371	84.19
398.595	86.19
398.82	91.19
399.044	88.19
399.268	97.19
399.492	101.19
399.717	84.19
399.941	90.19
400.165	83.19
400.389	81.19
400.613	90.19
400.837	97.19
401.062	88.19
401.286	77.19
401.51	89.19
401.734	78.19
401.958	111.19
402.182	118.19
402.406	143.19
402.63	108.19
402.854	88.19
403.078	90.19
403.302	91.19
403.526	84.19
403.75	94.19
403.974	79.19
404.198	97.19
404.422	77.19
404.645	92.19
404.869	88.19
405.093	93.19
405.317	90.19
405.541	94.19
405.765	69.19
405.988	98.19
406.212	151.19
406.436	171.19
406.66	136.19
406.883	98.19
407.107	92.19
407.331	89.19
407.555	92.19
407.778	92.19
408.002	101.19
408.226	83.19
408.449	80.19
408.673	91.19
408.896	96.19
409.12	77.19
409.344	87.19
409.567	96.19
409.791	92.19
410.014	94.19
410.238	92.19
410.461	87.19
410.685	89.19
410.908	96.19
411.132	99.19
411.355	99.19
411.578	90.19
411.802	76.19
412.025	90.19
412.249	95.19
412.472	94.19
412.695	89.19
412.919	100.19
413.142	99.19
413.365	93.19
413.589	101.19
413.812	97.19
414.035	83.19
414.258	76.19
414.482	79.19
414.705	87.19
414.928	89.19
415.151	99.19
415.374	90.19
415.597	88.19
415.821	96.19
416.044	102.19
416.267	81.19
416.49	89.19
416.713	89.19
416.936	84.19
417.159	89.19
417.382	84.19
417.605	78.19
417.828	100.19
418.051	87.19
418.274	86.19
418.497	71.19
418.72	87.19
418.943	81.19
419.166	96.19
419.389	101.19
419.611	92.19
419.834	84.19
420.057	89.19
420.28	89.19
420.503	79.19
420.726	94.19
420.948	70.19
421.171	107.19
421.394	97.19
421.617	91.19
421.839	83.19
422.062	96.19
422.285	86.19
422.507	103.19
422.73	106.19
422.953	113.19
423.175	84.19
423.398	84.19
423.621	91.19
423.843	86.19
424.066	79.19
424.288	83.19
424.511	79.19
424.733	79.19
424.956	98.19
425.178	95.19
425.401	103.19
425.623	71.19
425.846	99.19
426.068	93.19
426.291	74.19
426.513	99.19
426.735	102.19
426.958	77.19
427.18	85.19
427.402	109.19
427.625	140.19
427.847	107.19
428.069	95.19
428.292	85.19
428.514	92.19
428.736	94.19
428.958	86.19
429.181	93.19
429.403	92.19
429.625	79.19
429.847	84.19
430.069	89.19
430.292	91.19
430.514	83.19
430.736	86.19
430.958	93.19
431.18	75.19
431.402	96.19
431.624	83.19
431.846	81.19
432.068	91.19
432.29	75.19
432.512	90.19
432.734	87.19
432.956	89.19
433.178	86.19
433.4	105.19
433.622	97.19
433.844	92.19
434.066	101.19
434.287	82.19
434.509	91.19
434.731	74.19
434.953	97.19
435.175	100.19
435.397	87.19
435.618	97.19
435.84	91.19
436.062	95.19
436.284	94.19
436.505	93.19
436.727	88.19
436.949	93.19
437.17	90.19
437.392	91.19
437.614	84.19
437.835	100.19
438.057	97.19
438.278	97.19
438.5	96.19
438.721	98.19
438.943	88.19
439.165	95.19
439.386	81.19
439.608	84.19
439.829	99.19
440.05	117.19
440.272	131.19
440.493	80.19
440.715	73.19
440.936	84.19
441.158	83.19
441.379	86.19
441.6	96.19
441.822	91.19
442.043	88.19
442.264	96.19
442.486	90.19
442.707	84.19
442.928	90.19
443.149	108.19
443.371	113.19
443.592	84.19
443.813	98.19
444.034	82.19
444.255	77.19
444.476	79.19
444.698	93.19
444.919	95.19
445.14	114.19
445.361	108.19
445.582	106.19
445.803	130.19
446.024	120.19
446.245	98.19
446.466	106.19
446.687	80.19
446.908	100.19
447.129	71.19
447.35	91.19
447.571	81.19
447.792	96.19
448.013	89.19
448.234	100.19
448.455	97.19
448.675	104.19
448.896	112.19
449.117	84.19
449.338	90.19
449.559	110.19
449.779	107.19
450	98.19
450.221	90.19
450.442	83.19
450.662	88.19
450.883	102.19
451.104	102.19
451.324	95.19
451.545	88.19
451.766	98.19
451.986	85.19
452.207	83.19
452.428	92.19
452.648	85.19
452.869	117.19
453.089	97.19
453.31	98.19
453.53	95.19
453.751	96.19
453.971	95.19
454.192	100.19
454.412	89.19
454.633	77.19
454.853	80.19
455.073	100.19
455.294	93.19
455.514	90.19
455.734	75.19
455.955	103.19
456.175	75.19
456.395	92.19
456.616	79.19
456.836	89.19
457.056	77.19
457.276	83.19
457.497	87.19
457.717	72.19
457.937	77.19
458.157	98.19
458.377	84.19
458.598	93.19
458.818	136.19
459.038	136.19
459.258	109.19
459.478	78.19
459.698	104.19
459.918	91.19
460.138	95.19
460.358	87.19
460.578	84.19
460.798	78.19
461.018	85.19
461.238	92.19
461.458	103.19
461.678	93.19
461.898	92.19
462.118	82.19
462.338	89.19
462.558	76.19
462.777	68.19
462.997	93.19
463.217	90.19
463.437	77.19
463.657	88.19
463.876	90.19
464.096	105.19
464.316	90.19
464.536	105.19
464.755	94.19
464.975	102.19
465.195	138.19
465.414	127.19
465.634	92.19
465.854	92.19
466.073	88.19
466.293	99.19
466.512	69.19
466.732	81.19
466.951	77.19
467.171	87.19
467.391	90.19
467.61	89.19
467.829	86.19
468.049	73.19
468.268	82.19
468.488	71.19
468.707	91.19
468.927	84.19
469.146	73.19
469.365	90.19
469.585	79.19
469.804	93.19
470.023	75.19
470.243	77.19
470.462	90.19
470.681	100.19
470.901	76.19
471.12	93.19
471.339	82.19
471.558	87.19
471.777	90.19
471.997	95.19
472.216	83.19
472.435	82.19
472.654	89.19
472.873	105.19
473.092	93.19
473.311	87.19
473.53	93.19
473.749	87.19
473.968	76.19
474.187	103.19
474.406	92.19
474.625	92.19
474.844	79.19
475.063	84.19
475.282	102.19
475.501	103.19
475.72	89.19
475.939	76.19
476.158	87.19
476.377	90.19
476.596	85.19
476.814	68.19
477.033	97.19
477.252	85.19
477.471	91.19
477.69	96.19
477.908	87.19
478.127	102.19
478.346	91.19
478.564	87.19
478.783	99.19
479.002	88.19
479.22	107.19
479.439	95.19
479.658	96.19
479.876	98.19
480.095	81.19
480.313	92.19
480.532	87.19
480.751	79.19
480.969	97.19
481.188	106.19
481.406	89.19
481.624	86.19
481.843	88.19
482.061	73.19
482.28	92.19
482.498	88.19
482.717	93.19
482.935	83.19
483.153	77.19
483.372	92.19
483.59	96.19
483.808	89.19
484.027	80.19
484.245	87.19
484.463	103.19
484.681	90.19
484.9	92.19
485.118	99.19
485.336	82.19
485.554	100.19
485.772	94.19
485.99	100.19
486.209	110.19
486.427	109.19
486.645	105.19
486.863	103.19
487.081	96.19
487.299	95.19
487.517	101.19
487.735	93.19
487.953	79.19
488.171	100.19
488.389	95.19
488.607	103.19
488.825	98.19
489.043	81.19
489.261	95.19
489.479	85.19
489.696	97.19
489.914	82.19
490.132	88.19
490.35	88.19
490.568	93.19
490.786	89.19
491.003	102.19
491.221	84.19
491.439	83.19
491.657	97.19
491.874	112.19
492.092	92.19
492.31	104.19
492.527	92.19
492.745	99.19
492.963	84.19
493.18	87.19
493.398	85.19
493.615	98.19
493.833	100.19
494.05	91.19
494.268	92.19
494.485	92.19
494.703	81.19
494.92	88.19
495.138	86.19
495.355	89.19
495.573	104.19
495.79	94.19
496.008	100.19
496.225	93.19
496.442	87.19
496.66	96.19
496.877	94.19
497.094	96.19
497.312	89.19
497.529	108.19
497.746	97.19
497.963	93.19
498.181	102.19
498.398	75.19
498.615	97.19
498.832	85.19
499.049	87.19
499.267	103.19
499.484	96.19
499.701	98.19
499.918	85.19
500.135	86.19
500.352	97.19
500.569	86.19
500.786	89.19
501.003	81.19
501.22	106.19
501.437	83.19
501.654	77.19
501.871	104.19
502.088	89.19
502.305	94.19
502.522	97.19
502.739	82.19
502.956	82.19
503.172	72.19
503.389	92.19
503.606	100.19
503.823	91.19
504.04	82.19
504.256	92.19
504.473	95.19
504.69	92.19
504.907	84.19
505.123	80.19
505.34	83.19
505.557	100.19
505.773	74.19
505.99	94.19
506.207	99.19
506.423	78.19
506.64	101.19
506.856	90.19
507.073	100.19
507.289	92.19
507.506	76.19
507.722	98.19
507.939	111.19
508.155	81.19
508.372	96.19
508.588	91.19
508.805	100.19
509.021	98.19
509.238	108.19
509.454	87.19
509.67	76.19
509.887	97.19
510.103	115.19
510.319	172.19
510.536	631.19
510.752	1823.19
510.968	512.19
511.184	128.19
511.401	107.19
511.617	96.19
511.833	84.19
512.049	89.19
512.265	83.19
512.481	97.19
512.698	97.19
512.914	83.19
513.13	91.19
513.346	92.19
513.562	86.19
513.778	81.19
513.994	92.19
514.21	84.19
514.426	91.19
514.642	122.19
514.858	112.19
515.074	148.19
515.29	353.19
515.506	1056.19
515.721	408.19
515.937	146.19
516.153	105.19
516.369	98.19
516.585	88.19
516.801	91.19
517.016	88.19
517.232	80.19
