Data from Uncirc_1993_H10_HRD10591_00057.txt Node
Date: Wed Jan 03 11:43:03 EST 2024
User: Yrep
Spectrometer: HR+D1059
Trigger mode: 1
Integration Time (sec): 1.000000E-1
Scans to average: 1
Electric dark correction enabled: true
Nonlinearity correction enabled: false
Boxcar width: 0
XAxis mode: Wavelengths
Number of Pixels in Spectrum: 2048
>>>>>Begin Spectral Data<<<<<
223.165	-20.19
223.4	-20.19
223.635	-20.19
223.869	-16.19
224.104	-12.19
224.338	-23.19
224.573	-16.19
224.808	-16.19
225.042	-11.19
225.277	-2.19
225.511	-12.19
225.746	7.81
225.98	10.81
226.215	20.81
226.449	13.81
226.683	19.81
226.918	26.81
227.152	29.81
227.387	33.81
227.621	45.81
227.856	45.81
228.09	51.81
228.324	44.81
228.559	39.81
228.793	57.81
229.027	59.81
229.262	60.81
229.496	87.81
229.73	85.81
229.964	79.81
230.199	68.81
230.433	86.81
230.667	94.81
230.901	81.81
231.136	63.81
231.37	79.81
231.604	85.81
231.838	76.81
232.072	66.81
232.306	91.81
232.541	89.81
232.775	87.81
233.009	82.81
233.243	87.81
233.477	81.81
233.711	92.81
233.945	95.81
234.179	84.81
234.413	75.81
234.647	85.81
234.881	80.81
235.115	97.81
235.349	92.81
235.583	77.81
235.817	75.81
236.051	77.81
236.285	79.81
236.519	70.81
236.753	70.81
236.987	85.81
237.221	82.81
237.455	74.81
237.689	92.81
237.922	87.81
238.156	71.81
238.39	65.81
238.624	64.81
238.858	84.81
239.091	81.81
239.325	85.81
239.559	80.81
239.793	85.81
240.027	81.81
240.26	76.81
240.494	97.81
240.728	69.81
240.961	65.81
241.195	82.81
241.429	79.81
241.662	83.81
241.896	66.81
242.13	83.81
242.363	77.81
242.597	85.81
242.83	78.81
243.064	79.81
243.298	75.81
243.531	75.81
243.765	79.81
243.998	90.81
244.232	64.81
244.465	81.81
244.699	71.81
244.932	64.81
245.166	93.81
245.399	82.81
245.633	68.81
245.866	75.81
246.099	81.81
246.333	82.81
246.566	73.81
246.8	75.81
247.033	69.81
247.266	77.81
247.5	76.81
247.733	77.81
247.966	69.81
248.2	100.81
248.433	77.81
248.666	76.81
248.899	64.81
249.133	80.81
249.366	99.81
249.599	92.81
249.832	75.81
250.066	78.81
250.299	90.81
250.532	82.81
250.765	92.81
250.998	71.81
251.231	76.81
251.465	87.81
251.698	80.81
251.931	92.81
252.164	74.81
252.397	82.81
252.63	94.81
252.863	73.81
253.096	79.81
253.329	75.81
253.562	82.81
253.795	79.81
254.028	86.81
254.261	75.81
254.494	70.81
254.727	89.81
254.96	77.81
255.193	95.81
255.426	78.81
255.659	82.81
255.892	88.81
256.124	80.81
256.357	83.81
256.59	85.81
256.823	87.81
257.056	71.81
257.289	78.81
257.521	94.81
257.754	81.81
257.987	89.81
258.22	93.81
258.452	75.81
258.685	80.81
258.918	87.81
259.151	86.81
259.383	70.81
259.616	84.81
259.849	74.81
260.081	88.81
260.314	73.81
260.547	81.81
260.779	87.81
261.012	84.81
261.244	75.81
261.477	77.81
261.71	94.81
261.942	99.81
262.175	109.81
262.407	95.81
262.64	82.81
262.872	80.81
263.105	86.81
263.337	70.81
263.57	99.81
263.802	77.81
264.035	85.81
264.267	77.81
264.499	76.81
264.732	96.81
264.964	92.81
265.197	82.81
265.429	92.81
265.661	79.81
265.894	82.81
266.126	90.81
266.358	86.81
266.591	93.81
266.823	95.81
267.055	62.81
267.287	79.81
267.52	81.81
267.752	83.81
267.984	80.81
268.216	62.81
268.448	77.81
268.681	90.81
268.913	87.81
269.145	81.81
269.377	82.81
269.609	79.81
269.841	90.81
270.073	92.81
270.306	92.81
270.538	97.81
270.77	85.81
271.002	90.81
271.234	82.81
271.466	78.81
271.698	86.81
271.93	78.81
272.162	91.81
272.394	98.81
272.626	82.81
272.858	96.81
273.09	74.81
273.322	88.81
273.553	85.81
273.785	83.81
274.017	89.81
274.249	76.81
274.481	91.81
274.713	78.81
274.945	82.81
275.176	90.81
275.408	83.81
275.64	86.81
275.872	84.81
276.104	94.81
276.335	90.81
276.567	95.81
276.799	103.81
277.031	99.81
277.262	89.81
277.494	79.81
277.726	84.81
277.957	93.81
278.189	88.81
278.421	90.81
278.652	86.81
278.884	81.81
279.115	90.81
279.347	99.81
279.579	93.81
279.81	74.81
280.042	97.81
280.273	85.81
280.505	92.81
280.736	89.81
280.968	96.81
281.199	85.81
281.431	86.81
281.662	87.81
281.894	74.81
282.125	92.81
282.356	102.81
282.588	129.81
282.819	108.81
283.051	101.81
283.282	87.81
283.513	98.81
283.745	83.81
283.976	92.81
284.207	88.81
284.439	90.81
284.67	79.81
284.901	90.81
285.132	90.81
285.364	76.81
285.595	100.81
285.826	83.81
286.057	87.81
286.288	86.81
286.52	84.81
286.751	82.81
286.982	93.81
287.213	99.81
287.444	102.81
287.675	67.81
287.906	89.81
288.138	88.81
288.369	108.81
288.6	99.81
288.831	76.81
289.062	89.81
289.293	96.81
289.524	95.81
289.755	93.81
289.986	83.81
290.217	89.81
290.448	89.81
290.679	89.81
290.91	92.81
291.141	91.81
291.371	92.81
291.602	88.81
291.833	94.81
292.064	82.81
292.295	107.81
292.526	95.81
292.757	83.81
292.987	77.81
293.218	98.81
293.449	92.81
293.68	88.81
293.91	89.81
294.141	91.81
294.372	95.81
294.603	83.81
294.833	81.81
295.064	90.81
295.295	92.81
295.525	101.81
295.756	107.81
295.987	94.81
296.217	118.81
296.448	123.81
296.679	98.81
296.909	86.81
297.14	83.81
297.37	100.81
297.601	89.81
297.831	95.81
298.062	87.81
298.292	93.81
298.523	91.81
298.753	99.81
298.984	98.81
299.214	85.81
299.445	97.81
299.675	87.81
299.905	92.81
300.136	95.81
300.366	91.81
300.597	91.81
300.827	90.81
301.057	89.81
301.288	89.81
301.518	81.81
301.748	99.81
301.979	84.81
302.209	79.81
302.439	94.81
302.669	75.81
302.9	92.81
303.13	80.81
303.36	87.81
303.59	90.81
303.82	94.81
304.051	86.81
304.281	90.81
304.511	86.81
304.741	93.81
304.971	103.81
305.201	88.81
305.431	100.81
305.661	97.81
305.891	87.81
306.121	103.81
306.352	99.81
306.582	101.81
306.812	103.81
307.042	91.81
307.272	86.81
307.502	103.81
307.731	84.81
307.961	99.81
308.191	107.81
308.421	95.81
308.651	105.81
308.881	87.81
309.111	89.81
309.341	106.81
309.571	100.81
309.8	86.81
310.03	91.81
310.26	102.81
310.49	101.81
310.72	93.81
310.949	110.81
311.179	94.81
311.409	95.81
311.639	93.81
311.868	96.81
312.098	105.81
312.328	90.81
312.557	99.81
312.787	95.81
313.017	95.81
313.246	84.81
313.476	96.81
313.706	87.81
313.935	89.81
314.165	111.81
314.394	97.81
314.624	107.81
314.853	92.81
315.083	94.81
315.312	100.81
315.542	89.81
315.771	81.81
316.001	92.81
316.23	93.81
316.46	104.81
316.689	103.81
316.919	98.81
317.148	103.81
317.377	87.81
317.607	95.81
317.836	99.81
318.065	92.81
318.295	100.81
318.524	91.81
318.753	100.81
318.983	101.81
319.212	93.81
319.441	105.81
319.67	99.81
319.9	93.81
320.129	94.81
320.358	97.81
320.587	81.81
320.816	92.81
321.046	92.81
321.275	86.81
321.504	100.81
321.733	97.81
321.962	94.81
322.191	87.81
322.42	95.81
322.649	106.81
322.878	107.81
323.108	113.81
323.337	117.81
323.566	125.81
323.795	141.81
324.024	179.81
324.253	317.81
324.482	660.81
324.71	1313.81
324.939	1660.81
325.168	642.81
325.397	220.81
325.626	133.81
325.855	117.81
326.084	102.81
326.313	112.81
326.542	133.81
326.77	201.81
326.999	385.81
327.228	701.81
327.457	1255.81
327.686	1005.81
327.914	290.81
328.143	157.81
328.372	134.81
328.6	112.81
328.829	116.81
329.058	118.81
329.287	121.81
329.515	104.81
329.744	101.81
329.972	101.81
330.201	98.81
330.43	101.81
330.658	135.81
330.887	129.81
331.115	130.81
331.344	100.81
331.572	98.81
331.801	100.81
332.03	102.81
332.258	84.81
332.486	86.81
332.715	94.81
332.943	99.81
333.172	105.81
333.4	98.81
333.629	104.81
333.857	98.81
334.085	112.81
334.314	92.81
334.542	99.81
334.771	91.81
334.999	102.81
335.227	89.81
335.455	94.81
335.684	84.81
335.912	103.81
336.14	93.81
336.369	101.81
336.597	93.81
336.825	92.81
337.053	96.81
337.281	97.81
337.51	86.81
337.738	100.81
337.966	102.81
338.194	86.81
338.422	99.81
338.65	100.81
338.878	100.81
339.106	87.81
339.334	89.81
339.562	91.81
339.79	97.81
340.018	85.81
340.246	95.81
340.474	93.81
340.702	90.81
340.93	99.81
341.158	92.81
341.386	103.81
341.614	95.81
341.842	99.81
342.07	86.81
342.298	90.81
342.526	82.81
342.754	90.81
342.981	78.81
343.209	95.81
343.437	103.81
343.665	83.81
343.893	76.81
344.12	83.81
344.348	82.81
344.576	91.81
344.804	103.81
345.031	102.81
345.259	83.81
345.487	97.81
345.714	95.81
345.942	80.81
346.17	78.81
346.397	80.81
346.625	90.81
346.853	85.81
347.08	91.81
347.308	88.81
347.535	102.81
347.763	94.81
347.99	100.81
348.218	99.81
348.445	107.81
348.673	120.81
348.9	102.81
349.128	107.81
349.355	89.81
349.583	93.81
349.81	88.81
350.037	90.81
350.265	90.81
350.492	107.81
350.72	105.81
350.947	90.81
351.174	108.81
351.402	110.81
351.629	101.81
351.856	98.81
352.083	107.81
352.311	103.81
352.538	114.81
352.765	104.81
352.992	109.81
353.22	104.81
353.447	94.81
353.674	104.81
353.901	104.81
354.128	92.81
354.355	98.81
354.583	107.81
354.81	99.81
355.037	91.81
355.264	92.81
355.491	94.81
355.718	99.81
355.945	83.81
356.172	99.81
356.399	101.81
356.626	94.81
356.853	91.81
357.08	87.81
357.307	91.81
357.534	90.81
357.761	83.81
357.988	97.81
358.215	81.81
358.441	87.81
358.668	93.81
358.895	89.81
359.122	95.81
359.349	96.81
359.576	87.81
359.802	100.81
360.029	88.81
360.256	107.81
360.483	91.81
360.709	78.81
360.936	92.81
361.163	97.81
361.39	95.81
361.616	83.81
361.843	83.81
362.07	94.81
362.296	84.81
362.523	97.81
362.749	87.81
362.976	93.81
363.203	86.81
363.429	89.81
363.656	99.81
363.882	82.81
364.109	80.81
364.335	89.81
364.562	99.81
364.788	86.81
365.015	92.81
365.241	82.81
365.468	105.81
365.694	107.81
365.92	99.81
366.147	92.81
366.373	77.81
366.599	96.81
366.826	105.81
367.052	98.81
367.278	90.81
367.505	80.81
367.731	80.81
367.957	93.81
368.184	85.81
368.41	95.81
368.636	97.81
368.862	119.81
369.089	104.81
369.315	93.81
369.541	97.81
369.767	102.81
369.993	90.81
370.219	99.81
370.445	94.81
370.672	86.81
370.898	95.81
371.124	92.81
371.35	103.81
371.576	69.81
371.802	84.81
372.028	92.81
372.254	82.81
372.48	80.81
372.706	109.81
372.932	90.81
373.158	80.81
373.384	89.81
373.61	85.81
373.835	77.81
374.061	102.81
374.287	98.81
374.513	83.81
374.739	96.81
374.965	86.81
375.191	92.81
375.416	79.81
375.642	75.81
375.868	77.81
376.094	97.81
376.319	86.81
376.545	102.81
376.771	97.81
376.997	84.81
377.222	84.81
377.448	83.81
377.674	89.81
377.899	85.81
378.125	95.81
378.35	86.81
378.576	90.81
378.802	87.81
379.027	107.81
379.253	100.81
379.478	102.81
379.704	91.81
379.929	92.81
380.155	78.81
380.38	89.81
380.606	95.81
380.831	107.81
381.057	90.81
381.282	106.81
381.507	97.81
381.733	88.81
381.958	85.81
382.184	109.81
382.409	81.81
382.634	91.81
382.86	111.81
383.085	96.81
383.31	95.81
383.535	92.81
383.761	96.81
383.986	91.81
384.211	95.81
384.436	82.81
384.662	98.81
384.887	97.81
385.112	85.81
385.337	100.81
385.562	90.81
385.787	97.81
386.013	106.81
386.238	104.81
386.463	87.81
386.688	118.81
386.913	100.81
387.138	90.81
387.363	92.81
387.588	90.81
387.813	82.81
388.038	103.81
388.263	93.81
388.488	110.81
388.713	109.81
388.938	91.81
389.163	97.81
389.387	83.81
389.612	107.81
389.837	102.81
390.062	104.81
390.287	97.81
390.512	101.81
390.736	96.81
390.961	93.81
391.186	81.81
391.411	100.81
391.636	83.81
391.86	86.81
392.085	88.81
392.31	110.81
392.534	87.81
392.759	84.81
392.984	98.81
393.208	98.81
393.433	88.81
393.658	85.81
393.882	79.81
394.107	98.81
394.331	79.81
394.556	96.81
394.78	90.81
395.005	98.81
395.229	81.81
395.454	97.81
395.678	98.81
395.903	105.81
396.127	99.81
396.352	97.81
396.576	84.81
396.801	89.81
397.025	77.81
397.249	88.81
397.474	98.81
397.698	102.81
397.922	83.81
398.147	78.81
398.371	91.81
398.595	82.81
398.82	83.81
399.044	94.81
399.268	89.81
399.492	82.81
399.717	94.81
399.941	89.81
400.165	97.81
400.389	91.81
400.613	91.81
400.837	90.81
401.062	92.81
401.286	91.81
401.51	77.81
401.734	85.81
401.958	101.81
402.182	126.81
402.406	152.81
402.63	116.81
402.854	92.81
403.078	81.81
403.302	107.81
403.526	76.81
403.75	104.81
403.974	84.81
404.198	82.81
404.422	91.81
404.645	89.81
404.869	102.81
405.093	91.81
405.317	85.81
405.541	93.81
405.765	103.81
405.988	110.81
406.212	171.81
406.436	191.81
406.66	127.81
406.883	106.81
407.107	85.81
407.331	100.81
407.555	102.81
407.778	106.81
408.002	82.81
408.226	100.81
408.449	83.81
408.673	81.81
408.896	95.81
409.12	102.81
409.344	87.81
409.567	99.81
409.791	86.81
410.014	111.81
410.238	87.81
410.461	76.81
410.685	94.81
410.908	103.81
411.132	98.81
411.355	97.81
411.578	97.81
411.802	93.81
412.025	94.81
412.249	83.81
412.472	92.81
412.695	106.81
412.919	83.81
413.142	95.81
413.365	87.81
413.589	91.81
413.812	86.81
414.035	85.81
414.258	91.81
414.482	85.81
414.705	96.81
414.928	85.81
415.151	93.81
415.374	86.81
415.597	75.81
415.821	96.81
416.044	96.81
416.267	94.81
416.49	84.81
416.713	98.81
416.936	102.81
417.159	82.81
417.382	78.81
417.605	92.81
417.828	81.81
418.051	93.81
418.274	89.81
418.497	92.81
418.72	95.81
418.943	89.81
419.166	82.81
419.389	89.81
419.611	92.81
419.834	102.81
420.057	94.81
420.28	85.81
420.503	89.81
420.726	85.81
420.948	89.81
421.171	92.81
421.394	98.81
421.617	79.81
421.839	82.81
422.062	93.81
422.285	97.81
422.507	103.81
422.73	102.81
422.953	86.81
423.175	85.81
423.398	92.81
423.621	85.81
423.843	93.81
424.066	91.81
424.288	89.81
424.511	82.81
424.733	90.81
424.956	100.81
425.178	105.81
425.401	90.81
425.623	109.81
425.846	91.81
426.068	95.81
426.291	94.81
426.513	99.81
426.735	85.81
426.958	90.81
427.18	95.81
427.402	131.81
427.625	128.81
427.847	103.81
428.069	98.81
428.292	79.81
428.514	82.81
428.736	89.81
428.958	77.81
429.181	75.81
429.403	83.81
429.625	97.81
429.847	88.81
430.069	93.81
430.292	77.81
430.514	101.81
430.736	95.81
430.958	87.81
431.18	90.81
431.402	92.81
431.624	91.81
431.846	82.81
432.068	82.81
432.29	81.81
432.512	83.81
432.734	100.81
432.956	94.81
433.178	90.81
433.4	91.81
433.622	97.81
433.844	82.81
434.066	103.81
434.287	95.81
434.509	90.81
434.731	98.81
434.953	77.81
435.175	90.81
435.397	101.81
435.618	97.81
435.84	99.81
436.062	116.81
436.284	110.81
436.505	96.81
436.727	95.81
436.949	98.81
437.17	81.81
437.392	90.81
437.614	89.81
437.835	91.81
438.057	102.81
438.278	99.81
438.5	109.81
438.721	121.81
438.943	109.81
439.165	90.81
439.386	78.81
439.608	91.81
439.829	94.81
440.05	103.81
440.272	115.81
440.493	90.81
440.715	100.81
440.936	85.81
441.158	82.81
441.379	86.81
441.6	95.81
441.822	99.81
442.043	85.81
442.264	95.81
442.486	109.81
442.707	91.81
442.928	84.81
443.149	108.81
443.371	111.81
443.592	98.81
443.813	92.81
444.034	99.81
444.255	89.81
444.476	70.81
444.698	83.81
444.919	82.81
445.14	133.81
445.361	119.81
445.582	106.81
445.803	115.81
446.024	122.81
446.245	123.81
446.466	116.81
446.687	76.81
446.908	87.81
447.129	79.81
447.35	92.81
447.571	100.81
447.792	87.81
448.013	99.81
448.234	92.81
448.455	103.81
448.675	111.81
448.896	115.81
449.117	89.81
449.338	107.81
449.559	125.81
449.779	117.81
450	93.81
450.221	89.81
450.442	89.81
450.662	101.81
450.883	100.81
451.104	102.81
451.324	91.81
451.545	97.81
451.766	88.81
451.986	85.81
452.207	100.81
452.428	95.81
452.648	105.81
452.869	101.81
453.089	89.81
453.31	98.81
453.53	92.81
453.751	102.81
453.971	106.81
454.192	105.81
454.412	76.81
454.633	77.81
454.853	90.81
455.073	95.81
455.294	82.81
455.514	96.81
455.734	95.81
455.955	87.81
456.175	87.81
456.395	90.81
456.616	85.81
456.836	98.81
457.056	86.81
457.276	78.81
457.497	82.81
457.717	89.81
457.937	78.81
458.157	79.81
458.377	82.81
458.598	96.81
458.818	129.81
459.038	136.81
459.258	114.81
459.478	83.81
459.698	79.81
459.918	86.81
460.138	86.81
460.358	82.81
460.578	70.81
460.798	96.81
461.018	96.81
461.238	75.81
461.458	85.81
461.678	86.81
461.898	89.81
462.118	83.81
462.338	86.81
462.558	83.81
462.777	81.81
462.997	83.81
463.217	97.81
463.437	92.81
463.657	73.81
463.876	83.81
464.096	80.81
464.316	82.81
464.536	86.81
464.755	101.81
464.975	102.81
465.195	132.81
465.414	135.81
465.634	98.81
465.854	82.81
466.073	83.81
466.293	91.81
466.512	89.81
466.732	94.81
466.951	93.81
467.171	103.81
467.391	105.81
467.61	100.81
467.829	91.81
468.049	87.81
468.268	87.81
468.488	85.81
468.707	92.81
468.927	80.81
469.146	78.81
469.365	76.81
469.585	78.81
469.804	101.81
470.023	98.81
470.243	100.81
470.462	96.81
470.681	82.81
470.901	96.81
471.12	79.81
471.339	100.81
471.558	89.81
471.777	66.81
471.997	78.81
472.216	104.81
472.435	98.81
472.654	101.81
472.873	84.81
473.092	79.81
473.311	79.81
473.53	76.81
473.749	97.81
473.968	89.81
474.187	116.81
474.406	110.81
474.625	88.81
474.844	84.81
475.063	80.81
475.282	82.81
475.501	78.81
475.72	89.81
475.939	97.81
476.158	91.81
476.377	95.81
476.596	93.81
476.814	86.81
477.033	84.81
477.252	76.81
477.471	70.81
477.69	104.81
477.908	91.81
478.127	95.81
478.346	87.81
478.564	79.81
478.783	94.81
479.002	69.81
479.22	98.81
479.439	95.81
479.658	109.81
479.876	108.81
480.095	86.81
480.313	101.81
480.532	81.81
480.751	92.81
480.969	90.81
481.188	108.81
481.406	93.81
481.624	88.81
481.843	93.81
482.061	93.81
482.28	105.81
482.498	99.81
482.717	85.81
482.935	81.81
483.153	97.81
483.372	91.81
483.59	82.81
483.808	93.81
484.027	95.81
484.245	108.81
484.463	85.81
484.681	89.81
484.9	101.81
485.118	91.81
485.336	104.81
485.554	90.81
485.772	89.81
485.99	107.81
486.209	104.81
486.427	84.81
486.645	89.81
486.863	97.81
487.081	93.81
487.299	113.81
487.517	86.81
487.735	89.81
487.953	81.81
488.171	92.81
488.389	105.81
488.607	107.81
488.825	98.81
489.043	93.81
489.261	94.81
489.479	101.81
489.696	96.81
489.914	93.81
490.132	98.81
490.35	94.81
490.568	90.81
490.786	90.81
491.003	82.81
491.221	86.81
491.439	90.81
491.657	98.81
491.874	77.81
492.092	83.81
492.31	91.81
492.527	85.81
492.745	93.81
492.963	70.81
493.18	96.81
493.398	97.81
493.615	114.81
493.833	91.81
494.05	83.81
494.268	84.81
494.485	90.81
494.703	98.81
494.92	82.81
495.138	87.81
495.355	95.81
495.573	86.81
495.79	92.81
496.008	95.81
496.225	95.81
496.442	101.81
496.66	107.81
496.877	95.81
497.094	86.81
497.312	85.81
497.529	102.81
497.746	87.81
497.963	97.81
498.181	90.81
498.398	99.81
498.615	112.81
498.832	103.81
499.049	96.81
499.267	86.81
499.484	86.81
499.701	81.81
499.918	88.81
500.135	101.81
500.352	104.81
500.569	92.81
500.786	94.81
501.003	100.81
501.22	95.81
501.437	86.81
501.654	103.81
501.871	102.81
502.088	86.81
502.305	98.81
502.522	97.81
502.739	103.81
502.956	95.81
503.172	104.81
503.389	84.81
503.606	90.81
503.823	79.81
504.04	109.81
504.256	85.81
504.473	97.81
504.69	90.81
504.907	87.81
505.123	86.81
505.34	90.81
505.557	99.81
505.773	94.81
505.99	95.81
506.207	89.81
506.423	86.81
506.64	90.81
506.856	100.81
507.073	101.81
507.289	84.81
507.506	100.81
507.722	103.81
507.939	103.81
508.155	93.81
508.372	95.81
508.588	91.81
508.805	91.81
509.021	89.81
509.238	98.81
509.454	100.81
509.67	95.81
509.887	122.81
510.103	123.81
510.319	183.81
510.536	659.81
510.752	1919.81
510.968	557.81
511.184	150.81
511.401	118.81
511.617	102.81
511.833	106.81
512.049	80.81
512.265	72.81
512.481	93.81
512.698	90.81
512.914	81.81
513.13	93.81
513.346	93.81
513.562	95.81
513.778	95.81
513.994	90.81
514.21	96.81
514.426	111.81
514.642	120.81
514.858	111.81
515.074	141.81
515.29	369.81
515.506	1149.81
515.721	438.81
515.937	139.81
