Data from Uncirc_1993_H10_HRD10591_00091.txt Node
Date: Wed Jan 03 11:43:10 EST 2024
User: Yrep
Spectrometer: HR+D1059
Trigger mode: 1
Integration Time (sec): 1.000000E-1
Scans to average: 1
Electric dark correction enabled: true
Nonlinearity correction enabled: false
Boxcar width: 0
XAxis mode: Wavelengths
Number of Pixels in Spectrum: 2048
>>>>>Begin Spectral Data<<<<<
223.165	-7.44
223.4	-7.44
223.635	-7.44
223.869	-33.44
224.104	-38.44
224.338	-9.44
224.573	-9.44
224.808	-9.44
225.042	-3.44
225.277	-15.44
225.511	2.56
225.746	14.56
225.98	16.56
226.215	-6.44
226.449	22.56
226.683	19.56
226.918	26.56
227.152	30.56
227.387	33.56
227.621	39.56
227.856	31.56
228.09	50.56
228.324	52.56
228.559	51.56
228.793	62.56
229.027	65.56
229.262	62.56
229.496	74.56
229.73	88.56
229.964	95.56
230.199	79.56
230.433	71.56
230.667	75.56
230.901	78.56
231.136	81.56
231.37	79.56
231.604	84.56
231.838	71.56
232.072	87.56
232.306	84.56
232.541	98.56
232.775	85.56
233.009	80.56
233.243	82.56
233.477	82.56
233.711	77.56
233.945	74.56
234.179	82.56
234.413	85.56
234.647	87.56
234.881	76.56
235.115	82.56
235.349	85.56
235.583	72.56
235.817	78.56
236.051	81.56
236.285	79.56
236.519	87.56
236.753	87.56
236.987	77.56
237.221	78.56
237.455	78.56
237.689	62.56
237.922	70.56
238.156	89.56
238.39	83.56
238.624	79.56
238.858	76.56
239.091	79.56
239.325	72.56
239.559	86.56
239.793	69.56
240.027	78.56
240.26	67.56
240.494	79.56
240.728	86.56
240.961	72.56
241.195	75.56
241.429	73.56
241.662	76.56
241.896	86.56
242.13	72.56
242.363	81.56
242.597	67.56
242.83	87.56
243.064	80.56
243.298	85.56
243.531	69.56
243.765	75.56
243.998	74.56
244.232	87.56
244.465	92.56
244.699	66.56
244.932	76.56
245.166	91.56
245.399	78.56
245.633	88.56
245.866	107.56
246.099	76.56
246.333	89.56
246.566	89.56
246.8	71.56
247.033	78.56
247.266	90.56
247.5	83.56
247.733	78.56
247.966	70.56
248.2	76.56
248.433	79.56
248.666	70.56
248.899	79.56
249.133	82.56
249.366	101.56
249.599	84.56
249.832	90.56
250.066	84.56
250.299	83.56
250.532	55.56
250.765	80.56
250.998	84.56
251.231	86.56
251.465	88.56
251.698	72.56
251.931	70.56
252.164	89.56
252.397	93.56
252.63	89.56
252.863	67.56
253.096	83.56
253.329	72.56
253.562	88.56
253.795	80.56
254.028	84.56
254.261	85.56
254.494	64.56
254.727	83.56
254.96	72.56
255.193	82.56
255.426	92.56
255.659	86.56
255.892	79.56
256.124	71.56
256.357	69.56
256.59	91.56
256.823	90.56
257.056	86.56
257.289	90.56
257.521	64.56
257.754	74.56
257.987	79.56
258.22	82.56
258.452	76.56
258.685	81.56
258.918	81.56
259.151	77.56
259.383	95.56
259.616	80.56
259.849	86.56
260.081	88.56
260.314	81.56
260.547	79.56
260.779	78.56
261.012	82.56
261.244	84.56
261.477	93.56
261.71	87.56
261.942	105.56
262.175	107.56
262.407	92.56
262.64	98.56
262.872	75.56
263.105	98.56
263.337	80.56
263.57	71.56
263.802	80.56
264.035	84.56
264.267	95.56
264.499	78.56
264.732	76.56
264.964	82.56
265.197	79.56
265.429	82.56
265.661	104.56
265.894	63.56
266.126	103.56
266.358	93.56
266.591	78.56
266.823	83.56
267.055	105.56
267.287	91.56
267.52	88.56
267.752	79.56
267.984	104.56
268.216	84.56
268.448	100.56
268.681	93.56
268.913	85.56
269.145	87.56
269.377	85.56
269.609	80.56
269.841	74.56
270.073	80.56
270.306	87.56
270.538	93.56
270.77	86.56
271.002	95.56
271.234	98.56
271.466	79.56
271.698	92.56
271.93	80.56
272.162	96.56
272.394	93.56
272.626	93.56
272.858	101.56
273.09	84.56
273.322	89.56
273.553	88.56
273.785	74.56
274.017	81.56
274.249	82.56
274.481	81.56
274.713	90.56
274.945	94.56
275.176	80.56
275.408	96.56
275.64	89.56
275.872	76.56
276.104	100.56
276.335	103.56
276.567	87.56
276.799	83.56
277.031	112.56
277.262	92.56
277.494	95.56
277.726	96.56
277.957	68.56
278.189	68.56
278.421	75.56
278.652	91.56
278.884	77.56
279.115	88.56
279.347	97.56
279.579	99.56
279.81	88.56
280.042	76.56
280.273	93.56
280.505	84.56
280.736	88.56
280.968	88.56
281.199	78.56
281.431	79.56
281.662	84.56
281.894	99.56
282.125	94.56
282.356	93.56
282.588	127.56
282.819	120.56
283.051	105.56
283.282	81.56
283.513	84.56
283.745	90.56
283.976	87.56
284.207	80.56
284.439	73.56
284.67	82.56
284.901	93.56
285.132	90.56
285.364	87.56
285.595	92.56
285.826	92.56
286.057	99.56
286.288	87.56
286.52	85.56
286.751	95.56
286.982	86.56
287.213	87.56
287.444	82.56
287.675	98.56
287.906	89.56
288.138	98.56
288.369	92.56
288.6	87.56
288.831	84.56
289.062	97.56
289.293	80.56
289.524	92.56
289.755	92.56
289.986	92.56
290.217	91.56
290.448	90.56
290.679	92.56
290.91	87.56
291.141	86.56
291.371	85.56
291.602	95.56
291.833	105.56
292.064	79.56
292.295	87.56
292.526	94.56
292.757	84.56
292.987	101.56
293.218	92.56
293.449	84.56
293.68	85.56
293.91	92.56
294.141	88.56
294.372	94.56
294.603	96.56
294.833	93.56
295.064	86.56
295.295	95.56
295.525	104.56
295.756	98.56
295.987	126.56
296.217	128.56
296.448	111.56
296.679	98.56
296.909	92.56
297.14	104.56
297.37	91.56
297.601	90.56
297.831	95.56
298.062	93.56
298.292	91.56
298.523	102.56
298.753	86.56
298.984	90.56
299.214	70.56
299.445	84.56
299.675	92.56
299.905	88.56
300.136	93.56
300.366	86.56
300.597	93.56
300.827	96.56
301.057	92.56
301.288	100.56
301.518	85.56
301.748	99.56
301.979	95.56
302.209	90.56
302.439	98.56
302.669	87.56
302.9	85.56
303.13	92.56
303.36	94.56
303.59	100.56
303.82	102.56
304.051	93.56
304.281	99.56
304.511	87.56
304.741	85.56
304.971	98.56
305.201	96.56
305.431	95.56
305.661	83.56
305.891	92.56
306.121	102.56
306.352	112.56
306.582	96.56
306.812	99.56
307.042	107.56
307.272	84.56
307.502	86.56
307.731	82.56
307.961	98.56
308.191	101.56
308.421	94.56
308.651	107.56
308.881	92.56
309.111	106.56
309.341	106.56
309.571	107.56
309.8	109.56
310.03	106.56
310.26	99.56
310.49	104.56
310.72	102.56
310.949	96.56
311.179	104.56
311.409	94.56
311.639	87.56
311.868	101.56
312.098	93.56
312.328	105.56
312.557	104.56
312.787	108.56
313.017	108.56
313.246	105.56
313.476	88.56
313.706	88.56
313.935	93.56
314.165	90.56
314.394	94.56
314.624	86.56
314.853	96.56
315.083	102.56
315.312	101.56
315.542	85.56
315.771	111.56
316.001	88.56
316.23	115.56
316.46	87.56
316.689	79.56
316.919	88.56
317.148	99.56
317.377	97.56
317.607	98.56
317.836	91.56
318.065	75.56
318.295	96.56
318.524	85.56
318.753	95.56
318.983	106.56
319.212	115.56
319.441	108.56
319.67	111.56
319.9	109.56
320.129	95.56
320.358	101.56
320.587	106.56
320.816	81.56
321.046	88.56
321.275	102.56
321.504	103.56
321.733	99.56
321.962	102.56
322.191	89.56
322.42	99.56
322.649	109.56
322.878	105.56
323.108	118.56
323.337	125.56
323.566	132.56
323.795	130.56
324.024	186.56
324.253	355.56
324.482	711.56
324.71	1414.56
324.939	1830.56
325.168	690.56
325.397	228.56
325.626	144.56
325.855	120.56
326.084	132.56
326.313	132.56
326.542	139.56
326.77	214.56
326.999	397.56
327.228	808.56
327.457	1429.56
327.686	1136.56
327.914	324.56
328.143	178.56
328.372	143.56
328.6	111.56
328.829	107.56
329.058	107.56
329.287	123.56
329.515	94.56
329.744	95.56
329.972	112.56
330.201	96.56
330.43	93.56
330.658	114.56
330.887	127.56
331.115	115.56
331.344	101.56
331.572	85.56
331.801	95.56
332.03	95.56
332.258	103.56
332.486	112.56
332.715	92.56
332.943	96.56
333.172	87.56
333.4	95.56
333.629	91.56
333.857	112.56
334.085	100.56
334.314	110.56
334.542	109.56
334.771	93.56
334.999	100.56
335.227	103.56
335.455	103.56
335.684	90.56
335.912	95.56
336.14	111.56
336.369	109.56
336.597	101.56
336.825	94.56
337.053	96.56
337.281	99.56
337.51	98.56
337.738	90.56
337.966	97.56
338.194	100.56
338.422	99.56
338.65	104.56
338.878	72.56
339.106	89.56
339.334	97.56
339.562	111.56
339.79	83.56
340.018	101.56
340.246	90.56
340.474	90.56
340.702	88.56
340.93	79.56
341.158	97.56
341.386	96.56
341.614	96.56
341.842	91.56
342.07	97.56
342.298	93.56
342.526	92.56
342.754	95.56
342.981	101.56
343.209	79.56
343.437	100.56
343.665	98.56
343.893	93.56
344.12	84.56
344.348	111.56
344.576	103.56
344.804	99.56
345.031	92.56
345.259	111.56
345.487	88.56
345.714	93.56
345.942	82.56
346.17	85.56
346.397	106.56
346.625	90.56
346.853	83.56
347.08	88.56
347.308	104.56
347.535	101.56
347.763	101.56
347.99	105.56
348.218	104.56
348.445	97.56
348.673	104.56
348.9	103.56
349.128	92.56
349.355	89.56
349.583	81.56
349.81	87.56
350.037	94.56
350.265	97.56
350.492	90.56
350.72	89.56
350.947	100.56
351.174	108.56
351.402	104.56
351.629	101.56
351.856	109.56
352.083	103.56
352.311	113.56
352.538	108.56
352.765	107.56
352.992	103.56
353.22	124.56
353.447	123.56
353.674	116.56
353.901	96.56
354.128	98.56
354.355	108.56
354.583	98.56
354.81	90.56
355.037	117.56
355.264	83.56
355.491	110.56
355.718	100.56
355.945	92.56
356.172	98.56
356.399	98.56
356.626	98.56
356.853	95.56
357.08	71.56
357.307	91.56
357.534	99.56
357.761	107.56
357.988	94.56
358.215	101.56
358.441	107.56
358.668	88.56
358.895	101.56
359.122	88.56
359.349	99.56
359.576	96.56
359.802	94.56
360.029	95.56
360.256	98.56
360.483	111.56
360.709	97.56
360.936	88.56
361.163	102.56
361.39	93.56
361.616	87.56
361.843	96.56
362.07	100.56
362.296	79.56
362.523	94.56
362.749	82.56
362.976	90.56
363.203	91.56
363.429	98.56
363.656	90.56
363.882	94.56
364.109	106.56
364.335	112.56
364.562	82.56
364.788	86.56
365.015	92.56
365.241	85.56
365.468	110.56
365.694	130.56
365.92	100.56
366.147	100.56
366.373	90.56
366.599	92.56
366.826	83.56
367.052	95.56
367.278	100.56
367.505	85.56
367.731	98.56
367.957	99.56
368.184	96.56
368.41	106.56
368.636	111.56
368.862	115.56
369.089	104.56
369.315	95.56
369.541	91.56
369.767	99.56
369.993	103.56
370.219	94.56
370.445	92.56
370.672	86.56
370.898	92.56
371.124	83.56
371.35	96.56
371.576	104.56
371.802	88.56
372.028	83.56
372.254	84.56
372.48	96.56
372.706	100.56
372.932	92.56
373.158	91.56
373.384	99.56
373.61	98.56
373.835	99.56
374.061	98.56
374.287	93.56
374.513	75.56
374.739	72.56
374.965	93.56
375.191	90.56
375.416	103.56
375.642	95.56
375.868	93.56
376.094	89.56
376.319	90.56
376.545	87.56
376.771	96.56
376.997	93.56
377.222	93.56
377.448	91.56
377.674	79.56
377.899	92.56
378.125	95.56
378.35	82.56
378.576	87.56
378.802	92.56
379.027	97.56
379.253	99.56
379.478	101.56
379.704	91.56
379.929	100.56
380.155	86.56
380.38	98.56
380.606	92.56
380.831	99.56
381.057	95.56
381.282	99.56
381.507	106.56
381.733	101.56
381.958	103.56
382.184	101.56
382.409	99.56
382.634	87.56
382.86	88.56
383.085	99.56
383.31	110.56
383.535	111.56
383.761	103.56
383.986	96.56
384.211	109.56
384.436	94.56
384.662	101.56
384.887	97.56
385.112	97.56
385.337	106.56
385.562	96.56
385.787	103.56
386.013	108.56
386.238	112.56
386.463	112.56
386.688	107.56
386.913	102.56
387.138	104.56
387.363	114.56
387.588	98.56
387.813	100.56
388.038	109.56
388.263	112.56
388.488	89.56
388.713	102.56
388.938	105.56
389.163	104.56
389.387	87.56
389.612	90.56
389.837	92.56
390.062	99.56
390.287	94.56
390.512	96.56
390.736	97.56
390.961	106.56
391.186	80.56
391.411	80.56
391.636	95.56
391.86	82.56
392.085	98.56
392.31	74.56
392.534	69.56
392.759	90.56
392.984	90.56
393.208	87.56
393.433	93.56
393.658	102.56
393.882	82.56
394.107	96.56
394.331	83.56
394.556	85.56
394.78	87.56
395.005	98.56
395.229	83.56
395.454	79.56
395.678	93.56
395.903	104.56
396.127	90.56
396.352	93.56
396.576	88.56
396.801	89.56
397.025	75.56
397.249	97.56
397.474	100.56
397.698	107.56
397.922	77.56
398.147	82.56
398.371	81.56
398.595	82.56
398.82	93.56
399.044	85.56
399.268	86.56
399.492	87.56
399.717	103.56
399.941	100.56
400.165	93.56
400.389	104.56
400.613	96.56
400.837	87.56
401.062	98.56
401.286	95.56
401.51	86.56
401.734	84.56
401.958	98.56
402.182	128.56
402.406	142.56
402.63	110.56
402.854	99.56
403.078	98.56
403.302	91.56
403.526	95.56
403.75	87.56
403.974	102.56
404.198	99.56
404.422	107.56
404.645	94.56
404.869	91.56
405.093	97.56
405.317	99.56
405.541	90.56
405.765	80.56
405.988	126.56
406.212	133.56
406.436	212.56
406.66	142.56
406.883	93.56
407.107	106.56
407.331	108.56
407.555	96.56
407.778	97.56
408.002	101.56
408.226	102.56
408.449	95.56
408.673	87.56
408.896	88.56
409.12	95.56
409.344	74.56
409.567	72.56
409.791	82.56
410.014	100.56
410.238	99.56
410.461	106.56
410.685	107.56
410.908	97.56
411.132	86.56
411.355	88.56
411.578	94.56
411.802	92.56
412.025	91.56
412.249	93.56
412.472	88.56
412.695	88.56
412.919	88.56
413.142	69.56
413.365	92.56
413.589	93.56
413.812	91.56
414.035	93.56
414.258	83.56
414.482	91.56
414.705	79.56
414.928	90.56
415.151	93.56
415.374	101.56
415.597	88.56
415.821	77.56
416.044	92.56
416.267	93.56
416.49	77.56
416.713	96.56
416.936	88.56
417.159	87.56
417.382	79.56
417.605	82.56
417.828	90.56
418.051	81.56
418.274	88.56
418.497	91.56
418.72	104.56
418.943	90.56
419.166	92.56
419.389	82.56
419.611	86.56
419.834	95.56
420.057	71.56
420.28	92.56
420.503	66.56
420.726	86.56
420.948	83.56
421.171	87.56
421.394	95.56
421.617	93.56
421.839	89.56
422.062	84.56
422.285	100.56
422.507	101.56
422.73	108.56
422.953	110.56
423.175	92.56
423.398	87.56
423.621	83.56
423.843	81.56
424.066	84.56
424.288	80.56
424.511	102.56
424.733	93.56
424.956	103.56
425.178	101.56
425.401	98.56
425.623	102.56
425.846	80.56
426.068	92.56
426.291	85.56
426.513	101.56
426.735	91.56
426.958	86.56
427.18	102.56
427.402	134.56
427.625	169.56
427.847	132.56
428.069	107.56
428.292	94.56
428.514	89.56
428.736	82.56
428.958	92.56
429.181	76.56
429.403	83.56
429.625	90.56
429.847	88.56
430.069	97.56
430.292	98.56
430.514	94.56
430.736	94.56
430.958	90.56
431.18	99.56
431.402	90.56
431.624	69.56
431.846	83.56
432.068	76.56
432.29	95.56
432.512	96.56
432.734	87.56
432.956	92.56
433.178	83.56
433.4	94.56
433.622	88.56
433.844	91.56
434.066	95.56
434.287	104.56
434.509	87.56
434.731	85.56
434.953	95.56
435.175	84.56
435.397	85.56
435.618	94.56
435.84	101.56
436.062	109.56
436.284	122.56
436.505	94.56
436.727	102.56
436.949	91.56
437.17	99.56
437.392	74.56
437.614	92.56
437.835	93.56
438.057	114.56
438.278	105.56
438.5	95.56
438.721	102.56
438.943	110.56
439.165	96.56
439.386	91.56
439.608	106.56
439.829	89.56
440.05	119.56
440.272	123.56
440.493	96.56
440.715	101.56
440.936	95.56
441.158	72.56
441.379	94.56
441.6	82.56
441.822	86.56
442.043	88.56
442.264	96.56
442.486	99.56
442.707	83.56
442.928	95.56
443.149	134.56
443.371	119.56
443.592	104.56
443.813	114.56
444.034	99.56
444.255	96.56
444.476	86.56
444.698	94.56
444.919	92.56
445.14	127.56
445.361	116.56
445.582	100.56
445.803	121.56
446.024	132.56
446.245	127.56
446.466	96.56
446.687	83.56
446.908	90.56
447.129	92.56
447.35	112.56
447.571	102.56
447.792	112.56
448.013	97.56
448.234	117.56
448.455	99.56
448.675	100.56
448.896	118.56
449.117	99.56
449.338	80.56
449.559	128.56
449.779	132.56
450	101.56
450.221	86.56
450.442	90.56
450.662	96.56
450.883	102.56
451.104	102.56
451.324	88.56
451.545	92.56
451.766	94.56
451.986	85.56
452.207	86.56
452.428	93.56
452.648	87.56
452.869	100.56
453.089	111.56
453.31	110.56
453.53	82.56
453.751	99.56
453.971	95.56
454.192	107.56
454.412	82.56
454.633	91.56
454.853	77.56
455.073	94.56
455.294	88.56
455.514	113.56
455.734	100.56
455.955	95.56
456.175	91.56
456.395	93.56
456.616	91.56
456.836	89.56
457.056	74.56
457.276	99.56
457.497	77.56
457.717	84.56
457.937	96.56
458.157	92.56
458.377	83.56
458.598	97.56
458.818	126.56
459.038	139.56
459.258	114.56
459.478	94.56
459.698	88.56
459.918	84.56
460.138	87.56
460.358	87.56
460.578	83.56
460.798	85.56
461.018	90.56
461.238	83.56
461.458	85.56
461.678	86.56
461.898	96.56
462.118	98.56
462.338	79.56
462.558	94.56
462.777	96.56
462.997	88.56
463.217	84.56
463.437	78.56
463.657	78.56
463.876	88.56
464.096	92.56
464.316	82.56
464.536	90.56
464.755	80.56
464.975	103.56
465.195	154.56
465.414	133.56
465.634	93.56
465.854	97.56
466.073	75.56
466.293	79.56
466.512	87.56
466.732	84.56
466.951	95.56
467.171	91.56
467.391	93.56
467.61	97.56
467.829	114.56
468.049	86.56
468.268	83.56
468.488	91.56
468.707	103.56
468.927	81.56
469.146	85.56
469.365	80.56
469.585	79.56
469.804	98.56
470.023	99.56
470.243	91.56
470.462	93.56
470.681	105.56
470.901	95.56
471.12	85.56
471.339	91.56
471.558	90.56
471.777	99.56
471.997	87.56
472.216	71.56
472.435	102.56
472.654	79.56
472.873	88.56
473.092	86.56
473.311	91.56
473.53	99.56
473.749	80.56
473.968	93.56
474.187	99.56
474.406	99.56
474.625	92.56
474.844	85.56
475.063	87.56
475.282	90.56
475.501	83.56
475.72	103.56
475.939	99.56
476.158	78.56
476.377	98.56
476.596	80.56
476.814	93.56
477.033	82.56
477.252	99.56
477.471	102.56
477.69	90.56
477.908	101.56
478.127	85.56
478.346	87.56
478.564	87.56
478.783	95.56
479.002	98.56
479.22	101.56
479.439	88.56
479.658	104.56
479.876	91.56
480.095	92.56
480.313	76.56
480.532	104.56
480.751	96.56
480.969	83.56
481.188	113.56
481.406	101.56
481.624	98.56
481.843	87.56
482.061	84.56
482.28	90.56
482.498	105.56
482.717	106.56
482.935	89.56
483.153	95.56
483.372	86.56
483.59	90.56
483.808	78.56
484.027	83.56
484.245	107.56
484.463	98.56
484.681	89.56
484.9	95.56
485.118	117.56
485.336	96.56
485.554	75.56
485.772	98.56
485.99	113.56
486.209	103.56
486.427	102.56
486.645	101.56
486.863	100.56
487.081	98.56
487.299	105.56
487.517	91.56
487.735	104.56
487.953	101.56
488.171	86.56
488.389	96.56
488.607	101.56
488.825	88.56
489.043	87.56
489.261	83.56
489.479	79.56
489.696	91.56
489.914	84.56
490.132	102.56
490.35	81.56
490.568	90.56
490.786	97.56
491.003	98.56
491.221	85.56
491.439	102.56
491.657	88.56
491.874	100.56
492.092	102.56
492.31	90.56
492.527	99.56
492.745	77.56
492.963	88.56
493.18	80.56
493.398	100.56
493.615	103.56
493.833	91.56
494.05	88.56
494.268	101.56
494.485	82.56
494.703	78.56
494.92	91.56
495.138	79.56
495.355	86.56
495.573	96.56
495.79	91.56
496.008	90.56
496.225	86.56
496.442	105.56
496.66	93.56
496.877	86.56
497.094	96.56
497.312	82.56
497.529	92.56
497.746	98.56
497.963	92.56
498.181	87.56
498.398	93.56
498.615	109.56
498.832	101.56
499.049	96.56
499.267	105.56
499.484	85.56
499.701	91.56
499.918	96.56
500.135	94.56
500.352	95.56
500.569	96.56
500.786	87.56
501.003	99.56
501.22	73.56
501.437	103.56
501.654	91.56
501.871	114.56
502.088	95.56
502.305	92.56
502.522	86.56
502.739	81.56
502.956	90.56
503.172	102.56
503.389	86.56
503.606	97.56
503.823	99.56
504.04	101.56
504.256	93.56
504.473	96.56
504.69	76.56
504.907	93.56
505.123	89.56
505.34	100.56
505.557	87.56
505.773	100.56
505.99	101.56
506.207	87.56
506.423	97.56
506.64	87.56
506.856	90.56
507.073	82.56
507.289	100.56
507.506	97.56
507.722	103.56
507.939	99.56
508.155	84.56
508.372	95.56
508.588	90.56
508.805	102.56
509.021	96.56
509.238	97.56
509.454	89.56
509.67	106.56
509.887	117.56
510.103	117.56
510.319	213.56
510.536	729.56
510.752	2135.56
510.968	604.56
511.184	160.56
511.401	118.56
511.617	111.56
511.833	90.56
512.049	82.56
512.265	81.56
512.481	93.56
512.698	93.56
512.914	94.56
513.13	106.56
513.346	79.56
513.562	95.56
513.778	91.56
513.994	89.56
514.21	123.56
514.426	114.56
514.642	124.56
514.858	131.56
515.074	162.56
515.29	418.56
