Data from Uncirc_1993_H10_HRD10591_00040.txt Node
Date: Wed Jan 03 11:43:00 EST 2024
User: Yrep
Spectrometer: HR+D1059
Trigger mode: 1
Integration Time (sec): 1.000000E-1
Scans to average: 1
Electric dark correction enabled: true
Nonlinearity correction enabled: false
Boxcar width: 0
XAxis mode: Wavelengths
Number of Pixels in Spectrum: 2048
>>>>>Begin Spectral Data<<<<<
223.165	-10.25
223.4	-10.25
223.635	-10.25
223.869	-21.25
224.104	-24.25
224.338	-25.25
224.573	-15.25
224.808	-14.25
225.042	-9.25
225.277	-4.25
225.511	12.75
225.746	4.75
225.98	1.75
226.215	20.75
226.449	11.75
226.683	17.75
226.918	27.75
227.152	26.75
227.387	28.75
227.621	54.75
227.856	45.75
228.09	47.75
228.324	53.75
228.559	59.75
228.793	64.75
229.027	63.75
229.262	60.75
229.496	76.75
229.73	87.75
229.964	79.75
230.199	72.75
230.433	85.75
230.667	89.75
230.901	89.75
231.136	77.75
231.37	76.75
231.604	80.75
231.838	83.75
232.072	76.75
232.306	83.75
232.541	71.75
232.775	82.75
233.009	85.75
233.243	80.75
233.477	85.75
233.711	98.75
233.945	84.75
234.179	73.75
234.413	105.75
234.647	83.75
234.881	83.75
235.115	88.75
235.349	84.75
235.583	88.75
235.817	78.75
236.051	72.75
236.285	76.75
236.519	73.75
236.753	79.75
236.987	81.75
237.221	77.75
237.455	91.75
237.689	84.75
237.922	75.75
238.156	73.75
238.39	68.75
238.624	76.75
238.858	84.75
239.091	76.75
239.325	70.75
239.559	77.75
239.793	88.75
240.027	76.75
240.26	79.75
240.494	80.75
240.728	74.75
240.961	90.75
241.195	63.75
241.429	91.75
241.662	85.75
241.896	72.75
242.13	80.75
242.363	84.75
242.597	87.75
242.83	80.75
243.064	81.75
243.298	88.75
243.531	86.75
243.765	75.75
243.998	68.75
244.232	58.75
244.465	84.75
244.699	77.75
244.932	89.75
245.166	89.75
245.399	80.75
245.633	65.75
245.866	78.75
246.099	75.75
246.333	76.75
246.566	84.75
246.8	79.75
247.033	64.75
247.266	80.75
247.5	81.75
247.733	82.75
247.966	85.75
248.2	89.75
248.433	83.75
248.666	84.75
248.899	88.75
249.133	92.75
249.366	92.75
249.599	99.75
249.832	72.75
250.066	80.75
250.299	72.75
250.532	91.75
250.765	79.75
250.998	85.75
251.231	77.75
251.465	81.75
251.698	82.75
251.931	80.75
252.164	86.75
252.397	87.75
252.63	95.75
252.863	85.75
253.096	94.75
253.329	79.75
253.562	79.75
253.795	74.75
254.028	76.75
254.261	83.75
254.494	87.75
254.727	88.75
254.96	89.75
255.193	81.75
255.426	72.75
255.659	83.75
255.892	89.75
256.124	81.75
256.357	75.75
256.59	76.75
256.823	77.75
257.056	79.75
257.289	91.75
257.521	83.75
257.754	82.75
257.987	80.75
258.22	87.75
258.452	92.75
258.685	84.75
258.918	81.75
259.151	83.75
259.383	92.75
259.616	80.75
259.849	99.75
260.081	84.75
260.314	92.75
260.547	69.75
260.779	87.75
261.012	84.75
261.244	80.75
261.477	92.75
261.71	103.75
261.942	106.75
262.175	102.75
262.407	91.75
262.64	95.75
262.872	76.75
263.105	81.75
263.337	92.75
263.57	89.75
263.802	86.75
264.035	83.75
264.267	76.75
264.499	94.75
264.732	97.75
264.964	88.75
265.197	83.75
265.429	89.75
265.661	88.75
265.894	86.75
266.126	98.75
266.358	78.75
266.591	78.75
266.823	72.75
267.055	84.75
267.287	85.75
267.52	82.75
267.752	92.75
267.984	94.75
268.216	90.75
268.448	93.75
268.681	87.75
268.913	96.75
269.145	87.75
269.377	95.75
269.609	79.75
269.841	82.75
270.073	99.75
270.306	93.75
270.538	97.75
270.77	71.75
271.002	84.75
271.234	87.75
271.466	89.75
271.698	75.75
271.93	94.75
272.162	85.75
272.394	87.75
272.626	80.75
272.858	77.75
273.09	74.75
273.322	92.75
273.553	98.75
273.785	78.75
274.017	81.75
274.249	100.75
274.481	88.75
274.713	77.75
274.945	98.75
275.176	87.75
275.408	99.75
275.64	82.75
275.872	100.75
276.104	83.75
276.335	87.75
276.567	80.75
276.799	109.75
277.031	113.75
277.262	94.75
277.494	98.75
277.726	83.75
277.957	75.75
278.189	83.75
278.421	84.75
278.652	87.75
278.884	96.75
279.115	84.75
279.347	85.75
279.579	95.75
279.81	80.75
280.042	84.75
280.273	103.75
280.505	88.75
280.736	97.75
280.968	96.75
281.199	95.75
281.431	91.75
281.662	85.75
281.894	93.75
282.125	102.75
282.356	117.75
282.588	143.75
282.819	111.75
283.051	83.75
283.282	97.75
283.513	89.75
283.745	88.75
283.976	103.75
284.207	101.75
284.439	99.75
284.67	87.75
284.901	85.75
285.132	83.75
285.364	79.75
285.595	85.75
285.826	101.75
286.057	91.75
286.288	75.75
286.52	93.75
286.751	88.75
286.982	80.75
287.213	86.75
287.444	79.75
287.675	100.75
287.906	79.75
288.138	100.75
288.369	89.75
288.6	104.75
288.831	100.75
289.062	88.75
289.293	91.75
289.524	94.75
289.755	106.75
289.986	99.75
290.217	94.75
290.448	84.75
290.679	87.75
290.91	79.75
291.141	92.75
291.371	82.75
291.602	98.75
291.833	89.75
292.064	85.75
292.295	103.75
292.526	77.75
292.757	79.75
292.987	94.75
293.218	88.75
293.449	85.75
293.68	112.75
293.91	94.75
294.141	91.75
294.372	96.75
294.603	103.75
294.833	87.75
295.064	92.75
295.295	88.75
295.525	98.75
295.756	97.75
295.987	112.75
296.217	112.75
296.448	106.75
296.679	103.75
296.909	96.75
297.14	85.75
297.37	98.75
297.601	99.75
297.831	84.75
298.062	91.75
298.292	95.75
298.523	92.75
298.753	93.75
298.984	94.75
299.214	100.75
299.445	84.75
299.675	100.75
299.905	112.75
300.136	100.75
300.366	78.75
300.597	74.75
300.827	91.75
301.057	79.75
301.288	111.75
301.518	106.75
301.748	98.75
301.979	100.75
302.209	79.75
302.439	87.75
302.669	98.75
302.9	93.75
303.13	88.75
303.36	89.75
303.59	118.75
303.82	105.75
304.051	105.75
304.281	90.75
304.511	92.75
304.741	84.75
304.971	89.75
305.201	93.75
305.431	98.75
305.661	103.75
305.891	99.75
306.121	115.75
306.352	107.75
306.582	102.75
306.812	88.75
307.042	95.75
307.272	100.75
307.502	101.75
307.731	88.75
307.961	83.75
308.191	93.75
308.421	94.75
308.651	94.75
308.881	86.75
309.111	98.75
309.341	77.75
309.571	101.75
309.8	93.75
310.03	108.75
310.26	91.75
310.49	96.75
310.72	97.75
310.949	99.75
311.179	97.75
311.409	91.75
311.639	87.75
311.868	95.75
312.098	94.75
312.328	103.75
312.557	103.75
312.787	102.75
313.017	83.75
313.246	84.75
313.476	108.75
313.706	97.75
313.935	103.75
314.165	109.75
314.394	92.75
314.624	104.75
314.853	101.75
315.083	102.75
315.312	94.75
315.542	93.75
315.771	95.75
316.001	91.75
316.23	82.75
316.46	100.75
316.689	80.75
316.919	103.75
317.148	102.75
317.377	96.75
317.607	89.75
317.836	95.75
318.065	89.75
318.295	91.75
318.524	83.75
318.753	94.75
318.983	97.75
319.212	89.75
319.441	110.75
319.67	103.75
319.9	94.75
320.129	96.75
320.358	88.75
320.587	98.75
320.816	100.75
321.046	96.75
321.275	96.75
321.504	96.75
321.733	95.75
321.962	107.75
322.191	103.75
322.42	109.75
322.649	120.75
322.878	99.75
323.108	110.75
323.337	121.75
323.566	124.75
323.795	132.75
324.024	188.75
324.253	354.75
324.482	685.75
324.71	1375.75
324.939	1763.75
325.168	670.75
325.397	213.75
325.626	136.75
325.855	124.75
326.084	102.75
326.313	127.75
326.542	144.75
326.77	209.75
326.999	387.75
327.228	758.75
327.457	1389.75
327.686	1086.75
327.914	320.75
328.143	155.75
328.372	141.75
328.6	115.75
328.829	120.75
329.058	104.75
329.287	101.75
329.515	104.75
329.744	103.75
329.972	100.75
330.201	105.75
330.43	112.75
330.658	113.75
330.887	120.75
331.115	112.75
331.344	102.75
331.572	112.75
331.801	97.75
332.03	104.75
332.258	105.75
332.486	101.75
332.715	91.75
332.943	100.75
333.172	102.75
333.4	98.75
333.629	111.75
333.857	104.75
334.085	93.75
334.314	101.75
334.542	120.75
334.771	114.75
334.999	102.75
335.227	110.75
335.455	95.75
335.684	98.75
335.912	96.75
336.14	100.75
336.369	114.75
336.597	93.75
336.825	101.75
337.053	83.75
337.281	101.75
337.51	97.75
337.738	101.75
337.966	115.75
338.194	84.75
338.422	104.75
338.65	103.75
338.878	99.75
339.106	102.75
339.334	99.75
339.562	94.75
339.79	92.75
340.018	90.75
340.246	86.75
340.474	95.75
340.702	91.75
340.93	80.75
341.158	96.75
341.386	97.75
341.614	108.75
341.842	95.75
342.07	99.75
342.298	90.75
342.526	89.75
342.754	90.75
342.981	89.75
343.209	92.75
343.437	99.75
343.665	87.75
343.893	87.75
344.12	109.75
344.348	93.75
344.576	87.75
344.804	101.75
345.031	110.75
345.259	96.75
345.487	99.75
345.714	109.75
345.942	90.75
346.17	101.75
346.397	100.75
346.625	99.75
346.853	98.75
347.08	90.75
347.308	92.75
347.535	91.75
347.763	92.75
347.99	101.75
348.218	109.75
348.445	107.75
348.673	100.75
348.9	116.75
349.128	100.75
349.355	93.75
349.583	101.75
349.81	103.75
350.037	101.75
350.265	99.75
350.492	93.75
350.72	105.75
350.947	110.75
351.174	113.75
351.402	110.75
351.629	104.75
351.856	116.75
352.083	105.75
352.311	114.75
352.538	112.75
352.765	100.75
352.992	127.75
353.22	118.75
353.447	98.75
353.674	109.75
353.901	107.75
354.128	89.75
354.355	101.75
354.583	100.75
354.81	91.75
355.037	94.75
355.264	109.75
355.491	97.75
355.718	98.75
355.945	104.75
356.172	108.75
356.399	104.75
356.626	114.75
356.853	98.75
357.08	97.75
357.307	89.75
357.534	91.75
357.761	99.75
357.988	83.75
358.215	98.75
358.441	91.75
358.668	115.75
358.895	97.75
359.122	86.75
359.349	96.75
359.576	85.75
359.802	100.75
360.029	108.75
360.256	104.75
360.483	100.75
360.709	90.75
360.936	94.75
361.163	93.75
361.39	94.75
361.616	111.75
361.843	93.75
362.07	104.75
362.296	105.75
362.523	85.75
362.749	95.75
362.976	72.75
363.203	91.75
363.429	81.75
363.656	99.75
363.882	91.75
364.109	92.75
364.335	98.75
364.562	90.75
364.788	91.75
365.015	96.75
365.241	92.75
365.468	109.75
365.694	111.75
365.92	88.75
366.147	106.75
366.373	91.75
366.599	94.75
366.826	98.75
367.052	103.75
367.278	97.75
367.505	100.75
367.731	92.75
367.957	76.75
368.184	94.75
368.41	94.75
368.636	111.75
368.862	104.75
369.089	121.75
369.315	110.75
369.541	93.75
369.767	111.75
369.993	100.75
370.219	97.75
370.445	84.75
370.672	99.75
370.898	96.75
371.124	93.75
371.35	94.75
371.576	85.75
371.802	107.75
372.028	90.75
372.254	80.75
372.48	95.75
372.706	82.75
372.932	88.75
373.158	76.75
373.384	111.75
373.61	102.75
373.835	81.75
374.061	89.75
374.287	96.75
374.513	88.75
374.739	84.75
374.965	87.75
375.191	103.75
375.416	102.75
375.642	94.75
375.868	93.75
376.094	95.75
376.319	87.75
376.545	90.75
376.771	98.75
376.997	93.75
377.222	105.75
377.448	98.75
377.674	112.75
377.899	91.75
378.125	86.75
378.35	98.75
378.576	89.75
378.802	99.75
379.027	82.75
379.253	94.75
379.478	95.75
379.704	91.75
379.929	81.75
380.155	85.75
380.38	93.75
380.606	97.75
380.831	87.75
381.057	96.75
381.282	105.75
381.507	94.75
381.733	96.75
381.958	100.75
382.184	101.75
382.409	92.75
382.634	92.75
382.86	88.75
383.085	96.75
383.31	110.75
383.535	108.75
383.761	109.75
383.986	95.75
384.211	102.75
384.436	97.75
384.662	95.75
384.887	96.75
385.112	101.75
385.337	114.75
385.562	95.75
385.787	105.75
386.013	111.75
386.238	119.75
386.463	97.75
386.688	91.75
386.913	94.75
387.138	95.75
387.363	89.75
387.588	95.75
387.813	103.75
388.038	114.75
388.263	122.75
388.488	111.75
388.713	102.75
388.938	102.75
389.163	87.75
389.387	107.75
389.612	95.75
389.837	118.75
390.062	109.75
390.287	100.75
390.512	81.75
390.736	91.75
390.961	100.75
391.186	102.75
391.411	99.75
391.636	102.75
391.86	97.75
392.085	72.75
392.31	90.75
392.534	100.75
392.759	77.75
392.984	85.75
393.208	94.75
393.433	79.75
393.658	99.75
393.882	101.75
394.107	100.75
394.331	85.75
394.556	83.75
394.78	93.75
395.005	79.75
395.229	94.75
395.454	88.75
395.678	100.75
395.903	95.75
396.127	88.75
396.352	99.75
396.576	86.75
396.801	95.75
397.025	94.75
397.249	103.75
397.474	96.75
397.698	92.75
397.922	98.75
398.147	83.75
398.371	88.75
398.595	86.75
398.82	83.75
399.044	79.75
399.268	98.75
399.492	90.75
399.717	104.75
399.941	95.75
400.165	88.75
400.389	111.75
400.613	96.75
400.837	84.75
401.062	92.75
401.286	89.75
401.51	90.75
401.734	98.75
401.958	109.75
402.182	118.75
402.406	142.75
402.63	115.75
402.854	94.75
403.078	95.75
403.302	99.75
403.526	100.75
403.75	90.75
403.974	88.75
404.198	78.75
404.422	99.75
404.645	93.75
404.869	86.75
405.093	100.75
405.317	88.75
405.541	95.75
405.765	91.75
405.988	115.75
406.212	164.75
406.436	203.75
406.66	140.75
406.883	103.75
407.107	98.75
407.331	91.75
407.555	89.75
407.778	111.75
408.002	96.75
408.226	92.75
408.449	100.75
408.673	91.75
408.896	97.75
409.12	95.75
409.344	100.75
409.567	101.75
409.791	95.75
410.014	98.75
410.238	108.75
410.461	88.75
410.685	111.75
410.908	107.75
411.132	109.75
411.355	105.75
411.578	102.75
411.802	101.75
412.025	92.75
412.249	90.75
412.472	97.75
412.695	100.75
412.919	100.75
413.142	94.75
413.365	86.75
413.589	89.75
413.812	83.75
414.035	93.75
414.258	97.75
414.482	101.75
414.705	97.75
414.928	86.75
415.151	110.75
415.374	87.75
415.597	105.75
415.821	88.75
416.044	110.75
416.267	91.75
416.49	81.75
416.713	86.75
416.936	104.75
417.159	99.75
417.382	78.75
417.605	96.75
417.828	92.75
418.051	91.75
418.274	98.75
418.497	95.75
418.72	103.75
418.943	95.75
419.166	85.75
419.389	78.75
419.611	103.75
419.834	81.75
420.057	90.75
420.28	87.75
420.503	95.75
420.726	87.75
420.948	95.75
421.171	87.75
421.394	92.75
421.617	93.75
421.839	93.75
422.062	95.75
422.285	91.75
422.507	88.75
422.73	103.75
422.953	83.75
423.175	98.75
423.398	85.75
423.621	80.75
423.843	96.75
424.066	92.75
424.288	105.75
424.511	92.75
424.733	101.75
424.956	100.75
425.178	110.75
425.401	103.75
425.623	97.75
425.846	88.75
426.068	101.75
426.291	94.75
426.513	109.75
426.735	99.75
426.958	86.75
427.18	109.75
427.402	120.75
427.625	158.75
427.847	125.75
428.069	98.75
428.292	97.75
428.514	85.75
428.736	95.75
428.958	101.75
429.181	89.75
429.403	89.75
429.625	92.75
429.847	106.75
430.069	99.75
430.292	88.75
430.514	103.75
430.736	87.75
430.958	94.75
431.18	85.75
431.402	81.75
431.624	95.75
431.846	95.75
432.068	88.75
432.29	102.75
432.512	103.75
432.734	82.75
432.956	107.75
433.178	105.75
433.4	88.75
433.622	85.75
433.844	95.75
434.066	103.75
434.287	91.75
434.509	88.75
434.731	100.75
434.953	97.75
435.175	91.75
435.397	87.75
435.618	82.75
435.84	89.75
436.062	112.75
436.284	119.75
436.505	119.75
436.727	100.75
436.949	111.75
437.17	104.75
437.392	96.75
437.614	93.75
437.835	89.75
438.057	119.75
438.278	105.75
438.5	91.75
438.721	115.75
438.943	100.75
439.165	96.75
439.386	101.75
439.608	98.75
439.829	103.75
440.05	115.75
440.272	134.75
440.493	92.75
440.715	98.75
440.936	96.75
441.158	97.75
441.379	88.75
441.6	89.75
441.822	97.75
442.043	91.75
442.264	85.75
442.486	94.75
442.707	115.75
442.928	92.75
443.149	115.75
443.371	105.75
443.592	103.75
443.813	101.75
444.034	110.75
444.255	107.75
444.476	95.75
444.698	84.75
444.919	91.75
445.14	145.75
445.361	123.75
445.582	104.75
445.803	134.75
446.024	112.75
446.245	120.75
446.466	112.75
446.687	85.75
446.908	91.75
447.129	87.75
447.35	97.75
447.571	85.75
447.792	104.75
448.013	101.75
448.234	106.75
448.455	99.75
448.675	97.75
448.896	116.75
449.117	98.75
449.338	97.75
449.559	121.75
449.779	127.75
450	94.75
450.221	81.75
450.442	100.75
450.662	79.75
450.883	109.75
451.104	102.75
451.324	105.75
451.545	95.75
451.766	99.75
451.986	105.75
452.207	96.75
452.428	94.75
452.648	83.75
452.869	88.75
453.089	116.75
453.31	117.75
453.53	97.75
453.751	89.75
453.971	105.75
454.192	103.75
454.412	113.75
454.633	91.75
454.853	91.75
455.073	89.75
455.294	85.75
455.514	95.75
455.734	85.75
455.955	95.75
456.175	87.75
456.395	82.75
456.616	79.75
456.836	79.75
457.056	90.75
457.276	95.75
457.497	71.75
457.717	93.75
457.937	101.75
458.157	88.75
458.377	68.75
458.598	103.75
458.818	130.75
459.038	155.75
459.258	112.75
459.478	79.75
459.698	75.75
459.918	98.75
460.138	93.75
460.358	105.75
460.578	98.75
460.798	86.75
461.018	93.75
461.238	71.75
461.458	105.75
461.678	102.75
461.898	99.75
462.118	81.75
462.338	86.75
462.558	92.75
462.777	99.75
462.997	97.75
463.217	83.75
463.437	94.75
463.657	91.75
463.876	105.75
464.096	98.75
464.316	98.75
464.536	99.75
464.755	101.75
464.975	104.75
465.195	142.75
465.414	159.75
465.634	108.75
465.854	97.75
466.073	93.75
466.293	100.75
466.512	104.75
466.732	85.75
466.951	85.75
467.171	92.75
467.391	103.75
467.61	103.75
467.829	99.75
468.049	107.75
468.268	90.75
468.488	97.75
468.707	89.75
468.927	78.75
469.146	77.75
469.365	85.75
469.585	95.75
469.804	96.75
470.023	98.75
470.243	92.75
470.462	87.75
470.681	100.75
470.901	96.75
471.12	97.75
471.339	99.75
471.558	89.75
471.777	93.75
471.997	89.75
472.216	86.75
472.435	95.75
472.654	96.75
472.873	95.75
473.092	82.75
473.311	93.75
473.53	83.75
473.749	73.75
473.968	91.75
474.187	102.75
474.406	97.75
474.625	87.75
474.844	94.75
475.063	93.75
475.282	98.75
475.501	97.75
475.72	100.75
475.939	97.75
476.158	95.75
476.377	73.75
476.596	100.75
476.814	99.75
477.033	92.75
477.252	100.75
477.471	91.75
477.69	91.75
477.908	99.75
478.127	97.75
478.346	86.75
478.564	79.75
478.783	100.75
479.002	98.75
479.22	89.75
479.439	96.75
479.658	98.75
479.876	89.75
480.095	93.75
480.313	87.75
480.532	93.75
480.751	100.75
480.969	77.75
481.188	117.75
481.406	113.75
481.624	92.75
481.843	94.75
482.061	93.75
482.28	94.75
482.498	88.75
482.717	84.75
482.935	95.75
483.153	91.75
483.372	103.75
483.59	85.75
483.808	98.75
484.027	100.75
484.245	93.75
484.463	90.75
484.681	106.75
484.9	94.75
485.118	91.75
485.336	90.75
485.554	103.75
485.772	102.75
485.99	107.75
486.209	102.75
486.427	105.75
486.645	106.75
486.863	116.75
487.081	107.75
487.299	98.75
487.517	94.75
487.735	93.75
487.953	83.75
488.171	96.75
488.389	97.75
488.607	100.75
488.825	101.75
489.043	86.75
489.261	97.75
489.479	92.75
489.696	95.75
489.914	92.75
490.132	93.75
490.35	78.75
490.568	84.75
490.786	99.75
491.003	91.75
491.221	95.75
491.439	104.75
491.657	105.75
491.874	108.75
492.092	99.75
492.31	85.75
492.527	113.75
492.745	92.75
492.963	99.75
493.18	99.75
493.398	89.75
493.615	97.75
493.833	108.75
494.05	97.75
494.268	107.75
494.485	99.75
494.703	84.75
494.92	103.75
495.138	91.75
495.355	86.75
495.573	87.75
495.79	111.75
496.008	92.75
496.225	94.75
496.442	106.75
496.66	89.75
496.877	87.75
497.094	97.75
497.312	88.75
497.529	89.75
497.746	89.75
497.963	91.75
498.181	102.75
498.398	107.75
498.615	114.75
498.832	107.75
499.049	93.75
499.267	91.75
499.484	100.75
499.701	92.75
499.918	107.75
500.135	103.75
500.352	81.75
500.569	98.75
500.786	79.75
501.003	77.75
501.22	87.75
501.437	94.75
501.654	104.75
501.871	108.75
502.088	98.75
502.305	94.75
502.522	105.75
502.739	81.75
502.956	85.75
503.172	93.75
503.389	93.75
503.606	106.75
503.823	111.75
504.04	112.75
504.256	89.75
504.473	102.75
504.69	95.75
504.907	105.75
505.123	94.75
505.34	94.75
505.557	98.75
505.773	104.75
505.99	81.75
506.207	94.75
506.423	89.75
506.64	85.75
506.856	93.75
507.073	92.75
507.289	96.75
507.506	105.75
507.722	100.75
507.939	113.75
508.155	110.75
508.372	87.75
508.588	77.75
508.805	91.75
509.021	108.75
509.238	88.75
509.454	104.75
509.67	102.75
509.887	113.75
510.103	130.75
510.319	208.75
510.536	726.75
510.752	2180.75
510.968	610.75
511.184	165.75
511.401	97.75
511.617	98.75
511.833	100.75
512.049	76.75
512.265	99.75
512.481	85.75
512.698	103.75
512.914	84.75
513.13	100.75
513.346	115.75
513.562	105.75
513.778	102.75
513.994	98.75
514.21	107.75
