Data from Uncirc_1993_H10_HRD10591_00027.txt Node
Date: Wed Jan 03 11:42:57 EST 2024
User: Yrep
Spectrometer: HR+D1059
Trigger mode: 1
Integration Time (sec): 1.000000E-1
Scans to average: 1
Electric dark correction enabled: true
Nonlinearity correction enabled: false
Boxcar width: 0
XAxis mode: Wavelengths
Number of Pixels in Spectrum: 2048
>>>>>Begin Spectral Data<<<<<
223.165	-11.44
223.4	-11.44
223.635	-11.44
223.869	-4.44
224.104	-22.44
224.338	-25.44
224.573	-14.44
224.808	-13.44
225.042	-18.44
225.277	-16.44
225.511	-0.44
225.746	1.56
225.98	0.56
226.215	13.56
226.449	8.56
226.683	39.56
226.918	29.56
227.152	33.56
227.387	46.56
227.621	34.56
227.856	35.56
228.09	53.56
228.324	45.56
228.559	49.56
228.793	61.56
229.027	63.56
229.262	77.56
229.496	69.56
229.73	73.56
229.964	75.56
230.199	68.56
230.433	78.56
230.667	69.56
230.901	84.56
231.136	85.56
231.37	71.56
231.604	72.56
231.838	78.56
232.072	70.56
232.306	63.56
232.541	65.56
232.775	76.56
233.009	78.56
233.243	64.56
233.477	64.56
233.711	84.56
233.945	72.56
234.179	65.56
234.413	74.56
234.647	74.56
234.881	72.56
235.115	69.56
235.349	77.56
235.583	70.56
235.817	73.56
236.051	71.56
236.285	74.56
236.519	72.56
236.753	70.56
236.987	63.56
237.221	70.56
237.455	76.56
237.689	77.56
237.922	66.56
238.156	78.56
238.39	77.56
238.624	77.56
238.858	73.56
239.091	72.56
239.325	72.56
239.559	65.56
239.793	74.56
240.027	76.56
240.26	73.56
240.494	72.56
240.728	71.56
240.961	68.56
241.195	89.56
241.429	74.56
241.662	61.56
241.896	68.56
242.13	74.56
242.363	69.56
242.597	63.56
242.83	64.56
243.064	65.56
243.298	71.56
243.531	76.56
243.765	74.56
243.998	72.56
244.232	80.56
244.465	74.56
244.699	69.56
244.932	73.56
245.166	76.56
245.399	62.56
245.633	77.56
245.866	82.56
246.099	76.56
246.333	74.56
246.566	68.56
246.8	71.56
247.033	71.56
247.266	77.56
247.5	56.56
247.733	76.56
247.966	76.56
248.2	74.56
248.433	68.56
248.666	69.56
248.899	71.56
249.133	73.56
249.366	76.56
249.599	97.56
249.832	72.56
250.066	78.56
250.299	74.56
250.532	69.56
250.765	83.56
250.998	82.56
251.231	72.56
251.465	79.56
251.698	73.56
251.931	71.56
252.164	90.56
252.397	85.56
252.63	91.56
252.863	87.56
253.096	65.56
253.329	68.56
253.562	78.56
253.795	60.56
254.028	80.56
254.261	73.56
254.494	86.56
254.727	71.56
254.96	66.56
255.193	77.56
255.426	78.56
255.659	71.56
255.892	88.56
256.124	79.56
256.357	87.56
256.59	80.56
256.823	72.56
257.056	68.56
257.289	90.56
257.521	83.56
257.754	84.56
257.987	80.56
258.22	65.56
258.452	77.56
258.685	77.56
258.918	78.56
259.151	71.56
259.383	89.56
259.616	76.56
259.849	75.56
260.081	73.56
260.314	58.56
260.547	77.56
260.779	80.56
261.012	85.56
261.244	60.56
261.477	81.56
261.71	74.56
261.942	101.56
262.175	93.56
262.407	76.56
262.64	65.56
262.872	73.56
263.105	86.56
263.337	86.56
263.57	79.56
263.802	77.56
264.035	70.56
264.267	86.56
264.499	80.56
264.732	77.56
264.964	75.56
265.197	81.56
265.429	81.56
265.661	78.56
265.894	88.56
266.126	80.56
266.358	80.56
266.591	76.56
266.823	88.56
267.055	79.56
267.287	70.56
267.52	78.56
267.752	72.56
267.984	74.56
268.216	78.56
268.448	78.56
268.681	74.56
268.913	80.56
269.145	88.56
269.377	93.56
269.609	73.56
269.841	98.56
270.073	86.56
270.306	75.56
270.538	83.56
270.77	78.56
271.002	79.56
271.234	74.56
271.466	87.56
271.698	72.56
271.93	80.56
272.162	71.56
272.394	89.56
272.626	86.56
272.858	81.56
273.09	84.56
273.322	64.56
273.553	75.56
273.785	89.56
274.017	80.56
274.249	81.56
274.481	85.56
274.713	81.56
274.945	82.56
275.176	93.56
275.408	77.56
275.64	87.56
275.872	72.56
276.104	81.56
276.335	100.56
276.567	98.56
276.799	76.56
277.031	80.56
277.262	85.56
277.494	89.56
277.726	84.56
277.957	79.56
278.189	75.56
278.421	82.56
278.652	88.56
278.884	84.56
279.115	76.56
279.347	84.56
279.579	68.56
279.81	87.56
280.042	76.56
280.273	71.56
280.505	76.56
280.736	91.56
280.968	63.56
281.199	92.56
281.431	88.56
281.662	68.56
281.894	87.56
282.125	94.56
282.356	96.56
282.588	118.56
282.819	116.56
283.051	92.56
283.282	77.56
283.513	81.56
283.745	93.56
283.976	85.56
284.207	74.56
284.439	79.56
284.67	91.56
284.901	82.56
285.132	85.56
285.364	77.56
285.595	92.56
285.826	88.56
286.057	86.56
286.288	79.56
286.52	86.56
286.751	83.56
286.982	88.56
287.213	86.56
287.444	90.56
287.675	84.56
287.906	90.56
288.138	82.56
288.369	79.56
288.6	77.56
288.831	91.56
289.062	84.56
289.293	73.56
289.524	63.56
289.755	60.56
289.986	66.56
290.217	84.56
290.448	82.56
290.679	94.56
290.91	80.56
291.141	83.56
291.371	86.56
291.602	81.56
291.833	78.56
292.064	80.56
292.295	77.56
292.526	89.56
292.757	88.56
292.987	93.56
293.218	92.56
293.449	83.56
293.68	75.56
293.91	90.56
294.141	88.56
294.372	96.56
294.603	91.56
294.833	89.56
295.064	94.56
295.295	94.56
295.525	76.56
295.756	101.56
295.987	111.56
296.217	119.56
296.448	102.56
296.679	84.56
296.909	86.56
297.14	87.56
297.37	74.56
297.601	88.56
297.831	71.56
298.062	81.56
298.292	95.56
298.523	92.56
298.753	91.56
298.984	89.56
299.214	89.56
299.445	81.56
299.675	87.56
299.905	96.56
300.136	79.56
300.366	80.56
300.597	90.56
300.827	76.56
301.057	97.56
301.288	86.56
301.518	78.56
301.748	89.56
301.979	98.56
302.209	93.56
302.439	84.56
302.669	91.56
302.9	85.56
303.13	96.56
303.36	89.56
303.59	84.56
303.82	97.56
304.051	85.56
304.281	99.56
304.511	88.56
304.741	82.56
304.971	77.56
305.201	88.56
305.431	86.56
305.661	84.56
305.891	79.56
306.121	95.56
306.352	110.56
306.582	84.56
306.812	90.56
307.042	82.56
307.272	91.56
307.502	85.56
307.731	86.56
307.961	95.56
308.191	73.56
308.421	85.56
308.651	80.56
308.881	90.56
309.111	95.56
309.341	89.56
309.571	93.56
309.8	95.56
310.03	93.56
310.26	91.56
310.49	97.56
310.72	103.56
310.949	102.56
311.179	95.56
311.409	90.56
311.639	82.56
311.868	95.56
312.098	83.56
312.328	94.56
312.557	82.56
312.787	95.56
313.017	96.56
313.246	96.56
313.476	93.56
313.706	95.56
313.935	98.56
314.165	97.56
314.394	101.56
314.624	84.56
314.853	72.56
315.083	89.56
315.312	96.56
315.542	88.56
315.771	90.56
316.001	74.56
316.23	77.56
316.46	86.56
316.689	78.56
316.919	83.56
317.148	78.56
317.377	82.56
317.607	79.56
317.836	96.56
318.065	77.56
318.295	86.56
318.524	77.56
318.753	86.56
318.983	84.56
319.212	113.56
319.441	96.56
319.67	90.56
319.9	89.56
320.129	95.56
320.358	79.56
320.587	98.56
320.816	108.56
321.046	96.56
321.275	95.56
321.504	84.56
321.733	89.56
321.962	95.56
322.191	87.56
322.42	88.56
322.649	86.56
322.878	108.56
323.108	89.56
323.337	114.56
323.566	114.56
323.795	133.56
324.024	187.56
324.253	315.56
324.482	626.56
324.71	1220.56
324.939	1597.56
325.168	592.56
325.397	191.56
325.626	125.56
325.855	117.56
326.084	109.56
326.313	96.56
326.542	130.56
326.77	178.56
326.999	367.56
327.228	712.56
327.457	1233.56
327.686	953.56
327.914	281.56
328.143	161.56
328.372	137.56
328.6	116.56
328.829	99.56
329.058	114.56
329.287	114.56
329.515	88.56
329.744	104.56
329.972	101.56
330.201	101.56
330.43	99.56
330.658	95.56
330.887	122.56
331.115	104.56
331.344	91.56
331.572	101.56
331.801	104.56
332.03	88.56
332.258	81.56
332.486	103.56
332.715	95.56
332.943	80.56
333.172	93.56
333.4	93.56
333.629	99.56
333.857	93.56
334.085	95.56
334.314	85.56
334.542	99.56
334.771	88.56
334.999	97.56
335.227	94.56
335.455	92.56
335.684	96.56
335.912	89.56
336.14	92.56
336.369	74.56
336.597	90.56
336.825	86.56
337.053	82.56
337.281	97.56
337.51	83.56
337.738	78.56
337.966	90.56
338.194	73.56
338.422	82.56
338.65	105.56
338.878	91.56
339.106	82.56
339.334	85.56
339.562	91.56
339.79	65.56
340.018	102.56
340.246	87.56
340.474	78.56
340.702	98.56
340.93	78.56
341.158	78.56
341.386	86.56
341.614	89.56
341.842	102.56
342.07	65.56
342.298	95.56
342.526	83.56
342.754	86.56
342.981	93.56
343.209	86.56
343.437	96.56
343.665	81.56
343.893	91.56
344.12	88.56
344.348	92.56
344.576	93.56
344.804	92.56
345.031	90.56
345.259	94.56
345.487	84.56
345.714	81.56
345.942	88.56
346.17	90.56
346.397	89.56
346.625	74.56
346.853	90.56
347.08	80.56
347.308	90.56
347.535	88.56
347.763	89.56
347.99	86.56
348.218	87.56
348.445	89.56
348.673	109.56
348.9	96.56
349.128	87.56
349.355	79.56
349.583	68.56
349.81	101.56
350.037	91.56
350.265	96.56
350.492	104.56
350.72	96.56
350.947	97.56
351.174	95.56
351.402	97.56
351.629	92.56
351.856	89.56
352.083	97.56
352.311	110.56
352.538	88.56
352.765	113.56
352.992	112.56
353.22	104.56
353.447	112.56
353.674	87.56
353.901	99.56
354.128	88.56
354.355	84.56
354.583	104.56
354.81	84.56
355.037	86.56
355.264	102.56
355.491	90.56
355.718	83.56
355.945	93.56
356.172	97.56
356.399	88.56
356.626	86.56
356.853	80.56
357.08	89.56
357.307	85.56
357.534	91.56
357.761	92.56
357.988	106.56
358.215	103.56
358.441	104.56
358.668	97.56
358.895	93.56
359.122	100.56
359.349	77.56
359.576	92.56
359.802	94.56
360.029	96.56
360.256	101.56
360.483	86.56
360.709	77.56
360.936	89.56
361.163	91.56
361.39	101.56
361.616	98.56
361.843	71.56
362.07	102.56
362.296	92.56
362.523	91.56
362.749	89.56
362.976	87.56
363.203	102.56
363.429	80.56
363.656	89.56
363.882	88.56
364.109	97.56
364.335	98.56
364.562	95.56
364.788	94.56
365.015	87.56
365.241	98.56
365.468	88.56
365.694	89.56
365.92	101.56
366.147	86.56
366.373	93.56
366.599	98.56
366.826	70.56
367.052	98.56
367.278	89.56
367.505	77.56
367.731	84.56
367.957	63.56
368.184	97.56
368.41	95.56
368.636	117.56
368.862	105.56
369.089	109.56
369.315	82.56
369.541	90.56
369.767	78.56
369.993	95.56
370.219	78.56
370.445	89.56
370.672	68.56
370.898	93.56
371.124	76.56
371.35	75.56
371.576	72.56
371.802	79.56
372.028	64.56
372.254	108.56
372.48	81.56
372.706	82.56
372.932	78.56
373.158	78.56
373.384	86.56
373.61	96.56
373.835	86.56
374.061	103.56
374.287	86.56
374.513	84.56
374.739	91.56
374.965	95.56
375.191	94.56
375.416	106.56
375.642	84.56
375.868	78.56
376.094	82.56
376.319	89.56
376.545	90.56
376.771	84.56
376.997	85.56
377.222	65.56
377.448	88.56
377.674	72.56
377.899	97.56
378.125	94.56
378.35	81.56
378.576	74.56
378.802	74.56
379.027	82.56
379.253	79.56
379.478	93.56
379.704	77.56
379.929	85.56
380.155	82.56
380.38	92.56
380.606	102.56
380.831	96.56
381.057	75.56
381.282	78.56
381.507	99.56
381.733	82.56
381.958	88.56
382.184	79.56
382.409	90.56
382.634	85.56
382.86	93.56
383.085	107.56
383.31	102.56
383.535	91.56
383.761	91.56
383.986	89.56
384.211	82.56
384.436	96.56
384.662	98.56
384.887	104.56
385.112	93.56
385.337	99.56
385.562	91.56
385.787	98.56
386.013	104.56
386.238	106.56
386.463	97.56
386.688	94.56
386.913	98.56
387.138	82.56
387.363	85.56
387.588	89.56
387.813	97.56
388.038	96.56
388.263	94.56
388.488	87.56
388.713	87.56
388.938	97.56
389.163	79.56
389.387	89.56
389.612	77.56
389.837	86.56
390.062	85.56
390.287	90.56
390.512	78.56
390.736	92.56
390.961	78.56
391.186	98.56
391.411	80.56
391.636	77.56
391.86	84.56
392.085	87.56
392.31	81.56
392.534	81.56
392.759	85.56
392.984	86.56
393.208	92.56
393.433	73.56
393.658	87.56
393.882	84.56
394.107	78.56
394.331	90.56
394.556	84.56
394.78	94.56
395.005	89.56
395.229	78.56
395.454	76.56
395.678	87.56
395.903	92.56
396.127	89.56
396.352	78.56
396.576	80.56
396.801	79.56
397.025	56.56
397.249	80.56
397.474	75.56
397.698	79.56
397.922	86.56
398.147	91.56
398.371	75.56
398.595	91.56
398.82	96.56
399.044	73.56
399.268	94.56
399.492	94.56
399.717	88.56
399.941	83.56
400.165	87.56
400.389	94.56
400.613	92.56
400.837	86.56
401.062	73.56
401.286	69.56
401.51	86.56
401.734	88.56
401.958	98.56
402.182	125.56
402.406	130.56
402.63	103.56
402.854	74.56
403.078	96.56
403.302	84.56
403.526	76.56
403.75	78.56
403.974	82.56
404.198	87.56
404.422	71.56
404.645	84.56
404.869	88.56
405.093	85.56
405.317	83.56
405.541	102.56
405.765	92.56
405.988	100.56
406.212	150.56
406.436	175.56
406.66	134.56
406.883	89.56
407.107	86.56
407.331	92.56
407.555	89.56
407.778	94.56
408.002	84.56
408.226	89.56
408.449	84.56
408.673	83.56
408.896	88.56
409.12	97.56
409.344	99.56
409.567	86.56
409.791	82.56
410.014	92.56
410.238	87.56
410.461	84.56
410.685	90.56
410.908	78.56
411.132	97.56
411.355	83.56
411.578	92.56
411.802	84.56
412.025	78.56
412.249	83.56
412.472	89.56
412.695	87.56
412.919	76.56
413.142	86.56
413.365	85.56
413.589	81.56
413.812	76.56
414.035	75.56
414.258	93.56
414.482	90.56
414.705	90.56
414.928	82.56
415.151	101.56
415.374	93.56
415.597	84.56
415.821	78.56
416.044	72.56
416.267	87.56
416.49	87.56
416.713	75.56
416.936	82.56
417.159	86.56
417.382	79.56
417.605	81.56
417.828	79.56
418.051	87.56
418.274	83.56
418.497	88.56
418.72	77.56
418.943	84.56
419.166	84.56
419.389	87.56
419.611	76.56
419.834	80.56
420.057	87.56
420.28	89.56
420.503	71.56
420.726	73.56
420.948	84.56
421.171	84.56
421.394	92.56
421.617	82.56
421.839	80.56
422.062	84.56
422.285	87.56
422.507	84.56
422.73	96.56
422.953	86.56
423.175	86.56
423.398	78.56
423.621	79.56
423.843	80.56
424.066	81.56
424.288	87.56
424.511	95.56
424.733	89.56
424.956	93.56
425.178	96.56
425.401	96.56
425.623	85.56
425.846	95.56
426.068	76.56
426.291	81.56
426.513	79.56
426.735	74.56
426.958	83.56
427.18	91.56
427.402	118.56
427.625	131.56
427.847	113.56
428.069	87.56
428.292	84.56
428.514	82.56
428.736	68.56
428.958	96.56
429.181	77.56
429.403	73.56
429.625	82.56
429.847	77.56
430.069	84.56
430.292	78.56
430.514	80.56
430.736	89.56
430.958	82.56
431.18	82.56
431.402	88.56
431.624	77.56
431.846	89.56
432.068	90.56
432.29	81.56
432.512	81.56
432.734	75.56
432.956	95.56
433.178	88.56
433.4	96.56
433.622	85.56
433.844	83.56
434.066	86.56
434.287	92.56
434.509	79.56
434.731	72.56
434.953	89.56
435.175	83.56
435.397	88.56
435.618	71.56
435.84	81.56
436.062	107.56
436.284	103.56
436.505	84.56
436.727	102.56
436.949	89.56
437.17	88.56
437.392	91.56
437.614	82.56
437.835	104.56
438.057	109.56
438.278	86.56
438.5	99.56
438.721	117.56
438.943	104.56
439.165	93.56
439.386	80.56
439.608	73.56
439.829	80.56
440.05	108.56
440.272	117.56
440.493	93.56
440.715	93.56
440.936	76.56
441.158	62.56
441.379	79.56
441.6	88.56
441.822	84.56
442.043	76.56
442.264	79.56
442.486	86.56
442.707	89.56
442.928	102.56
443.149	98.56
443.371	109.56
443.592	93.56
443.813	95.56
444.034	94.56
444.255	90.56
444.476	82.56
444.698	78.56
444.919	92.56
445.14	120.56
445.361	112.56
445.582	109.56
445.803	98.56
446.024	109.56
446.245	104.56
446.466	104.56
446.687	72.56
446.908	80.56
447.129	74.56
447.35	88.56
447.571	92.56
447.792	74.56
448.013	108.56
448.234	98.56
448.455	82.56
448.675	116.56
448.896	108.56
449.117	93.56
449.338	89.56
449.559	111.56
449.779	108.56
450	98.56
450.221	91.56
450.442	95.56
450.662	104.56
450.883	88.56
451.104	85.56
451.324	81.56
451.545	70.56
451.766	79.56
451.986	81.56
452.207	86.56
452.428	72.56
452.648	95.56
452.869	110.56
453.089	102.56
453.31	81.56
453.53	75.56
453.751	91.56
453.971	99.56
454.192	97.56
454.412	72.56
454.633	74.56
454.853	85.56
455.073	95.56
455.294	87.56
455.514	76.56
455.734	80.56
455.955	72.56
456.175	73.56
456.395	88.56
456.616	84.56
456.836	69.56
457.056	84.56
457.276	76.56
457.497	77.56
457.717	96.56
457.937	93.56
458.157	80.56
458.377	92.56
458.598	87.56
458.818	110.56
459.038	134.56
459.258	111.56
459.478	82.56
459.698	83.56
459.918	91.56
460.138	74.56
460.358	75.56
460.578	95.56
460.798	84.56
461.018	77.56
461.238	90.56
461.458	98.56
461.678	72.56
461.898	68.56
462.118	81.56
462.338	72.56
462.558	79.56
462.777	85.56
462.997	74.56
463.217	79.56
463.437	82.56
463.657	66.56
463.876	84.56
464.096	77.56
464.316	98.56
464.536	93.56
464.755	84.56
464.975	92.56
465.195	111.56
465.414	113.56
465.634	96.56
465.854	85.56
466.073	95.56
466.293	68.56
466.512	79.56
466.732	80.56
466.951	78.56
467.171	91.56
467.391	97.56
467.61	93.56
467.829	90.56
468.049	74.56
468.268	94.56
468.488	85.56
468.707	89.56
468.927	102.56
469.146	68.56
469.365	77.56
469.585	84.56
469.804	89.56
470.023	76.56
470.243	99.56
470.462	92.56
470.681	113.56
470.901	84.56
471.12	88.56
471.339	87.56
471.558	75.56
471.777	68.56
471.997	89.56
472.216	92.56
472.435	97.56
472.654	82.56
472.873	80.56
473.092	71.56
473.311	65.56
473.53	82.56
473.749	78.56
473.968	76.56
474.187	85.56
474.406	70.56
474.625	71.56
474.844	82.56
475.063	84.56
475.282	73.56
475.501	73.56
475.72	90.56
475.939	96.56
476.158	100.56
476.377	88.56
476.596	77.56
476.814	97.56
477.033	90.56
477.252	80.56
477.471	86.56
477.69	92.56
477.908	89.56
478.127	82.56
478.346	91.56
478.564	92.56
478.783	105.56
479.002	86.56
479.22	85.56
479.439	95.56
479.658	86.56
479.876	90.56
480.095	98.56
480.313	91.56
480.532	79.56
480.751	77.56
480.969	76.56
481.188	90.56
481.406	87.56
481.624	84.56
481.843	76.56
482.061	73.56
482.28	82.56
482.498	80.56
482.717	79.56
482.935	85.56
483.153	91.56
483.372	88.56
483.59	94.56
483.808	102.56
484.027	84.56
484.245	89.56
484.463	89.56
484.681	76.56
484.9	88.56
485.118	87.56
485.336	80.56
485.554	88.56
485.772	101.56
485.99	92.56
486.209	92.56
486.427	95.56
486.645	95.56
486.863	109.56
487.081	107.56
487.299	98.56
487.517	98.56
487.735	73.56
487.953	81.56
488.171	97.56
488.389	102.56
488.607	94.56
488.825	100.56
489.043	79.56
489.261	95.56
489.479	87.56
489.696	86.56
489.914	95.56
490.132	85.56
490.35	80.56
490.568	76.56
490.786	94.56
491.003	98.56
491.221	87.56
491.439	73.56
491.657	87.56
491.874	85.56
492.092	93.56
492.31	86.56
492.527	73.56
492.745	80.56
492.963	86.56
493.18	82.56
493.398	93.56
493.615	82.56
493.833	88.56
494.05	88.56
494.268	84.56
494.485	77.56
494.703	84.56
494.92	95.56
495.138	84.56
495.355	86.56
495.573	85.56
495.79	98.56
496.008	94.56
496.225	108.56
496.442	84.56
496.66	88.56
496.877	83.56
497.094	81.56
497.312	78.56
497.529	88.56
497.746	88.56
497.963	68.56
498.181	96.56
498.398	88.56
498.615	109.56
498.832	98.56
499.049	92.56
499.267	86.56
499.484	77.56
499.701	75.56
499.918	88.56
500.135	82.56
500.352	86.56
500.569	98.56
500.786	86.56
501.003	86.56
501.22	88.56
501.437	81.56
501.654	78.56
501.871	98.56
502.088	88.56
502.305	76.56
502.522	86.56
502.739	84.56
502.956	95.56
503.172	87.56
503.389	89.56
503.606	90.56
503.823	96.56
504.04	98.56
504.256	88.56
504.473	95.56
504.69	81.56
504.907	93.56
505.123	91.56
505.34	93.56
505.557	81.56
505.773	80.56
505.99	86.56
506.207	94.56
506.423	89.56
506.64	83.56
506.856	90.56
507.073	97.56
507.289	79.56
507.506	86.56
507.722	104.56
507.939	92.56
508.155	84.56
508.372	93.56
508.588	84.56
508.805	84.56
509.021	94.56
509.238	89.56
509.454	77.56
509.67	104.56
509.887	108.56
510.103	130.56
510.319	187.56
510.536	655.56
510.752	1903.56
510.968	512.56
511.184	143.56
511.401	110.56
511.617	84.56
511.833	96.56
512.049	75.56
512.265	93.56
512.481	88.56
512.698	77.56
512.914	81.56
513.13	92.56
513.346	85.56
513.562	83.56
513.778	96.56
513.994	90.56
514.21	91.56
514.426	101.56
514.642	119.56
514.858	120.56
515.074	138.56
515.29	374.56
515.506	1116.56
515.721	425.56
515.937	131.56
516.153	102.56
516.369	92.56
516.585	96.56
516.801	79.56
517.016	94.56
517.232	85.56
517.448	87.56
517.664	93.56
517.879	88.56
