Data from Uncirc_1993_H10_HRD10591_00003.txt Node
Date: Wed Jan 03 11:42:52 EST 2024
User: Yrep
Spectrometer: HR+D1059
Trigger mode: 1
Integration Time (sec): 1.000000E-1
Scans to average: 1
Electric dark correction enabled: true
Nonlinearity correction enabled: false
Boxcar width: 0
XAxis mode: Wavelengths
Number of Pixels in Spectrum: 2048
>>>>>Begin Spectral Data<<<<<
223.165	-18.62
223.4	-18.62
223.635	-18.62
223.869	-11.62
224.104	-12.62
224.338	-21.62
224.573	-5.62
224.808	-13.62
225.042	-28.62
225.277	-0.62
225.511	-6.62
225.746	9.38
225.98	10.38
226.215	21.38
226.449	12.38
226.683	19.38
226.918	16.38
227.152	30.38
227.387	31.38
227.621	42.38
227.856	56.38
228.09	45.38
228.324	49.38
228.559	69.38
228.793	67.38
229.027	66.38
229.262	86.38
229.496	77.38
229.73	76.38
229.964	85.38
230.199	76.38
230.433	64.38
230.667	89.38
230.901	88.38
231.136	72.38
231.37	81.38
231.604	86.38
231.838	80.38
232.072	98.38
232.306	83.38
232.541	96.38
232.775	88.38
233.009	83.38
233.243	76.38
233.477	84.38
233.711	85.38
233.945	88.38
234.179	79.38
234.413	70.38
234.647	65.38
234.881	82.38
235.115	66.38
235.349	72.38
235.583	66.38
235.817	80.38
236.051	72.38
236.285	82.38
236.519	59.38
236.753	88.38
236.987	71.38
237.221	80.38
237.455	86.38
237.689	80.38
237.922	87.38
238.156	80.38
238.39	80.38
238.624	67.38
238.858	78.38
239.091	73.38
239.325	72.38
239.559	75.38
239.793	88.38
240.027	82.38
240.26	66.38
240.494	72.38
240.728	73.38
240.961	73.38
241.195	83.38
241.429	81.38
241.662	69.38
241.896	78.38
242.13	82.38
242.363	77.38
242.597	70.38
242.83	88.38
243.064	72.38
243.298	73.38
243.531	81.38
243.765	67.38
243.998	58.38
244.232	82.38
244.465	75.38
244.699	80.38
244.932	84.38
245.166	68.38
245.399	89.38
245.633	81.38
245.866	59.38
246.099	70.38
246.333	89.38
246.566	95.38
246.8	94.38
247.033	81.38
247.266	79.38
247.5	69.38
247.733	82.38
247.966	78.38
248.2	88.38
248.433	82.38
248.666	65.38
248.899	68.38
249.133	88.38
249.366	84.38
249.599	86.38
249.832	80.38
250.066	88.38
250.299	66.38
250.532	65.38
250.765	85.38
250.998	70.38
251.231	88.38
251.465	88.38
251.698	79.38
251.931	80.38
252.164	76.38
252.397	84.38
252.63	73.38
252.863	78.38
253.096	78.38
253.329	77.38
253.562	78.38
253.795	81.38
254.028	74.38
254.261	68.38
254.494	77.38
254.727	88.38
254.96	88.38
255.193	81.38
255.426	79.38
255.659	84.38
255.892	92.38
256.124	82.38
256.357	102.38
256.59	65.38
256.823	89.38
257.056	84.38
257.289	92.38
257.521	86.38
257.754	90.38
257.987	69.38
258.22	87.38
258.452	76.38
258.685	85.38
258.918	82.38
259.151	81.38
259.383	86.38
259.616	75.38
259.849	94.38
260.081	79.38
260.314	85.38
260.547	77.38
260.779	76.38
261.012	82.38
261.244	81.38
261.477	87.38
261.71	90.38
261.942	90.38
262.175	96.38
262.407	85.38
262.64	67.38
262.872	81.38
263.105	74.38
263.337	89.38
263.57	80.38
263.802	68.38
264.035	84.38
264.267	84.38
264.499	83.38
264.732	102.38
264.964	84.38
265.197	89.38
265.429	74.38
265.661	79.38
265.894	80.38
266.126	85.38
266.358	84.38
266.591	84.38
266.823	80.38
267.055	83.38
267.287	81.38
267.52	80.38
267.752	70.38
267.984	78.38
268.216	84.38
268.448	90.38
268.681	85.38
268.913	90.38
269.145	85.38
269.377	79.38
269.609	89.38
269.841	84.38
270.073	88.38
270.306	87.38
270.538	85.38
270.77	90.38
271.002	86.38
271.234	97.38
271.466	98.38
271.698	77.38
271.93	88.38
272.162	91.38
272.394	86.38
272.626	92.38
272.858	93.38
273.09	81.38
273.322	92.38
273.553	82.38
273.785	93.38
274.017	90.38
274.249	86.38
274.481	81.38
274.713	93.38
274.945	68.38
275.176	83.38
275.408	63.38
275.64	92.38
275.872	97.38
276.104	93.38
276.335	83.38
276.567	98.38
276.799	112.38
277.031	96.38
277.262	88.38
277.494	83.38
277.726	76.38
277.957	88.38
278.189	91.38
278.421	92.38
278.652	81.38
278.884	82.38
279.115	92.38
279.347	81.38
279.579	88.38
279.81	82.38
280.042	85.38
280.273	80.38
280.505	88.38
280.736	83.38
280.968	94.38
281.199	86.38
281.431	83.38
281.662	92.38
281.894	85.38
282.125	109.38
282.356	119.38
282.588	115.38
282.819	97.38
283.051	88.38
283.282	80.38
283.513	86.38
283.745	84.38
283.976	84.38
284.207	85.38
284.439	100.38
284.67	84.38
284.901	84.38
285.132	80.38
285.364	78.38
285.595	85.38
285.826	91.38
286.057	101.38
286.288	83.38
286.52	88.38
286.751	81.38
286.982	67.38
287.213	95.38
287.444	78.38
287.675	85.38
287.906	98.38
288.138	89.38
288.369	99.38
288.6	92.38
288.831	90.38
289.062	88.38
289.293	88.38
289.524	101.38
289.755	79.38
289.986	87.38
290.217	89.38
290.448	87.38
290.679	89.38
290.91	89.38
291.141	82.38
291.371	82.38
291.602	85.38
291.833	89.38
292.064	98.38
292.295	84.38
292.526	89.38
292.757	86.38
292.987	80.38
293.218	75.38
293.449	74.38
293.68	81.38
293.91	78.38
294.141	100.38
294.372	80.38
294.603	83.38
294.833	100.38
295.064	88.38
295.295	84.38
295.525	107.38
295.756	109.38
295.987	113.38
296.217	120.38
296.448	118.38
296.679	101.38
296.909	100.38
297.14	90.38
297.37	82.38
297.601	85.38
297.831	92.38
298.062	87.38
298.292	77.38
298.523	78.38
298.753	85.38
298.984	89.38
299.214	85.38
299.445	99.38
299.675	101.38
299.905	86.38
300.136	80.38
300.366	100.38
300.597	103.38
300.827	93.38
301.057	102.38
301.288	78.38
301.518	80.38
301.748	91.38
301.979	93.38
302.209	91.38
302.439	102.38
302.669	90.38
302.9	86.38
303.13	77.38
303.36	81.38
303.59	95.38
303.82	101.38
304.051	94.38
304.281	85.38
304.511	93.38
304.741	84.38
304.971	89.38
305.201	85.38
305.431	65.38
305.661	88.38
305.891	89.38
306.121	82.38
306.352	99.38
306.582	98.38
306.812	108.38
307.042	89.38
307.272	85.38
307.502	87.38
307.731	87.38
307.961	91.38
308.191	84.38
308.421	90.38
308.651	83.38
308.881	99.38
309.111	90.38
309.341	84.38
309.571	95.38
309.8	82.38
310.03	88.38
310.26	97.38
310.49	77.38
310.72	93.38
310.949	96.38
311.179	101.38
311.409	94.38
311.639	91.38
311.868	93.38
312.098	90.38
312.328	96.38
312.557	97.38
312.787	89.38
313.017	84.38
313.246	94.38
313.476	89.38
313.706	100.38
313.935	89.38
314.165	85.38
314.394	91.38
314.624	97.38
314.853	108.38
315.083	77.38
315.312	82.38
315.542	83.38
315.771	85.38
316.001	95.38
316.23	91.38
316.46	93.38
316.689	91.38
316.919	96.38
317.148	107.38
317.377	103.38
317.607	97.38
317.836	100.38
318.065	86.38
318.295	89.38
318.524	86.38
318.753	96.38
318.983	78.38
319.212	94.38
319.441	106.38
319.67	107.38
319.9	82.38
320.129	92.38
320.358	94.38
320.587	92.38
320.816	90.38
321.046	99.38
321.275	100.38
321.504	92.38
321.733	78.38
321.962	83.38
322.191	82.38
322.42	90.38
322.649	101.38
322.878	98.38
323.108	101.38
323.337	112.38
323.566	130.38
323.795	133.38
324.024	181.38
324.253	315.38
324.482	606.38
324.71	1199.38
324.939	1592.38
325.168	589.38
325.397	176.38
325.626	124.38
325.855	126.38
326.084	112.38
326.313	123.38
326.542	129.38
326.77	193.38
326.999	362.38
327.228	702.38
327.457	1236.38
327.686	982.38
327.914	275.38
328.143	156.38
328.372	121.38
328.6	121.38
328.829	110.38
329.058	120.38
329.287	102.38
329.515	94.38
329.744	90.38
329.972	104.38
330.201	102.38
330.43	117.38
330.658	101.38
330.887	112.38
331.115	93.38
331.344	86.38
331.572	89.38
331.801	98.38
332.03	97.38
332.258	95.38
332.486	89.38
332.715	108.38
332.943	85.38
333.172	88.38
333.4	99.38
333.629	75.38
333.857	104.38
334.085	85.38
334.314	91.38
334.542	104.38
334.771	97.38
334.999	86.38
335.227	89.38
335.455	103.38
335.684	85.38
335.912	82.38
336.14	93.38
336.369	94.38
336.597	100.38
336.825	98.38
337.053	91.38
337.281	79.38
337.51	90.38
337.738	92.38
337.966	92.38
338.194	98.38
338.422	78.38
338.65	94.38
338.878	99.38
339.106	79.38
339.334	88.38
339.562	90.38
339.79	87.38
340.018	92.38
340.246	92.38
340.474	91.38
340.702	94.38
340.93	90.38
341.158	76.38
341.386	90.38
341.614	82.38
341.842	86.38
342.07	92.38
342.298	89.38
342.526	78.38
342.754	93.38
342.981	69.38
343.209	92.38
343.437	97.38
343.665	88.38
343.893	85.38
344.12	82.38
344.348	86.38
344.576	92.38
344.804	93.38
345.031	82.38
345.259	98.38
345.487	98.38
345.714	84.38
345.942	76.38
346.17	105.38
346.397	88.38
346.625	101.38
346.853	97.38
347.08	101.38
347.308	94.38
347.535	85.38
347.763	92.38
347.99	89.38
348.218	106.38
348.445	104.38
348.673	105.38
348.9	96.38
349.128	98.38
349.355	99.38
349.583	93.38
349.81	93.38
350.037	82.38
350.265	89.38
350.492	95.38
350.72	97.38
350.947	90.38
351.174	110.38
351.402	106.38
351.629	104.38
351.856	102.38
352.083	101.38
352.311	123.38
352.538	105.38
352.765	103.38
352.992	102.38
353.22	89.38
353.447	105.38
353.674	92.38
353.901	96.38
354.128	101.38
354.355	95.38
354.583	90.38
354.81	90.38
355.037	84.38
355.264	95.38
355.491	92.38
355.718	89.38
355.945	91.38
356.172	96.38
356.399	106.38
356.626	90.38
356.853	93.38
357.08	100.38
357.307	79.38
357.534	91.38
357.761	101.38
357.988	105.38
358.215	107.38
358.441	85.38
358.668	95.38
358.895	86.38
359.122	89.38
359.349	77.38
359.576	84.38
359.802	105.38
360.029	95.38
360.256	105.38
360.483	97.38
360.709	97.38
360.936	97.38
361.163	88.38
361.39	84.38
361.616	97.38
361.843	78.38
362.07	80.38
362.296	91.38
362.523	93.38
362.749	81.38
362.976	93.38
363.203	105.38
363.429	89.38
363.656	80.38
363.882	93.38
364.109	91.38
364.335	75.38
364.562	79.38
364.788	88.38
365.015	96.38
365.241	96.38
365.468	94.38
365.694	97.38
365.92	92.38
366.147	85.38
366.373	79.38
366.599	83.38
366.826	81.38
367.052	102.38
367.278	98.38
367.505	88.38
367.731	91.38
367.957	92.38
368.184	92.38
368.41	103.38
368.636	111.38
368.862	108.38
369.089	92.38
369.315	99.38
369.541	90.38
369.767	94.38
369.993	101.38
370.219	96.38
370.445	98.38
370.672	100.38
370.898	69.38
371.124	57.38
371.35	87.38
371.576	78.38
371.802	92.38
372.028	88.38
372.254	101.38
372.48	106.38
372.706	81.38
372.932	87.38
373.158	82.38
373.384	101.38
373.61	85.38
373.835	97.38
374.061	82.38
374.287	89.38
374.513	85.38
374.739	93.38
374.965	82.38
375.191	76.38
375.416	85.38
375.642	89.38
375.868	94.38
376.094	98.38
376.319	90.38
376.545	81.38
376.771	81.38
376.997	81.38
377.222	93.38
377.448	91.38
377.674	91.38
377.899	85.38
378.125	86.38
378.35	104.38
378.576	97.38
378.802	91.38
379.027	94.38
379.253	82.38
379.478	86.38
379.704	82.38
379.929	90.38
380.155	90.38
380.38	107.38
380.606	97.38
380.831	90.38
381.057	107.38
381.282	83.38
381.507	93.38
381.733	93.38
381.958	86.38
382.184	91.38
382.409	92.38
382.634	103.38
382.86	96.38
383.085	104.38
383.31	98.38
383.535	101.38
383.761	104.38
383.986	87.38
384.211	94.38
384.436	94.38
384.662	97.38
384.887	100.38
385.112	88.38
385.337	85.38
385.562	93.38
385.787	108.38
386.013	103.38
386.238	105.38
386.463	100.38
386.688	107.38
386.913	106.38
387.138	110.38
387.363	106.38
387.588	97.38
387.813	108.38
388.038	95.38
388.263	118.38
388.488	104.38
388.713	87.38
388.938	87.38
389.163	100.38
389.387	99.38
389.612	97.38
389.837	109.38
390.062	97.38
390.287	82.38
390.512	99.38
390.736	91.38
390.961	91.38
391.186	97.38
391.411	97.38
391.636	97.38
391.86	98.38
392.085	87.38
392.31	88.38
392.534	70.38
392.759	100.38
392.984	64.38
393.208	83.38
393.433	87.38
393.658	92.38
393.882	84.38
394.107	96.38
394.331	69.38
394.556	82.38
394.78	83.38
395.005	86.38
395.229	84.38
395.454	88.38
395.678	88.38
395.903	88.38
396.127	88.38
396.352	73.38
396.576	79.38
396.801	90.38
397.025	89.38
397.249	81.38
397.474	76.38
397.698	89.38
397.922	94.38
398.147	91.38
398.371	100.38
398.595	87.38
398.82	78.38
399.044	79.38
399.268	80.38
399.492	83.38
399.717	99.38
399.941	84.38
400.165	87.38
400.389	95.38
400.613	89.38
400.837	69.38
401.062	106.38
401.286	88.38
401.51	91.38
401.734	93.38
401.958	92.38
402.182	133.38
402.406	132.38
402.63	121.38
402.854	100.38
403.078	79.38
403.302	90.38
403.526	72.38
403.75	94.38
403.974	86.38
404.198	82.38
404.422	96.38
404.645	82.38
404.869	85.38
405.093	88.38
405.317	90.38
405.541	105.38
405.765	89.38
405.988	108.38
406.212	145.38
406.436	184.38
406.66	128.38
406.883	94.38
407.107	101.38
407.331	92.38
407.555	78.38
407.778	92.38
408.002	90.38
408.226	94.38
408.449	88.38
408.673	83.38
408.896	89.38
409.12	98.38
409.344	96.38
409.567	92.38
409.791	97.38
410.014	90.38
410.238	90.38
410.461	97.38
410.685	88.38
410.908	85.38
411.132	109.38
411.355	88.38
411.578	92.38
411.802	91.38
412.025	97.38
412.249	99.38
412.472	89.38
412.695	108.38
412.919	84.38
413.142	92.38
413.365	84.38
413.589	84.38
413.812	86.38
414.035	98.38
414.258	80.38
414.482	88.38
414.705	82.38
414.928	84.38
415.151	104.38
415.374	97.38
415.597	79.38
415.821	82.38
416.044	93.38
416.267	84.38
416.49	76.38
416.713	93.38
416.936	82.38
417.159	85.38
417.382	95.38
417.605	77.38
417.828	96.38
418.051	83.38
418.274	84.38
418.497	77.38
418.72	93.38
418.943	86.38
419.166	96.38
419.389	110.38
419.611	93.38
419.834	94.38
420.057	86.38
420.28	91.38
420.503	80.38
420.726	91.38
420.948	91.38
421.171	92.38
421.394	99.38
421.617	85.38
421.839	92.38
422.062	96.38
422.285	97.38
422.507	107.38
422.73	101.38
422.953	79.38
423.175	89.38
423.398	97.38
423.621	91.38
423.843	81.38
424.066	75.38
424.288	85.38
424.511	90.38
424.733	91.38
424.956	112.38
425.178	89.38
425.401	102.38
425.623	86.38
425.846	97.38
426.068	97.38
426.291	94.38
426.513	88.38
426.735	80.38
426.958	92.38
427.18	90.38
427.402	124.38
427.625	133.38
427.847	128.38
428.069	93.38
428.292	87.38
428.514	101.38
428.736	86.38
428.958	76.38
429.181	83.38
429.403	82.38
429.625	84.38
429.847	91.38
430.069	96.38
430.292	87.38
430.514	96.38
430.736	87.38
430.958	88.38
431.18	89.38
431.402	81.38
431.624	86.38
431.846	101.38
432.068	76.38
432.29	91.38
432.512	82.38
432.734	82.38
432.956	83.38
433.178	105.38
433.4	86.38
433.622	84.38
433.844	70.38
434.066	96.38
434.287	88.38
434.509	89.38
434.731	89.38
434.953	81.38
435.175	84.38
435.397	99.38
435.618	91.38
435.84	88.38
436.062	105.38
436.284	93.38
436.505	95.38
436.727	107.38
436.949	99.38
437.17	85.38
437.392	79.38
437.614	85.38
437.835	86.38
438.057	109.38
438.278	103.38
438.5	84.38
438.721	113.38
438.943	112.38
439.165	73.38
439.386	88.38
439.608	82.38
439.829	76.38
440.05	112.38
440.272	115.38
440.493	78.38
440.715	86.38
440.936	92.38
441.158	93.38
441.379	88.38
441.6	84.38
441.822	78.38
442.043	90.38
442.264	97.38
442.486	74.38
442.707	78.38
442.928	105.38
443.149	116.38
443.371	110.38
443.592	95.38
443.813	94.38
444.034	104.38
444.255	90.38
444.476	91.38
444.698	83.38
444.919	78.38
445.14	127.38
445.361	132.38
445.582	123.38
445.803	128.38
446.024	137.38
446.245	105.38
446.466	102.38
446.687	99.38
446.908	96.38
447.129	83.38
447.35	87.38
447.571	88.38
447.792	94.38
448.013	91.38
448.234	98.38
448.455	85.38
448.675	104.38
448.896	108.38
449.117	103.38
449.338	95.38
449.559	114.38
449.779	113.38
450	92.38
450.221	84.38
450.442	105.38
450.662	93.38
450.883	94.38
451.104	116.38
451.324	68.38
451.545	98.38
451.766	85.38
451.986	91.38
452.207	98.38
452.428	90.38
452.648	97.38
452.869	98.38
453.089	99.38
453.31	114.38
453.53	96.38
453.751	90.38
453.971	84.38
454.192	94.38
454.412	93.38
454.633	95.38
454.853	90.38
455.073	81.38
455.294	80.38
455.514	94.38
455.734	97.38
455.955	77.38
456.175	81.38
456.395	78.38
456.616	86.38
456.836	85.38
457.056	81.38
457.276	94.38
457.497	95.38
457.717	78.38
457.937	85.38
458.157	90.38
458.377	88.38
458.598	91.38
458.818	122.38
459.038	135.38
459.258	93.38
459.478	91.38
459.698	75.38
459.918	84.38
460.138	84.38
460.358	87.38
460.578	75.38
460.798	79.38
461.018	84.38
461.238	74.38
461.458	86.38
461.678	84.38
461.898	78.38
462.118	95.38
462.338	85.38
462.558	80.38
462.777	83.38
462.997	82.38
463.217	76.38
463.437	87.38
463.657	83.38
463.876	75.38
464.096	93.38
464.316	92.38
464.536	88.38
464.755	88.38
464.975	105.38
465.195	133.38
465.414	129.38
465.634	88.38
465.854	87.38
466.073	79.38
466.293	81.38
466.512	94.38
466.732	82.38
466.951	95.38
467.171	108.38
467.391	92.38
467.61	95.38
467.829	85.38
468.049	80.38
468.268	83.38
468.488	88.38
468.707	79.38
468.927	94.38
469.146	91.38
469.365	94.38
469.585	77.38
469.804	102.38
470.023	99.38
470.243	83.38
470.462	96.38
470.681	93.38
470.901	93.38
471.12	81.38
471.339	76.38
471.558	87.38
471.777	93.38
471.997	87.38
472.216	87.38
472.435	88.38
472.654	85.38
472.873	86.38
473.092	82.38
473.311	85.38
473.53	88.38
473.749	84.38
473.968	80.38
474.187	79.38
474.406	88.38
474.625	96.38
474.844	88.38
475.063	70.38
475.282	83.38
475.501	80.38
475.72	79.38
475.939	91.38
476.158	81.38
476.377	82.38
476.596	94.38
476.814	77.38
477.033	77.38
477.252	85.38
477.471	82.38
477.69	88.38
477.908	68.38
478.127	89.38
478.346	77.38
478.564	89.38
478.783	77.38
479.002	78.38
479.22	85.38
479.439	84.38
479.658	101.38
479.876	102.38
480.095	82.38
480.313	89.38
480.532	83.38
480.751	82.38
480.969	85.38
481.188	92.38
481.406	96.38
481.624	82.38
481.843	85.38
482.061	81.38
482.28	102.38
482.498	84.38
482.717	81.38
482.935	101.38
483.153	105.38
483.372	81.38
483.59	86.38
483.808	106.38
484.027	88.38
484.245	91.38
484.463	101.38
484.681	101.38
484.9	92.38
485.118	84.38
485.336	105.38
485.554	85.38
485.772	98.38
485.99	93.38
486.209	90.38
486.427	105.38
486.645	114.38
486.863	109.38
487.081	94.38
487.299	108.38
487.517	106.38
487.735	93.38
487.953	82.38
488.171	93.38
488.389	76.38
488.607	80.38
488.825	84.38
489.043	92.38
489.261	68.38
489.479	98.38
489.696	111.38
489.914	83.38
490.132	86.38
490.35	99.38
490.568	86.38
490.786	92.38
491.003	102.38
491.221	72.38
491.439	73.38
491.657	74.38
491.874	92.38
492.092	92.38
492.31	96.38
492.527	96.38
492.745	90.38
492.963	100.38
493.18	94.38
493.398	88.38
493.615	83.38
493.833	92.38
494.05	80.38
494.268	77.38
494.485	78.38
494.703	91.38
494.92	100.38
495.138	90.38
495.355	86.38
495.573	106.38
495.79	82.38
496.008	91.38
496.225	84.38
496.442	76.38
496.66	92.38
496.877	78.38
497.094	93.38
497.312	76.38
497.529	85.38
497.746	77.38
497.963	95.38
498.181	99.38
498.398	104.38
498.615	95.38
498.832	91.38
499.049	77.38
499.267	94.38
499.484	84.38
499.701	92.38
499.918	97.38
500.135	89.38
500.352	104.38
500.569	84.38
500.786	92.38
501.003	99.38
501.22	85.38
501.437	86.38
501.654	102.38
501.871	93.38
502.088	83.38
502.305	86.38
502.522	88.38
502.739	80.38
502.956	86.38
503.172	80.38
503.389	89.38
503.606	109.38
503.823	110.38
504.04	98.38
504.256	98.38
504.473	80.38
504.69	92.38
504.907	95.38
505.123	97.38
505.34	80.38
505.557	101.38
505.773	82.38
505.99	92.38
506.207	94.38
506.423	86.38
506.64	92.38
506.856	93.38
507.073	92.38
507.289	96.38
507.506	91.38
507.722	114.38
507.939	105.38
508.155	98.38
508.372	101.38
508.588	84.38
508.805	95.38
509.021	97.38
509.238	109.38
509.454	87.38
509.67	90.38
509.887	95.38
510.103	124.38
510.319	183.38
510.536	618.38
510.752	1852.38
510.968	500.38
511.184	128.38
511.401	107.38
511.617	95.38
511.833	91.38
512.049	98.38
512.265	101.38
512.481	85.38
512.698	82.38
512.914	79.38
513.13	90.38
513.346	90.38
513.562	88.38
513.778	92.38
513.994	112.38
514.21	96.38
514.426	112.38
514.642	137.38
514.858	119.38
515.074	148.38
515.29	374.38
515.506	1140.38
515.721	422.38
515.937	136.38
516.153	102.38
516.369	106.38
516.585	87.38
