Data from Uncirc_1993_H10_HRD10591_00083.txt Node
Date: Wed Jan 03 11:43:08 EST 2024
User: Yrep
Spectrometer: HR+D1059
Trigger mode: 1
Integration Time (sec): 1.000000E-1
Scans to average: 1
Electric dark correction enabled: true
Nonlinearity correction enabled: false
Boxcar width: 0
XAxis mode: Wavelengths
Number of Pixels in Spectrum: 2048
>>>>>Begin Spectral Data<<<<<
223.165	-25.44
223.4	-25.44
223.635	-25.44
223.869	-18.44
224.104	-15.44
224.338	-10.44
224.573	-12.44
224.808	-14.44
225.042	-2.44
225.277	0.56
225.511	-8.44
225.746	1.56
225.98	4.56
226.215	11.56
226.449	20.56
226.683	17.56
226.918	23.56
227.152	27.56
227.387	27.56
227.621	40.56
227.856	42.56
228.09	38.56
228.324	46.56
228.559	70.56
228.793	54.56
229.027	70.56
229.262	91.56
229.496	65.56
229.73	60.56
229.964	85.56
230.199	77.56
230.433	73.56
230.667	86.56
230.901	86.56
231.136	87.56
231.37	81.56
231.604	62.56
231.838	76.56
232.072	79.56
232.306	80.56
232.541	80.56
232.775	91.56
233.009	92.56
233.243	77.56
233.477	91.56
233.711	87.56
233.945	93.56
234.179	91.56
234.413	82.56
234.647	82.56
234.881	83.56
235.115	96.56
235.349	89.56
235.583	93.56
235.817	84.56
236.051	85.56
236.285	89.56
236.519	72.56
236.753	75.56
236.987	79.56
237.221	83.56
237.455	93.56
237.689	87.56
237.922	95.56
238.156	74.56
238.39	91.56
238.624	67.56
238.858	83.56
239.091	79.56
239.325	71.56
239.559	78.56
239.793	70.56
240.027	66.56
240.26	78.56
240.494	79.56
240.728	76.56
240.961	73.56
241.195	70.56
241.429	87.56
241.662	80.56
241.896	69.56
242.13	75.56
242.363	75.56
242.597	83.56
242.83	99.56
243.064	85.56
243.298	81.56
243.531	89.56
243.765	80.56
243.998	94.56
244.232	85.56
244.465	76.56
244.699	90.56
244.932	93.56
245.166	96.56
245.399	85.56
245.633	71.56
245.866	81.56
246.099	71.56
246.333	91.56
246.566	75.56
246.8	73.56
247.033	92.56
247.266	92.56
247.5	87.56
247.733	75.56
247.966	83.56
248.2	76.56
248.433	80.56
248.666	83.56
248.899	79.56
249.133	71.56
249.366	104.56
249.599	89.56
249.832	89.56
250.066	92.56
250.299	73.56
250.532	87.56
250.765	83.56
250.998	84.56
251.231	77.56
251.465	85.56
251.698	84.56
251.931	73.56
252.164	77.56
252.397	77.56
252.63	81.56
252.863	93.56
253.096	87.56
253.329	88.56
253.562	87.56
253.795	92.56
254.028	79.56
254.261	79.56
254.494	82.56
254.727	82.56
254.96	91.56
255.193	85.56
255.426	79.56
255.659	85.56
255.892	98.56
256.124	67.56
256.357	89.56
256.59	84.56
256.823	77.56
257.056	90.56
257.289	79.56
257.521	82.56
257.754	102.56
257.987	82.56
258.22	97.56
258.452	81.56
258.685	83.56
258.918	85.56
259.151	99.56
259.383	80.56
259.616	84.56
259.849	89.56
260.081	77.56
260.314	82.56
260.547	75.56
260.779	79.56
261.012	86.56
261.244	82.56
261.477	95.56
261.71	92.56
261.942	114.56
262.175	98.56
262.407	86.56
262.64	99.56
262.872	82.56
263.105	95.56
263.337	82.56
263.57	70.56
263.802	87.56
264.035	92.56
264.267	85.56
264.499	83.56
264.732	94.56
264.964	97.56
265.197	105.56
265.429	83.56
265.661	88.56
265.894	87.56
266.126	87.56
266.358	81.56
266.591	84.56
266.823	80.56
267.055	86.56
267.287	84.56
267.52	86.56
267.752	84.56
267.984	95.56
268.216	81.56
268.448	88.56
268.681	84.56
268.913	72.56
269.145	86.56
269.377	105.56
269.609	79.56
269.841	89.56
270.073	103.56
270.306	93.56
270.538	92.56
270.77	81.56
271.002	93.56
271.234	88.56
271.466	85.56
271.698	98.56
271.93	95.56
272.162	85.56
272.394	80.56
272.626	92.56
272.858	82.56
273.09	78.56
273.322	84.56
273.553	71.56
273.785	89.56
274.017	98.56
274.249	94.56
274.481	97.56
274.713	73.56
274.945	88.56
275.176	101.56
275.408	104.56
275.64	91.56
275.872	84.56
276.104	96.56
276.335	101.56
276.567	94.56
276.799	107.56
277.031	94.56
277.262	90.56
277.494	97.56
277.726	94.56
277.957	83.56
278.189	101.56
278.421	90.56
278.652	77.56
278.884	76.56
279.115	92.56
279.347	88.56
279.579	95.56
279.81	85.56
280.042	100.56
280.273	95.56
280.505	82.56
280.736	71.56
280.968	81.56
281.199	93.56
281.431	79.56
281.662	87.56
281.894	97.56
282.125	89.56
282.356	109.56
282.588	132.56
282.819	102.56
283.051	79.56
283.282	94.56
283.513	88.56
283.745	91.56
283.976	91.56
284.207	98.56
284.439	96.56
284.67	92.56
284.901	98.56
285.132	94.56
285.364	92.56
285.595	93.56
285.826	91.56
286.057	81.56
286.288	77.56
286.52	79.56
286.751	81.56
286.982	105.56
287.213	76.56
287.444	99.56
287.675	81.56
287.906	98.56
288.138	85.56
288.369	101.56
288.6	77.56
288.831	81.56
289.062	96.56
289.293	109.56
289.524	90.56
289.755	89.56
289.986	88.56
290.217	94.56
290.448	84.56
290.679	95.56
290.91	85.56
291.141	95.56
291.371	101.56
291.602	104.56
291.833	88.56
292.064	86.56
292.295	92.56
292.526	96.56
292.757	86.56
292.987	96.56
293.218	86.56
293.449	87.56
293.68	111.56
293.91	100.56
294.141	87.56
294.372	80.56
294.603	93.56
294.833	84.56
295.064	80.56
295.295	81.56
295.525	84.56
295.756	98.56
295.987	121.56
296.217	116.56
296.448	122.56
296.679	104.56
296.909	88.56
297.14	85.56
297.37	98.56
297.601	93.56
297.831	96.56
298.062	91.56
298.292	91.56
298.523	94.56
298.753	103.56
298.984	86.56
299.214	82.56
299.445	81.56
299.675	95.56
299.905	100.56
300.136	105.56
300.366	90.56
300.597	96.56
300.827	96.56
301.057	101.56
301.288	106.56
301.518	100.56
301.748	85.56
301.979	106.56
302.209	102.56
302.439	109.56
302.669	77.56
302.9	98.56
303.13	82.56
303.36	98.56
303.59	97.56
303.82	92.56
304.051	97.56
304.281	102.56
304.511	92.56
304.741	89.56
304.971	85.56
305.201	86.56
305.431	83.56
305.661	90.56
305.891	88.56
306.121	87.56
306.352	95.56
306.582	98.56
306.812	94.56
307.042	87.56
307.272	98.56
307.502	94.56
307.731	92.56
307.961	88.56
308.191	90.56
308.421	99.56
308.651	102.56
308.881	97.56
309.111	95.56
309.341	100.56
309.571	110.56
309.8	93.56
310.03	92.56
310.26	97.56
310.49	88.56
310.72	94.56
310.949	96.56
311.179	109.56
311.409	111.56
311.639	104.56
311.868	100.56
312.098	83.56
312.328	114.56
312.557	95.56
312.787	107.56
313.017	81.56
313.246	111.56
313.476	104.56
313.706	95.56
313.935	89.56
314.165	101.56
314.394	86.56
314.624	105.56
314.853	104.56
315.083	91.56
315.312	100.56
315.542	93.56
315.771	90.56
316.001	95.56
316.23	89.56
316.46	94.56
316.689	95.56
316.919	106.56
317.148	76.56
317.377	91.56
317.607	91.56
317.836	89.56
318.065	99.56
318.295	99.56
318.524	94.56
318.753	102.56
318.983	105.56
319.212	94.56
319.441	99.56
319.67	110.56
319.9	93.56
320.129	83.56
320.358	101.56
320.587	87.56
320.816	99.56
321.046	95.56
321.275	100.56
321.504	94.56
321.733	117.56
321.962	112.56
322.191	98.56
322.42	96.56
322.649	104.56
322.878	115.56
323.108	98.56
323.337	115.56
323.566	118.56
323.795	139.56
324.024	191.56
324.253	321.56
324.482	664.56
324.71	1277.56
324.939	1658.56
325.168	620.56
325.397	205.56
325.626	131.56
325.855	125.56
326.084	115.56
326.313	131.56
326.542	144.56
326.77	207.56
326.999	380.56
327.228	761.56
327.457	1298.56
327.686	1020.56
327.914	306.56
328.143	167.56
328.372	133.56
328.6	103.56
328.829	121.56
329.058	131.56
329.287	130.56
329.515	120.56
329.744	112.56
329.972	108.56
330.201	97.56
330.43	107.56
330.658	105.56
330.887	123.56
331.115	107.56
331.344	95.56
331.572	103.56
331.801	99.56
332.03	100.56
332.258	94.56
332.486	95.56
332.715	91.56
332.943	85.56
333.172	102.56
333.4	94.56
333.629	109.56
333.857	101.56
334.085	109.56
334.314	111.56
334.542	103.56
334.771	100.56
334.999	96.56
335.227	93.56
335.455	98.56
335.684	108.56
335.912	92.56
336.14	100.56
336.369	104.56
336.597	102.56
336.825	92.56
337.053	100.56
337.281	107.56
337.51	89.56
337.738	96.56
337.966	102.56
338.194	102.56
338.422	108.56
338.65	93.56
338.878	86.56
339.106	104.56
339.334	118.56
339.562	99.56
339.79	103.56
340.018	88.56
340.246	90.56
340.474	98.56
340.702	92.56
340.93	86.56
341.158	89.56
341.386	93.56
341.614	89.56
341.842	99.56
342.07	97.56
342.298	83.56
342.526	89.56
342.754	86.56
342.981	93.56
343.209	92.56
343.437	111.56
343.665	82.56
343.893	94.56
344.12	101.56
344.348	95.56
344.576	107.56
344.804	102.56
345.031	80.56
345.259	112.56
345.487	93.56
345.714	113.56
345.942	110.56
346.17	96.56
346.397	101.56
346.625	101.56
346.853	104.56
347.08	94.56
347.308	106.56
347.535	101.56
347.763	105.56
347.99	103.56
348.218	108.56
348.445	105.56
348.673	96.56
348.9	103.56
349.128	87.56
349.355	105.56
349.583	103.56
349.81	93.56
350.037	101.56
350.265	97.56
350.492	96.56
350.72	95.56
350.947	97.56
351.174	123.56
351.402	115.56
351.629	109.56
351.856	103.56
352.083	105.56
352.311	104.56
352.538	111.56
352.765	105.56
352.992	110.56
353.22	110.56
353.447	115.56
353.674	106.56
353.901	100.56
354.128	106.56
354.355	96.56
354.583	98.56
354.81	99.56
355.037	104.56
355.264	95.56
355.491	98.56
355.718	93.56
355.945	100.56
356.172	90.56
356.399	96.56
356.626	96.56
356.853	92.56
357.08	91.56
357.307	98.56
357.534	84.56
357.761	94.56
357.988	103.56
358.215	120.56
358.441	99.56
358.668	95.56
358.895	92.56
359.122	84.56
359.349	87.56
359.576	103.56
359.802	103.56
360.029	97.56
360.256	97.56
360.483	92.56
360.709	89.56
360.936	96.56
361.163	96.56
361.39	103.56
361.616	86.56
361.843	95.56
362.07	104.56
362.296	99.56
362.523	90.56
362.749	95.56
362.976	94.56
363.203	95.56
363.429	96.56
363.656	104.56
363.882	85.56
364.109	89.56
364.335	81.56
364.562	89.56
364.788	94.56
365.015	91.56
365.241	98.56
365.468	108.56
365.694	99.56
365.92	95.56
366.147	108.56
366.373	96.56
366.599	92.56
366.826	85.56
367.052	101.56
367.278	93.56
367.505	82.56
367.731	87.56
367.957	87.56
368.184	91.56
368.41	93.56
368.636	98.56
368.862	114.56
369.089	115.56
369.315	89.56
369.541	83.56
369.767	86.56
369.993	88.56
370.219	90.56
370.445	100.56
370.672	105.56
370.898	78.56
371.124	80.56
371.35	97.56
371.576	97.56
371.802	92.56
372.028	95.56
372.254	82.56
372.48	95.56
372.706	85.56
372.932	83.56
373.158	85.56
373.384	94.56
373.61	101.56
373.835	113.56
374.061	97.56
374.287	93.56
374.513	97.56
374.739	89.56
374.965	78.56
375.191	81.56
375.416	103.56
375.642	94.56
375.868	91.56
376.094	103.56
376.319	92.56
376.545	86.56
376.771	78.56
376.997	75.56
377.222	83.56
377.448	91.56
377.674	96.56
377.899	89.56
378.125	94.56
378.35	97.56
378.576	91.56
378.802	96.56
379.027	95.56
379.253	102.56
379.478	84.56
379.704	97.56
379.929	89.56
380.155	84.56
380.38	92.56
380.606	96.56
380.831	100.56
381.057	107.56
381.282	100.56
381.507	102.56
381.733	102.56
381.958	103.56
382.184	85.56
382.409	100.56
382.634	100.56
382.86	97.56
383.085	107.56
383.31	112.56
383.535	100.56
383.761	110.56
383.986	93.56
384.211	101.56
384.436	102.56
384.662	99.56
384.887	92.56
385.112	103.56
385.337	102.56
385.562	95.56
385.787	96.56
386.013	108.56
386.238	117.56
386.463	117.56
386.688	95.56
386.913	83.56
387.138	88.56
387.363	101.56
387.588	86.56
387.813	91.56
388.038	104.56
388.263	114.56
388.488	109.56
388.713	104.56
388.938	111.56
389.163	91.56
389.387	100.56
389.612	88.56
389.837	103.56
390.062	104.56
390.287	86.56
390.512	92.56
390.736	96.56
390.961	103.56
391.186	92.56
391.411	109.56
391.636	103.56
391.86	89.56
392.085	94.56
392.31	101.56
392.534	80.56
392.759	79.56
392.984	88.56
393.208	99.56
393.433	95.56
393.658	86.56
393.882	89.56
394.107	83.56
394.331	91.56
394.556	84.56
394.78	86.56
395.005	94.56
395.229	97.56
395.454	100.56
395.678	87.56
395.903	82.56
396.127	91.56
396.352	93.56
396.576	77.56
396.801	75.56
397.025	83.56
397.249	101.56
397.474	73.56
397.698	81.56
397.922	82.56
398.147	79.56
398.371	94.56
398.595	89.56
398.82	80.56
399.044	92.56
399.268	88.56
399.492	95.56
399.717	91.56
399.941	95.56
400.165	100.56
400.389	80.56
400.613	93.56
400.837	97.56
401.062	100.56
401.286	89.56
401.51	81.56
401.734	105.56
401.958	106.56
402.182	126.56
402.406	159.56
402.63	103.56
402.854	88.56
403.078	101.56
403.302	97.56
403.526	99.56
403.75	87.56
403.974	79.56
404.198	89.56
404.422	93.56
404.645	83.56
404.869	93.56
405.093	94.56
405.317	93.56
405.541	93.56
405.765	102.56
405.988	109.56
406.212	153.56
406.436	193.56
406.66	136.56
406.883	105.56
407.107	89.56
407.331	99.56
407.555	95.56
407.778	99.56
408.002	83.56
408.226	75.56
408.449	97.56
408.673	83.56
408.896	92.56
409.12	109.56
409.344	99.56
409.567	95.56
409.791	88.56
410.014	91.56
410.238	79.56
410.461	83.56
410.685	98.56
410.908	101.56
411.132	105.56
411.355	90.56
411.578	87.56
411.802	95.56
412.025	101.56
412.249	90.56
412.472	105.56
412.695	94.56
412.919	88.56
413.142	77.56
413.365	96.56
413.589	79.56
413.812	91.56
414.035	90.56
414.258	87.56
414.482	95.56
414.705	103.56
414.928	108.56
415.151	110.56
415.374	90.56
415.597	87.56
415.821	87.56
416.044	76.56
416.267	93.56
416.49	87.56
416.713	94.56
416.936	92.56
417.159	93.56
417.382	84.56
417.605	71.56
417.828	100.56
418.051	88.56
418.274	86.56
418.497	88.56
418.72	91.56
418.943	88.56
419.166	102.56
419.389	88.56
419.611	100.56
419.834	86.56
420.057	86.56
420.28	96.56
420.503	84.56
420.726	89.56
420.948	103.56
421.171	84.56
421.394	101.56
421.617	88.56
421.839	84.56
422.062	83.56
422.285	80.56
422.507	111.56
422.73	101.56
422.953	105.56
423.175	89.56
423.398	92.56
423.621	76.56
423.843	81.56
424.066	104.56
424.288	71.56
424.511	104.56
424.733	95.56
424.956	102.56
425.178	103.56
425.401	100.56
425.623	101.56
425.846	91.56
426.068	97.56
426.291	89.56
426.513	95.56
426.735	97.56
426.958	93.56
427.18	94.56
427.402	131.56
427.625	151.56
427.847	123.56
428.069	95.56
428.292	94.56
428.514	83.56
428.736	83.56
428.958	89.56
429.181	78.56
429.403	86.56
429.625	88.56
429.847	87.56
430.069	104.56
430.292	96.56
430.514	86.56
430.736	98.56
430.958	92.56
431.18	86.56
431.402	86.56
431.624	109.56
431.846	88.56
432.068	89.56
432.29	105.56
432.512	101.56
432.734	97.56
432.956	75.56
433.178	99.56
433.4	86.56
433.622	80.56
433.844	94.56
434.066	103.56
434.287	104.56
434.509	95.56
434.731	90.56
434.953	103.56
435.175	91.56
435.397	100.56
435.618	98.56
435.84	104.56
436.062	108.56
436.284	115.56
436.505	100.56
436.727	95.56
436.949	97.56
437.17	77.56
437.392	84.56
437.614	86.56
437.835	91.56
438.057	109.56
438.278	112.56
438.5	114.56
438.721	121.56
438.943	97.56
439.165	102.56
439.386	72.56
439.608	84.56
439.829	102.56
440.05	108.56
440.272	130.56
440.493	104.56
440.715	92.56
440.936	100.56
441.158	83.56
441.379	86.56
441.6	97.56
441.822	101.56
442.043	90.56
442.264	93.56
442.486	104.56
442.707	98.56
442.928	96.56
443.149	104.56
443.371	128.56
443.592	109.56
443.813	115.56
444.034	105.56
444.255	93.56
444.476	107.56
444.698	86.56
444.919	95.56
445.14	145.56
445.361	128.56
445.582	116.56
445.803	113.56
446.024	111.56
446.245	131.56
446.466	114.56
446.687	95.56
446.908	87.56
447.129	106.56
447.35	97.56
447.571	100.56
447.792	89.56
448.013	101.56
448.234	105.56
448.455	111.56
448.675	109.56
448.896	120.56
449.117	107.56
449.338	92.56
449.559	115.56
449.779	130.56
450	85.56
450.221	72.56
450.442	95.56
450.662	99.56
450.883	88.56
451.104	109.56
451.324	91.56
451.545	95.56
451.766	101.56
451.986	97.56
452.207	91.56
452.428	96.56
452.648	98.56
452.869	98.56
453.089	104.56
453.31	104.56
453.53	100.56
453.751	100.56
453.971	110.56
454.192	95.56
454.412	91.56
454.633	85.56
454.853	91.56
455.073	89.56
455.294	86.56
455.514	92.56
455.734	91.56
455.955	85.56
456.175	86.56
456.395	84.56
456.616	88.56
456.836	83.56
457.056	89.56
457.276	97.56
457.497	86.56
457.717	87.56
457.937	97.56
458.157	86.56
458.377	93.56
458.598	95.56
458.818	140.56
459.038	149.56
459.258	105.56
459.478	83.56
459.698	93.56
459.918	88.56
460.138	93.56
460.358	82.56
460.578	95.56
460.798	81.56
461.018	87.56
461.238	86.56
461.458	100.56
461.678	91.56
461.898	86.56
462.118	84.56
462.338	77.56
462.558	91.56
462.777	95.56
462.997	100.56
463.217	100.56
463.437	94.56
463.657	87.56
463.876	86.56
464.096	92.56
464.316	92.56
464.536	89.56
464.755	80.56
464.975	104.56
465.195	131.56
465.414	152.56
465.634	109.56
465.854	93.56
466.073	92.56
466.293	90.56
466.512	81.56
466.732	89.56
466.951	85.56
467.171	87.56
467.391	93.56
467.61	99.56
467.829	90.56
468.049	88.56
468.268	88.56
468.488	87.56
468.707	92.56
468.927	85.56
469.146	101.56
469.365	90.56
469.585	85.56
469.804	92.56
470.023	86.56
470.243	75.56
470.462	98.56
470.681	109.56
470.901	86.56
471.12	80.56
471.339	83.56
471.558	91.56
471.777	93.56
471.997	91.56
472.216	98.56
472.435	96.56
472.654	83.56
472.873	95.56
473.092	91.56
473.311	100.56
473.53	92.56
473.749	97.56
473.968	107.56
474.187	107.56
474.406	104.56
474.625	78.56
474.844	89.56
475.063	80.56
475.282	89.56
475.501	106.56
475.72	103.56
475.939	94.56
476.158	82.56
476.377	91.56
476.596	89.56
476.814	96.56
477.033	82.56
477.252	95.56
477.471	100.56
477.69	95.56
477.908	99.56
478.127	90.56
478.346	83.56
478.564	82.56
478.783	102.56
479.002	92.56
479.22	98.56
479.439	92.56
479.658	105.56
479.876	102.56
480.095	97.56
480.313	95.56
480.532	88.56
480.751	79.56
480.969	88.56
481.188	101.56
481.406	89.56
481.624	99.56
481.843	80.56
482.061	84.56
482.28	82.56
482.498	80.56
482.717	101.56
482.935	84.56
483.153	97.56
483.372	82.56
483.59	87.56
483.808	86.56
484.027	94.56
484.245	105.56
484.463	82.56
484.681	111.56
484.9	95.56
485.118	96.56
485.336	105.56
485.554	94.56
485.772	114.56
485.99	115.56
486.209	105.56
486.427	101.56
486.645	121.56
486.863	102.56
487.081	93.56
487.299	96.56
487.517	85.56
487.735	93.56
487.953	87.56
488.171	91.56
488.389	109.56
488.607	106.56
488.825	92.56
489.043	88.56
489.261	94.56
489.479	94.56
489.696	94.56
489.914	91.56
490.132	81.56
490.35	90.56
490.568	93.56
490.786	82.56
491.003	105.56
491.221	90.56
491.439	99.56
491.657	110.56
491.874	87.56
492.092	91.56
492.31	104.56
492.527	91.56
492.745	93.56
492.963	81.56
493.18	93.56
493.398	98.56
493.615	91.56
493.833	96.56
494.05	91.56
494.268	83.56
494.485	91.56
494.703	92.56
494.92	93.56
495.138	88.56
495.355	102.56
495.573	91.56
495.79	112.56
496.008	103.56
496.225	101.56
496.442	103.56
496.66	90.56
496.877	102.56
497.094	101.56
497.312	94.56
497.529	88.56
497.746	93.56
497.963	95.56
498.181	86.56
498.398	94.56
498.615	106.56
498.832	91.56
499.049	89.56
499.267	93.56
499.484	92.56
499.701	92.56
499.918	97.56
500.135	91.56
500.352	98.56
500.569	94.56
500.786	83.56
501.003	91.56
501.22	102.56
501.437	92.56
501.654	86.56
501.871	104.56
502.088	83.56
502.305	90.56
502.522	91.56
502.739	85.56
502.956	93.56
503.172	93.56
503.389	92.56
503.606	98.56
503.823	96.56
504.04	88.56
504.256	108.56
504.473	97.56
504.69	96.56
504.907	81.56
505.123	91.56
505.34	111.56
505.557	79.56
505.773	87.56
505.99	83.56
506.207	94.56
506.423	107.56
506.64	108.56
506.856	92.56
507.073	98.56
507.289	93.56
507.506	84.56
507.722	123.56
507.939	104.56
508.155	98.56
508.372	106.56
508.588	94.56
508.805	94.56
509.021	104.56
509.238	112.56
509.454	91.56
509.67	87.56
509.887	104.56
510.103	119.56
510.319	181.56
510.536	659.56
510.752	2016.56
510.968	553.56
511.184	159.56
511.401	111.56
511.617	105.56
511.833	106.56
512.049	99.56
512.265	106.56
512.481	95.56
512.698	89.56
512.914	105.56
513.13	103.56
513.346	80.56
513.562	93.56
513.778	92.56
513.994	96.56
514.21	100.56
514.426	111.56
514.642	117.56
514.858	102.56
