Data from Uncirc_1993_H10_HRD10591_00062.txt Node
Date: Wed Jan 03 11:43:04 EST 2024
User: Yrep
Spectrometer: HR+D1059
Trigger mode: 1
Integration Time (sec): 1.000000E-1
Scans to average: 1
Electric dark correction enabled: true
Nonlinearity correction enabled: false
Boxcar width: 0
XAxis mode: Wavelengths
Number of Pixels in Spectrum: 2048
>>>>>Begin Spectral Data<<<<<
223.165	-5.56
223.4	-5.56
223.635	-5.56
223.869	-28.56
224.104	-14.56
224.338	-7.56
224.573	-24.56
224.808	-11.56
225.042	-0.56
225.277	-1.56
225.511	3.44
225.746	2.44
225.98	0.44
226.215	8.44
226.449	7.44
226.683	23.44
226.918	22.44
227.152	26.44
227.387	33.44
227.621	44.44
227.856	42.44
228.09	43.44
228.324	48.44
228.559	49.44
228.793	63.44
229.027	76.44
229.262	71.44
229.496	71.44
229.73	90.44
229.964	83.44
230.199	77.44
230.433	84.44
230.667	79.44
230.901	66.44
231.136	95.44
231.37	72.44
231.604	69.44
231.838	78.44
232.072	87.44
232.306	82.44
232.541	72.44
232.775	89.44
233.009	94.44
233.243	77.44
233.477	82.44
233.711	67.44
233.945	91.44
234.179	77.44
234.413	104.44
234.647	88.44
234.881	70.44
235.115	76.44
235.349	80.44
235.583	73.44
235.817	87.44
236.051	79.44
236.285	77.44
236.519	68.44
236.753	88.44
236.987	78.44
237.221	92.44
237.455	80.44
237.689	75.44
237.922	71.44
238.156	76.44
238.39	84.44
238.624	72.44
238.858	82.44
239.091	66.44
239.325	69.44
239.559	78.44
239.793	66.44
240.027	70.44
240.26	82.44
240.494	70.44
240.728	70.44
240.961	69.44
241.195	71.44
241.429	70.44
241.662	70.44
241.896	76.44
242.13	78.44
242.363	86.44
242.597	87.44
242.83	67.44
243.064	82.44
243.298	70.44
243.531	70.44
243.765	81.44
243.998	68.44
244.232	89.44
244.465	84.44
244.699	87.44
244.932	70.44
245.166	71.44
245.399	76.44
245.633	82.44
245.866	74.44
246.099	67.44
246.333	88.44
246.566	80.44
246.8	78.44
247.033	90.44
247.266	78.44
247.5	84.44
247.733	80.44
247.966	90.44
248.2	86.44
248.433	72.44
248.666	84.44
248.899	90.44
249.133	84.44
249.366	95.44
249.599	95.44
249.832	70.44
250.066	94.44
250.299	80.44
250.532	86.44
250.765	86.44
250.998	78.44
251.231	86.44
251.465	72.44
251.698	83.44
251.931	79.44
252.164	87.44
252.397	87.44
252.63	88.44
252.863	78.44
253.096	100.44
253.329	78.44
253.562	77.44
253.795	91.44
254.028	74.44
254.261	86.44
254.494	79.44
254.727	76.44
254.96	73.44
255.193	84.44
255.426	97.44
255.659	79.44
255.892	90.44
256.124	83.44
256.357	88.44
256.59	77.44
256.823	69.44
257.056	78.44
257.289	90.44
257.521	84.44
257.754	76.44
257.987	87.44
258.22	75.44
258.452	74.44
258.685	79.44
258.918	89.44
259.151	95.44
259.383	86.44
259.616	86.44
259.849	83.44
260.081	87.44
260.314	86.44
260.547	90.44
260.779	73.44
261.012	91.44
261.244	78.44
261.477	99.44
261.71	89.44
261.942	104.44
262.175	114.44
262.407	75.44
262.64	99.44
262.872	98.44
263.105	81.44
263.337	100.44
263.57	81.44
263.802	93.44
264.035	81.44
264.267	81.44
264.499	97.44
264.732	95.44
264.964	88.44
265.197	86.44
265.429	87.44
265.661	79.44
265.894	94.44
266.126	91.44
266.358	91.44
266.591	80.44
266.823	84.44
267.055	83.44
267.287	70.44
267.52	92.44
267.752	87.44
267.984	87.44
268.216	80.44
268.448	88.44
268.681	84.44
268.913	87.44
269.145	87.44
269.377	88.44
269.609	86.44
269.841	81.44
270.073	86.44
270.306	82.44
270.538	87.44
270.77	97.44
271.002	71.44
271.234	96.44
271.466	80.44
271.698	79.44
271.93	94.44
272.162	82.44
272.394	82.44
272.626	87.44
272.858	90.44
273.09	82.44
273.322	90.44
273.553	83.44
273.785	93.44
274.017	78.44
274.249	90.44
274.481	80.44
274.713	86.44
274.945	96.44
275.176	98.44
275.408	90.44
275.64	97.44
275.872	82.44
276.104	84.44
276.335	95.44
276.567	95.44
276.799	106.44
277.031	98.44
277.262	81.44
277.494	86.44
277.726	96.44
277.957	89.44
278.189	96.44
278.421	90.44
278.652	95.44
278.884	94.44
279.115	98.44
279.347	92.44
279.579	91.44
279.81	103.44
280.042	107.44
280.273	78.44
280.505	92.44
280.736	77.44
280.968	74.44
281.199	90.44
281.431	89.44
281.662	103.44
281.894	98.44
282.125	74.44
282.356	111.44
282.588	135.44
282.819	110.44
283.051	71.44
283.282	82.44
283.513	94.44
283.745	91.44
283.976	99.44
284.207	86.44
284.439	88.44
284.67	89.44
284.901	79.44
285.132	84.44
285.364	91.44
285.595	101.44
285.826	97.44
286.057	90.44
286.288	95.44
286.52	99.44
286.751	93.44
286.982	99.44
287.213	99.44
287.444	94.44
287.675	96.44
287.906	94.44
288.138	84.44
288.369	98.44
288.6	78.44
288.831	90.44
289.062	86.44
289.293	95.44
289.524	85.44
289.755	102.44
289.986	81.44
290.217	102.44
290.448	85.44
290.679	90.44
290.91	97.44
291.141	77.44
291.371	78.44
291.602	92.44
291.833	76.44
292.064	91.44
292.295	89.44
292.526	86.44
292.757	97.44
292.987	102.44
293.218	103.44
293.449	93.44
293.68	91.44
293.91	98.44
294.141	81.44
294.372	82.44
294.603	77.44
294.833	89.44
295.064	90.44
295.295	90.44
295.525	93.44
295.756	101.44
295.987	107.44
296.217	133.44
296.448	103.44
296.679	96.44
296.909	86.44
297.14	90.44
297.37	98.44
297.601	94.44
297.831	85.44
298.062	86.44
298.292	92.44
298.523	96.44
298.753	85.44
298.984	78.44
299.214	94.44
299.445	95.44
299.675	83.44
299.905	94.44
300.136	91.44
300.366	92.44
300.597	85.44
300.827	98.44
301.057	90.44
301.288	103.44
301.518	101.44
301.748	82.44
301.979	103.44
302.209	103.44
302.439	100.44
302.669	100.44
302.9	92.44
303.13	94.44
303.36	93.44
303.59	99.44
303.82	99.44
304.051	98.44
304.281	102.44
304.511	109.44
304.741	78.44
304.971	100.44
305.201	90.44
305.431	80.44
305.661	90.44
305.891	91.44
306.121	98.44
306.352	91.44
306.582	97.44
306.812	82.44
307.042	96.44
307.272	98.44
307.502	95.44
307.731	91.44
307.961	92.44
308.191	94.44
308.421	95.44
308.651	89.44
308.881	96.44
309.111	92.44
309.341	96.44
309.571	98.44
309.8	101.44
310.03	91.44
310.26	95.44
310.49	100.44
310.72	92.44
310.949	101.44
311.179	103.44
311.409	97.44
311.639	91.44
311.868	103.44
312.098	98.44
312.328	104.44
312.557	99.44
312.787	106.44
313.017	98.44
313.246	74.44
313.476	81.44
313.706	100.44
313.935	91.44
314.165	107.44
314.394	99.44
314.624	85.44
314.853	102.44
315.083	98.44
315.312	87.44
315.542	100.44
315.771	105.44
316.001	88.44
316.23	90.44
316.46	108.44
316.689	79.44
316.919	103.44
317.148	80.44
317.377	110.44
317.607	100.44
317.836	86.44
318.065	88.44
318.295	89.44
318.524	80.44
318.753	94.44
318.983	108.44
319.212	110.44
319.441	114.44
319.67	96.44
319.9	112.44
320.129	91.44
320.358	94.44
320.587	95.44
320.816	99.44
321.046	100.44
321.275	103.44
321.504	102.44
321.733	95.44
321.962	97.44
322.191	108.44
322.42	94.44
322.649	107.44
322.878	105.44
323.108	104.44
323.337	116.44
323.566	136.44
323.795	147.44
324.024	190.44
324.253	327.44
324.482	674.44
324.71	1320.44
324.939	1712.44
325.168	661.44
325.397	207.44
325.626	132.44
325.855	112.44
326.084	109.44
326.313	127.44
326.542	133.44
326.77	207.44
326.999	365.44
327.228	782.44
327.457	1327.44
327.686	1062.44
327.914	299.44
328.143	164.44
328.372	126.44
328.6	126.44
328.829	111.44
329.058	124.44
329.287	133.44
329.515	108.44
329.744	113.44
329.972	103.44
330.201	118.44
330.43	112.44
330.658	97.44
330.887	116.44
331.115	115.44
331.344	99.44
331.572	100.44
331.801	116.44
332.03	94.44
332.258	103.44
332.486	95.44
332.715	91.44
332.943	101.44
333.172	105.44
333.4	95.44
333.629	118.44
333.857	95.44
334.085	106.44
334.314	96.44
334.542	101.44
334.771	108.44
334.999	88.44
335.227	104.44
335.455	108.44
335.684	114.44
335.912	104.44
336.14	102.44
336.369	96.44
336.597	114.44
336.825	98.44
337.053	94.44
337.281	90.44
337.51	93.44
337.738	99.44
337.966	100.44
338.194	96.44
338.422	97.44
338.65	88.44
338.878	95.44
339.106	106.44
339.334	87.44
339.562	103.44
339.79	102.44
340.018	84.44
340.246	109.44
340.474	81.44
340.702	90.44
340.93	74.44
341.158	91.44
341.386	98.44
341.614	99.44
341.842	91.44
342.07	107.44
342.298	84.44
342.526	78.44
342.754	92.44
342.981	91.44
343.209	101.44
343.437	98.44
343.665	90.44
343.893	87.44
344.12	82.44
344.348	91.44
344.576	80.44
344.804	108.44
345.031	98.44
345.259	90.44
345.487	104.44
345.714	101.44
345.942	87.44
346.17	95.44
346.397	90.44
346.625	102.44
346.853	105.44
347.08	92.44
347.308	99.44
347.535	101.44
347.763	101.44
347.99	104.44
348.218	107.44
348.445	98.44
348.673	101.44
348.9	99.44
349.128	79.44
349.355	86.44
349.583	112.44
349.81	101.44
350.037	102.44
350.265	103.44
350.492	82.44
350.72	92.44
350.947	107.44
351.174	94.44
351.402	134.44
351.629	106.44
351.856	110.44
352.083	111.44
352.311	113.44
352.538	106.44
352.765	97.44
352.992	112.44
353.22	110.44
353.447	104.44
353.674	83.44
353.901	98.44
354.128	111.44
354.355	103.44
354.583	107.44
354.81	101.44
355.037	102.44
355.264	91.44
355.491	107.44
355.718	120.44
355.945	101.44
356.172	98.44
356.399	89.44
356.626	89.44
356.853	90.44
357.08	98.44
357.307	87.44
357.534	88.44
357.761	93.44
357.988	104.44
358.215	98.44
358.441	93.44
358.668	92.44
358.895	87.44
359.122	79.44
359.349	94.44
359.576	93.44
359.802	96.44
360.029	103.44
360.256	87.44
360.483	83.44
360.709	98.44
360.936	108.44
361.163	99.44
361.39	95.44
361.616	86.44
361.843	86.44
362.07	99.44
362.296	104.44
362.523	101.44
362.749	72.44
362.976	96.44
363.203	100.44
363.429	95.44
363.656	93.44
363.882	89.44
364.109	100.44
364.335	95.44
364.562	100.44
364.788	92.44
365.015	99.44
365.241	109.44
365.468	107.44
365.694	96.44
365.92	100.44
366.147	102.44
366.373	93.44
366.599	93.44
366.826	104.44
367.052	94.44
367.278	91.44
367.505	97.44
367.731	86.44
367.957	92.44
368.184	92.44
368.41	100.44
368.636	101.44
368.862	96.44
369.089	92.44
369.315	89.44
369.541	100.44
369.767	93.44
369.993	109.44
370.219	96.44
370.445	103.44
370.672	103.44
370.898	88.44
371.124	83.44
371.35	84.44
371.576	93.44
371.802	98.44
372.028	106.44
372.254	92.44
372.48	100.44
372.706	77.44
372.932	79.44
373.158	94.44
373.384	102.44
373.61	98.44
373.835	95.44
374.061	82.44
374.287	77.44
374.513	92.44
374.739	93.44
374.965	81.44
375.191	86.44
375.416	90.44
375.642	79.44
375.868	104.44
376.094	83.44
376.319	92.44
376.545	97.44
376.771	89.44
376.997	96.44
377.222	89.44
377.448	99.44
377.674	88.44
377.899	96.44
378.125	84.44
378.35	93.44
378.576	117.44
378.802	82.44
379.027	90.44
379.253	95.44
379.478	94.44
379.704	99.44
379.929	93.44
380.155	88.44
380.38	87.44
380.606	89.44
380.831	98.44
381.057	94.44
381.282	97.44
381.507	89.44
381.733	101.44
381.958	89.44
382.184	95.44
382.409	97.44
382.634	97.44
382.86	104.44
383.085	109.44
383.31	92.44
383.535	107.44
383.761	106.44
383.986	109.44
384.211	92.44
384.436	80.44
384.662	85.44
384.887	101.44
385.112	120.44
385.337	105.44
385.562	101.44
385.787	99.44
386.013	102.44
386.238	97.44
386.463	87.44
386.688	109.44
386.913	107.44
387.138	99.44
387.363	92.44
387.588	96.44
387.813	92.44
388.038	113.44
388.263	104.44
388.488	107.44
388.713	114.44
388.938	100.44
389.163	98.44
389.387	111.44
389.612	100.44
389.837	94.44
390.062	90.44
390.287	98.44
390.512	101.44
390.736	95.44
390.961	100.44
391.186	82.44
391.411	104.44
391.636	94.44
391.86	90.44
392.085	88.44
392.31	93.44
392.534	96.44
392.759	72.44
392.984	91.44
393.208	91.44
393.433	102.44
393.658	86.44
393.882	83.44
394.107	90.44
394.331	92.44
394.556	86.44
394.78	87.44
395.005	94.44
395.229	95.44
395.454	88.44
395.678	91.44
395.903	89.44
396.127	76.44
396.352	86.44
396.576	82.44
396.801	86.44
397.025	83.44
397.249	92.44
397.474	86.44
397.698	74.44
397.922	92.44
398.147	98.44
398.371	96.44
398.595	86.44
398.82	82.44
399.044	110.44
399.268	90.44
399.492	91.44
399.717	82.44
399.941	88.44
400.165	99.44
400.389	94.44
400.613	87.44
400.837	95.44
401.062	101.44
401.286	95.44
401.51	82.44
401.734	104.44
401.958	94.44
402.182	127.44
402.406	139.44
402.63	117.44
402.854	90.44
403.078	98.44
403.302	98.44
403.526	92.44
403.75	101.44
403.974	83.44
404.198	86.44
404.422	99.44
404.645	78.44
404.869	103.44
405.093	90.44
405.317	86.44
405.541	102.44
405.765	88.44
405.988	114.44
406.212	162.44
406.436	214.44
406.66	133.44
406.883	105.44
407.107	97.44
407.331	93.44
407.555	98.44
407.778	103.44
408.002	76.44
408.226	85.44
408.449	96.44
408.673	110.44
408.896	89.44
409.12	100.44
409.344	95.44
409.567	87.44
409.791	91.44
410.014	95.44
410.238	90.44
410.461	90.44
410.685	95.44
410.908	98.44
411.132	109.44
411.355	106.44
411.578	100.44
411.802	93.44
412.025	85.44
412.249	92.44
412.472	113.44
412.695	102.44
412.919	94.44
413.142	85.44
413.365	107.44
413.589	75.44
413.812	81.44
414.035	92.44
414.258	94.44
414.482	86.44
414.705	79.44
414.928	94.44
415.151	85.44
415.374	80.44
415.597	97.44
415.821	92.44
416.044	85.44
416.267	87.44
416.49	95.44
416.713	95.44
416.936	94.44
417.159	97.44
417.382	96.44
417.605	92.44
417.828	86.44
418.051	87.44
418.274	109.44
418.497	84.44
418.72	111.44
418.943	85.44
419.166	85.44
419.389	93.44
419.611	86.44
419.834	91.44
420.057	90.44
420.28	98.44
420.503	91.44
420.726	77.44
420.948	83.44
421.171	94.44
421.394	98.44
421.617	84.44
421.839	97.44
422.062	102.44
422.285	81.44
422.507	105.44
422.73	102.44
422.953	92.44
423.175	77.44
423.398	98.44
423.621	83.44
423.843	84.44
424.066	98.44
424.288	81.44
424.511	84.44
424.733	83.44
424.956	117.44
425.178	101.44
425.401	99.44
425.623	97.44
425.846	84.44
426.068	84.44
426.291	88.44
426.513	88.44
426.735	88.44
426.958	101.44
427.18	106.44
427.402	122.44
427.625	140.44
427.847	125.44
428.069	105.44
428.292	84.44
428.514	84.44
428.736	87.44
428.958	78.44
429.181	90.44
429.403	85.44
429.625	98.44
429.847	83.44
430.069	98.44
430.292	92.44
430.514	96.44
430.736	88.44
430.958	100.44
431.18	71.44
431.402	82.44
431.624	86.44
431.846	88.44
432.068	100.44
432.29	91.44
432.512	83.44
432.734	82.44
432.956	91.44
433.178	91.44
433.4	104.44
433.622	105.44
433.844	78.44
434.066	96.44
434.287	81.44
434.509	86.44
434.731	93.44
434.953	87.44
435.175	86.44
435.397	80.44
435.618	76.44
435.84	92.44
436.062	115.44
436.284	115.44
436.505	110.44
436.727	94.44
436.949	101.44
437.17	86.44
437.392	98.44
437.614	83.44
437.835	100.44
438.057	105.44
438.278	97.44
438.5	103.44
438.721	119.44
438.943	109.44
439.165	85.44
439.386	93.44
439.608	96.44
439.829	90.44
440.05	123.44
440.272	138.44
440.493	109.44
440.715	91.44
440.936	80.44
441.158	77.44
441.379	74.44
441.6	99.44
441.822	97.44
442.043	97.44
442.264	107.44
442.486	109.44
442.707	96.44
442.928	92.44
443.149	122.44
443.371	140.44
443.592	92.44
443.813	112.44
444.034	104.44
444.255	95.44
444.476	89.44
444.698	87.44
444.919	89.44
445.14	135.44
445.361	120.44
445.582	114.44
445.803	118.44
446.024	125.44
446.245	142.44
446.466	104.44
446.687	91.44
446.908	77.44
447.129	91.44
447.35	96.44
447.571	102.44
447.792	102.44
448.013	96.44
448.234	99.44
448.455	83.44
448.675	110.44
448.896	95.44
449.117	108.44
449.338	100.44
449.559	100.44
449.779	124.44
450	98.44
450.221	78.44
450.442	85.44
450.662	87.44
450.883	97.44
451.104	103.44
451.324	101.44
451.545	88.44
451.766	90.44
451.986	91.44
452.207	85.44
452.428	94.44
452.648	93.44
452.869	107.44
453.089	109.44
453.31	115.44
453.53	100.44
453.751	91.44
453.971	100.44
454.192	107.44
454.412	83.44
454.633	98.44
454.853	82.44
455.073	91.44
455.294	100.44
455.514	87.44
455.734	98.44
455.955	97.44
456.175	92.44
456.395	84.44
456.616	87.44
456.836	91.44
457.056	98.44
457.276	85.44
457.497	92.44
457.717	91.44
457.937	83.44
458.157	85.44
458.377	86.44
458.598	125.44
458.818	138.44
459.038	142.44
459.258	113.44
459.478	80.44
459.698	86.44
459.918	93.44
460.138	71.44
460.358	89.44
460.578	87.44
460.798	91.44
461.018	91.44
461.238	93.44
461.458	96.44
461.678	83.44
461.898	91.44
462.118	87.44
462.338	74.44
462.558	95.44
462.777	87.44
462.997	91.44
463.217	92.44
463.437	103.44
463.657	78.44
463.876	92.44
464.096	99.44
464.316	88.44
464.536	92.44
464.755	98.44
464.975	98.44
465.195	163.44
465.414	135.44
465.634	107.44
465.854	103.44
466.073	90.44
466.293	87.44
466.512	101.44
466.732	80.44
466.951	99.44
467.171	90.44
467.391	86.44
467.61	88.44
467.829	91.44
468.049	93.44
468.268	97.44
468.488	95.44
468.707	96.44
468.927	81.44
469.146	98.44
469.365	84.44
469.585	93.44
469.804	82.44
470.023	85.44
470.243	83.44
470.462	108.44
470.681	107.44
470.901	86.44
471.12	88.44
471.339	88.44
471.558	67.44
471.777	91.44
471.997	76.44
472.216	100.44
472.435	100.44
472.654	98.44
472.873	92.44
473.092	88.44
473.311	88.44
473.53	86.44
473.749	91.44
473.968	90.44
474.187	103.44
474.406	103.44
474.625	83.44
474.844	102.44
475.063	92.44
475.282	90.44
475.501	98.44
475.72	86.44
475.939	97.44
476.158	62.44
476.377	92.44
476.596	94.44
476.814	94.44
477.033	99.44
477.252	100.44
477.471	100.44
477.69	90.44
477.908	103.44
478.127	107.44
478.346	95.44
478.564	100.44
478.783	91.44
479.002	103.44
479.22	102.44
479.439	96.44
479.658	97.44
479.876	86.44
480.095	84.44
480.313	101.44
480.532	95.44
480.751	94.44
480.969	84.44
481.188	113.44
481.406	98.44
481.624	79.44
481.843	108.44
482.061	94.44
482.28	71.44
482.498	96.44
482.717	105.44
482.935	89.44
483.153	84.44
483.372	84.44
483.59	74.44
483.808	98.44
484.027	91.44
484.245	86.44
484.463	82.44
484.681	103.44
484.9	92.44
485.118	95.44
485.336	99.44
485.554	98.44
485.772	99.44
485.99	121.44
486.209	90.44
486.427	92.44
486.645	99.44
486.863	104.44
487.081	102.44
487.299	98.44
487.517	99.44
487.735	116.44
487.953	95.44
488.171	96.44
488.389	96.44
488.607	113.44
488.825	92.44
489.043	82.44
489.261	106.44
489.479	93.44
489.696	82.44
489.914	82.44
490.132	92.44
490.35	90.44
490.568	106.44
490.786	90.44
491.003	77.44
491.221	94.44
491.439	92.44
491.657	100.44
491.874	90.44
492.092	85.44
492.31	101.44
492.527	84.44
492.745	87.44
492.963	98.44
493.18	90.44
493.398	84.44
493.615	79.44
493.833	106.44
494.05	96.44
494.268	94.44
494.485	84.44
494.703	91.44
494.92	87.44
495.138	85.44
495.355	102.44
495.573	84.44
495.79	87.44
496.008	104.44
496.225	96.44
496.442	81.44
496.66	103.44
496.877	88.44
497.094	100.44
497.312	99.44
497.529	86.44
497.746	100.44
497.963	101.44
498.181	92.44
498.398	117.44
498.615	106.44
498.832	113.44
499.049	94.44
499.267	101.44
499.484	111.44
499.701	93.44
499.918	91.44
500.135	90.44
500.352	79.44
500.569	80.44
500.786	104.44
501.003	96.44
501.22	111.44
501.437	86.44
501.654	106.44
501.871	109.44
502.088	97.44
502.305	79.44
502.522	98.44
502.739	84.44
502.956	87.44
503.172	86.44
503.389	97.44
503.606	106.44
503.823	94.44
504.04	85.44
504.256	108.44
504.473	91.44
504.69	76.44
504.907	102.44
505.123	93.44
505.34	107.44
505.557	100.44
505.773	101.44
505.99	76.44
506.207	88.44
506.423	91.44
506.64	79.44
506.856	102.44
507.073	98.44
507.289	97.44
507.506	100.44
507.722	110.44
507.939	115.44
508.155	100.44
508.372	88.44
508.588	88.44
508.805	99.44
509.021	104.44
509.238	106.44
509.454	96.44
509.67	104.44
509.887	122.44
510.103	129.44
510.319	211.44
510.536	676.44
510.752	2134.44
510.968	575.44
511.184	158.44
511.401	122.44
511.617	95.44
511.833	89.44
512.049	97.44
512.265	103.44
512.481	101.44
512.698	86.44
512.914	103.44
513.13	100.44
513.346	93.44
513.562	90.44
513.778	90.44
513.994	88.44
514.21	100.44
514.426	99.44
514.642	134.44
514.858	119.44
515.074	174.44
