Data from Uncirc_1993_H10_HRD10591_00096.txt Node
Date: Wed Jan 03 11:43:11 EST 2024
User: Yrep
Spectrometer: HR+D1059
Trigger mode: 1
Integration Time (sec): 1.000000E-1
Scans to average: 1
Electric dark correction enabled: true
Nonlinearity correction enabled: false
Boxcar width: 0
XAxis mode: Wavelengths
Number of Pixels in Spectrum: 2048
>>>>>Begin Spectral Data<<<<<
223.165	-15.5
223.4	-15.5
223.635	-15.5
223.869	-6.5
224.104	-12.5
224.338	-24.5
224.573	-31.5
224.808	1.5
225.042	-10.5
225.277	-11.5
225.511	-0.5
225.746	-6.5
225.98	-3.5
226.215	13.5
226.449	21.5
226.683	30.5
226.918	15.5
227.152	40.5
227.387	31.5
227.621	42.5
227.856	41.5
228.09	37.5
228.324	48.5
228.559	67.5
228.793	69.5
229.027	71.5
229.262	65.5
229.496	71.5
229.73	89.5
229.964	82.5
230.199	82.5
230.433	81.5
230.667	82.5
230.901	76.5
231.136	69.5
231.37	84.5
231.604	81.5
231.838	77.5
232.072	86.5
232.306	101.5
232.541	80.5
232.775	76.5
233.009	84.5
233.243	80.5
233.477	86.5
233.711	86.5
233.945	80.5
234.179	75.5
234.413	87.5
234.647	86.5
234.881	91.5
235.115	79.5
235.349	84.5
235.583	76.5
235.817	74.5
236.051	80.5
236.285	80.5
236.519	84.5
236.753	72.5
236.987	88.5
237.221	87.5
237.455	82.5
237.689	78.5
237.922	72.5
238.156	89.5
238.39	87.5
238.624	77.5
238.858	91.5
239.091	70.5
239.325	78.5
239.559	70.5
239.793	87.5
240.027	69.5
240.26	79.5
240.494	75.5
240.728	82.5
240.961	71.5
241.195	76.5
241.429	82.5
241.662	79.5
241.896	80.5
242.13	64.5
242.363	76.5
242.597	79.5
242.83	79.5
243.064	65.5
243.298	89.5
243.531	86.5
243.765	69.5
243.998	88.5
244.232	91.5
244.465	99.5
244.699	78.5
244.932	83.5
245.166	81.5
245.399	66.5
245.633	80.5
245.866	87.5
246.099	84.5
246.333	78.5
246.566	68.5
246.8	93.5
247.033	92.5
247.266	66.5
247.5	83.5
247.733	84.5
247.966	87.5
248.2	81.5
248.433	76.5
248.666	85.5
248.899	86.5
249.133	87.5
249.366	101.5
249.599	87.5
249.832	76.5
250.066	77.5
250.299	72.5
250.532	79.5
250.765	69.5
250.998	76.5
251.231	71.5
251.465	106.5
251.698	94.5
251.931	74.5
252.164	94.5
252.397	89.5
252.63	83.5
252.863	87.5
253.096	84.5
253.329	102.5
253.562	83.5
253.795	87.5
254.028	76.5
254.261	74.5
254.494	66.5
254.727	84.5
254.96	84.5
255.193	89.5
255.426	84.5
255.659	92.5
255.892	74.5
256.124	74.5
256.357	91.5
256.59	69.5
256.823	74.5
257.056	86.5
257.289	81.5
257.521	78.5
257.754	83.5
257.987	90.5
258.22	89.5
258.452	80.5
258.685	83.5
258.918	80.5
259.151	77.5
259.383	77.5
259.616	81.5
259.849	74.5
260.081	61.5
260.314	82.5
260.547	69.5
260.779	80.5
261.012	88.5
261.244	79.5
261.477	98.5
261.71	91.5
261.942	107.5
262.175	104.5
262.407	70.5
262.64	87.5
262.872	88.5
263.105	90.5
263.337	93.5
263.57	88.5
263.802	92.5
264.035	93.5
264.267	92.5
264.499	98.5
264.732	83.5
264.964	91.5
265.197	80.5
265.429	77.5
265.661	88.5
265.894	76.5
266.126	88.5
266.358	83.5
266.591	82.5
266.823	87.5
267.055	98.5
267.287	70.5
267.52	95.5
267.752	79.5
267.984	83.5
268.216	82.5
268.448	82.5
268.681	86.5
268.913	77.5
269.145	76.5
269.377	82.5
269.609	74.5
269.841	83.5
270.073	77.5
270.306	90.5
270.538	90.5
270.77	81.5
271.002	88.5
271.234	98.5
271.466	96.5
271.698	87.5
271.93	93.5
272.162	91.5
272.394	102.5
272.626	87.5
272.858	58.5
273.09	76.5
273.322	78.5
273.553	88.5
273.785	99.5
274.017	90.5
274.249	81.5
274.481	90.5
274.713	95.5
274.945	84.5
275.176	88.5
275.408	92.5
275.64	85.5
275.872	90.5
276.104	87.5
276.335	82.5
276.567	99.5
276.799	106.5
277.031	93.5
277.262	92.5
277.494	90.5
277.726	71.5
277.957	80.5
278.189	87.5
278.421	85.5
278.652	93.5
278.884	89.5
279.115	94.5
279.347	93.5
279.579	94.5
279.81	80.5
280.042	87.5
280.273	81.5
280.505	68.5
280.736	94.5
280.968	82.5
281.199	82.5
281.431	92.5
281.662	93.5
281.894	91.5
282.125	114.5
282.356	114.5
282.588	147.5
282.819	110.5
283.051	96.5
283.282	96.5
283.513	86.5
283.745	86.5
283.976	80.5
284.207	94.5
284.439	92.5
284.67	90.5
284.901	74.5
285.132	84.5
285.364	88.5
285.595	90.5
285.826	78.5
286.057	63.5
286.288	76.5
286.52	85.5
286.751	78.5
286.982	85.5
287.213	90.5
287.444	91.5
287.675	80.5
287.906	82.5
288.138	86.5
288.369	83.5
288.6	90.5
288.831	93.5
289.062	82.5
289.293	86.5
289.524	93.5
289.755	86.5
289.986	86.5
290.217	87.5
290.448	92.5
290.679	78.5
290.91	84.5
291.141	72.5
291.371	88.5
291.602	100.5
291.833	77.5
292.064	90.5
292.295	98.5
292.526	99.5
292.757	77.5
292.987	88.5
293.218	92.5
293.449	101.5
293.68	79.5
293.91	92.5
294.141	95.5
294.372	75.5
294.603	74.5
294.833	91.5
295.064	92.5
295.295	87.5
295.525	93.5
295.756	113.5
295.987	116.5
296.217	119.5
296.448	128.5
296.679	101.5
296.909	94.5
297.14	96.5
297.37	91.5
297.601	97.5
297.831	78.5
298.062	91.5
298.292	85.5
298.523	100.5
298.753	83.5
298.984	100.5
299.214	93.5
299.445	88.5
299.675	103.5
299.905	87.5
300.136	103.5
300.366	86.5
300.597	86.5
300.827	90.5
301.057	103.5
301.288	107.5
301.518	97.5
301.748	98.5
301.979	105.5
302.209	94.5
302.439	85.5
302.669	98.5
302.9	81.5
303.13	80.5
303.36	93.5
303.59	109.5
303.82	111.5
304.051	94.5
304.281	95.5
304.511	103.5
304.741	79.5
304.971	87.5
305.201	102.5
305.431	88.5
305.661	95.5
305.891	99.5
306.121	104.5
306.352	106.5
306.582	116.5
306.812	83.5
307.042	98.5
307.272	96.5
307.502	99.5
307.731	99.5
307.961	96.5
308.191	98.5
308.421	90.5
308.651	98.5
308.881	95.5
309.111	89.5
309.341	87.5
309.571	92.5
309.8	104.5
310.03	104.5
310.26	94.5
310.49	109.5
310.72	94.5
310.949	107.5
311.179	100.5
311.409	90.5
311.639	91.5
311.868	107.5
312.098	101.5
312.328	100.5
312.557	94.5
312.787	116.5
313.017	92.5
313.246	99.5
313.476	93.5
313.706	106.5
313.935	94.5
314.165	91.5
314.394	95.5
314.624	103.5
314.853	90.5
315.083	97.5
315.312	101.5
315.542	85.5
315.771	98.5
316.001	80.5
316.23	82.5
316.46	78.5
316.689	88.5
316.919	100.5
317.148	95.5
317.377	101.5
317.607	88.5
317.836	104.5
318.065	85.5
318.295	93.5
318.524	82.5
318.753	90.5
318.983	98.5
319.212	112.5
319.441	101.5
319.67	96.5
319.9	102.5
320.129	106.5
320.358	97.5
320.587	86.5
320.816	92.5
321.046	94.5
321.275	100.5
321.504	94.5
321.733	105.5
321.962	89.5
322.191	110.5
322.42	100.5
322.649	106.5
322.878	110.5
323.108	131.5
323.337	121.5
323.566	135.5
323.795	160.5
324.024	194.5
324.253	344.5
324.482	718.5
324.71	1470.5
324.939	1852.5
325.168	686.5
325.397	212.5
325.626	138.5
325.855	125.5
326.084	114.5
326.313	135.5
326.542	143.5
326.77	208.5
326.999	413.5
327.228	791.5
327.457	1419.5
327.686	1114.5
327.914	322.5
328.143	181.5
328.372	142.5
328.6	121.5
328.829	122.5
329.058	110.5
329.287	137.5
329.515	102.5
329.744	99.5
329.972	108.5
330.201	110.5
330.43	117.5
330.658	104.5
330.887	135.5
331.115	110.5
331.344	107.5
331.572	94.5
331.801	108.5
332.03	102.5
332.258	102.5
332.486	87.5
332.715	92.5
332.943	97.5
333.172	99.5
333.4	98.5
333.629	103.5
333.857	107.5
334.085	109.5
334.314	97.5
334.542	109.5
334.771	100.5
334.999	96.5
335.227	97.5
335.455	101.5
335.684	102.5
335.912	87.5
336.14	95.5
336.369	114.5
336.597	104.5
336.825	84.5
337.053	84.5
337.281	81.5
337.51	81.5
337.738	96.5
337.966	95.5
338.194	97.5
338.422	98.5
338.65	100.5
338.878	98.5
339.106	88.5
339.334	95.5
339.562	89.5
339.79	84.5
340.018	85.5
340.246	90.5
340.474	101.5
340.702	104.5
340.93	98.5
341.158	93.5
341.386	102.5
341.614	107.5
341.842	106.5
342.07	92.5
342.298	98.5
342.526	101.5
342.754	97.5
342.981	84.5
343.209	94.5
343.437	96.5
343.665	90.5
343.893	83.5
344.12	90.5
344.348	83.5
344.576	109.5
344.804	80.5
345.031	88.5
345.259	90.5
345.487	104.5
345.714	91.5
345.942	110.5
346.17	82.5
346.397	88.5
346.625	96.5
346.853	92.5
347.08	96.5
347.308	102.5
347.535	90.5
347.763	92.5
347.99	89.5
348.218	116.5
348.445	103.5
348.673	92.5
348.9	106.5
349.128	104.5
349.355	98.5
349.583	91.5
349.81	77.5
350.037	100.5
350.265	93.5
350.492	105.5
350.72	99.5
350.947	99.5
351.174	112.5
351.402	106.5
351.629	101.5
351.856	99.5
352.083	101.5
352.311	114.5
352.538	101.5
352.765	118.5
352.992	115.5
353.22	101.5
353.447	113.5
353.674	109.5
353.901	94.5
354.128	111.5
354.355	102.5
354.583	101.5
354.81	98.5
355.037	94.5
355.264	90.5
355.491	94.5
355.718	98.5
355.945	93.5
356.172	92.5
356.399	103.5
356.626	99.5
356.853	99.5
357.08	101.5
357.307	95.5
357.534	74.5
357.761	99.5
357.988	102.5
358.215	91.5
358.441	100.5
358.668	96.5
358.895	88.5
359.122	85.5
359.349	81.5
359.576	107.5
359.802	114.5
360.029	118.5
360.256	103.5
360.483	106.5
360.709	92.5
360.936	93.5
361.163	79.5
361.39	92.5
361.616	87.5
361.843	104.5
362.07	102.5
362.296	94.5
362.523	100.5
362.749	97.5
362.976	90.5
363.203	81.5
363.429	78.5
363.656	99.5
363.882	95.5
364.109	96.5
364.335	85.5
364.562	95.5
364.788	84.5
365.015	93.5
365.241	109.5
365.468	99.5
365.694	94.5
365.92	98.5
366.147	102.5
366.373	94.5
366.599	93.5
366.826	76.5
367.052	100.5
367.278	98.5
367.505	98.5
367.731	111.5
367.957	97.5
368.184	104.5
368.41	98.5
368.636	104.5
368.862	115.5
369.089	107.5
369.315	96.5
369.541	99.5
369.767	99.5
369.993	101.5
370.219	87.5
370.445	77.5
370.672	88.5
370.898	91.5
371.124	92.5
371.35	95.5
371.576	81.5
371.802	85.5
372.028	111.5
372.254	89.5
372.48	93.5
372.706	82.5
372.932	94.5
373.158	84.5
373.384	91.5
373.61	83.5
373.835	95.5
374.061	94.5
374.287	96.5
374.513	108.5
374.739	78.5
374.965	91.5
375.191	95.5
375.416	101.5
375.642	97.5
375.868	103.5
376.094	90.5
376.319	96.5
376.545	89.5
376.771	90.5
376.997	88.5
377.222	76.5
377.448	88.5
377.674	101.5
377.899	88.5
378.125	92.5
378.35	86.5
378.576	92.5
378.802	84.5
379.027	91.5
379.253	95.5
379.478	91.5
379.704	91.5
379.929	105.5
380.155	109.5
380.38	104.5
380.606	91.5
380.831	85.5
381.057	92.5
381.282	92.5
381.507	92.5
381.733	95.5
381.958	100.5
382.184	93.5
382.409	97.5
382.634	105.5
382.86	99.5
383.085	101.5
383.31	105.5
383.535	88.5
383.761	93.5
383.986	100.5
384.211	98.5
384.436	95.5
384.662	116.5
384.887	102.5
385.112	101.5
385.337	98.5
385.562	96.5
385.787	99.5
386.013	100.5
386.238	95.5
386.463	99.5
386.688	102.5
386.913	99.5
387.138	109.5
387.363	103.5
387.588	101.5
387.813	112.5
388.038	101.5
388.263	106.5
388.488	110.5
388.713	102.5
388.938	90.5
389.163	94.5
389.387	98.5
389.612	108.5
389.837	104.5
390.062	94.5
390.287	94.5
390.512	85.5
390.736	94.5
390.961	96.5
391.186	91.5
391.411	79.5
391.636	77.5
391.86	87.5
392.085	97.5
392.31	102.5
392.534	95.5
392.759	104.5
392.984	83.5
393.208	90.5
393.433	85.5
393.658	87.5
393.882	79.5
394.107	82.5
394.331	93.5
394.556	90.5
394.78	91.5
395.005	97.5
395.229	98.5
395.454	89.5
395.678	80.5
395.903	71.5
396.127	96.5
396.352	81.5
396.576	93.5
396.801	72.5
397.025	90.5
397.249	99.5
397.474	88.5
397.698	99.5
397.922	100.5
398.147	78.5
398.371	86.5
398.595	87.5
398.82	95.5
399.044	92.5
399.268	96.5
399.492	100.5
399.717	96.5
399.941	87.5
400.165	100.5
400.389	84.5
400.613	93.5
400.837	86.5
401.062	76.5
401.286	87.5
401.51	103.5
401.734	77.5
401.958	102.5
402.182	130.5
402.406	150.5
402.63	118.5
402.854	96.5
403.078	96.5
403.302	91.5
403.526	100.5
403.75	86.5
403.974	99.5
404.198	95.5
404.422	82.5
404.645	87.5
404.869	90.5
405.093	84.5
405.317	100.5
405.541	91.5
405.765	95.5
405.988	121.5
406.212	154.5
406.436	233.5
406.66	154.5
406.883	103.5
407.107	102.5
407.331	99.5
407.555	98.5
407.778	98.5
408.002	85.5
408.226	96.5
408.449	91.5
408.673	83.5
408.896	107.5
409.12	102.5
409.344	92.5
409.567	95.5
409.791	96.5
410.014	104.5
410.238	94.5
410.461	108.5
410.685	90.5
410.908	112.5
411.132	108.5
411.355	102.5
411.578	86.5
411.802	94.5
412.025	92.5
412.249	87.5
412.472	101.5
412.695	86.5
412.919	83.5
413.142	88.5
413.365	83.5
413.589	77.5
413.812	90.5
414.035	95.5
414.258	95.5
414.482	92.5
414.705	90.5
414.928	86.5
415.151	88.5
415.374	95.5
415.597	83.5
415.821	86.5
416.044	81.5
416.267	75.5
416.49	95.5
416.713	80.5
416.936	95.5
417.159	106.5
417.382	88.5
417.605	98.5
417.828	109.5
418.051	90.5
418.274	88.5
418.497	95.5
418.72	84.5
418.943	75.5
419.166	98.5
419.389	86.5
419.611	86.5
419.834	108.5
420.057	92.5
420.28	86.5
420.503	74.5
420.726	108.5
420.948	84.5
421.171	101.5
421.394	85.5
421.617	58.5
421.839	90.5
422.062	87.5
422.285	102.5
422.507	104.5
422.73	108.5
422.953	92.5
423.175	83.5
423.398	89.5
423.621	79.5
423.843	94.5
424.066	88.5
424.288	96.5
424.511	83.5
424.733	106.5
424.956	100.5
425.178	90.5
425.401	101.5
425.623	92.5
425.846	76.5
426.068	92.5
426.291	88.5
426.513	106.5
426.735	90.5
426.958	108.5
427.18	99.5
427.402	122.5
427.625	141.5
427.847	131.5
428.069	112.5
428.292	92.5
428.514	82.5
428.736	89.5
428.958	87.5
429.181	86.5
429.403	77.5
429.625	103.5
429.847	87.5
430.069	88.5
430.292	91.5
430.514	94.5
430.736	91.5
430.958	81.5
431.18	77.5
431.402	96.5
431.624	88.5
431.846	89.5
432.068	94.5
432.29	90.5
432.512	89.5
432.734	97.5
432.956	94.5
433.178	103.5
433.4	98.5
433.622	85.5
433.844	93.5
434.066	96.5
434.287	96.5
434.509	81.5
434.731	99.5
434.953	87.5
435.175	90.5
435.397	103.5
435.618	106.5
435.84	102.5
436.062	123.5
436.284	120.5
436.505	97.5
436.727	96.5
436.949	93.5
437.17	84.5
437.392	91.5
437.614	80.5
437.835	86.5
438.057	114.5
438.278	126.5
438.5	125.5
438.721	123.5
438.943	98.5
439.165	88.5
439.386	98.5
439.608	90.5
439.829	101.5
440.05	123.5
440.272	143.5
440.493	106.5
440.715	103.5
440.936	80.5
441.158	85.5
441.379	85.5
441.6	97.5
441.822	94.5
442.043	76.5
442.264	97.5
442.486	116.5
442.707	94.5
442.928	94.5
443.149	108.5
443.371	125.5
443.592	99.5
443.813	107.5
444.034	101.5
444.255	88.5
444.476	94.5
444.698	91.5
444.919	77.5
445.14	134.5
445.361	118.5
445.582	109.5
445.803	121.5
446.024	118.5
446.245	125.5
446.466	98.5
446.687	87.5
446.908	98.5
447.129	77.5
447.35	100.5
447.571	102.5
447.792	90.5
448.013	100.5
448.234	119.5
448.455	97.5
448.675	95.5
448.896	103.5
449.117	95.5
449.338	113.5
449.559	128.5
449.779	120.5
450	96.5
450.221	85.5
450.442	84.5
450.662	108.5
450.883	111.5
451.104	110.5
451.324	92.5
451.545	83.5
451.766	103.5
451.986	76.5
452.207	99.5
452.428	87.5
452.648	87.5
452.869	95.5
453.089	102.5
453.31	120.5
453.53	102.5
453.751	98.5
453.971	100.5
454.192	132.5
454.412	93.5
454.633	91.5
454.853	88.5
455.073	89.5
455.294	97.5
455.514	95.5
455.734	86.5
455.955	79.5
456.175	72.5
456.395	78.5
456.616	92.5
456.836	93.5
457.056	88.5
457.276	92.5
457.497	85.5
457.717	98.5
457.937	80.5
458.157	101.5
458.377	103.5
458.598	101.5
458.818	125.5
459.038	168.5
459.258	119.5
459.478	94.5
459.698	90.5
459.918	104.5
460.138	68.5
460.358	81.5
460.578	90.5
460.798	87.5
461.018	80.5
461.238	91.5
461.458	93.5
461.678	75.5
461.898	91.5
462.118	92.5
462.338	95.5
462.558	87.5
462.777	95.5
462.997	90.5
463.217	75.5
463.437	90.5
463.657	86.5
463.876	95.5
464.096	87.5
464.316	99.5
464.536	81.5
464.755	99.5
464.975	83.5
465.195	167.5
465.414	157.5
465.634	86.5
465.854	84.5
466.073	89.5
466.293	87.5
466.512	76.5
466.732	93.5
466.951	95.5
467.171	90.5
467.391	107.5
467.61	104.5
467.829	95.5
468.049	86.5
468.268	86.5
468.488	87.5
468.707	90.5
468.927	79.5
469.146	80.5
469.365	74.5
469.585	78.5
469.804	75.5
470.023	91.5
470.243	78.5
470.462	90.5
470.681	103.5
470.901	101.5
471.12	104.5
471.339	91.5
471.558	103.5
471.777	78.5
471.997	84.5
472.216	87.5
472.435	102.5
472.654	98.5
472.873	84.5
473.092	90.5
473.311	83.5
473.53	100.5
473.749	95.5
473.968	85.5
474.187	114.5
474.406	94.5
474.625	95.5
474.844	98.5
475.063	93.5
475.282	95.5
475.501	85.5
475.72	100.5
475.939	91.5
476.158	90.5
476.377	89.5
476.596	96.5
476.814	90.5
477.033	94.5
477.252	103.5
477.471	94.5
477.69	90.5
477.908	88.5
478.127	97.5
478.346	75.5
478.564	99.5
478.783	97.5
479.002	94.5
479.22	107.5
479.439	93.5
479.658	92.5
479.876	101.5
480.095	88.5
480.313	99.5
480.532	101.5
480.751	96.5
480.969	99.5
481.188	111.5
481.406	105.5
481.624	96.5
481.843	87.5
482.061	82.5
482.28	96.5
482.498	88.5
482.717	89.5
482.935	86.5
483.153	89.5
483.372	86.5
483.59	101.5
483.808	97.5
484.027	90.5
484.245	102.5
484.463	86.5
484.681	90.5
484.9	96.5
485.118	94.5
485.336	97.5
485.554	87.5
485.772	108.5
485.99	99.5
486.209	114.5
486.427	87.5
486.645	102.5
486.863	103.5
487.081	104.5
487.299	86.5
487.517	90.5
487.735	87.5
487.953	98.5
488.171	105.5
488.389	110.5
488.607	105.5
488.825	98.5
489.043	108.5
489.261	91.5
489.479	94.5
489.696	103.5
489.914	78.5
490.132	74.5
490.35	98.5
490.568	88.5
490.786	92.5
491.003	88.5
491.221	84.5
491.439	89.5
491.657	91.5
491.874	82.5
492.092	100.5
492.31	97.5
492.527	86.5
492.745	78.5
492.963	95.5
493.18	94.5
493.398	91.5
493.615	95.5
493.833	82.5
494.05	82.5
494.268	93.5
494.485	76.5
494.703	84.5
494.92	94.5
495.138	98.5
495.355	80.5
495.573	101.5
495.79	89.5
496.008	93.5
496.225	95.5
496.442	88.5
496.66	97.5
496.877	94.5
497.094	95.5
497.312	94.5
497.529	99.5
497.746	78.5
497.963	92.5
498.181	86.5
498.398	104.5
498.615	107.5
498.832	103.5
499.049	86.5
499.267	98.5
499.484	95.5
499.701	89.5
499.918	100.5
500.135	103.5
500.352	77.5
500.569	88.5
500.786	87.5
501.003	103.5
501.22	72.5
501.437	96.5
501.654	110.5
501.871	99.5
502.088	98.5
502.305	101.5
502.522	91.5
502.739	95.5
502.956	112.5
503.172	90.5
503.389	102.5
503.606	98.5
503.823	87.5
504.04	111.5
504.256	87.5
504.473	89.5
504.69	93.5
504.907	82.5
505.123	96.5
505.34	94.5
505.557	95.5
505.773	95.5
505.99	87.5
506.207	95.5
506.423	98.5
506.64	95.5
506.856	94.5
507.073	78.5
507.289	87.5
507.506	107.5
507.722	115.5
507.939	113.5
508.155	98.5
508.372	89.5
508.588	102.5
508.805	100.5
509.021	94.5
509.238	84.5
509.454	104.5
509.67	82.5
509.887	111.5
510.103	131.5
510.319	216.5
510.536	738.5
510.752	2236.5
510.968	602.5
511.184	154.5
511.401	116.5
511.617	104.5
511.833	102.5
512.049	104.5
512.265	98.5
512.481	74.5
512.698	90.5
512.914	97.5
513.13	101.5
513.346	92.5
513.562	94.5
513.778	102.5
513.994	108.5
514.21	94.5
514.426	114.5
514.642	127.5
514.858	129.5
515.074	163.5
515.29	445.5
515.506	1402.5
515.721	492.5
515.937	152.5
516.153	114.5
516.369	93.5
516.585	105.5
516.801	92.5
517.016	94.5
517.232	96.5
517.448	112.5
517.664	83.5
517.879	89.5
518.095	74.5
518.311	97.5
518.527	95.5
518.742	99.5
518.958	94.5
519.173	93.5
519.389	86.5
519.605	94.5
519.82	89.5
520.036	95.5
520.251	111.5
520.467	85.5
520.682	114.5
520.898	108.5
521.113	119.5
521.329	139.5
521.544	188.5
521.76	534.5
521.975	2250.5
522.19	1326.5
522.406	306.5
522.621	131.5
522.836	100.5
523.052	94.5
523.267	99.5
523.482	94.5
523.698	107.5
523.913	121.5
524.128	97.5
524.343	93.5
524.559	105.5
524.774	104.5
524.989	101.5
525.204	106.5
525.419	109.5
525.634	94.5
525.849	78.5
526.064	98.5
526.28	102.5
526.495	73.5
526.71	90.5
526.925	99.5
527.14	87.5
527.355	90.5
527.57	96.5
527.785	95.5
527.999	92.5
528.214	92.5
528.429	99.5
528.644	114.5
528.859	89.5
529.074	90.5
529.289	126.5
529.503	170.5
529.718	112.5
529.933	96.5
530.148	92.5
530.363	94.5
530.577	85.5
530.792	111.5
531.007	80.5
531.221	100.5
531.436	89.5
531.651	90.5
531.865	99.5
532.08	94.5
532.295	98.5
532.509	87.5
532.724	100.5
532.938	89.5
533.153	87.5
533.367	102.5
533.582	103.5
533.796	103.5
534.011	94.5
534.225	90.5
534.44	97.5
