Data from Uncirc_1993_H10_HRD10591_00018.txt Node
Date: Wed Jan 03 11:42:55 EST 2024
User: Yrep
Spectrometer: HR+D1059
Trigger mode: 1
Integration Time (sec): 1.000000E-1
Scans to average: 1
Electric dark correction enabled: true
Nonlinearity correction enabled: false
Boxcar width: 0
XAxis mode: Wavelengths
Number of Pixels in Spectrum: 2048
>>>>>Begin Spectral Data<<<<<
223.165	-6.06
223.4	-6.06
223.635	-6.06
223.869	-15.06
224.104	-27.06
224.338	-18.06
224.573	-8.06
224.808	-6.06
225.042	-23.06
225.277	-20.06
225.511	-2.06
225.746	-2.06
225.98	7.94
226.215	5.94
226.449	12.94
226.683	31.94
226.918	28.94
227.152	39.94
227.387	31.94
227.621	41.94
227.856	42.94
228.09	56.94
228.324	45.94
228.559	51.94
228.793	71.94
229.027	54.94
229.262	64.94
229.496	59.94
229.73	69.94
229.964	75.94
230.199	81.94
230.433	75.94
230.667	73.94
230.901	76.94
231.136	59.94
231.37	67.94
231.604	73.94
231.838	73.94
232.072	96.94
232.306	86.94
232.541	68.94
232.775	75.94
233.009	89.94
233.243	75.94
233.477	91.94
233.711	76.94
233.945	60.94
234.179	61.94
234.413	79.94
234.647	75.94
234.881	81.94
235.115	87.94
235.349	68.94
235.583	97.94
235.817	74.94
236.051	67.94
236.285	71.94
236.519	75.94
236.753	90.94
236.987	78.94
237.221	87.94
237.455	71.94
237.689	71.94
237.922	63.94
238.156	74.94
238.39	77.94
238.624	81.94
238.858	73.94
239.091	88.94
239.325	77.94
239.559	85.94
239.793	76.94
240.027	85.94
240.26	84.94
240.494	84.94
240.728	70.94
240.961	75.94
241.195	85.94
241.429	72.94
241.662	84.94
241.896	64.94
242.13	67.94
242.363	77.94
242.597	68.94
242.83	73.94
243.064	79.94
243.298	75.94
243.531	67.94
243.765	65.94
243.998	85.94
244.232	80.94
244.465	87.94
244.699	82.94
244.932	60.94
245.166	63.94
245.399	82.94
245.633	79.94
245.866	67.94
246.099	75.94
246.333	87.94
246.566	82.94
246.8	84.94
247.033	73.94
247.266	83.94
247.5	76.94
247.733	77.94
247.966	60.94
248.2	86.94
248.433	87.94
248.666	72.94
248.899	92.94
249.133	78.94
249.366	80.94
249.599	91.94
249.832	84.94
250.066	84.94
250.299	88.94
250.532	81.94
250.765	76.94
250.998	79.94
251.231	69.94
251.465	60.94
251.698	80.94
251.931	75.94
252.164	67.94
252.397	72.94
252.63	77.94
252.863	76.94
253.096	77.94
253.329	78.94
253.562	89.94
253.795	56.94
254.028	79.94
254.261	87.94
254.494	82.94
254.727	85.94
254.96	75.94
255.193	84.94
255.426	80.94
255.659	87.94
255.892	74.94
256.124	73.94
256.357	80.94
256.59	82.94
256.823	91.94
257.056	89.94
257.289	79.94
257.521	81.94
257.754	91.94
257.987	75.94
258.22	83.94
258.452	77.94
258.685	76.94
258.918	83.94
259.151	76.94
259.383	84.94
259.616	78.94
259.849	87.94
260.081	76.94
260.314	93.94
260.547	83.94
260.779	86.94
261.012	91.94
261.244	85.94
261.477	74.94
261.71	107.94
261.942	106.94
262.175	99.94
262.407	82.94
262.64	68.94
262.872	87.94
263.105	81.94
263.337	92.94
263.57	78.94
263.802	87.94
264.035	81.94
264.267	91.94
264.499	107.94
264.732	81.94
264.964	75.94
265.197	75.94
265.429	87.94
265.661	77.94
265.894	61.94
266.126	92.94
266.358	76.94
266.591	90.94
266.823	74.94
267.055	82.94
267.287	66.94
267.52	80.94
267.752	82.94
267.984	80.94
268.216	88.94
268.448	80.94
268.681	83.94
268.913	101.94
269.145	83.94
269.377	81.94
269.609	82.94
269.841	79.94
270.073	76.94
270.306	77.94
270.538	90.94
270.77	83.94
271.002	77.94
271.234	72.94
271.466	84.94
271.698	88.94
271.93	80.94
272.162	74.94
272.394	94.94
272.626	83.94
272.858	92.94
273.09	94.94
273.322	82.94
273.553	87.94
273.785	90.94
274.017	87.94
274.249	74.94
274.481	71.94
274.713	77.94
274.945	81.94
275.176	87.94
275.408	76.94
275.64	82.94
275.872	85.94
276.104	81.94
276.335	79.94
276.567	98.94
276.799	97.94
277.031	94.94
277.262	99.94
277.494	84.94
277.726	82.94
277.957	84.94
278.189	76.94
278.421	91.94
278.652	82.94
278.884	92.94
279.115	75.94
279.347	82.94
279.579	79.94
279.81	79.94
280.042	76.94
280.273	83.94
280.505	96.94
280.736	82.94
280.968	73.94
281.199	84.94
281.431	85.94
281.662	83.94
281.894	81.94
282.125	96.94
282.356	108.94
282.588	124.94
282.819	102.94
283.051	88.94
283.282	83.94
283.513	89.94
283.745	82.94
283.976	78.94
284.207	83.94
284.439	95.94
284.67	98.94
284.901	72.94
285.132	101.94
285.364	83.94
285.595	83.94
285.826	95.94
286.057	79.94
286.288	95.94
286.52	94.94
286.751	80.94
286.982	89.94
287.213	92.94
287.444	89.94
287.675	69.94
287.906	95.94
288.138	75.94
288.369	98.94
288.6	94.94
288.831	85.94
289.062	83.94
289.293	92.94
289.524	81.94
289.755	77.94
289.986	74.94
290.217	89.94
290.448	75.94
290.679	89.94
290.91	98.94
291.141	100.94
291.371	88.94
291.602	88.94
291.833	84.94
292.064	90.94
292.295	98.94
292.526	99.94
292.757	88.94
292.987	88.94
293.218	85.94
293.449	89.94
293.68	81.94
293.91	85.94
294.141	85.94
294.372	85.94
294.603	83.94
294.833	91.94
295.064	99.94
295.295	85.94
295.525	87.94
295.756	101.94
295.987	105.94
296.217	119.94
296.448	112.94
296.679	90.94
296.909	93.94
297.14	83.94
297.37	90.94
297.601	93.94
297.831	81.94
298.062	79.94
298.292	78.94
298.523	97.94
298.753	83.94
298.984	105.94
299.214	90.94
299.445	87.94
299.675	89.94
299.905	83.94
300.136	94.94
300.366	87.94
300.597	86.94
300.827	103.94
301.057	93.94
301.288	104.94
301.518	91.94
301.748	81.94
301.979	95.94
302.209	81.94
302.439	83.94
302.669	93.94
302.9	76.94
303.13	96.94
303.36	89.94
303.59	101.94
303.82	89.94
304.051	92.94
304.281	88.94
304.511	92.94
304.741	89.94
304.971	98.94
305.201	90.94
305.431	98.94
305.661	99.94
305.891	92.94
306.121	96.94
306.352	93.94
306.582	103.94
306.812	89.94
307.042	94.94
307.272	89.94
307.502	98.94
307.731	106.94
307.961	81.94
308.191	84.94
308.421	96.94
308.651	94.94
308.881	91.94
309.111	92.94
309.341	88.94
309.571	81.94
309.8	101.94
310.03	91.94
310.26	97.94
310.49	97.94
310.72	90.94
310.949	99.94
311.179	96.94
311.409	82.94
311.639	85.94
311.868	84.94
312.098	94.94
312.328	105.94
312.557	98.94
312.787	110.94
313.017	95.94
313.246	98.94
313.476	95.94
313.706	97.94
313.935	89.94
314.165	101.94
314.394	114.94
314.624	96.94
314.853	92.94
315.083	76.94
315.312	97.94
315.542	91.94
315.771	92.94
316.001	99.94
316.23	67.94
316.46	90.94
316.689	78.94
316.919	90.94
317.148	94.94
317.377	105.94
317.607	91.94
317.836	100.94
318.065	101.94
318.295	92.94
318.524	94.94
318.753	96.94
318.983	82.94
319.212	92.94
319.441	94.94
319.67	90.94
319.9	92.94
320.129	90.94
320.358	98.94
320.587	94.94
320.816	84.94
321.046	106.94
321.275	96.94
321.504	86.94
321.733	110.94
321.962	111.94
322.191	94.94
322.42	86.94
322.649	116.94
322.878	101.94
323.108	108.94
323.337	111.94
323.566	124.94
323.795	132.94
324.024	176.94
324.253	321.94
324.482	648.94
324.71	1219.94
324.939	1579.94
325.168	596.94
325.397	203.94
325.626	129.94
325.855	118.94
326.084	100.94
326.313	121.94
326.542	120.94
326.77	192.94
326.999	361.94
327.228	719.94
327.457	1244.94
327.686	994.94
327.914	293.94
328.143	165.94
328.372	129.94
328.6	94.94
328.829	104.94
329.058	116.94
329.287	120.94
329.515	90.94
329.744	100.94
329.972	103.94
330.201	91.94
330.43	108.94
330.658	119.94
330.887	125.94
331.115	121.94
331.344	90.94
331.572	91.94
331.801	96.94
332.03	103.94
332.258	91.94
332.486	81.94
332.715	89.94
332.943	98.94
333.172	84.94
333.4	90.94
333.629	97.94
333.857	105.94
334.085	100.94
334.314	89.94
334.542	93.94
334.771	85.94
334.999	88.94
335.227	90.94
335.455	94.94
335.684	101.94
335.912	96.94
336.14	89.94
336.369	95.94
336.597	99.94
336.825	97.94
337.053	89.94
337.281	98.94
337.51	94.94
337.738	111.94
337.966	97.94
338.194	93.94
338.422	88.94
338.65	100.94
338.878	91.94
339.106	79.94
339.334	85.94
339.562	95.94
339.79	89.94
340.018	103.94
340.246	96.94
340.474	89.94
340.702	98.94
340.93	82.94
341.158	83.94
341.386	79.94
341.614	85.94
341.842	92.94
342.07	100.94
342.298	90.94
342.526	94.94
342.754	96.94
342.981	88.94
343.209	96.94
343.437	93.94
343.665	92.94
343.893	85.94
344.12	84.94
344.348	100.94
344.576	108.94
344.804	89.94
345.031	83.94
345.259	83.94
345.487	82.94
345.714	99.94
345.942	87.94
346.17	89.94
346.397	104.94
346.625	99.94
346.853	99.94
347.08	84.94
347.308	85.94
347.535	94.94
347.763	102.94
347.99	98.94
348.218	108.94
348.445	93.94
348.673	87.94
348.9	96.94
349.128	87.94
349.355	82.94
349.583	93.94
349.81	101.94
350.037	98.94
350.265	98.94
350.492	93.94
350.72	95.94
350.947	93.94
351.174	101.94
351.402	112.94
351.629	117.94
351.856	100.94
352.083	105.94
352.311	90.94
352.538	100.94
352.765	106.94
352.992	104.94
353.22	107.94
353.447	122.94
353.674	99.94
353.901	99.94
354.128	95.94
354.355	106.94
354.583	89.94
354.81	91.94
355.037	103.94
355.264	99.94
355.491	100.94
355.718	99.94
355.945	92.94
356.172	97.94
356.399	106.94
356.626	95.94
356.853	96.94
357.08	97.94
357.307	82.94
357.534	98.94
357.761	86.94
357.988	103.94
358.215	99.94
358.441	93.94
358.668	93.94
358.895	86.94
359.122	99.94
359.349	100.94
359.576	100.94
359.802	95.94
360.029	101.94
360.256	99.94
360.483	95.94
360.709	84.94
360.936	96.94
361.163	91.94
361.39	88.94
361.616	94.94
361.843	83.94
362.07	87.94
362.296	85.94
362.523	83.94
362.749	92.94
362.976	92.94
363.203	92.94
363.429	84.94
363.656	83.94
363.882	94.94
364.109	89.94
364.335	80.94
364.562	98.94
364.788	87.94
365.015	86.94
365.241	95.94
365.468	105.94
365.694	86.94
365.92	92.94
366.147	75.94
366.373	89.94
366.599	88.94
366.826	85.94
367.052	86.94
367.278	96.94
367.505	84.94
367.731	97.94
367.957	90.94
368.184	87.94
368.41	85.94
368.636	111.94
368.862	110.94
369.089	110.94
369.315	94.94
369.541	77.94
369.767	94.94
369.993	89.94
370.219	91.94
370.445	92.94
370.672	97.94
370.898	88.94
371.124	85.94
371.35	99.94
371.576	73.94
371.802	79.94
372.028	97.94
372.254	108.94
372.48	94.94
372.706	100.94
372.932	93.94
373.158	83.94
373.384	105.94
373.61	85.94
373.835	78.94
374.061	85.94
374.287	86.94
374.513	85.94
374.739	82.94
374.965	84.94
375.191	87.94
375.416	91.94
375.642	88.94
375.868	89.94
376.094	80.94
376.319	72.94
376.545	81.94
376.771	98.94
376.997	98.94
377.222	88.94
377.448	91.94
377.674	92.94
377.899	82.94
378.125	98.94
378.35	100.94
378.576	87.94
378.802	82.94
379.027	90.94
379.253	85.94
379.478	89.94
379.704	96.94
379.929	85.94
380.155	87.94
380.38	94.94
380.606	94.94
380.831	87.94
381.057	84.94
381.282	86.94
381.507	95.94
381.733	91.94
381.958	95.94
382.184	89.94
382.409	94.94
382.634	110.94
382.86	84.94
383.085	117.94
383.31	107.94
383.535	87.94
383.761	89.94
383.986	101.94
384.211	95.94
384.436	98.94
384.662	105.94
384.887	109.94
385.112	91.94
385.337	103.94
385.562	88.94
385.787	100.94
386.013	101.94
386.238	108.94
386.463	102.94
386.688	103.94
386.913	97.94
387.138	86.94
387.363	100.94
387.588	91.94
387.813	99.94
388.038	105.94
388.263	111.94
388.488	97.94
388.713	100.94
388.938	99.94
389.163	100.94
389.387	95.94
389.612	96.94
389.837	81.94
390.062	91.94
390.287	89.94
390.512	99.94
390.736	87.94
390.961	80.94
391.186	76.94
391.411	99.94
391.636	95.94
391.86	88.94
392.085	86.94
392.31	70.94
392.534	99.94
392.759	84.94
392.984	75.94
393.208	95.94
393.433	90.94
393.658	81.94
393.882	87.94
394.107	90.94
394.331	87.94
394.556	97.94
394.78	77.94
395.005	91.94
395.229	86.94
395.454	92.94
395.678	79.94
395.903	84.94
396.127	93.94
396.352	98.94
396.576	89.94
396.801	84.94
397.025	99.94
397.249	96.94
397.474	75.94
397.698	88.94
397.922	78.94
398.147	88.94
398.371	84.94
398.595	87.94
398.82	93.94
399.044	84.94
399.268	85.94
399.492	85.94
399.717	104.94
399.941	79.94
400.165	87.94
400.389	91.94
400.613	83.94
400.837	89.94
401.062	98.94
401.286	84.94
401.51	92.94
401.734	91.94
401.958	101.94
402.182	105.94
402.406	147.94
402.63	105.94
402.854	87.94
403.078	82.94
403.302	87.94
403.526	81.94
403.75	83.94
403.974	91.94
404.198	88.94
404.422	97.94
404.645	82.94
404.869	94.94
405.093	99.94
405.317	93.94
405.541	89.94
405.765	102.94
405.988	96.94
406.212	144.94
406.436	182.94
406.66	133.94
406.883	94.94
407.107	75.94
407.331	89.94
407.555	83.94
407.778	93.94
408.002	83.94
408.226	90.94
408.449	89.94
408.673	85.94
408.896	90.94
409.12	91.94
409.344	93.94
409.567	86.94
409.791	98.94
410.014	90.94
410.238	97.94
410.461	98.94
410.685	89.94
410.908	107.94
411.132	97.94
411.355	87.94
411.578	88.94
411.802	87.94
412.025	80.94
412.249	95.94
412.472	98.94
412.695	106.94
412.919	98.94
413.142	74.94
413.365	79.94
413.589	105.94
413.812	91.94
414.035	83.94
414.258	81.94
414.482	93.94
414.705	89.94
414.928	90.94
415.151	92.94
415.374	85.94
415.597	85.94
415.821	97.94
416.044	81.94
416.267	87.94
416.49	86.94
416.713	83.94
416.936	77.94
417.159	87.94
417.382	83.94
417.605	89.94
417.828	100.94
418.051	94.94
418.274	83.94
418.497	81.94
418.72	89.94
418.943	83.94
419.166	84.94
419.389	83.94
419.611	85.94
419.834	88.94
420.057	90.94
420.28	80.94
420.503	98.94
420.726	90.94
420.948	97.94
421.171	82.94
421.394	91.94
421.617	95.94
421.839	88.94
422.062	103.94
422.285	93.94
422.507	101.94
422.73	94.94
422.953	83.94
423.175	93.94
423.398	92.94
423.621	89.94
423.843	89.94
424.066	79.94
424.288	89.94
424.511	97.94
424.733	105.94
424.956	116.94
425.178	93.94
425.401	97.94
425.623	84.94
425.846	82.94
426.068	95.94
426.291	84.94
426.513	81.94
426.735	96.94
426.958	100.94
427.18	103.94
427.402	128.94
427.625	144.94
427.847	131.94
428.069	94.94
428.292	79.94
428.514	93.94
428.736	86.94
428.958	74.94
429.181	83.94
429.403	85.94
429.625	91.94
429.847	86.94
430.069	92.94
430.292	81.94
430.514	82.94
430.736	95.94
430.958	82.94
431.18	87.94
431.402	99.94
431.624	76.94
431.846	87.94
432.068	89.94
432.29	84.94
432.512	92.94
432.734	95.94
432.956	87.94
433.178	100.94
433.4	81.94
433.622	77.94
433.844	81.94
434.066	91.94
434.287	87.94
434.509	90.94
434.731	91.94
434.953	74.94
435.175	75.94
435.397	81.94
435.618	88.94
435.84	111.94
436.062	117.94
436.284	107.94
436.505	107.94
436.727	95.94
436.949	84.94
437.17	87.94
437.392	89.94
437.614	91.94
437.835	112.94
438.057	101.94
438.278	97.94
438.5	102.94
438.721	105.94
438.943	95.94
439.165	84.94
439.386	91.94
439.608	85.94
439.829	88.94
440.05	109.94
440.272	111.94
440.493	94.94
440.715	77.94
440.936	83.94
441.158	100.94
441.379	99.94
441.6	90.94
441.822	95.94
442.043	92.94
442.264	97.94
442.486	101.94
442.707	92.94
442.928	95.94
443.149	125.94
443.371	111.94
443.592	99.94
443.813	99.94
444.034	104.94
444.255	83.94
444.476	93.94
444.698	91.94
444.919	95.94
445.14	139.94
445.361	114.94
445.582	107.94
445.803	108.94
446.024	116.94
446.245	113.94
446.466	93.94
446.687	78.94
446.908	87.94
447.129	92.94
447.35	91.94
447.571	88.94
447.792	75.94
448.013	88.94
448.234	98.94
448.455	102.94
448.675	109.94
448.896	105.94
449.117	82.94
449.338	103.94
449.559	115.94
449.779	110.94
450	92.94
450.221	93.94
450.442	81.94
450.662	104.94
450.883	104.94
451.104	96.94
451.324	90.94
451.545	84.94
451.766	77.94
451.986	96.94
452.207	83.94
452.428	77.94
452.648	96.94
452.869	99.94
453.089	102.94
453.31	103.94
453.53	104.94
453.751	105.94
453.971	103.94
454.192	126.94
454.412	103.94
454.633	80.94
454.853	91.94
455.073	91.94
455.294	82.94
455.514	88.94
455.734	79.94
455.955	76.94
456.175	78.94
456.395	79.94
456.616	96.94
456.836	82.94
457.056	96.94
457.276	81.94
457.497	89.94
457.717	86.94
457.937	96.94
458.157	92.94
458.377	86.94
458.598	106.94
458.818	122.94
459.038	136.94
459.258	112.94
459.478	85.94
459.698	90.94
459.918	89.94
460.138	84.94
460.358	82.94
460.578	88.94
460.798	95.94
461.018	67.94
461.238	86.94
461.458	76.94
461.678	95.94
461.898	85.94
462.118	79.94
462.338	84.94
462.558	90.94
462.777	75.94
462.997	77.94
463.217	76.94
463.437	77.94
463.657	92.94
463.876	90.94
464.096	77.94
464.316	85.94
464.536	97.94
464.755	96.94
464.975	109.94
465.195	137.94
465.414	140.94
465.634	87.94
465.854	90.94
466.073	91.94
466.293	80.94
466.512	78.94
466.732	80.94
466.951	93.94
467.171	103.94
467.391	81.94
467.61	94.94
467.829	86.94
468.049	96.94
468.268	87.94
468.488	77.94
468.707	90.94
468.927	92.94
469.146	75.94
469.365	78.94
469.585	88.94
469.804	94.94
470.023	102.94
470.243	88.94
470.462	92.94
470.681	101.94
470.901	92.94
471.12	75.94
471.339	81.94
471.558	63.94
471.777	96.94
471.997	81.94
472.216	100.94
472.435	101.94
472.654	92.94
472.873	79.94
473.092	87.94
473.311	89.94
473.53	80.94
473.749	84.94
473.968	83.94
474.187	99.94
474.406	109.94
474.625	96.94
474.844	83.94
475.063	84.94
475.282	85.94
475.501	81.94
475.72	87.94
475.939	90.94
476.158	91.94
476.377	90.94
476.596	63.94
476.814	85.94
477.033	83.94
477.252	88.94
477.471	89.94
477.69	95.94
477.908	79.94
478.127	97.94
478.346	79.94
478.564	76.94
478.783	85.94
479.002	92.94
479.22	81.94
479.439	111.94
479.658	91.94
479.876	96.94
480.095	77.94
480.313	115.94
480.532	79.94
480.751	79.94
480.969	93.94
481.188	98.94
481.406	100.94
481.624	81.94
481.843	83.94
482.061	104.94
482.28	100.94
482.498	84.94
482.717	97.94
482.935	91.94
483.153	79.94
483.372	91.94
483.59	89.94
483.808	91.94
484.027	95.94
484.245	81.94
484.463	91.94
484.681	97.94
484.9	93.94
485.118	98.94
485.336	87.94
485.554	92.94
485.772	90.94
485.99	100.94
486.209	114.94
486.427	104.94
486.645	120.94
486.863	120.94
487.081	88.94
487.299	93.94
487.517	105.94
487.735	102.94
487.953	95.94
488.171	96.94
488.389	105.94
488.607	96.94
488.825	99.94
489.043	77.94
489.261	80.94
489.479	85.94
489.696	101.94
489.914	99.94
490.132	95.94
490.35	90.94
490.568	91.94
490.786	97.94
491.003	88.94
491.221	89.94
491.439	90.94
491.657	92.94
491.874	92.94
492.092	95.94
492.31	83.94
492.527	82.94
492.745	89.94
492.963	81.94
493.18	90.94
493.398	114.94
493.615	98.94
493.833	91.94
494.05	76.94
494.268	98.94
494.485	90.94
494.703	81.94
494.92	79.94
495.138	91.94
495.355	96.94
495.573	94.94
495.79	76.94
496.008	84.94
496.225	88.94
496.442	82.94
496.66	97.94
496.877	97.94
497.094	101.94
497.312	89.94
497.529	95.94
497.746	85.94
497.963	91.94
498.181	92.94
498.398	89.94
498.615	120.94
498.832	89.94
499.049	102.94
499.267	90.94
499.484	81.94
499.701	92.94
499.918	82.94
500.135	92.94
500.352	86.94
500.569	96.94
500.786	103.94
501.003	99.94
501.22	99.94
501.437	104.94
501.654	79.94
501.871	80.94
502.088	90.94
502.305	95.94
502.522	91.94
502.739	95.94
502.956	99.94
503.172	98.94
503.389	84.94
503.606	104.94
503.823	82.94
504.04	85.94
504.256	82.94
504.473	89.94
504.69	92.94
504.907	107.94
505.123	101.94
505.34	89.94
505.557	96.94
505.773	90.94
505.99	94.94
506.207	91.94
506.423	84.94
506.64	81.94
506.856	90.94
507.073	92.94
507.289	88.94
507.506	100.94
507.722	114.94
507.939	100.94
508.155	101.94
508.372	92.94
508.588	90.94
508.805	88.94
509.021	91.94
509.238	101.94
509.454	100.94
509.67	104.94
509.887	101.94
510.103	119.94
510.319	196.94
510.536	648.94
510.752	1891.94
510.968	536.94
511.184	145.94
511.401	107.94
511.617	81.94
511.833	94.94
512.049	85.94
512.265	89.94
512.481	91.94
512.698	92.94
512.914	91.94
513.13	93.94
513.346	92.94
513.562	99.94
513.778	88.94
513.994	96.94
514.21	92.94
514.426	106.94
514.642	116.94
514.858	117.94
515.074	144.94
515.29	354.94
515.506	1112.94
515.721	416.94
515.937	128.94
516.153	97.94
516.369	93.94
516.585	92.94
516.801	97.94
