Data from Uncirc_1993_H10_HRD10591_00004.txt Node
Date: Wed Jan 03 11:42:53 EST 2024
User: Yrep
Spectrometer: HR+D1059
Trigger mode: 1
Integration Time (sec): 1.000000E-1
Scans to average: 1
Electric dark correction enabled: true
Nonlinearity correction enabled: false
Boxcar width: 0
XAxis mode: Wavelengths
Number of Pixels in Spectrum: 2048
>>>>>Begin Spectral Data<<<<<
223.165	-11.31
223.4	-11.31
223.635	-11.31
223.869	-32.31
224.104	-22.31
224.338	-15.31
224.573	-20.31
224.808	-9.31
225.042	-3.31
225.277	-18.31
225.511	4.69
225.746	13.69
225.98	9.69
226.215	23.69
226.449	13.69
226.683	11.69
226.918	25.69
227.152	29.69
227.387	37.69
227.621	40.69
227.856	46.69
228.09	45.69
228.324	41.69
228.559	58.69
228.793	47.69
229.027	67.69
229.262	56.69
229.496	73.69
229.73	94.69
229.964	84.69
230.199	76.69
230.433	74.69
230.667	73.69
230.901	68.69
231.136	88.69
231.37	71.69
231.604	99.69
231.838	88.69
232.072	90.69
232.306	72.69
232.541	68.69
232.775	84.69
233.009	88.69
233.243	66.69
233.477	93.69
233.711	97.69
233.945	97.69
234.179	86.69
234.413	72.69
234.647	94.69
234.881	77.69
235.115	80.69
235.349	88.69
235.583	99.69
235.817	81.69
236.051	74.69
236.285	76.69
236.519	85.69
236.753	79.69
236.987	76.69
237.221	75.69
237.455	81.69
237.689	81.69
237.922	78.69
238.156	83.69
238.39	80.69
238.624	75.69
238.858	81.69
239.091	83.69
239.325	96.69
239.559	92.69
239.793	79.69
240.027	71.69
240.26	75.69
240.494	93.69
240.728	87.69
240.961	79.69
241.195	66.69
241.429	75.69
241.662	77.69
241.896	83.69
242.13	79.69
242.363	87.69
242.597	89.69
242.83	86.69
243.064	79.69
243.298	92.69
243.531	93.69
243.765	87.69
243.998	78.69
244.232	83.69
244.465	88.69
244.699	75.69
244.932	75.69
245.166	100.69
245.399	75.69
245.633	82.69
245.866	72.69
246.099	70.69
246.333	73.69
246.566	89.69
246.8	77.69
247.033	79.69
247.266	79.69
247.5	88.69
247.733	81.69
247.966	81.69
248.2	94.69
248.433	89.69
248.666	73.69
248.899	71.69
249.133	82.69
249.366	101.69
249.599	97.69
249.832	84.69
250.066	89.69
250.299	74.69
250.532	80.69
250.765	93.69
250.998	70.69
251.231	91.69
251.465	92.69
251.698	94.69
251.931	92.69
252.164	83.69
252.397	90.69
252.63	76.69
252.863	87.69
253.096	78.69
253.329	71.69
253.562	72.69
253.795	76.69
254.028	93.69
254.261	93.69
254.494	77.69
254.727	81.69
254.96	88.69
255.193	89.69
255.426	99.69
255.659	88.69
255.892	83.69
256.124	76.69
256.357	94.69
256.59	95.69
256.823	80.69
257.056	93.69
257.289	78.69
257.521	85.69
257.754	78.69
257.987	79.69
258.22	88.69
258.452	84.69
258.685	76.69
258.918	81.69
259.151	81.69
259.383	81.69
259.616	72.69
259.849	79.69
260.081	83.69
260.314	86.69
260.547	94.69
260.779	86.69
261.012	88.69
261.244	85.69
261.477	99.69
261.71	94.69
261.942	99.69
262.175	120.69
262.407	91.69
262.64	96.69
262.872	71.69
263.105	84.69
263.337	83.69
263.57	91.69
263.802	68.69
264.035	92.69
264.267	92.69
264.499	76.69
264.732	68.69
264.964	79.69
265.197	78.69
265.429	88.69
265.661	79.69
265.894	88.69
266.126	99.69
266.358	90.69
266.591	80.69
266.823	75.69
267.055	72.69
267.287	79.69
267.52	82.69
267.752	88.69
267.984	75.69
268.216	72.69
268.448	72.69
268.681	79.69
268.913	68.69
269.145	86.69
269.377	79.69
269.609	86.69
269.841	81.69
270.073	89.69
270.306	92.69
270.538	78.69
270.77	80.69
271.002	84.69
271.234	71.69
271.466	87.69
271.698	104.69
271.93	73.69
272.162	87.69
272.394	89.69
272.626	88.69
272.858	79.69
273.09	91.69
273.322	87.69
273.553	78.69
273.785	100.69
274.017	99.69
274.249	85.69
274.481	84.69
274.713	79.69
274.945	78.69
275.176	89.69
275.408	95.69
275.64	93.69
275.872	95.69
276.104	92.69
276.335	93.69
276.567	92.69
276.799	82.69
277.031	94.69
277.262	86.69
277.494	93.69
277.726	89.69
277.957	79.69
278.189	75.69
278.421	92.69
278.652	89.69
278.884	89.69
279.115	89.69
279.347	94.69
279.579	83.69
279.81	84.69
280.042	85.69
280.273	89.69
280.505	87.69
280.736	86.69
280.968	92.69
281.199	92.69
281.431	101.69
281.662	75.69
281.894	94.69
282.125	97.69
282.356	105.69
282.588	136.69
282.819	108.69
283.051	89.69
283.282	85.69
283.513	92.69
283.745	83.69
283.976	82.69
284.207	82.69
284.439	99.69
284.67	93.69
284.901	97.69
285.132	81.69
285.364	87.69
285.595	85.69
285.826	96.69
286.057	81.69
286.288	78.69
286.52	86.69
286.751	86.69
286.982	84.69
287.213	86.69
287.444	75.69
287.675	87.69
287.906	90.69
288.138	85.69
288.369	106.69
288.6	93.69
288.831	88.69
289.062	98.69
289.293	77.69
289.524	94.69
289.755	89.69
289.986	105.69
290.217	86.69
290.448	86.69
290.679	74.69
290.91	98.69
291.141	102.69
291.371	99.69
291.602	90.69
291.833	89.69
292.064	82.69
292.295	88.69
292.526	102.69
292.757	103.69
292.987	87.69
293.218	91.69
293.449	92.69
293.68	89.69
293.91	86.69
294.141	84.69
294.372	96.69
294.603	92.69
294.833	81.69
295.064	97.69
295.295	112.69
295.525	99.69
295.756	92.69
295.987	112.69
296.217	125.69
296.448	116.69
296.679	88.69
296.909	93.69
297.14	100.69
297.37	94.69
297.601	75.69
297.831	96.69
298.062	87.69
298.292	96.69
298.523	92.69
298.753	86.69
298.984	88.69
299.214	101.69
299.445	92.69
299.675	92.69
299.905	93.69
300.136	94.69
300.366	96.69
300.597	97.69
300.827	116.69
301.057	100.69
301.288	107.69
301.518	107.69
301.748	92.69
301.979	105.69
302.209	89.69
302.439	97.69
302.669	99.69
302.9	90.69
303.13	93.69
303.36	88.69
303.59	104.69
303.82	105.69
304.051	88.69
304.281	109.69
304.511	87.69
304.741	105.69
304.971	78.69
305.201	77.69
305.431	81.69
305.661	82.69
305.891	104.69
306.121	104.69
306.352	96.69
306.582	99.69
306.812	88.69
307.042	99.69
307.272	86.69
307.502	101.69
307.731	102.69
307.961	96.69
308.191	99.69
308.421	96.69
308.651	88.69
308.881	97.69
309.111	80.69
309.341	92.69
309.571	85.69
309.8	93.69
310.03	95.69
310.26	103.69
310.49	94.69
310.72	95.69
310.949	107.69
311.179	108.69
311.409	98.69
311.639	93.69
311.868	96.69
312.098	104.69
312.328	94.69
312.557	110.69
312.787	97.69
313.017	102.69
313.246	92.69
313.476	86.69
313.706	82.69
313.935	100.69
314.165	105.69
314.394	93.69
314.624	91.69
314.853	87.69
315.083	91.69
315.312	92.69
315.542	89.69
315.771	95.69
316.001	91.69
316.23	82.69
316.46	74.69
316.689	92.69
316.919	89.69
317.148	100.69
317.377	90.69
317.607	95.69
317.836	103.69
318.065	81.69
318.295	89.69
318.524	92.69
318.753	92.69
318.983	77.69
319.212	104.69
319.441	102.69
319.67	100.69
319.9	95.69
320.129	94.69
320.358	107.69
320.587	96.69
320.816	92.69
321.046	87.69
321.275	88.69
321.504	101.69
321.733	105.69
321.962	97.69
322.191	106.69
322.42	77.69
322.649	106.69
322.878	112.69
323.108	113.69
323.337	97.69
323.566	125.69
323.795	148.69
324.024	173.69
324.253	352.69
324.482	687.69
324.71	1350.69
324.939	1711.69
325.168	666.69
325.397	230.69
325.626	136.69
325.855	123.69
326.084	117.69
326.313	138.69
326.542	144.69
326.77	200.69
326.999	378.69
327.228	759.69
327.457	1318.69
327.686	1063.69
327.914	307.69
328.143	171.69
328.372	148.69
328.6	113.69
328.829	111.69
329.058	109.69
329.287	126.69
329.515	116.69
329.744	111.69
329.972	114.69
330.201	103.69
330.43	108.69
330.658	109.69
330.887	145.69
331.115	108.69
331.344	101.69
331.572	108.69
331.801	99.69
332.03	92.69
332.258	85.69
332.486	103.69
332.715	81.69
332.943	91.69
333.172	98.69
333.4	91.69
333.629	108.69
333.857	108.69
334.085	110.69
334.314	96.69
334.542	101.69
334.771	111.69
334.999	91.69
335.227	98.69
335.455	83.69
335.684	102.69
335.912	88.69
336.14	105.69
336.369	103.69
336.597	107.69
336.825	102.69
337.053	88.69
337.281	92.69
337.51	94.69
337.738	100.69
337.966	100.69
338.194	93.69
338.422	101.69
338.65	109.69
338.878	104.69
339.106	88.69
339.334	92.69
339.562	97.69
339.79	81.69
340.018	84.69
340.246	93.69
340.474	108.69
340.702	109.69
340.93	89.69
341.158	92.69
341.386	105.69
341.614	99.69
341.842	100.69
342.07	88.69
342.298	91.69
342.526	95.69
342.754	94.69
342.981	95.69
343.209	78.69
343.437	101.69
343.665	99.69
343.893	87.69
344.12	93.69
344.348	99.69
344.576	97.69
344.804	94.69
345.031	95.69
345.259	89.69
345.487	94.69
345.714	96.69
345.942	97.69
346.17	94.69
346.397	100.69
346.625	95.69
346.853	94.69
347.08	104.69
347.308	91.69
347.535	105.69
347.763	100.69
347.99	109.69
348.218	115.69
348.445	98.69
348.673	111.69
348.9	91.69
349.128	94.69
349.355	96.69
349.583	104.69
349.81	100.69
350.037	94.69
350.265	104.69
350.492	88.69
350.72	101.69
350.947	111.69
351.174	113.69
351.402	97.69
351.629	88.69
351.856	105.69
352.083	107.69
352.311	98.69
352.538	109.69
352.765	110.69
352.992	115.69
353.22	101.69
353.447	114.69
353.674	104.69
353.901	96.69
354.128	107.69
354.355	90.69
354.583	99.69
354.81	95.69
355.037	98.69
355.264	87.69
355.491	91.69
355.718	92.69
355.945	100.69
356.172	103.69
356.399	110.69
356.626	102.69
356.853	92.69
357.08	101.69
357.307	101.69
357.534	87.69
357.761	85.69
357.988	96.69
358.215	96.69
358.441	97.69
358.668	92.69
358.895	83.69
359.122	91.69
359.349	93.69
359.576	84.69
359.802	106.69
360.029	107.69
360.256	113.69
360.483	93.69
360.709	79.69
360.936	99.69
361.163	94.69
361.39	86.69
361.616	91.69
361.843	87.69
362.07	99.69
362.296	94.69
362.523	86.69
362.749	98.69
362.976	98.69
363.203	84.69
363.429	89.69
363.656	73.69
363.882	88.69
364.109	93.69
364.335	112.69
364.562	101.69
364.788	103.69
365.015	101.69
365.241	103.69
365.468	114.69
365.694	96.69
365.92	96.69
366.147	103.69
366.373	94.69
366.599	112.69
366.826	99.69
367.052	93.69
367.278	84.69
367.505	88.69
367.731	98.69
367.957	99.69
368.184	86.69
368.41	99.69
368.636	117.69
368.862	128.69
369.089	106.69
369.315	99.69
369.541	98.69
369.767	84.69
369.993	95.69
370.219	100.69
370.445	83.69
370.672	85.69
370.898	83.69
371.124	94.69
371.35	94.69
371.576	73.69
371.802	91.69
372.028	87.69
372.254	91.69
372.48	95.69
372.706	87.69
372.932	99.69
373.158	98.69
373.384	77.69
373.61	98.69
373.835	86.69
374.061	91.69
374.287	77.69
374.513	92.69
374.739	88.69
374.965	91.69
375.191	95.69
375.416	88.69
375.642	99.69
375.868	98.69
376.094	100.69
376.319	107.69
376.545	108.69
376.771	95.69
376.997	93.69
377.222	95.69
377.448	86.69
377.674	92.69
377.899	91.69
378.125	91.69
378.35	92.69
378.576	96.69
378.802	103.69
379.027	90.69
379.253	112.69
379.478	94.69
379.704	102.69
379.929	103.69
380.155	102.69
380.38	95.69
380.606	98.69
380.831	97.69
381.057	95.69
381.282	95.69
381.507	112.69
381.733	92.69
381.958	99.69
382.184	100.69
382.409	96.69
382.634	96.69
382.86	85.69
383.085	93.69
383.31	100.69
383.535	98.69
383.761	108.69
383.986	93.69
384.211	97.69
384.436	104.69
384.662	108.69
384.887	115.69
385.112	98.69
385.337	94.69
385.562	112.69
385.787	111.69
386.013	103.69
386.238	119.69
386.463	104.69
386.688	116.69
386.913	118.69
387.138	106.69
387.363	107.69
387.588	102.69
387.813	102.69
388.038	106.69
388.263	108.69
388.488	105.69
388.713	113.69
388.938	107.69
389.163	82.69
389.387	98.69
389.612	95.69
389.837	90.69
390.062	94.69
390.287	113.69
390.512	112.69
390.736	97.69
390.961	76.69
391.186	104.69
391.411	83.69
391.636	85.69
391.86	78.69
392.085	81.69
392.31	95.69
392.534	80.69
392.759	92.69
392.984	88.69
393.208	88.69
393.433	101.69
393.658	97.69
393.882	85.69
394.107	89.69
394.331	98.69
394.556	97.69
394.78	95.69
395.005	106.69
395.229	89.69
395.454	85.69
395.678	91.69
395.903	87.69
396.127	89.69
396.352	89.69
396.576	88.69
396.801	89.69
397.025	93.69
397.249	99.69
397.474	85.69
397.698	91.69
397.922	91.69
398.147	92.69
398.371	88.69
398.595	93.69
398.82	85.69
399.044	89.69
399.268	79.69
399.492	83.69
399.717	91.69
399.941	82.69
400.165	91.69
400.389	89.69
400.613	101.69
400.837	91.69
401.062	95.69
401.286	96.69
401.51	103.69
401.734	79.69
401.958	111.69
402.182	118.69
402.406	159.69
402.63	104.69
402.854	83.69
403.078	91.69
403.302	94.69
403.526	95.69
403.75	85.69
403.974	88.69
404.198	86.69
404.422	88.69
404.645	87.69
404.869	94.69
405.093	68.69
405.317	93.69
405.541	105.69
405.765	96.69
405.988	109.69
406.212	167.69
406.436	212.69
406.66	130.69
406.883	93.69
407.107	97.69
407.331	92.69
407.555	93.69
407.778	94.69
408.002	92.69
408.226	89.69
408.449	73.69
408.673	91.69
408.896	91.69
409.12	94.69
409.344	96.69
409.567	94.69
409.791	100.69
410.014	91.69
410.238	105.69
410.461	94.69
410.685	98.69
410.908	99.69
411.132	108.69
411.355	102.69
411.578	97.69
411.802	100.69
412.025	97.69
412.249	102.69
412.472	98.69
412.695	98.69
412.919	101.69
413.142	102.69
413.365	95.69
413.589	87.69
413.812	92.69
414.035	89.69
414.258	100.69
414.482	82.69
414.705	93.69
414.928	110.69
415.151	93.69
415.374	87.69
415.597	77.69
415.821	97.69
416.044	109.69
416.267	107.69
416.49	71.69
416.713	92.69
416.936	88.69
417.159	87.69
417.382	71.69
417.605	85.69
417.828	104.69
418.051	102.69
418.274	104.69
418.497	85.69
418.72	84.69
418.943	94.69
419.166	88.69
419.389	97.69
419.611	86.69
419.834	98.69
420.057	101.69
420.28	91.69
420.503	101.69
420.726	95.69
420.948	85.69
421.171	95.69
421.394	92.69
421.617	100.69
421.839	94.69
422.062	78.69
422.285	101.69
422.507	86.69
422.73	106.69
422.953	93.69
423.175	94.69
423.398	96.69
423.621	98.69
423.843	109.69
424.066	95.69
424.288	89.69
424.511	95.69
424.733	93.69
424.956	95.69
425.178	101.69
425.401	107.69
425.623	97.69
425.846	88.69
426.068	86.69
426.291	87.69
426.513	99.69
426.735	93.69
426.958	96.69
427.18	113.69
427.402	126.69
427.625	132.69
427.847	109.69
428.069	109.69
428.292	89.69
428.514	101.69
428.736	99.69
428.958	86.69
429.181	91.69
429.403	81.69
429.625	95.69
429.847	91.69
430.069	100.69
430.292	103.69
430.514	96.69
430.736	95.69
430.958	96.69
431.18	96.69
431.402	86.69
431.624	108.69
431.846	89.69
432.068	91.69
432.29	113.69
432.512	81.69
432.734	101.69
432.956	99.69
433.178	107.69
433.4	93.69
433.622	85.69
433.844	98.69
434.066	88.69
434.287	84.69
434.509	91.69
434.731	87.69
434.953	86.69
435.175	96.69
435.397	89.69
435.618	99.69
435.84	106.69
436.062	104.69
436.284	111.69
436.505	105.69
436.727	110.69
436.949	105.69
437.17	90.69
437.392	87.69
437.614	106.69
437.835	96.69
438.057	120.69
438.278	92.69
438.5	102.69
438.721	126.69
438.943	112.69
439.165	101.69
439.386	105.69
439.608	94.69
439.829	99.69
440.05	115.69
440.272	125.69
440.493	102.69
440.715	86.69
440.936	98.69
441.158	80.69
441.379	89.69
441.6	99.69
441.822	97.69
442.043	88.69
442.264	95.69
442.486	102.69
442.707	105.69
442.928	114.69
443.149	127.69
443.371	127.69
443.592	101.69
443.813	109.69
444.034	92.69
444.255	94.69
444.476	91.69
444.698	90.69
444.919	92.69
445.14	129.69
445.361	125.69
445.582	108.69
445.803	124.69
446.024	113.69
446.245	134.69
446.466	109.69
446.687	93.69
446.908	102.69
447.129	92.69
447.35	88.69
447.571	91.69
447.792	102.69
448.013	88.69
448.234	105.69
448.455	103.69
448.675	104.69
448.896	95.69
449.117	108.69
449.338	76.69
449.559	126.69
449.779	127.69
450	89.69
450.221	91.69
450.442	88.69
450.662	102.69
450.883	89.69
451.104	88.69
451.324	114.69
451.545	87.69
451.766	101.69
451.986	92.69
452.207	94.69
452.428	105.69
452.648	109.69
452.869	104.69
453.089	113.69
453.31	104.69
453.53	93.69
453.751	103.69
453.971	105.69
454.192	87.69
454.412	91.69
454.633	79.69
454.853	93.69
455.073	97.69
455.294	91.69
455.514	98.69
455.734	91.69
455.955	96.69
456.175	90.69
456.395	104.69
456.616	88.69
456.836	94.69
457.056	78.69
457.276	78.69
457.497	80.69
457.717	85.69
457.937	97.69
458.157	92.69
458.377	87.69
458.598	115.69
458.818	134.69
459.038	153.69
459.258	114.69
459.478	110.69
459.698	81.69
459.918	92.69
460.138	96.69
460.358	81.69
460.578	87.69
460.798	86.69
461.018	83.69
461.238	76.69
461.458	89.69
461.678	96.69
461.898	91.69
462.118	85.69
462.338	93.69
462.558	96.69
462.777	81.69
462.997	98.69
463.217	87.69
463.437	86.69
463.657	97.69
463.876	89.69
464.096	91.69
464.316	111.69
464.536	99.69
464.755	88.69
464.975	100.69
465.195	140.69
465.414	144.69
465.634	85.69
465.854	85.69
466.073	100.69
466.293	109.69
466.512	102.69
466.732	93.69
466.951	79.69
467.171	117.69
467.391	86.69
467.61	105.69
467.829	108.69
468.049	95.69
468.268	91.69
468.488	87.69
468.707	92.69
468.927	87.69
469.146	89.69
469.365	92.69
469.585	82.69
469.804	91.69
470.023	104.69
470.243	95.69
470.462	95.69
470.681	108.69
470.901	87.69
471.12	97.69
471.339	92.69
471.558	88.69
471.777	85.69
471.997	100.69
472.216	88.69
472.435	103.69
472.654	95.69
472.873	94.69
473.092	94.69
473.311	91.69
473.53	79.69
473.749	84.69
473.968	105.69
474.187	99.69
474.406	91.69
474.625	96.69
474.844	95.69
475.063	90.69
475.282	87.69
475.501	93.69
475.72	92.69
475.939	95.69
476.158	92.69
476.377	84.69
476.596	84.69
476.814	78.69
477.033	110.69
477.252	103.69
477.471	115.69
477.69	96.69
477.908	92.69
478.127	100.69
478.346	81.69
478.564	83.69
478.783	95.69
479.002	102.69
479.22	97.69
479.439	107.69
479.658	94.69
479.876	94.69
480.095	90.69
480.313	96.69
480.532	92.69
480.751	87.69
480.969	102.69
481.188	99.69
481.406	100.69
481.624	102.69
481.843	101.69
482.061	98.69
482.28	90.69
482.498	77.69
482.717	85.69
482.935	103.69
483.153	73.69
483.372	95.69
483.59	99.69
483.808	85.69
484.027	89.69
484.245	83.69
484.463	89.69
484.681	86.69
484.9	100.69
485.118	93.69
485.336	114.69
485.554	115.69
485.772	95.69
485.99	91.69
486.209	106.69
486.427	102.69
486.645	117.69
486.863	120.69
487.081	109.69
487.299	96.69
487.517	101.69
487.735	86.69
487.953	102.69
488.171	109.69
488.389	95.69
488.607	99.69
488.825	109.69
489.043	108.69
489.261	90.69
489.479	93.69
489.696	97.69
489.914	98.69
490.132	88.69
490.35	99.69
490.568	103.69
490.786	96.69
491.003	95.69
491.221	92.69
491.439	99.69
491.657	88.69
491.874	86.69
492.092	74.69
492.31	96.69
492.527	85.69
492.745	86.69
492.963	87.69
493.18	99.69
493.398	89.69
493.615	87.69
493.833	98.69
494.05	96.69
494.268	85.69
494.485	87.69
494.703	101.69
494.92	100.69
495.138	91.69
495.355	96.69
495.573	75.69
495.79	93.69
496.008	105.69
496.225	105.69
496.442	93.69
496.66	92.69
496.877	104.69
497.094	100.69
497.312	86.69
497.529	91.69
497.746	87.69
497.963	96.69
498.181	85.69
498.398	101.69
498.615	97.69
498.832	106.69
499.049	99.69
499.267	98.69
499.484	102.69
499.701	93.69
499.918	87.69
500.135	102.69
500.352	92.69
500.569	99.69
500.786	94.69
501.003	95.69
501.22	95.69
501.437	98.69
501.654	104.69
501.871	118.69
502.088	104.69
502.305	80.69
502.522	100.69
502.739	106.69
502.956	94.69
503.172	95.69
503.389	111.69
503.606	92.69
503.823	117.69
504.04	88.69
504.256	92.69
504.473	97.69
504.69	97.69
504.907	92.69
505.123	91.69
505.34	95.69
505.557	109.69
505.773	97.69
505.99	87.69
506.207	85.69
506.423	87.69
506.64	92.69
506.856	85.69
507.073	116.69
507.289	91.69
507.506	98.69
507.722	123.69
507.939	103.69
508.155	92.69
508.372	105.69
508.588	104.69
508.805	88.69
509.021	92.69
509.238	88.69
509.454	84.69
509.67	104.69
509.887	103.69
510.103	129.69
510.319	192.69
510.536	724.69
510.752	2107.69
510.968	591.69
511.184	147.69
511.401	111.69
511.617	100.69
511.833	93.69
512.049	86.69
512.265	98.69
512.481	89.69
512.698	93.69
512.914	93.69
513.13	107.69
513.346	96.69
513.562	96.69
513.778	100.69
513.994	88.69
514.21	104.69
514.426	117.69
514.642	132.69
514.858	110.69
