Data from Uncirc_1993_H10_HRD10591_00093.txt Node
Date: Wed Jan 03 11:43:10 EST 2024
User: Yrep
Spectrometer: HR+D1059
Trigger mode: 1
Integration Time (sec): 1.000000E-1
Scans to average: 1
Electric dark correction enabled: true
Nonlinearity correction enabled: false
Boxcar width: 0
XAxis mode: Wavelengths
Number of Pixels in Spectrum: 2048
>>>>>Begin Spectral Data<<<<<
223.165	-14.38
223.4	-14.38
223.635	-14.38
223.869	-23.38
224.104	-14.38
224.338	-22.38
224.573	3.62
224.808	-13.38
225.042	-14.38
225.277	2.62
225.511	-9.38
225.746	-0.38
225.98	6.62
226.215	13.62
226.449	18.62
226.683	7.62
226.918	23.62
227.152	35.62
227.387	31.62
227.621	37.62
227.856	48.62
228.09	37.62
228.324	55.62
228.559	68.62
228.793	55.62
229.027	57.62
229.262	55.62
229.496	83.62
229.73	90.62
229.964	91.62
230.199	93.62
230.433	67.62
230.667	81.62
230.901	66.62
231.136	73.62
231.37	73.62
231.604	84.62
231.838	75.62
232.072	83.62
232.306	74.62
232.541	86.62
232.775	83.62
233.009	83.62
233.243	84.62
233.477	89.62
233.711	87.62
233.945	78.62
234.179	77.62
234.413	84.62
234.647	83.62
234.881	70.62
235.115	70.62
235.349	86.62
235.583	80.62
235.817	73.62
236.051	85.62
236.285	72.62
236.519	90.62
236.753	70.62
236.987	73.62
237.221	86.62
237.455	81.62
237.689	70.62
237.922	79.62
238.156	94.62
238.39	87.62
238.624	81.62
238.858	76.62
239.091	70.62
239.325	84.62
239.559	74.62
239.793	71.62
240.027	85.62
240.26	92.62
240.494	79.62
240.728	72.62
240.961	70.62
241.195	77.62
241.429	70.62
241.662	83.62
241.896	89.62
242.13	62.62
242.363	71.62
242.597	73.62
242.83	71.62
243.064	62.62
243.298	85.62
243.531	76.62
243.765	83.62
243.998	85.62
244.232	90.62
244.465	93.62
244.699	81.62
244.932	92.62
245.166	77.62
245.399	68.62
245.633	91.62
245.866	79.62
246.099	90.62
246.333	85.62
246.566	70.62
246.8	75.62
247.033	83.62
247.266	90.62
247.5	66.62
247.733	77.62
247.966	73.62
248.2	81.62
248.433	81.62
248.666	74.62
248.899	88.62
249.133	90.62
249.366	98.62
249.599	107.62
249.832	82.62
250.066	78.62
250.299	85.62
250.532	86.62
250.765	84.62
250.998	87.62
251.231	81.62
251.465	68.62
251.698	87.62
251.931	88.62
252.164	75.62
252.397	89.62
252.63	85.62
252.863	77.62
253.096	81.62
253.329	90.62
253.562	83.62
253.795	80.62
254.028	91.62
254.261	89.62
254.494	82.62
254.727	81.62
254.96	81.62
255.193	74.62
255.426	78.62
255.659	75.62
255.892	88.62
256.124	79.62
256.357	79.62
256.59	82.62
256.823	80.62
257.056	95.62
257.289	73.62
257.521	87.62
257.754	90.62
257.987	85.62
258.22	99.62
258.452	81.62
258.685	81.62
258.918	92.62
259.151	79.62
259.383	77.62
259.616	88.62
259.849	67.62
260.081	76.62
260.314	83.62
260.547	82.62
260.779	79.62
261.012	76.62
261.244	82.62
261.477	91.62
261.71	98.62
261.942	113.62
262.175	125.62
262.407	99.62
262.64	78.62
262.872	77.62
263.105	87.62
263.337	82.62
263.57	80.62
263.802	85.62
264.035	91.62
264.267	79.62
264.499	90.62
264.732	80.62
264.964	85.62
265.197	78.62
265.429	89.62
265.661	75.62
265.894	78.62
266.126	66.62
266.358	79.62
266.591	75.62
266.823	92.62
267.055	87.62
267.287	82.62
267.52	79.62
267.752	82.62
267.984	75.62
268.216	80.62
268.448	92.62
268.681	83.62
268.913	90.62
269.145	81.62
269.377	85.62
269.609	96.62
269.841	86.62
270.073	85.62
270.306	86.62
270.538	97.62
270.77	92.62
271.002	86.62
271.234	72.62
271.466	87.62
271.698	86.62
271.93	101.62
272.162	97.62
272.394	79.62
272.626	89.62
272.858	95.62
273.09	84.62
273.322	86.62
273.553	78.62
273.785	79.62
274.017	85.62
274.249	78.62
274.481	78.62
274.713	86.62
274.945	95.62
275.176	82.62
275.408	106.62
275.64	88.62
275.872	91.62
276.104	95.62
276.335	77.62
276.567	107.62
276.799	99.62
277.031	88.62
277.262	84.62
277.494	88.62
277.726	89.62
277.957	77.62
278.189	75.62
278.421	80.62
278.652	78.62
278.884	78.62
279.115	89.62
279.347	96.62
279.579	84.62
279.81	86.62
280.042	91.62
280.273	90.62
280.505	81.62
280.736	89.62
280.968	71.62
281.199	95.62
281.431	80.62
281.662	73.62
281.894	105.62
282.125	102.62
282.356	115.62
282.588	127.62
282.819	106.62
283.051	91.62
283.282	71.62
283.513	103.62
283.745	90.62
283.976	93.62
284.207	91.62
284.439	85.62
284.67	86.62
284.901	83.62
285.132	86.62
285.364	87.62
285.595	88.62
285.826	74.62
286.057	93.62
286.288	102.62
286.52	82.62
286.751	83.62
286.982	94.62
287.213	92.62
287.444	89.62
287.675	82.62
287.906	97.62
288.138	94.62
288.369	90.62
288.6	101.62
288.831	87.62
289.062	94.62
289.293	90.62
289.524	81.62
289.755	79.62
289.986	83.62
290.217	84.62
290.448	78.62
290.679	87.62
290.91	81.62
291.141	78.62
291.371	99.62
291.602	94.62
291.833	79.62
292.064	77.62
292.295	91.62
292.526	96.62
292.757	83.62
292.987	95.62
293.218	90.62
293.449	66.62
293.68	98.62
293.91	100.62
294.141	92.62
294.372	91.62
294.603	90.62
294.833	75.62
295.064	92.62
295.295	90.62
295.525	77.62
295.756	110.62
295.987	120.62
296.217	137.62
296.448	128.62
296.679	106.62
296.909	106.62
297.14	84.62
297.37	85.62
297.601	82.62
297.831	95.62
298.062	103.62
298.292	74.62
298.523	93.62
298.753	105.62
298.984	86.62
299.214	77.62
299.445	91.62
299.675	91.62
299.905	104.62
300.136	90.62
300.366	91.62
300.597	96.62
300.827	93.62
301.057	88.62
301.288	104.62
301.518	98.62
301.748	82.62
301.979	92.62
302.209	95.62
302.439	86.62
302.669	102.62
302.9	91.62
303.13	75.62
303.36	90.62
303.59	90.62
303.82	111.62
304.051	93.62
304.281	89.62
304.511	95.62
304.741	76.62
304.971	89.62
305.201	100.62
305.431	98.62
305.661	92.62
305.891	91.62
306.121	85.62
306.352	103.62
306.582	92.62
306.812	90.62
307.042	90.62
307.272	104.62
307.502	75.62
307.731	85.62
307.961	94.62
308.191	103.62
308.421	89.62
308.651	84.62
308.881	90.62
309.111	83.62
309.341	87.62
309.571	98.62
309.8	108.62
310.03	81.62
310.26	96.62
310.49	94.62
310.72	96.62
310.949	124.62
311.179	111.62
311.409	87.62
311.639	95.62
311.868	106.62
312.098	102.62
312.328	90.62
312.557	95.62
312.787	102.62
313.017	92.62
313.246	107.62
313.476	97.62
313.706	87.62
313.935	94.62
314.165	97.62
314.394	91.62
314.624	87.62
314.853	89.62
315.083	90.62
315.312	86.62
315.542	84.62
315.771	103.62
316.001	92.62
316.23	98.62
316.46	86.62
316.689	81.62
316.919	106.62
317.148	90.62
317.377	108.62
317.607	109.62
317.836	94.62
318.065	90.62
318.295	89.62
318.524	102.62
318.753	103.62
318.983	96.62
319.212	105.62
319.441	102.62
319.67	100.62
319.9	108.62
320.129	89.62
320.358	85.62
320.587	92.62
320.816	97.62
321.046	93.62
321.275	109.62
321.504	104.62
321.733	97.62
321.962	95.62
322.191	95.62
322.42	97.62
322.649	104.62
322.878	106.62
323.108	116.62
323.337	107.62
323.566	135.62
323.795	167.62
324.024	187.62
324.253	353.62
324.482	729.62
324.71	1477.62
324.939	1898.62
325.168	714.62
325.397	218.62
325.626	142.62
325.855	116.62
326.084	121.62
326.313	119.62
326.542	151.62
326.77	191.62
326.999	429.62
327.228	825.62
327.457	1472.62
327.686	1131.62
327.914	344.62
328.143	182.62
328.372	136.62
328.6	133.62
328.829	115.62
329.058	129.62
329.287	131.62
329.515	96.62
329.744	96.62
329.972	103.62
330.201	97.62
330.43	113.62
330.658	135.62
330.887	133.62
331.115	123.62
331.344	95.62
331.572	103.62
331.801	108.62
332.03	116.62
332.258	96.62
332.486	98.62
332.715	90.62
332.943	95.62
333.172	103.62
333.4	94.62
333.629	97.62
333.857	112.62
334.085	113.62
334.314	87.62
334.542	94.62
334.771	90.62
334.999	120.62
335.227	98.62
335.455	100.62
335.684	110.62
335.912	101.62
336.14	109.62
336.369	89.62
336.597	91.62
336.825	96.62
337.053	105.62
337.281	103.62
337.51	93.62
337.738	79.62
337.966	100.62
338.194	89.62
338.422	90.62
338.65	90.62
338.878	105.62
339.106	99.62
339.334	103.62
339.562	93.62
339.79	94.62
340.018	101.62
340.246	96.62
340.474	92.62
340.702	90.62
340.93	83.62
341.158	93.62
341.386	89.62
341.614	99.62
341.842	91.62
342.07	90.62
342.298	91.62
342.526	83.62
342.754	107.62
342.981	90.62
343.209	81.62
343.437	122.62
343.665	102.62
343.893	95.62
344.12	96.62
344.348	77.62
344.576	97.62
344.804	91.62
345.031	103.62
345.259	103.62
345.487	107.62
345.714	106.62
345.942	90.62
346.17	90.62
346.397	93.62
346.625	96.62
346.853	98.62
347.08	90.62
347.308	88.62
347.535	92.62
347.763	93.62
347.99	97.62
348.218	106.62
348.445	110.62
348.673	93.62
348.9	96.62
349.128	90.62
349.355	104.62
349.583	102.62
349.81	93.62
350.037	90.62
350.265	99.62
350.492	91.62
350.72	100.62
350.947	95.62
351.174	114.62
351.402	99.62
351.629	111.62
351.856	108.62
352.083	96.62
352.311	108.62
352.538	104.62
352.765	90.62
352.992	99.62
353.22	111.62
353.447	104.62
353.674	85.62
353.901	117.62
354.128	100.62
354.355	95.62
354.583	101.62
354.81	96.62
355.037	101.62
355.264	97.62
355.491	82.62
355.718	98.62
355.945	105.62
356.172	96.62
356.399	109.62
356.626	90.62
356.853	93.62
357.08	98.62
357.307	89.62
357.534	74.62
357.761	101.62
357.988	89.62
358.215	97.62
358.441	82.62
358.668	82.62
358.895	100.62
359.122	89.62
359.349	91.62
359.576	97.62
359.802	103.62
360.029	117.62
360.256	101.62
360.483	101.62
360.709	97.62
360.936	97.62
361.163	97.62
361.39	104.62
361.616	98.62
361.843	90.62
362.07	104.62
362.296	97.62
362.523	93.62
362.749	84.62
362.976	92.62
363.203	87.62
363.429	95.62
363.656	98.62
363.882	88.62
364.109	95.62
364.335	92.62
364.562	84.62
364.788	88.62
365.015	93.62
365.241	93.62
365.468	124.62
365.694	93.62
365.92	110.62
366.147	93.62
366.373	94.62
366.599	95.62
366.826	92.62
367.052	94.62
367.278	90.62
367.505	90.62
367.731	90.62
367.957	77.62
368.184	85.62
368.41	104.62
368.636	103.62
368.862	116.62
369.089	103.62
369.315	84.62
369.541	99.62
369.767	93.62
369.993	93.62
370.219	80.62
370.445	81.62
370.672	99.62
370.898	84.62
371.124	100.62
371.35	89.62
371.576	89.62
371.802	94.62
372.028	91.62
372.254	90.62
372.48	97.62
372.706	93.62
372.932	88.62
373.158	93.62
373.384	89.62
373.61	88.62
373.835	89.62
374.061	99.62
374.287	95.62
374.513	79.62
374.739	86.62
374.965	101.62
375.191	93.62
375.416	93.62
375.642	86.62
375.868	97.62
376.094	85.62
376.319	88.62
376.545	89.62
376.771	88.62
376.997	95.62
377.222	91.62
377.448	82.62
377.674	85.62
377.899	87.62
378.125	96.62
378.35	85.62
378.576	90.62
378.802	93.62
379.027	97.62
379.253	93.62
379.478	91.62
379.704	99.62
379.929	80.62
380.155	86.62
380.38	98.62
380.606	80.62
380.831	95.62
381.057	101.62
381.282	83.62
381.507	97.62
381.733	87.62
381.958	86.62
382.184	91.62
382.409	103.62
382.634	108.62
382.86	101.62
383.085	101.62
383.31	108.62
383.535	95.62
383.761	106.62
383.986	85.62
384.211	86.62
384.436	95.62
384.662	94.62
384.887	95.62
385.112	97.62
385.337	96.62
385.562	96.62
385.787	104.62
386.013	109.62
386.238	103.62
386.463	95.62
386.688	97.62
386.913	107.62
387.138	97.62
387.363	107.62
387.588	99.62
387.813	108.62
388.038	99.62
388.263	98.62
388.488	115.62
388.713	90.62
388.938	97.62
389.163	107.62
389.387	104.62
389.612	106.62
389.837	91.62
390.062	83.62
390.287	79.62
390.512	81.62
390.736	103.62
390.961	82.62
391.186	94.62
391.411	89.62
391.636	91.62
391.86	93.62
392.085	80.62
392.31	94.62
392.534	87.62
392.759	84.62
392.984	76.62
393.208	86.62
393.433	81.62
393.658	86.62
393.882	86.62
394.107	88.62
394.331	80.62
394.556	74.62
394.78	85.62
395.005	85.62
395.229	96.62
395.454	92.62
395.678	89.62
395.903	81.62
396.127	90.62
396.352	92.62
396.576	79.62
396.801	81.62
397.025	78.62
397.249	82.62
397.474	88.62
397.698	81.62
397.922	70.62
398.147	92.62
398.371	81.62
398.595	96.62
398.82	83.62
399.044	93.62
399.268	96.62
399.492	99.62
399.717	99.62
399.941	107.62
400.165	93.62
400.389	86.62
400.613	87.62
400.837	82.62
401.062	86.62
401.286	98.62
401.51	95.62
401.734	80.62
401.958	115.62
402.182	124.62
402.406	146.62
402.63	111.62
402.854	105.62
403.078	93.62
403.302	111.62
403.526	87.62
403.75	79.62
403.974	89.62
404.198	95.62
404.422	90.62
404.645	88.62
404.869	81.62
405.093	99.62
405.317	91.62
405.541	106.62
405.765	90.62
405.988	111.62
406.212	158.62
406.436	222.62
406.66	138.62
406.883	105.62
407.107	97.62
407.331	92.62
407.555	84.62
407.778	88.62
408.002	78.62
408.226	81.62
408.449	83.62
408.673	85.62
408.896	92.62
409.12	100.62
409.344	97.62
409.567	89.62
409.791	90.62
410.014	99.62
410.238	90.62
410.461	95.62
410.685	99.62
410.908	94.62
411.132	107.62
411.355	106.62
411.578	93.62
411.802	87.62
412.025	85.62
412.249	95.62
412.472	95.62
412.695	84.62
412.919	82.62
413.142	86.62
413.365	98.62
413.589	97.62
413.812	93.62
414.035	80.62
414.258	94.62
414.482	91.62
414.705	85.62
414.928	86.62
415.151	89.62
415.374	92.62
415.597	98.62
415.821	92.62
416.044	77.62
416.267	79.62
416.49	83.62
416.713	87.62
416.936	92.62
417.159	95.62
417.382	86.62
417.605	86.62
417.828	95.62
418.051	89.62
418.274	80.62
418.497	89.62
418.72	81.62
418.943	82.62
419.166	89.62
419.389	91.62
419.611	91.62
419.834	101.62
420.057	93.62
420.28	75.62
420.503	92.62
420.726	72.62
420.948	90.62
421.171	85.62
421.394	92.62
421.617	89.62
421.839	82.62
422.062	73.62
422.285	76.62
422.507	98.62
422.73	104.62
422.953	108.62
423.175	92.62
423.398	97.62
423.621	83.62
423.843	90.62
424.066	91.62
424.288	88.62
424.511	94.62
424.733	100.62
424.956	108.62
425.178	96.62
425.401	100.62
425.623	90.62
425.846	94.62
426.068	102.62
426.291	82.62
426.513	101.62
426.735	84.62
426.958	79.62
427.18	97.62
427.402	119.62
427.625	151.62
427.847	119.62
428.069	106.62
428.292	80.62
428.514	78.62
428.736	94.62
428.958	87.62
429.181	83.62
429.403	107.62
429.625	72.62
429.847	98.62
430.069	94.62
430.292	76.62
430.514	94.62
430.736	90.62
430.958	77.62
431.18	87.62
431.402	86.62
431.624	88.62
431.846	98.62
432.068	89.62
432.29	86.62
432.512	90.62
432.734	92.62
432.956	89.62
433.178	106.62
433.4	102.62
433.622	98.62
433.844	82.62
434.066	92.62
434.287	99.62
434.509	98.62
434.731	83.62
434.953	85.62
435.175	77.62
435.397	91.62
435.618	83.62
435.84	101.62
436.062	119.62
436.284	87.62
436.505	94.62
436.727	102.62
436.949	89.62
437.17	97.62
437.392	106.62
437.614	97.62
437.835	101.62
438.057	133.62
438.278	109.62
438.5	95.62
438.721	120.62
438.943	97.62
439.165	83.62
439.386	93.62
439.608	98.62
439.829	91.62
440.05	117.62
440.272	141.62
440.493	98.62
440.715	93.62
440.936	85.62
441.158	104.62
441.379	79.62
441.6	97.62
441.822	90.62
442.043	92.62
442.264	105.62
442.486	95.62
442.707	92.62
442.928	97.62
443.149	115.62
443.371	128.62
443.592	100.62
443.813	111.62
444.034	102.62
444.255	95.62
444.476	102.62
444.698	90.62
444.919	86.62
445.14	123.62
445.361	116.62
445.582	97.62
445.803	119.62
446.024	117.62
446.245	129.62
446.466	121.62
446.687	90.62
446.908	89.62
447.129	86.62
447.35	95.62
447.571	91.62
447.792	87.62
448.013	100.62
448.234	106.62
448.455	95.62
448.675	109.62
448.896	108.62
449.117	95.62
449.338	102.62
449.559	128.62
449.779	130.62
450	88.62
450.221	81.62
450.442	100.62
450.662	92.62
450.883	111.62
451.104	96.62
451.324	87.62
451.545	95.62
451.766	86.62
451.986	82.62
452.207	93.62
452.428	102.62
452.648	89.62
452.869	103.62
453.089	103.62
453.31	110.62
453.53	101.62
453.751	102.62
453.971	100.62
454.192	99.62
454.412	78.62
454.633	100.62
454.853	80.62
455.073	97.62
455.294	85.62
455.514	90.62
455.734	100.62
455.955	78.62
456.175	94.62
456.395	88.62
456.616	81.62
456.836	77.62
457.056	80.62
457.276	80.62
457.497	90.62
457.717	75.62
457.937	97.62
458.157	94.62
458.377	99.62
458.598	97.62
458.818	150.62
459.038	147.62
459.258	118.62
459.478	91.62
459.698	86.62
459.918	94.62
460.138	99.62
460.358	89.62
460.578	91.62
460.798	93.62
461.018	96.62
461.238	76.62
461.458	80.62
461.678	89.62
461.898	91.62
462.118	80.62
462.338	79.62
462.558	91.62
462.777	90.62
462.997	90.62
463.217	81.62
463.437	84.62
463.657	82.62
463.876	94.62
464.096	80.62
464.316	93.62
464.536	94.62
464.755	90.62
464.975	102.62
465.195	163.62
465.414	161.62
465.634	106.62
465.854	83.62
466.073	80.62
466.293	85.62
466.512	81.62
466.732	87.62
466.951	94.62
467.171	98.62
467.391	84.62
467.61	107.62
467.829	97.62
468.049	87.62
468.268	84.62
468.488	93.62
468.707	85.62
468.927	87.62
469.146	88.62
469.365	87.62
469.585	86.62
469.804	89.62
470.023	88.62
470.243	90.62
470.462	95.62
470.681	93.62
470.901	99.62
471.12	83.62
471.339	95.62
471.558	93.62
471.777	84.62
471.997	98.62
472.216	107.62
472.435	96.62
472.654	97.62
472.873	78.62
473.092	89.62
473.311	95.62
473.53	102.62
473.749	96.62
473.968	95.62
474.187	95.62
474.406	97.62
474.625	86.62
474.844	103.62
475.063	79.62
475.282	89.62
475.501	81.62
475.72	88.62
475.939	68.62
476.158	96.62
476.377	77.62
476.596	79.62
476.814	86.62
477.033	85.62
477.252	82.62
477.471	86.62
477.69	91.62
477.908	74.62
478.127	88.62
478.346	102.62
478.564	85.62
478.783	100.62
479.002	98.62
479.22	93.62
479.439	80.62
479.658	99.62
479.876	99.62
480.095	77.62
480.313	99.62
480.532	87.62
480.751	94.62
480.969	109.62
481.188	92.62
481.406	103.62
481.624	95.62
481.843	97.62
482.061	71.62
482.28	98.62
482.498	77.62
482.717	111.62
482.935	95.62
483.153	82.62
483.372	85.62
483.59	78.62
483.808	89.62
484.027	91.62
484.245	89.62
484.463	89.62
484.681	105.62
484.9	84.62
485.118	95.62
485.336	94.62
485.554	87.62
485.772	100.62
485.99	85.62
486.209	107.62
486.427	98.62
486.645	111.62
486.863	117.62
487.081	101.62
487.299	84.62
487.517	92.62
487.735	84.62
487.953	81.62
488.171	103.62
488.389	105.62
488.607	102.62
488.825	82.62
489.043	90.62
489.261	86.62
489.479	96.62
489.696	95.62
489.914	99.62
490.132	86.62
490.35	87.62
490.568	93.62
490.786	87.62
491.003	93.62
491.221	91.62
491.439	98.62
491.657	84.62
491.874	103.62
492.092	93.62
492.31	104.62
492.527	93.62
492.745	89.62
492.963	95.62
493.18	89.62
493.398	94.62
493.615	93.62
493.833	78.62
494.05	84.62
494.268	93.62
494.485	93.62
494.703	88.62
494.92	89.62
495.138	74.62
495.355	87.62
495.573	79.62
495.79	91.62
496.008	102.62
496.225	87.62
496.442	85.62
496.66	99.62
496.877	103.62
497.094	83.62
497.312	87.62
497.529	95.62
497.746	87.62
497.963	90.62
498.181	86.62
498.398	95.62
498.615	103.62
498.832	110.62
499.049	85.62
499.267	85.62
499.484	91.62
499.701	91.62
499.918	85.62
500.135	81.62
500.352	95.62
500.569	91.62
500.786	93.62
501.003	84.62
501.22	90.62
501.437	82.62
501.654	91.62
501.871	118.62
502.088	86.62
502.305	75.62
502.522	98.62
502.739	86.62
502.956	94.62
503.172	104.62
503.389	101.62
503.606	101.62
503.823	98.62
504.04	89.62
504.256	92.62
504.473	79.62
504.69	90.62
504.907	100.62
505.123	90.62
505.34	95.62
505.557	91.62
505.773	101.62
505.99	82.62
506.207	89.62
506.423	93.62
506.64	70.62
506.856	93.62
507.073	96.62
507.289	86.62
507.506	98.62
507.722	108.62
507.939	125.62
508.155	101.62
508.372	97.62
508.588	91.62
508.805	103.62
509.021	98.62
509.238	102.62
509.454	99.62
509.67	102.62
509.887	107.62
510.103	130.62
510.319	219.62
510.536	726.62
510.752	2274.62
510.968	619.62
511.184	141.62
511.401	97.62
511.617	99.62
511.833	102.62
512.049	86.62
512.265	89.62
512.481	108.62
512.698	83.62
512.914	90.62
513.13	114.62
513.346	97.62
513.562	107.62
513.778	99.62
513.994	96.62
514.21	100.62
514.426	114.62
514.642	134.62
514.858	111.62
515.074	145.62
515.29	429.62
515.506	1427.62
515.721	522.62
515.937	157.62
