Data from Uncirc_1993_H10_HRD10591_00007.txt Node
Date: Wed Jan 03 11:42:53 EST 2024
User: Yrep
Spectrometer: HR+D1059
Trigger mode: 1
Integration Time (sec): 1.000000E-1
Scans to average: 1
Electric dark correction enabled: true
Nonlinearity correction enabled: false
Boxcar width: 0
XAxis mode: Wavelengths
Number of Pixels in Spectrum: 2048
>>>>>Begin Spectral Data<<<<<
223.165	-15.69
223.4	-15.69
223.635	-15.69
223.869	-20.69
224.104	-22.69
224.338	-18.69
224.573	-18.69
224.808	-20.69
225.042	-12.69
225.277	2.31
225.511	20.31
225.746	0.31
225.98	-9.69
226.215	11.31
226.449	21.31
226.683	28.31
226.918	23.31
227.152	32.31
227.387	35.31
227.621	42.31
227.856	35.31
228.09	43.31
228.324	55.31
228.559	61.31
228.793	151.31
229.027	400.31
229.262	442.31
229.496	533.31
229.73	694.31
229.964	693.31
230.199	495.31
230.433	436.31
230.667	420.31
230.901	428.31
231.136	435.31
231.37	420.31
231.604	424.31
231.838	439.31
232.072	436.31
232.306	463.31
232.541	443.31
232.775	438.31
233.009	465.31
233.243	457.31
233.477	449.31
233.711	476.31
233.945	490.31
234.179	490.31
234.413	464.31
234.647	474.31
234.881	493.31
235.115	488.31
235.349	496.31
235.583	525.31
235.817	572.31
236.051	571.31
236.285	555.31
236.519	603.31
236.753	647.31
236.987	820.31
237.221	1222.31
237.455	1297.31
237.689	815.31
237.922	690.31
238.156	672.31
238.39	637.31
238.624	618.31
238.858	599.31
239.091	617.31
239.325	623.31
239.559	660.31
239.793	674.31
240.027	719.31
240.26	817.31
240.494	855.31
240.728	893.31
240.961	818.31
241.195	782.31
241.429	783.31
241.662	740.31
241.896	746.31
242.13	715.31
242.363	751.31
242.597	746.31
242.83	783.31
243.064	777.31
243.298	783.31
243.531	761.31
243.765	811.31
243.998	817.31
244.232	813.31
244.465	819.31
244.699	849.31
244.932	866.31
245.166	862.31
245.399	872.31
245.633	869.31
245.866	879.31
246.099	883.31
246.333	872.31
246.566	923.31
246.8	915.31
247.033	968.31
247.266	971.31
247.5	1020.31
247.733	1063.31
247.966	1072.31
248.2	1086.31
248.433	1086.31
248.666	1129.31
248.899	1243.31
249.133	1311.31
249.366	1307.31
249.599	1177.31
249.832	1133.31
250.066	1139.31
250.299	1175.31
250.532	1225.31
250.765	1351.31
250.998	1512.31
251.231	1497.31
251.465	1371.31
251.698	1334.31
251.931	1317.31
252.164	1325.31
252.397	1312.31
252.63	1341.31
252.863	1455.31
253.096	1532.31
253.329	1572.31
253.562	1530.31
253.795	1463.31
254.028	1466.31
254.261	1509.31
254.494	1643.31
254.727	1948.31
254.96	1965.31
255.193	1771.31
255.426	1633.31
255.659	1524.31
255.892	1463.31
256.124	1491.31
256.357	1452.31
256.59	1445.31
256.823	1400.31
257.056	1423.31
257.289	1409.31
257.521	1444.31
257.754	1483.31
257.987	1439.31
258.22	1449.31
258.452	1457.31
258.685	1477.31
258.918	1476.31
259.151	1540.31
259.383	1588.31
259.616	1572.31
259.849	1659.31
260.081	1765.31
260.314	1938.31
260.547	1889.31
260.779	1722.31
261.012	1694.31
261.244	1655.31
261.477	1585.31
261.71	1613.31
261.942	1665.31
262.175	1678.31
262.407	1634.31
262.64	1579.31
262.872	1588.31
263.105	1586.31
263.337	1540.31
263.57	1587.31
263.802	1601.31
264.035	1581.31
264.267	1610.31
264.499	1605.31
264.732	1622.31
264.964	1665.31
265.197	1610.31
265.429	1634.31
265.661	1586.31
265.894	1683.31
266.126	1657.31
266.358	1647.31
266.591	1697.31
266.823	1759.31
267.055	1787.31
267.287	1760.31
267.52	1781.31
267.752	1790.31
267.984	1785.31
268.216	1834.31
268.448	1848.31
268.681	1871.31
268.913	2001.31
269.145	2135.31
269.377	2234.31
269.609	2141.31
269.841	2189.31
270.073	2200.31
270.306	2416.31
270.538	2568.31
270.77	2469.31
271.002	2364.31
271.234	2268.31
271.466	2401.31
271.698	2548.31
271.93	2527.31
272.162	2522.31
272.394	2463.31
272.626	2356.31
272.858	2243.31
273.09	2177.31
273.322	2167.31
273.553	2162.31
273.785	2115.31
274.017	2147.31
274.249	2135.31
274.481	2121.31
274.713	2164.31
274.945	2165.31
275.176	2169.31
275.408	2133.31
275.64	2150.31
275.872	2096.31
276.104	2181.31
276.335	2171.31
276.567	2254.31
276.799	2426.31
277.031	2576.31
277.262	2663.31
277.494	2544.31
277.726	2474.31
277.957	2395.31
278.189	2369.31
278.421	2288.31
278.652	2299.31
278.884	2304.31
279.115	2275.31
279.347	2265.31
279.579	2275.31
279.81	2286.31
280.042	2242.31
280.273	2336.31
280.505	2300.31
280.736	2349.31
280.968	2319.31
281.199	2356.31
281.431	2369.31
281.662	2390.31
281.894	2373.31
282.125	2413.31
282.356	2527.31
282.588	2642.31
282.819	2546.31
283.051	2501.31
283.282	2398.31
283.513	2455.31
283.745	2545.31
283.976	2497.31
284.207	2509.31
284.439	2547.31
284.67	2523.31
284.901	2551.31
285.132	2550.31
285.364	2542.31
285.595	2588.31
285.826	2538.31
286.057	2540.31
286.288	2592.31
286.52	2609.31
286.751	2615.31
286.982	2619.31
287.213	2628.31
287.444	2633.31
287.675	2699.31
287.906	2784.31
288.138	2776.31
288.369	2764.31
288.6	2818.31
288.831	2754.31
289.062	2689.31
289.293	2701.31
289.524	2704.31
289.755	2726.31
289.986	2713.31
290.217	2709.31
290.448	2672.31
290.679	2792.31
290.91	2727.31
291.141	2711.31
291.371	2733.31
291.602	2718.31
291.833	2733.31
292.064	2751.31
292.295	2700.31
292.526	2748.31
292.757	2771.31
292.987	2756.31
293.218	2729.31
293.449	2730.31
293.68	2731.31
293.91	2788.31
294.141	2764.31
294.372	2734.31
294.603	2773.31
294.833	2788.31
295.064	2807.31
295.295	2788.31
295.525	2809.31
295.756	2848.31
295.987	2861.31
296.217	3032.31
296.448	3042.31
296.679	2862.31
296.909	2891.31
297.14	2887.31
297.37	2936.31
297.601	2963.31
297.831	2919.31
298.062	2909.31
298.292	2975.31
298.523	3059.31
298.753	3039.31
298.984	2984.31
299.214	2965.31
299.445	3019.31
299.675	2991.31
299.905	3080.31
300.136	3068.31
300.366	3000.31
300.597	3100.31
300.827	3173.31
301.057	3230.31
301.288	3275.31
301.518	3183.31
301.748	3181.31
301.979	3311.31
302.209	3262.31
302.439	3251.31
302.669	3203.31
302.9	3217.31
303.13	3106.31
303.36	3243.31
303.59	3228.31
303.82	3273.31
304.051	3271.31
304.281	3307.31
304.511	3210.31
304.741	3174.31
304.971	3212.31
305.201	3121.31
305.431	3159.31
305.661	3204.31
305.891	3189.31
306.121	3182.31
306.352	3205.31
306.582	3193.31
306.812	3156.31
307.042	3207.31
307.272	3162.31
307.502	3124.31
307.731	3183.31
307.961	3183.31
308.191	3135.31
308.421	3192.31
308.651	3172.31
308.881	3202.31
309.111	3237.31
309.341	3275.31
309.571	3299.31
309.8	3355.31
310.03	3375.31
310.26	3474.31
310.49	3385.31
310.72	3540.31
310.949	3554.31
311.179	3493.31
311.409	3481.31
311.639	3497.31
311.868	3481.31
312.098	3556.31
312.328	3604.31
312.557	3686.31
312.787	3769.31
313.017	3636.31
313.246	3596.31
313.476	3614.31
313.706	3599.31
313.935	3694.31
314.165	3729.31
314.394	3781.31
314.624	3771.31
314.853	3658.31
315.083	3632.31
315.312	3599.31
315.542	3643.31
315.771	3539.31
316.001	3569.31
316.23	3563.31
316.46	3537.31
316.689	3565.31
316.919	3600.31
317.148	3564.31
317.377	3651.31
317.607	3611.31
317.836	3610.31
318.065	3549.31
318.295	3548.31
318.524	3604.31
318.753	3539.31
318.983	3548.31
319.212	3542.31
319.441	3583.31
319.67	3601.31
319.9	3545.31
320.129	3583.31
320.358	3559.31
320.587	3638.31
320.816	3640.31
321.046	3731.31
321.275	3651.31
321.504	3679.31
321.733	3749.31
321.962	3743.31
322.191	3855.31
322.42	3904.31
322.649	3970.31
322.878	3988.31
323.108	4084.31
323.337	4237.31
323.566	4331.31
323.795	4627.31
324.024	5060.31
324.253	6455.31
324.482	9371.31
324.71	13810.31
324.939	15425.31
325.168	10163.31
325.397	5851.31
325.626	4879.31
325.855	4527.31
326.084	4421.31
326.313	4423.31
326.542	4535.31
326.77	5068.31
326.999	6205.31
327.228	8899.31
327.457	12733.31
327.686	11573.31
327.914	6416.31
328.143	5271.31
328.372	5017.31
328.6	4818.31
328.829	4851.31
329.058	4864.31
329.287	4843.31
329.515	4562.31
329.744	4444.31
329.972	4458.31
330.201	4576.31
330.43	4743.31
330.658	4939.31
330.887	5167.31
331.115	4928.31
331.344	4640.31
331.572	4576.31
331.801	4705.31
332.03	4772.31
332.258	4709.31
332.486	4717.31
332.715	4915.31
332.943	4953.31
333.172	5138.31
333.4	5262.31
333.629	5308.31
333.857	5465.31
334.085	5329.31
334.314	5259.31
334.542	5186.31
334.771	5131.31
334.999	5061.31
335.227	5005.31
335.455	4993.31
335.684	4913.31
335.912	4847.31
336.14	4754.31
336.369	4785.31
336.597	4829.31
336.825	4712.31
337.053	4691.31
337.281	4601.31
337.51	4589.31
337.738	4560.31
337.966	4517.31
338.194	4523.31
338.422	4444.31
338.65	4386.31
338.878	4389.31
339.106	4387.31
339.334	4390.31
339.562	4315.31
339.79	4259.31
340.018	4260.31
340.246	4205.31
340.474	4255.31
340.702	4305.31
340.93	4274.31
341.158	4247.31
341.386	4258.31
341.614	4279.31
341.842	4202.31
342.07	4161.31
342.298	4160.31
342.526	4176.31
342.754	4204.31
342.981	4168.31
343.209	4326.31
343.437	4532.31
343.665	4807.31
343.893	4996.31
344.12	5023.31
344.348	4816.31
344.576	4627.31
344.804	4558.31
345.031	4455.31
345.259	4418.31
345.487	4249.31
345.714	4160.31
345.942	4156.31
346.17	4134.31
346.397	4024.31
346.625	3993.31
346.853	3925.31
347.08	4040.31
347.308	4062.31
347.535	4125.31
347.763	4169.31
347.99	4118.31
348.218	4146.31
348.445	4127.31
348.673	4056.31
348.9	4056.31
349.128	3997.31
349.355	3943.31
349.583	3977.31
349.81	3976.31
350.037	3936.31
350.265	3901.31
350.492	3882.31
350.72	3906.31
350.947	4064.31
351.174	4058.31
351.402	4061.31
351.629	3974.31
351.856	3970.31
352.083	4036.31
352.311	4017.31
352.538	4034.31
352.765	4004.31
352.992	3921.31
353.22	3900.31
353.447	3919.31
353.674	3830.31
353.901	3819.31
354.128	3831.31
354.355	3874.31
354.583	3831.31
354.81	3848.31
355.037	3840.31
355.264	3792.31
355.491	3821.31
355.718	3798.31
355.945	3832.31
356.172	3843.31
356.399	3887.31
356.626	3884.31
356.853	3881.31
357.08	3807.31
357.307	3817.31
357.534	3820.31
357.761	3856.31
357.988	3903.31
358.215	3840.31
358.441	3907.31
358.668	3878.31
358.895	3942.31
359.122	3984.31
359.349	3954.31
359.576	4085.31
359.802	4196.31
360.029	4308.31
360.256	4273.31
360.483	4197.31
360.709	4119.31
360.936	4067.31
361.163	4041.31
361.39	4059.31
361.616	4053.31
361.843	4028.31
362.07	3970.31
362.296	4051.31
362.523	3996.31
362.749	4005.31
362.976	3972.31
363.203	3921.31
363.429	3938.31
363.656	3948.31
363.882	3891.31
364.109	3923.31
364.335	3849.31
364.562	3867.31
364.788	3884.31
365.015	3921.31
365.241	3961.31
365.468	3919.31
365.694	3986.31
365.92	3911.31
366.147	3909.31
366.373	3930.31
366.599	3926.31
366.826	3899.31
367.052	3854.31
367.278	3914.31
367.505	3971.31
367.731	3957.31
367.957	3905.31
368.184	4018.31
368.41	4097.31
368.636	4062.31
368.862	4074.31
369.089	4046.31
369.315	4017.31
369.541	4064.31
369.767	4121.31
369.993	4043.31
370.219	4004.31
370.445	4044.31
370.672	4081.31
370.898	4119.31
371.124	4115.31
371.35	4127.31
371.576	4201.31
371.802	4160.31
372.028	4196.31
372.254	4225.31
372.48	4218.31
372.706	4337.31
372.932	4317.31
373.158	4322.31
373.384	4226.31
373.61	4183.31
373.835	4231.31
374.061	4245.31
374.287	4320.31
374.513	4350.31
374.739	4494.31
374.965	4684.31
375.191	4638.31
375.416	4587.31
375.642	4447.31
375.868	4383.31
376.094	4280.31
376.319	4284.31
376.545	4259.31
376.771	4315.31
376.997	4213.31
377.222	4273.31
377.448	4225.31
377.674	4161.31
377.899	4172.31
378.125	4172.31
378.35	4170.31
378.576	4156.31
378.802	4187.31
379.027	4194.31
379.253	4198.31
379.478	4175.31
379.704	4169.31
379.929	4275.31
380.155	4216.31
380.38	4173.31
380.606	4186.31
380.831	4212.31
381.057	4255.31
381.282	4236.31
381.507	4237.31
381.733	4258.31
381.958	4290.31
382.184	4348.31
382.409	4385.31
382.634	4439.31
382.86	4468.31
383.085	4528.31
383.31	4591.31
383.535	4632.31
383.761	4749.31
383.986	4738.31
384.211	4822.31
384.436	4910.31
384.662	5017.31
384.887	5046.31
385.112	5067.31
385.337	5071.31
385.562	5116.31
385.787	5099.31
386.013	5169.31
386.238	5244.31
386.463	5173.31
386.688	5153.31
386.913	5065.31
387.138	5097.31
387.363	5014.31
387.588	4993.31
387.813	5086.31
388.038	5026.31
388.263	5076.31
388.488	5102.31
388.713	5047.31
388.938	5041.31
389.163	5003.31
389.387	5040.31
389.612	4904.31
389.837	4975.31
390.062	4969.31
390.287	5036.31
390.512	5012.31
390.736	5023.31
390.961	5169.31
391.186	5184.31
391.411	5362.31
391.636	5509.31
391.86	5645.31
392.085	5715.31
392.31	5611.31
392.534	5447.31
392.759	5385.31
392.984	5295.31
393.208	5226.31
393.433	5227.31
393.658	5193.31
393.882	5207.31
394.107	5306.31
394.331	5355.31
394.556	5368.31
394.78	5345.31
395.005	5372.31
395.229	5369.31
395.454	5559.31
395.678	5648.31
395.903	5693.31
396.127	5778.31
396.352	5540.31
396.576	5374.31
396.801	5378.31
397.025	5420.31
397.249	5507.31
397.474	5677.31
397.698	5679.31
397.922	5839.31
398.147	5951.31
398.371	6010.31
398.595	6225.31
398.82	6452.31
399.044	7041.31
399.268	7699.31
399.492	8816.31
399.717	9447.31
399.941	9133.31
400.165	8482.31
400.389	7799.31
400.613	7059.31
400.837	6689.31
401.062	6536.31
401.286	6383.31
401.51	6356.31
401.734	6319.31
401.958	6469.31
402.182	6513.31
402.406	6703.31
402.63	6756.31
402.854	6825.31
403.078	6907.31
403.302	7017.31
403.526	7137.31
403.75	7176.31
403.974	7298.31
404.198	7276.31
404.422	7308.31
404.645	7170.31
404.869	7103.31
405.093	7269.31
405.317	7336.31
405.541	7307.31
405.765	7006.31
405.988	6971.31
406.212	7191.31
406.436	7244.31
406.66	7554.31
406.883	7521.31
407.107	8106.31
407.331	8536.31
407.555	9045.31
407.778	8701.31
408.002	8062.31
408.226	7627.31
408.449	7607.31
408.673	7445.31
408.896	7597.31
409.12	7612.31
409.344	7303.31
409.567	6923.31
409.791	6977.31
410.014	6853.31
410.238	6796.31
410.461	6809.31
410.685	6868.31
410.908	7047.31
411.132	7132.31
411.355	7123.31
411.578	6784.31
411.802	6606.31
412.025	6579.31
412.249	6648.31
412.472	6628.31
412.695	6470.31
412.919	6335.31
413.142	6236.31
413.365	6194.31
413.589	6304.31
413.812	6265.31
414.035	6071.31
414.258	6189.31
414.482	6287.31
414.705	6294.31
414.928	6259.31
415.151	6267.31
415.374	6210.31
415.597	6180.31
415.821	6061.31
416.044	6082.31
416.267	6089.31
416.49	6098.31
416.713	6002.31
416.936	6123.31
417.159	6143.31
417.382	6147.31
417.605	6146.31
417.828	6256.31
418.051	6377.31
418.274	6339.31
418.497	6215.31
418.72	6365.31
418.943	6391.31
419.166	6830.31
419.389	7057.31
419.611	6981.31
419.834	6726.31
420.057	6568.31
420.28	6355.31
420.503	6198.31
420.726	6284.31
420.948	6449.31
421.171	6777.31
421.394	6772.31
421.617	6426.31
421.839	6333.31
422.062	6399.31
422.285	6553.31
422.507	7167.31
422.73	7571.31
422.953	7075.31
423.175	6747.31
423.398	6844.31
423.621	6784.31
423.843	7060.31
424.066	7075.31
424.288	6875.31
424.511	7070.31
424.733	7481.31
424.956	7835.31
425.178	7319.31
425.401	7568.31
425.623	7463.31
425.846	6573.31
426.068	6449.31
426.291	6327.31
426.513	6354.31
426.735	6428.31
426.958	6762.31
427.18	7460.31
427.402	8407.31
427.625	8384.31
427.847	7128.31
428.069	6419.31
428.292	6079.31
428.514	5887.31
428.736	5668.31
428.958	5803.31
429.181	5635.31
429.403	5633.31
429.625	5866.31
429.847	6040.31
430.069	6464.31
430.292	6102.31
430.514	5575.31
430.736	5618.31
430.958	5553.31
431.18	5501.31
431.402	5447.31
431.624	5439.31
431.846	5541.31
432.068	5567.31
432.29	5674.31
432.512	5579.31
432.734	5616.31
432.956	5600.31
433.178	5612.31
433.4	5656.31
433.622	5533.31
433.844	5612.31
434.066	5625.31
434.287	5701.31
434.509	6059.31
434.731	6140.31
434.953	6281.31
435.175	6380.31
435.397	6418.31
435.618	6337.31
435.84	6663.31
436.062	7320.31
436.284	7257.31
436.505	6234.31
436.727	6023.31
436.949	5727.31
437.17	5663.31
437.392	5622.31
437.614	5764.31
437.835	6052.31
438.057	6781.31
438.278	7476.31
438.5	7373.31
438.721	8128.31
438.943	7178.31
439.165	6117.31
439.386	5929.31
439.608	6063.31
439.829	6068.31
440.05	6338.31
440.272	6597.31
440.493	6104.31
440.715	5991.31
440.936	5898.31
441.158	5976.31
441.379	6045.31
441.6	6340.31
441.822	6561.31
442.043	6997.31
442.264	7641.31
442.486	7316.31
442.707	6617.31
442.928	6530.31
443.149	6663.31
443.371	6753.31
443.592	7330.31
443.813	8271.31
444.034	8136.31
444.255	7247.31
444.476	7135.31
444.698	7234.31
444.919	7408.31
445.14	7143.31
445.361	6962.31
445.582	7015.31
445.803	7531.31
446.024	7986.31
446.245	7736.31
446.466	7001.31
446.687	6082.31
446.908	5901.31
447.129	5550.31
447.35	5531.31
447.571	5512.31
447.792	5274.31
448.013	5495.31
448.234	5585.31
448.455	6224.31
448.675	7284.31
448.896	7586.31
449.117	6398.31
449.338	6547.31
449.559	7759.31
449.779	7804.31
450	6115.31
450.221	5520.31
450.442	5295.31
450.662	5216.31
450.883	5285.31
451.104	5317.31
451.324	5183.31
451.545	5111.31
451.766	5018.31
451.986	4886.31
452.207	4865.31
452.428	4905.31
452.648	4887.31
452.869	4912.31
453.089	4960.31
453.31	5092.31
453.53	4877.31
453.751	4821.31
453.971	4889.31
454.192	4920.31
454.412	4770.31
454.633	4821.31
454.853	4733.31
455.073	4803.31
455.294	5092.31
455.514	5531.31
455.734	5113.31
455.955	4649.31
456.175	4527.31
456.395	4488.31
456.616	4489.31
456.836	4521.31
457.056	4556.31
457.276	4521.31
457.497	4565.31
457.717	4587.31
457.937	4619.31
458.157	4675.31
458.377	4740.31
458.598	5063.31
458.818	5617.31
459.038	6241.31
459.258	6272.31
459.478	5716.31
459.698	5629.31
459.918	5747.31
460.138	5954.31
460.358	6094.31
460.578	6136.31
460.798	6217.31
461.018	6207.31
461.238	6083.31
461.458	6092.31
461.678	6018.31
461.898	6255.31
462.118	6238.31
462.338	6689.31
462.558	6836.31
462.777	7056.31
462.997	7612.31
463.217	7960.31
463.437	7745.31
463.657	7067.31
463.876	6975.31
464.096	7043.31
464.316	6926.31
464.536	7081.31
464.755	6816.31
464.975	6688.31
465.195	6772.31
465.414	6615.31
465.634	5970.31
465.854	5695.31
466.073	5569.31
466.293	5319.31
466.512	5209.31
466.732	5137.31
466.951	5121.31
467.171	5082.31
467.391	5201.31
467.61	5190.31
467.829	5138.31
468.049	5055.31
468.268	4889.31
468.488	4804.31
468.707	4827.31
468.927	4801.31
469.146	4845.31
469.365	4922.31
469.585	4892.31
469.804	5110.31
470.023	5273.31
470.243	5257.31
470.462	5364.31
470.681	5441.31
470.901	5313.31
471.12	5220.31
471.339	5191.31
471.558	5156.31
471.777	5010.31
471.997	4944.31
472.216	4911.31
472.435	4911.31
472.654	4804.31
472.873	4755.31
473.092	4853.31
473.311	4819.31
473.53	4903.31
473.749	4931.31
473.968	5379.31
474.187	6225.31
474.406	5843.31
474.625	5104.31
474.844	4922.31
475.063	4846.31
475.282	4853.31
475.501	4946.31
475.72	4923.31
475.939	4969.31
476.158	5026.31
476.377	5121.31
476.596	5062.31
476.814	5191.31
477.033	5243.31
477.252	5320.31
477.471	5392.31
477.69	5480.31
477.908	5566.31
478.127	5789.31
478.346	5876.31
478.564	5927.31
478.783	5967.31
479.002	6131.31
479.22	6089.31
479.439	6194.31
479.658	6247.31
479.876	6366.31
480.095	6575.31
480.313	6866.31
480.532	6796.31
480.751	6648.31
480.969	6525.31
481.188	6488.31
481.406	6170.31
481.624	5960.31
481.843	5829.31
482.061	5875.31
482.28	5767.31
482.498	5724.31
482.717	5625.31
482.935	5675.31
483.153	5633.31
483.372	5681.31
483.59	5601.31
483.808	5632.31
484.027	5724.31
484.245	5740.31
484.463	5730.31
484.681	5821.31
484.9	5871.31
485.118	5879.31
485.336	5939.31
485.554	6018.31
485.772	6070.31
485.99	6087.31
486.209	6163.31
486.427	6116.31
486.645	6178.31
486.863	6219.31
487.081	6100.31
487.299	6091.31
487.517	6059.31
487.735	6033.31
487.953	6038.31
