Data from Uncirc_1993_H10_HRD10591_00087.txt Node
Date: Wed Jan 03 11:43:09 EST 2024
User: Yrep
Spectrometer: HR+D1059
Trigger mode: 1
Integration Time (sec): 1.000000E-1
Scans to average: 1
Electric dark correction enabled: true
Nonlinearity correction enabled: false
Boxcar width: 0
XAxis mode: Wavelengths
Number of Pixels in Spectrum: 2048
>>>>>Begin Spectral Data<<<<<
223.165	-6.5
223.4	-6.5
223.635	-6.5
223.869	-22.5
224.104	-28.5
224.338	-33.5
224.573	-17.5
224.808	-18.5
225.042	-15.5
225.277	3.5
225.511	-11.5
225.746	-7.5
225.98	16.5
226.215	11.5
226.449	30.5
226.683	18.5
226.918	36.5
227.152	44.5
227.387	13.5
227.621	39.5
227.856	51.5
228.09	51.5
228.324	56.5
228.559	54.5
228.793	59.5
229.027	66.5
229.262	50.5
229.496	70.5
229.73	93.5
229.964	88.5
230.199	83.5
230.433	79.5
230.667	66.5
230.901	73.5
231.136	88.5
231.37	72.5
231.604	90.5
231.838	67.5
232.072	83.5
232.306	87.5
232.541	82.5
232.775	74.5
233.009	87.5
233.243	75.5
233.477	70.5
233.711	77.5
233.945	91.5
234.179	70.5
234.413	76.5
234.647	75.5
234.881	80.5
235.115	73.5
235.349	74.5
235.583	83.5
235.817	71.5
236.051	90.5
236.285	88.5
236.519	75.5
236.753	73.5
236.987	95.5
237.221	74.5
237.455	78.5
237.689	71.5
237.922	78.5
238.156	78.5
238.39	82.5
238.624	67.5
238.858	78.5
239.091	80.5
239.325	72.5
239.559	79.5
239.793	76.5
240.027	73.5
240.26	64.5
240.494	80.5
240.728	67.5
240.961	83.5
241.195	70.5
241.429	88.5
241.662	67.5
241.896	65.5
242.13	79.5
242.363	83.5
242.597	82.5
242.83	80.5
243.064	78.5
243.298	80.5
243.531	78.5
243.765	73.5
243.998	78.5
244.232	70.5
244.465	81.5
244.699	69.5
244.932	75.5
245.166	79.5
245.399	81.5
245.633	68.5
245.866	74.5
246.099	76.5
246.333	67.5
246.566	78.5
246.8	66.5
247.033	72.5
247.266	97.5
247.5	81.5
247.733	70.5
247.966	91.5
248.2	73.5
248.433	74.5
248.666	77.5
248.899	71.5
249.133	90.5
249.366	92.5
249.599	78.5
249.832	70.5
250.066	82.5
250.299	78.5
250.532	80.5
250.765	62.5
250.998	73.5
251.231	60.5
251.465	78.5
251.698	74.5
251.931	71.5
252.164	82.5
252.397	70.5
252.63	87.5
252.863	65.5
253.096	74.5
253.329	67.5
253.562	86.5
253.795	74.5
254.028	72.5
254.261	86.5
254.494	73.5
254.727	74.5
254.96	75.5
255.193	71.5
255.426	82.5
255.659	79.5
255.892	59.5
256.124	90.5
256.357	86.5
256.59	77.5
256.823	76.5
257.056	88.5
257.289	80.5
257.521	82.5
257.754	81.5
257.987	80.5
258.22	81.5
258.452	72.5
258.685	82.5
258.918	62.5
259.151	66.5
259.383	90.5
259.616	75.5
259.849	76.5
260.081	89.5
260.314	73.5
260.547	77.5
260.779	74.5
261.012	58.5
261.244	73.5
261.477	74.5
261.71	80.5
261.942	114.5
262.175	112.5
262.407	87.5
262.64	86.5
262.872	85.5
263.105	71.5
263.337	100.5
263.57	104.5
263.802	79.5
264.035	78.5
264.267	83.5
264.499	71.5
264.732	76.5
264.964	97.5
265.197	76.5
265.429	78.5
265.661	78.5
265.894	73.5
266.126	79.5
266.358	80.5
266.591	76.5
266.823	79.5
267.055	78.5
267.287	76.5
267.52	85.5
267.752	83.5
267.984	77.5
268.216	90.5
268.448	95.5
268.681	65.5
268.913	82.5
269.145	86.5
269.377	71.5
269.609	77.5
269.841	82.5
270.073	92.5
270.306	83.5
270.538	84.5
270.77	78.5
271.002	84.5
271.234	90.5
271.466	79.5
271.698	78.5
271.93	102.5
272.162	72.5
272.394	83.5
272.626	78.5
272.858	63.5
273.09	88.5
273.322	91.5
273.553	74.5
273.785	89.5
274.017	87.5
274.249	77.5
274.481	83.5
274.713	87.5
274.945	92.5
275.176	95.5
275.408	85.5
275.64	79.5
275.872	75.5
276.104	90.5
276.335	85.5
276.567	102.5
276.799	107.5
277.031	97.5
277.262	87.5
277.494	87.5
277.726	91.5
277.957	80.5
278.189	76.5
278.421	90.5
278.652	80.5
278.884	83.5
279.115	89.5
279.347	89.5
279.579	70.5
279.81	90.5
280.042	91.5
280.273	86.5
280.505	88.5
280.736	87.5
280.968	81.5
281.199	91.5
281.431	89.5
281.662	75.5
281.894	90.5
282.125	87.5
282.356	113.5
282.588	131.5
282.819	110.5
283.051	87.5
283.282	75.5
283.513	83.5
283.745	90.5
283.976	93.5
284.207	88.5
284.439	95.5
284.67	89.5
284.901	72.5
285.132	76.5
285.364	83.5
285.595	95.5
285.826	76.5
286.057	97.5
286.288	86.5
286.52	77.5
286.751	83.5
286.982	47.5
287.213	84.5
287.444	95.5
287.675	91.5
287.906	88.5
288.138	84.5
288.369	85.5
288.6	81.5
288.831	75.5
289.062	81.5
289.293	88.5
289.524	88.5
289.755	80.5
289.986	86.5
290.217	86.5
290.448	94.5
290.679	86.5
290.91	91.5
291.141	74.5
291.371	100.5
291.602	70.5
291.833	71.5
292.064	89.5
292.295	75.5
292.526	83.5
292.757	98.5
292.987	76.5
293.218	75.5
293.449	90.5
293.68	87.5
293.91	84.5
294.141	85.5
294.372	89.5
294.603	81.5
294.833	75.5
295.064	83.5
295.295	88.5
295.525	91.5
295.756	89.5
295.987	118.5
296.217	148.5
296.448	126.5
296.679	88.5
296.909	97.5
297.14	75.5
297.37	82.5
297.601	76.5
297.831	82.5
298.062	67.5
298.292	89.5
298.523	81.5
298.753	89.5
298.984	88.5
299.214	74.5
299.445	73.5
299.675	88.5
299.905	79.5
300.136	97.5
300.366	87.5
300.597	87.5
300.827	75.5
301.057	103.5
301.288	107.5
301.518	81.5
301.748	80.5
301.979	100.5
302.209	101.5
302.439	82.5
302.669	88.5
302.9	95.5
303.13	90.5
303.36	90.5
303.59	114.5
303.82	104.5
304.051	91.5
304.281	78.5
304.511	79.5
304.741	88.5
304.971	94.5
305.201	81.5
305.431	83.5
305.661	101.5
305.891	82.5
306.121	91.5
306.352	103.5
306.582	99.5
306.812	88.5
307.042	93.5
307.272	97.5
307.502	82.5
307.731	79.5
307.961	87.5
308.191	78.5
308.421	78.5
308.651	92.5
308.881	86.5
309.111	107.5
309.341	99.5
309.571	92.5
309.8	92.5
310.03	95.5
310.26	101.5
310.49	108.5
310.72	96.5
310.949	112.5
311.179	107.5
311.409	112.5
311.639	92.5
311.868	88.5
312.098	82.5
312.328	93.5
312.557	90.5
312.787	100.5
313.017	88.5
313.246	87.5
313.476	89.5
313.706	91.5
313.935	99.5
314.165	100.5
314.394	92.5
314.624	98.5
314.853	97.5
315.083	104.5
315.312	84.5
315.542	91.5
315.771	92.5
316.001	83.5
316.23	88.5
316.46	80.5
316.689	81.5
316.919	91.5
317.148	89.5
317.377	94.5
317.607	86.5
317.836	72.5
318.065	93.5
318.295	77.5
318.524	91.5
318.753	106.5
318.983	103.5
319.212	89.5
319.441	95.5
319.67	104.5
319.9	96.5
320.129	88.5
320.358	92.5
320.587	92.5
320.816	85.5
321.046	105.5
321.275	102.5
321.504	95.5
321.733	90.5
321.962	102.5
322.191	96.5
322.42	105.5
322.649	110.5
322.878	106.5
323.108	110.5
323.337	114.5
323.566	111.5
323.795	132.5
324.024	181.5
324.253	334.5
324.482	741.5
324.71	1465.5
324.939	1934.5
325.168	723.5
325.397	223.5
325.626	148.5
325.855	138.5
326.084	131.5
326.313	117.5
326.542	137.5
326.77	202.5
326.999	412.5
327.228	823.5
327.457	1475.5
327.686	1199.5
327.914	312.5
328.143	174.5
328.372	153.5
328.6	121.5
328.829	118.5
329.058	106.5
329.287	108.5
329.515	100.5
329.744	106.5
329.972	88.5
330.201	94.5
330.43	119.5
330.658	108.5
330.887	131.5
331.115	122.5
331.344	105.5
331.572	102.5
331.801	107.5
332.03	111.5
332.258	107.5
332.486	100.5
332.715	93.5
332.943	80.5
333.172	94.5
333.4	110.5
333.629	110.5
333.857	106.5
334.085	91.5
334.314	97.5
334.542	98.5
334.771	104.5
334.999	90.5
335.227	85.5
335.455	92.5
335.684	88.5
335.912	86.5
336.14	102.5
336.369	93.5
336.597	91.5
336.825	98.5
337.053	96.5
337.281	79.5
337.51	95.5
337.738	84.5
337.966	98.5
338.194	87.5
338.422	93.5
338.65	83.5
338.878	90.5
339.106	96.5
339.334	85.5
339.562	95.5
339.79	87.5
340.018	99.5
340.246	75.5
340.474	93.5
340.702	104.5
340.93	82.5
341.158	91.5
341.386	85.5
341.614	92.5
341.842	114.5
342.07	79.5
342.298	93.5
342.526	83.5
342.754	97.5
342.981	79.5
343.209	76.5
343.437	93.5
343.665	78.5
343.893	90.5
344.12	83.5
344.348	84.5
344.576	100.5
344.804	96.5
345.031	84.5
345.259	92.5
345.487	85.5
345.714	89.5
345.942	95.5
346.17	83.5
346.397	76.5
346.625	93.5
346.853	84.5
347.08	95.5
347.308	106.5
347.535	89.5
347.763	90.5
347.99	97.5
348.218	94.5
348.445	93.5
348.673	97.5
348.9	91.5
349.128	88.5
349.355	90.5
349.583	98.5
349.81	106.5
350.037	81.5
350.265	104.5
350.492	102.5
350.72	89.5
350.947	98.5
351.174	104.5
351.402	107.5
351.629	104.5
351.856	100.5
352.083	92.5
352.311	99.5
352.538	94.5
352.765	97.5
352.992	108.5
353.22	114.5
353.447	93.5
353.674	106.5
353.901	107.5
354.128	104.5
354.355	88.5
354.583	96.5
354.81	105.5
355.037	107.5
355.264	92.5
355.491	99.5
355.718	83.5
355.945	76.5
356.172	90.5
356.399	100.5
356.626	78.5
356.853	92.5
357.08	99.5
357.307	81.5
357.534	81.5
357.761	83.5
357.988	88.5
358.215	100.5
358.441	88.5
358.668	100.5
358.895	82.5
359.122	89.5
359.349	92.5
359.576	91.5
359.802	90.5
360.029	123.5
360.256	113.5
360.483	90.5
360.709	95.5
360.936	86.5
361.163	88.5
361.39	97.5
361.616	88.5
361.843	82.5
362.07	87.5
362.296	84.5
362.523	86.5
362.749	82.5
362.976	73.5
363.203	80.5
363.429	104.5
363.656	86.5
363.882	95.5
364.109	85.5
364.335	106.5
364.562	89.5
364.788	83.5
365.015	81.5
365.241	99.5
365.468	110.5
365.694	94.5
365.92	92.5
366.147	91.5
366.373	83.5
366.599	71.5
366.826	81.5
367.052	93.5
367.278	97.5
367.505	88.5
367.731	92.5
367.957	104.5
368.184	92.5
368.41	95.5
368.636	103.5
368.862	120.5
369.089	94.5
369.315	88.5
369.541	88.5
369.767	85.5
369.993	83.5
370.219	95.5
370.445	88.5
370.672	81.5
370.898	84.5
371.124	90.5
371.35	88.5
371.576	84.5
371.802	96.5
372.028	90.5
372.254	95.5
372.48	81.5
372.706	75.5
372.932	83.5
373.158	83.5
373.384	95.5
373.61	82.5
373.835	75.5
374.061	85.5
374.287	96.5
374.513	96.5
374.739	87.5
374.965	83.5
375.191	81.5
375.416	86.5
375.642	82.5
375.868	67.5
376.094	79.5
376.319	94.5
376.545	68.5
376.771	83.5
376.997	88.5
377.222	82.5
377.448	88.5
377.674	88.5
377.899	95.5
378.125	81.5
378.35	76.5
378.576	89.5
378.802	82.5
379.027	76.5
379.253	90.5
379.478	87.5
379.704	83.5
379.929	98.5
380.155	94.5
380.38	88.5
380.606	88.5
380.831	86.5
381.057	91.5
381.282	105.5
381.507	94.5
381.733	114.5
381.958	81.5
382.184	80.5
382.409	99.5
382.634	102.5
382.86	96.5
383.085	97.5
383.31	91.5
383.535	94.5
383.761	113.5
383.986	87.5
384.211	92.5
384.436	102.5
384.662	99.5
384.887	104.5
385.112	102.5
385.337	98.5
385.562	87.5
385.787	95.5
386.013	107.5
386.238	107.5
386.463	105.5
386.688	113.5
386.913	86.5
387.138	78.5
387.363	97.5
387.588	93.5
387.813	91.5
388.038	88.5
388.263	95.5
388.488	93.5
388.713	96.5
388.938	87.5
389.163	93.5
389.387	107.5
389.612	81.5
389.837	75.5
390.062	94.5
390.287	99.5
390.512	84.5
390.736	77.5
390.961	94.5
391.186	88.5
391.411	89.5
391.636	105.5
391.86	90.5
392.085	88.5
392.31	80.5
392.534	86.5
392.759	97.5
392.984	71.5
393.208	92.5
393.433	86.5
393.658	91.5
393.882	78.5
394.107	88.5
394.331	76.5
394.556	91.5
394.78	86.5
395.005	85.5
395.229	93.5
395.454	97.5
395.678	104.5
395.903	98.5
396.127	87.5
396.352	82.5
396.576	84.5
396.801	76.5
397.025	71.5
397.249	76.5
397.474	80.5
397.698	87.5
397.922	76.5
398.147	91.5
398.371	79.5
398.595	79.5
398.82	98.5
399.044	95.5
399.268	79.5
399.492	87.5
399.717	82.5
399.941	91.5
400.165	87.5
400.389	88.5
400.613	96.5
400.837	79.5
401.062	86.5
401.286	89.5
401.51	92.5
401.734	95.5
401.958	100.5
402.182	114.5
402.406	147.5
402.63	104.5
402.854	82.5
403.078	99.5
403.302	90.5
403.526	91.5
403.75	69.5
403.974	81.5
404.198	65.5
404.422	85.5
404.645	70.5
404.869	75.5
405.093	90.5
405.317	88.5
405.541	90.5
405.765	100.5
405.988	113.5
406.212	169.5
406.436	214.5
406.66	130.5
406.883	107.5
407.107	104.5
407.331	108.5
407.555	108.5
407.778	110.5
408.002	85.5
408.226	89.5
408.449	103.5
408.673	92.5
408.896	94.5
409.12	78.5
409.344	81.5
409.567	98.5
409.791	91.5
410.014	97.5
410.238	83.5
410.461	92.5
410.685	91.5
410.908	110.5
411.132	105.5
411.355	98.5
411.578	94.5
411.802	88.5
412.025	94.5
412.249	84.5
412.472	93.5
412.695	78.5
412.919	92.5
413.142	91.5
413.365	86.5
413.589	83.5
413.812	80.5
414.035	90.5
414.258	92.5
414.482	99.5
414.705	84.5
414.928	80.5
415.151	88.5
415.374	75.5
415.597	74.5
415.821	93.5
416.044	87.5
416.267	83.5
416.49	100.5
416.713	85.5
416.936	88.5
417.159	90.5
417.382	78.5
417.605	81.5
417.828	79.5
418.051	97.5
418.274	81.5
418.497	80.5
418.72	82.5
418.943	84.5
419.166	91.5
419.389	86.5
419.611	81.5
419.834	78.5
420.057	88.5
420.28	87.5
420.503	90.5
420.726	88.5
420.948	84.5
421.171	90.5
421.394	86.5
421.617	106.5
421.839	86.5
422.062	92.5
422.285	83.5
422.507	86.5
422.73	86.5
422.953	87.5
423.175	91.5
423.398	96.5
423.621	100.5
423.843	89.5
424.066	91.5
424.288	89.5
424.511	92.5
424.733	88.5
424.956	91.5
425.178	78.5
425.401	112.5
425.623	105.5
425.846	86.5
426.068	93.5
426.291	100.5
426.513	83.5
426.735	88.5
426.958	96.5
427.18	99.5
427.402	118.5
427.625	167.5
427.847	125.5
428.069	113.5
428.292	92.5
428.514	89.5
428.736	71.5
428.958	96.5
429.181	87.5
429.403	84.5
429.625	100.5
429.847	91.5
430.069	97.5
430.292	79.5
430.514	79.5
430.736	99.5
430.958	88.5
431.18	91.5
431.402	88.5
431.624	79.5
431.846	74.5
432.068	92.5
432.29	86.5
432.512	82.5
432.734	86.5
432.956	92.5
433.178	104.5
433.4	90.5
433.622	82.5
433.844	66.5
434.066	86.5
434.287	78.5
434.509	96.5
434.731	96.5
434.953	88.5
435.175	82.5
435.397	97.5
435.618	95.5
435.84	92.5
436.062	102.5
436.284	116.5
436.505	91.5
436.727	96.5
436.949	94.5
437.17	87.5
437.392	84.5
437.614	91.5
437.835	98.5
438.057	108.5
438.278	109.5
438.5	99.5
438.721	132.5
438.943	98.5
439.165	87.5
439.386	80.5
439.608	80.5
439.829	109.5
440.05	113.5
440.272	124.5
440.493	98.5
440.715	85.5
440.936	68.5
441.158	73.5
441.379	74.5
441.6	85.5
441.822	78.5
442.043	86.5
442.264	103.5
442.486	91.5
442.707	83.5
442.928	96.5
443.149	115.5
443.371	127.5
443.592	103.5
443.813	105.5
444.034	99.5
444.255	87.5
444.476	93.5
444.698	72.5
444.919	91.5
445.14	148.5
445.361	122.5
445.582	111.5
445.803	127.5
446.024	117.5
446.245	116.5
446.466	106.5
446.687	82.5
446.908	73.5
447.129	93.5
447.35	77.5
447.571	93.5
447.792	91.5
448.013	82.5
448.234	109.5
448.455	94.5
448.675	110.5
448.896	108.5
449.117	101.5
449.338	90.5
449.559	127.5
449.779	125.5
450	82.5
450.221	77.5
450.442	89.5
450.662	83.5
450.883	105.5
451.104	102.5
451.324	92.5
451.545	96.5
451.766	96.5
451.986	91.5
452.207	80.5
452.428	90.5
452.648	89.5
452.869	105.5
453.089	106.5
453.31	107.5
453.53	92.5
453.751	87.5
453.971	99.5
454.192	103.5
454.412	94.5
454.633	76.5
454.853	89.5
455.073	90.5
455.294	86.5
455.514	99.5
455.734	113.5
455.955	86.5
456.175	87.5
456.395	100.5
456.616	88.5
456.836	97.5
457.056	81.5
457.276	72.5
457.497	88.5
457.717	91.5
457.937	94.5
458.157	77.5
458.377	100.5
458.598	117.5
458.818	142.5
459.038	159.5
459.258	107.5
459.478	95.5
459.698	97.5
459.918	94.5
460.138	81.5
460.358	85.5
460.578	86.5
460.798	80.5
461.018	84.5
461.238	84.5
461.458	86.5
461.678	100.5
461.898	92.5
462.118	79.5
462.338	83.5
462.558	81.5
462.777	75.5
462.997	104.5
463.217	95.5
463.437	84.5
463.657	76.5
463.876	84.5
464.096	92.5
464.316	80.5
464.536	75.5
464.755	82.5
464.975	103.5
465.195	157.5
465.414	147.5
465.634	80.5
465.854	79.5
466.073	83.5
466.293	98.5
466.512	92.5
466.732	66.5
466.951	76.5
467.171	86.5
467.391	102.5
467.61	104.5
467.829	93.5
468.049	76.5
468.268	74.5
468.488	84.5
468.707	91.5
468.927	76.5
469.146	89.5
469.365	83.5
469.585	83.5
469.804	84.5
470.023	90.5
470.243	93.5
470.462	98.5
470.681	107.5
470.901	91.5
471.12	89.5
471.339	91.5
471.558	88.5
471.777	82.5
471.997	79.5
472.216	89.5
472.435	88.5
472.654	78.5
472.873	87.5
473.092	97.5
473.311	89.5
473.53	93.5
473.749	90.5
473.968	102.5
474.187	103.5
474.406	96.5
474.625	91.5
474.844	82.5
475.063	75.5
475.282	89.5
475.501	82.5
475.72	93.5
475.939	91.5
476.158	71.5
476.377	84.5
476.596	78.5
476.814	85.5
477.033	87.5
477.252	91.5
477.471	86.5
477.69	99.5
477.908	76.5
478.127	84.5
478.346	74.5
478.564	88.5
478.783	97.5
479.002	100.5
479.22	89.5
479.439	93.5
479.658	110.5
479.876	99.5
480.095	81.5
480.313	80.5
480.532	94.5
480.751	86.5
480.969	92.5
481.188	115.5
481.406	94.5
481.624	80.5
481.843	90.5
482.061	86.5
482.28	90.5
482.498	96.5
482.717	95.5
482.935	88.5
483.153	102.5
483.372	86.5
483.59	83.5
483.808	87.5
484.027	81.5
484.245	79.5
484.463	86.5
484.681	93.5
484.9	91.5
485.118	107.5
485.336	95.5
485.554	105.5
485.772	90.5
485.99	94.5
486.209	106.5
486.427	98.5
486.645	114.5
486.863	111.5
487.081	93.5
487.299	99.5
487.517	90.5
487.735	85.5
487.953	90.5
488.171	77.5
488.389	92.5
488.607	98.5
488.825	97.5
489.043	87.5
489.261	102.5
489.479	82.5
489.696	93.5
489.914	94.5
490.132	88.5
490.35	82.5
490.568	102.5
490.786	79.5
491.003	91.5
491.221	92.5
491.439	72.5
491.657	82.5
491.874	85.5
492.092	86.5
492.31	81.5
492.527	104.5
492.745	101.5
492.963	97.5
493.18	88.5
493.398	87.5
493.615	92.5
493.833	85.5
494.05	83.5
494.268	91.5
494.485	77.5
494.703	86.5
494.92	106.5
495.138	90.5
495.355	90.5
495.573	98.5
495.79	81.5
496.008	92.5
496.225	91.5
496.442	86.5
496.66	80.5
496.877	98.5
497.094	100.5
497.312	72.5
497.529	103.5
497.746	89.5
497.963	99.5
498.181	84.5
498.398	97.5
498.615	102.5
498.832	109.5
499.049	95.5
499.267	100.5
499.484	92.5
499.701	92.5
499.918	96.5
500.135	100.5
500.352	83.5
500.569	98.5
500.786	108.5
501.003	82.5
501.22	89.5
501.437	90.5
501.654	93.5
501.871	109.5
502.088	95.5
502.305	89.5
502.522	74.5
502.739	92.5
502.956	87.5
503.172	99.5
503.389	87.5
503.606	102.5
503.823	92.5
504.04	86.5
504.256	89.5
504.473	88.5
504.69	83.5
504.907	86.5
505.123	90.5
505.34	83.5
505.557	91.5
505.773	104.5
505.99	94.5
506.207	77.5
506.423	82.5
506.64	98.5
506.856	78.5
507.073	86.5
507.289	79.5
507.506	101.5
507.722	106.5
507.939	108.5
508.155	78.5
508.372	92.5
508.588	90.5
508.805	84.5
509.021	90.5
509.238	88.5
509.454	109.5
509.67	106.5
509.887	93.5
510.103	124.5
510.319	201.5
510.536	748.5
510.752	2319.5
510.968	630.5
511.184	158.5
511.401	100.5
511.617	96.5
511.833	82.5
512.049	75.5
512.265	92.5
512.481	81.5
512.698	101.5
512.914	98.5
513.13	104.5
513.346	98.5
513.562	89.5
513.778	100.5
513.994	91.5
514.21	96.5
514.426	110.5
514.642	135.5
514.858	112.5
515.074	150.5
515.29	442.5
515.506	1454.5
515.721	509.5
515.937	144.5
516.153	106.5
516.369	90.5
516.585	85.5
516.801	97.5
517.016	79.5
517.232	86.5
517.448	81.5
517.664	97.5
517.879	98.5
518.095	96.5
518.311	92.5
518.527	91.5
518.742	99.5
518.958	87.5
519.173	85.5
519.389	99.5
519.605	96.5
519.82	100.5
520.036	105.5
520.251	106.5
520.467	109.5
520.682	114.5
520.898	90.5
521.113	100.5
521.329	115.5
521.544	198.5
521.76	552.5
521.975	2349.5
522.19	1387.5
522.406	286.5
522.621	130.5
522.836	95.5
523.052	93.5
523.267	95.5
523.482	103.5
523.698	98.5
523.913	107.5
524.128	88.5
524.343	75.5
524.559	94.5
524.774	90.5
524.989	95.5
525.204	124.5
525.419	97.5
525.634	89.5
525.849	91.5
526.064	80.5
526.28	87.5
526.495	102.5
526.71	92.5
526.925	77.5
527.14	92.5
527.355	90.5
527.57	72.5
527.785	80.5
527.999	95.5
528.214	93.5
528.429	104.5
528.644	85.5
528.859	84.5
529.074	88.5
529.289	123.5
529.503	178.5
529.718	102.5
529.933	98.5
530.148	75.5
530.363	88.5
530.577	84.5
530.792	93.5
531.007	81.5
531.221	74.5
531.436	76.5
531.651	96.5
531.865	82.5
532.08	97.5
532.295	95.5
532.509	82.5
532.724	83.5
532.938	91.5
533.153	100.5
533.367	104.5
533.582	80.5
533.796	96.5
534.011	92.5
534.225	87.5
534.44	100.5
534.654	92.5
534.868	89.5
535.083	104.5
535.297	90.5
535.511	86.5
535.726	92.5
535.94	95.5
536.154	79.5
