Data from Uncirc_1993_H10_HRD10591_00081.txt Node
Date: Wed Jan 03 11:43:08 EST 2024
User: Yrep
Spectrometer: HR+D1059
Trigger mode: 1
Integration Time (sec): 1.000000E-1
Scans to average: 1
Electric dark correction enabled: true
Nonlinearity correction enabled: false
Boxcar width: 0
XAxis mode: Wavelengths
Number of Pixels in Spectrum: 2048
>>>>>Begin Spectral Data<<<<<
223.165	-20.44
223.4	-20.44
223.635	-20.44
223.869	-26.44
224.104	-7.44
224.338	-12.44
224.573	-15.44
224.808	-1.44
225.042	-7.44
225.277	-2.44
225.511	-8.44
225.746	-3.44
225.98	5.56
226.215	14.56
226.449	8.56
226.683	19.56
226.918	29.56
227.152	27.56
227.387	40.56
227.621	55.56
227.856	47.56
228.09	51.56
228.324	45.56
228.559	61.56
228.793	67.56
229.027	65.56
229.262	64.56
229.496	66.56
229.73	71.56
229.964	73.56
230.199	80.56
230.433	72.56
230.667	92.56
230.901	72.56
231.136	85.56
231.37	87.56
231.604	102.56
231.838	80.56
232.072	73.56
232.306	81.56
232.541	84.56
232.775	79.56
233.009	79.56
233.243	89.56
233.477	103.56
233.711	84.56
233.945	91.56
234.179	74.56
234.413	78.56
234.647	87.56
234.881	77.56
235.115	84.56
235.349	80.56
235.583	85.56
235.817	77.56
236.051	86.56
236.285	80.56
236.519	82.56
236.753	80.56
236.987	88.56
237.221	88.56
237.455	100.56
237.689	81.56
237.922	72.56
238.156	73.56
238.39	67.56
238.624	67.56
238.858	85.56
239.091	76.56
239.325	65.56
239.559	75.56
239.793	73.56
240.027	87.56
240.26	84.56
240.494	87.56
240.728	79.56
240.961	69.56
241.195	73.56
241.429	85.56
241.662	69.56
241.896	93.56
242.13	80.56
242.363	68.56
242.597	81.56
242.83	80.56
243.064	89.56
243.298	73.56
243.531	84.56
243.765	81.56
243.998	80.56
244.232	84.56
244.465	78.56
244.699	73.56
244.932	75.56
245.166	81.56
245.399	79.56
245.633	80.56
245.866	73.56
246.099	90.56
246.333	78.56
246.566	79.56
246.8	99.56
247.033	71.56
247.266	75.56
247.5	80.56
247.733	84.56
247.966	79.56
248.2	86.56
248.433	73.56
248.666	83.56
248.899	78.56
249.133	81.56
249.366	93.56
249.599	94.56
249.832	81.56
250.066	89.56
250.299	92.56
250.532	75.56
250.765	82.56
250.998	77.56
251.231	79.56
251.465	94.56
251.698	66.56
251.931	90.56
252.164	75.56
252.397	97.56
252.63	84.56
252.863	77.56
253.096	87.56
253.329	74.56
253.562	94.56
253.795	78.56
254.028	82.56
254.261	91.56
254.494	79.56
254.727	76.56
254.96	91.56
255.193	86.56
255.426	88.56
255.659	69.56
255.892	88.56
256.124	77.56
256.357	78.56
256.59	72.56
256.823	80.56
257.056	61.56
257.289	88.56
257.521	79.56
257.754	90.56
257.987	83.56
258.22	92.56
258.452	97.56
258.685	104.56
258.918	80.56
259.151	79.56
259.383	85.56
259.616	90.56
259.849	77.56
260.081	90.56
260.314	98.56
260.547	92.56
260.779	88.56
261.012	66.56
261.244	85.56
261.477	93.56
261.71	102.56
261.942	107.56
262.175	111.56
262.407	88.56
262.64	78.56
262.872	76.56
263.105	89.56
263.337	73.56
263.57	91.56
263.802	94.56
264.035	83.56
264.267	92.56
264.499	76.56
264.732	94.56
264.964	75.56
265.197	84.56
265.429	90.56
265.661	86.56
265.894	89.56
266.126	89.56
266.358	80.56
266.591	100.56
266.823	85.56
267.055	65.56
267.287	81.56
267.52	85.56
267.752	96.56
267.984	87.56
268.216	72.56
268.448	86.56
268.681	83.56
268.913	83.56
269.145	85.56
269.377	87.56
269.609	94.56
269.841	74.56
270.073	80.56
270.306	92.56
270.538	81.56
270.77	88.56
271.002	79.56
271.234	87.56
271.466	92.56
271.698	91.56
271.93	83.56
272.162	101.56
272.394	89.56
272.626	80.56
272.858	94.56
273.09	78.56
273.322	92.56
273.553	82.56
273.785	62.56
274.017	77.56
274.249	67.56
274.481	89.56
274.713	80.56
274.945	96.56
275.176	91.56
275.408	83.56
275.64	81.56
275.872	87.56
276.104	94.56
276.335	92.56
276.567	93.56
276.799	100.56
277.031	85.56
277.262	101.56
277.494	92.56
277.726	82.56
277.957	82.56
278.189	75.56
278.421	91.56
278.652	78.56
278.884	88.56
279.115	88.56
279.347	101.56
279.579	72.56
279.81	90.56
280.042	99.56
280.273	93.56
280.505	84.56
280.736	88.56
280.968	86.56
281.199	93.56
281.431	90.56
281.662	83.56
281.894	84.56
282.125	88.56
282.356	111.56
282.588	125.56
282.819	105.56
283.051	76.56
283.282	86.56
283.513	92.56
283.745	89.56
283.976	85.56
284.207	80.56
284.439	94.56
284.67	89.56
284.901	88.56
285.132	92.56
285.364	93.56
285.595	92.56
285.826	64.56
286.057	93.56
286.288	83.56
286.52	84.56
286.751	80.56
286.982	87.56
287.213	89.56
287.444	84.56
287.675	90.56
287.906	78.56
288.138	101.56
288.369	104.56
288.6	101.56
288.831	86.56
289.062	92.56
289.293	89.56
289.524	85.56
289.755	90.56
289.986	89.56
290.217	80.56
290.448	87.56
290.679	103.56
290.91	103.56
291.141	89.56
291.371	90.56
291.602	93.56
291.833	88.56
292.064	104.56
292.295	90.56
292.526	97.56
292.757	96.56
292.987	72.56
293.218	86.56
293.449	95.56
293.68	78.56
293.91	93.56
294.141	91.56
294.372	90.56
294.603	100.56
294.833	88.56
295.064	86.56
295.295	86.56
295.525	102.56
295.756	99.56
295.987	104.56
296.217	133.56
296.448	107.56
296.679	90.56
296.909	99.56
297.14	95.56
297.37	97.56
297.601	96.56
297.831	85.56
298.062	89.56
298.292	92.56
298.523	91.56
298.753	104.56
298.984	92.56
299.214	99.56
299.445	93.56
299.675	107.56
299.905	96.56
300.136	93.56
300.366	96.56
300.597	94.56
300.827	97.56
301.057	106.56
301.288	99.56
301.518	99.56
301.748	82.56
301.979	90.56
302.209	90.56
302.439	86.56
302.669	89.56
302.9	98.56
303.13	87.56
303.36	98.56
303.59	96.56
303.82	110.56
304.051	92.56
304.281	98.56
304.511	97.56
304.741	99.56
304.971	96.56
305.201	89.56
305.431	98.56
305.661	95.56
305.891	94.56
306.121	96.56
306.352	105.56
306.582	102.56
306.812	98.56
307.042	93.56
307.272	102.56
307.502	100.56
307.731	92.56
307.961	97.56
308.191	89.56
308.421	77.56
308.651	102.56
308.881	104.56
309.111	101.56
309.341	94.56
309.571	103.56
309.8	95.56
310.03	93.56
310.26	99.56
310.49	98.56
310.72	100.56
310.949	103.56
311.179	88.56
311.409	85.56
311.639	104.56
311.868	90.56
312.098	91.56
312.328	104.56
312.557	94.56
312.787	97.56
313.017	109.56
313.246	93.56
313.476	89.56
313.706	100.56
313.935	99.56
314.165	105.56
314.394	100.56
314.624	96.56
314.853	92.56
315.083	82.56
315.312	86.56
315.542	109.56
315.771	98.56
316.001	99.56
316.23	104.56
316.46	100.56
316.689	89.56
316.919	99.56
317.148	101.56
317.377	110.56
317.607	94.56
317.836	104.56
318.065	82.56
318.295	83.56
318.524	93.56
318.753	110.56
318.983	104.56
319.212	106.56
319.441	99.56
319.67	104.56
319.9	90.56
320.129	95.56
320.358	111.56
320.587	105.56
320.816	82.56
321.046	97.56
321.275	102.56
321.504	94.56
321.733	94.56
321.962	96.56
322.191	104.56
322.42	95.56
322.649	100.56
322.878	107.56
323.108	100.56
323.337	116.56
323.566	105.56
323.795	124.56
324.024	171.56
324.253	315.56
324.482	632.56
324.71	1272.56
324.939	1643.56
325.168	632.56
325.397	194.56
325.626	147.56
325.855	110.56
326.084	115.56
326.313	124.56
326.542	138.56
326.77	197.56
326.999	366.56
327.228	723.56
327.457	1280.56
327.686	1016.56
327.914	301.56
328.143	172.56
328.372	135.56
328.6	112.56
328.829	111.56
329.058	121.56
329.287	110.56
329.515	99.56
329.744	107.56
329.972	95.56
330.201	110.56
330.43	112.56
330.658	117.56
330.887	146.56
331.115	120.56
331.344	98.56
331.572	84.56
331.801	96.56
332.03	111.56
332.258	103.56
332.486	80.56
332.715	109.56
332.943	89.56
333.172	92.56
333.4	101.56
333.629	106.56
333.857	114.56
334.085	104.56
334.314	113.56
334.542	103.56
334.771	103.56
334.999	97.56
335.227	97.56
335.455	101.56
335.684	109.56
335.912	104.56
336.14	82.56
336.369	100.56
336.597	102.56
336.825	95.56
337.053	111.56
337.281	93.56
337.51	95.56
337.738	102.56
337.966	98.56
338.194	83.56
338.422	111.56
338.65	103.56
338.878	95.56
339.106	78.56
339.334	104.56
339.562	94.56
339.79	102.56
340.018	97.56
340.246	88.56
340.474	101.56
340.702	84.56
340.93	92.56
341.158	98.56
341.386	94.56
341.614	86.56
341.842	81.56
342.07	96.56
342.298	97.56
342.526	82.56
342.754	91.56
342.981	90.56
343.209	91.56
343.437	99.56
343.665	92.56
343.893	99.56
344.12	106.56
344.348	103.56
344.576	92.56
344.804	95.56
345.031	90.56
345.259	93.56
345.487	82.56
345.714	83.56
345.942	95.56
346.17	102.56
346.397	92.56
346.625	86.56
346.853	92.56
347.08	87.56
347.308	93.56
347.535	89.56
347.763	96.56
347.99	93.56
348.218	108.56
348.445	92.56
348.673	93.56
348.9	102.56
349.128	104.56
349.355	87.56
349.583	102.56
349.81	77.56
350.037	90.56
350.265	93.56
350.492	80.56
350.72	99.56
350.947	100.56
351.174	116.56
351.402	116.56
351.629	114.56
351.856	95.56
352.083	105.56
352.311	98.56
352.538	107.56
352.765	99.56
352.992	104.56
353.22	106.56
353.447	116.56
353.674	105.56
353.901	101.56
354.128	69.56
354.355	99.56
354.583	99.56
354.81	103.56
355.037	100.56
355.264	107.56
355.491	81.56
355.718	88.56
355.945	100.56
356.172	103.56
356.399	94.56
356.626	105.56
356.853	97.56
357.08	79.56
357.307	109.56
357.534	104.56
357.761	91.56
357.988	93.56
358.215	93.56
358.441	79.56
358.668	99.56
358.895	114.56
359.122	91.56
359.349	103.56
359.576	95.56
359.802	101.56
360.029	92.56
360.256	91.56
360.483	103.56
360.709	95.56
360.936	85.56
361.163	96.56
361.39	87.56
361.616	103.56
361.843	94.56
362.07	98.56
362.296	100.56
362.523	94.56
362.749	90.56
362.976	85.56
363.203	96.56
363.429	96.56
363.656	91.56
363.882	78.56
364.109	95.56
364.335	89.56
364.562	79.56
364.788	85.56
365.015	100.56
365.241	92.56
365.468	115.56
365.694	88.56
365.92	98.56
366.147	97.56
366.373	81.56
366.599	99.56
366.826	94.56
367.052	91.56
367.278	103.56
367.505	92.56
367.731	97.56
367.957	97.56
368.184	99.56
368.41	104.56
368.636	128.56
368.862	116.56
369.089	100.56
369.315	96.56
369.541	108.56
369.767	95.56
369.993	85.56
370.219	91.56
370.445	100.56
370.672	95.56
370.898	79.56
371.124	94.56
371.35	78.56
371.576	85.56
371.802	92.56
372.028	86.56
372.254	90.56
372.48	92.56
372.706	96.56
372.932	96.56
373.158	95.56
373.384	85.56
373.61	92.56
373.835	96.56
374.061	92.56
374.287	97.56
374.513	87.56
374.739	88.56
374.965	78.56
375.191	83.56
375.416	84.56
375.642	89.56
375.868	82.56
376.094	99.56
376.319	98.56
376.545	91.56
376.771	93.56
376.997	92.56
377.222	82.56
377.448	86.56
377.674	90.56
377.899	89.56
378.125	95.56
378.35	82.56
378.576	79.56
378.802	99.56
379.027	85.56
379.253	91.56
379.478	99.56
379.704	88.56
379.929	93.56
380.155	87.56
380.38	99.56
380.606	95.56
380.831	97.56
381.057	101.56
381.282	100.56
381.507	97.56
381.733	92.56
381.958	105.56
382.184	88.56
382.409	95.56
382.634	101.56
382.86	99.56
383.085	93.56
383.31	103.56
383.535	83.56
383.761	86.56
383.986	99.56
384.211	103.56
384.436	95.56
384.662	96.56
384.887	88.56
385.112	105.56
385.337	109.56
385.562	101.56
385.787	99.56
386.013	93.56
386.238	103.56
386.463	105.56
386.688	102.56
386.913	101.56
387.138	105.56
387.363	100.56
387.588	98.56
387.813	102.56
388.038	97.56
388.263	114.56
388.488	105.56
388.713	103.56
388.938	87.56
389.163	94.56
389.387	109.56
389.612	95.56
389.837	93.56
390.062	91.56
390.287	95.56
390.512	82.56
390.736	85.56
390.961	92.56
391.186	86.56
391.411	103.56
391.636	99.56
391.86	82.56
392.085	67.56
392.31	95.56
392.534	78.56
392.759	93.56
392.984	94.56
393.208	98.56
393.433	87.56
393.658	71.56
393.882	75.56
394.107	80.56
394.331	88.56
394.556	87.56
394.78	104.56
395.005	102.56
395.229	91.56
395.454	89.56
395.678	88.56
395.903	84.56
396.127	85.56
396.352	83.56
396.576	87.56
396.801	87.56
397.025	93.56
397.249	89.56
397.474	82.56
397.698	92.56
397.922	99.56
398.147	88.56
398.371	89.56
398.595	108.56
398.82	107.56
399.044	92.56
399.268	97.56
399.492	88.56
399.717	87.56
399.941	95.56
400.165	87.56
400.389	95.56
400.613	91.56
400.837	93.56
401.062	84.56
401.286	87.56
401.51	98.56
401.734	101.56
401.958	100.56
402.182	110.56
402.406	153.56
402.63	110.56
402.854	90.56
403.078	84.56
403.302	80.56
403.526	77.56
403.75	104.56
403.974	92.56
404.198	80.56
404.422	96.56
404.645	88.56
404.869	95.56
405.093	87.56
405.317	92.56
405.541	86.56
405.765	94.56
405.988	108.56
406.212	160.56
406.436	199.56
406.66	126.56
406.883	107.56
407.107	91.56
407.331	96.56
407.555	100.56
407.778	89.56
408.002	103.56
408.226	104.56
408.449	91.56
408.673	102.56
408.896	98.56
409.12	88.56
409.344	93.56
409.567	72.56
409.791	101.56
410.014	101.56
410.238	103.56
410.461	90.56
410.685	105.56
410.908	87.56
411.132	104.56
411.355	111.56
411.578	95.56
411.802	94.56
412.025	96.56
412.249	95.56
412.472	95.56
412.695	90.56
412.919	94.56
413.142	86.56
413.365	86.56
413.589	78.56
413.812	93.56
414.035	93.56
414.258	94.56
414.482	96.56
414.705	91.56
414.928	105.56
415.151	92.56
415.374	109.56
415.597	82.56
415.821	84.56
416.044	107.56
416.267	102.56
416.49	83.56
416.713	90.56
416.936	85.56
417.159	89.56
417.382	99.56
417.605	84.56
417.828	102.56
418.051	100.56
418.274	96.56
418.497	83.56
418.72	79.56
418.943	80.56
419.166	84.56
419.389	104.56
419.611	92.56
419.834	84.56
420.057	86.56
420.28	109.56
420.503	87.56
420.726	89.56
420.948	94.56
421.171	82.56
421.394	92.56
421.617	79.56
421.839	82.56
422.062	80.56
422.285	90.56
422.507	93.56
422.73	100.56
422.953	82.56
423.175	88.56
423.398	98.56
423.621	103.56
423.843	90.56
424.066	70.56
424.288	113.56
424.511	98.56
424.733	91.56
424.956	100.56
425.178	100.56
425.401	102.56
425.623	94.56
425.846	86.56
426.068	84.56
426.291	102.56
426.513	88.56
426.735	100.56
426.958	91.56
427.18	105.56
427.402	118.56
427.625	151.56
427.847	107.56
428.069	110.56
428.292	95.56
428.514	74.56
428.736	88.56
428.958	94.56
429.181	80.56
429.403	81.56
429.625	91.56
429.847	100.56
430.069	104.56
430.292	96.56
430.514	75.56
430.736	84.56
430.958	77.56
431.18	76.56
431.402	93.56
431.624	92.56
431.846	97.56
432.068	88.56
432.29	106.56
432.512	81.56
432.734	90.56
432.956	97.56
433.178	89.56
433.4	91.56
433.622	94.56
433.844	81.56
434.066	91.56
434.287	93.56
434.509	86.56
434.731	84.56
434.953	82.56
435.175	105.56
435.397	84.56
435.618	88.56
435.84	124.56
436.062	120.56
436.284	111.56
436.505	91.56
436.727	106.56
436.949	104.56
437.17	99.56
437.392	77.56
437.614	84.56
437.835	112.56
438.057	123.56
438.278	99.56
438.5	99.56
438.721	95.56
438.943	99.56
439.165	93.56
439.386	102.56
439.608	99.56
439.829	100.56
440.05	109.56
440.272	118.56
440.493	102.56
440.715	95.56
440.936	75.56
441.158	90.56
441.379	95.56
441.6	91.56
441.822	104.56
442.043	92.56
442.264	97.56
442.486	98.56
442.707	98.56
442.928	110.56
443.149	121.56
443.371	128.56
443.592	95.56
443.813	112.56
444.034	98.56
444.255	101.56
444.476	86.56
444.698	88.56
444.919	85.56
445.14	128.56
445.361	115.56
445.582	132.56
445.803	127.56
446.024	130.56
446.245	112.56
446.466	84.56
446.687	87.56
446.908	91.56
447.129	87.56
447.35	91.56
447.571	96.56
447.792	92.56
448.013	105.56
448.234	112.56
448.455	91.56
448.675	116.56
448.896	94.56
449.117	83.56
449.338	75.56
449.559	109.56
449.779	112.56
450	96.56
450.221	91.56
450.442	87.56
450.662	99.56
450.883	87.56
451.104	94.56
451.324	99.56
451.545	85.56
451.766	93.56
451.986	102.56
452.207	81.56
452.428	95.56
452.648	96.56
452.869	106.56
453.089	114.56
453.31	124.56
453.53	88.56
453.751	82.56
453.971	113.56
454.192	95.56
454.412	85.56
454.633	80.56
454.853	90.56
455.073	89.56
455.294	88.56
455.514	99.56
455.734	86.56
455.955	73.56
456.175	82.56
456.395	86.56
456.616	75.56
456.836	93.56
457.056	100.56
457.276	91.56
457.497	76.56
457.717	71.56
457.937	84.56
458.157	84.56
458.377	93.56
458.598	102.56
458.818	126.56
459.038	146.56
459.258	105.56
459.478	91.56
459.698	83.56
459.918	89.56
460.138	84.56
460.358	74.56
460.578	87.56
460.798	77.56
461.018	90.56
461.238	88.56
461.458	87.56
461.678	72.56
461.898	90.56
462.118	88.56
462.338	101.56
462.558	88.56
462.777	84.56
462.997	88.56
463.217	96.56
463.437	86.56
463.657	82.56
463.876	96.56
464.096	92.56
464.316	82.56
464.536	96.56
464.755	103.56
464.975	100.56
465.195	158.56
465.414	147.56
465.634	105.56
465.854	96.56
466.073	92.56
466.293	95.56
466.512	105.56
466.732	87.56
466.951	86.56
467.171	89.56
467.391	105.56
467.61	93.56
467.829	92.56
468.049	103.56
468.268	75.56
468.488	79.56
468.707	101.56
468.927	85.56
469.146	80.56
469.365	90.56
469.585	77.56
469.804	87.56
470.023	87.56
470.243	103.56
470.462	94.56
470.681	116.56
470.901	87.56
471.12	85.56
471.339	75.56
471.558	96.56
471.777	76.56
471.997	77.56
472.216	90.56
472.435	94.56
472.654	85.56
472.873	85.56
473.092	92.56
473.311	98.56
473.53	85.56
473.749	90.56
473.968	92.56
474.187	119.56
474.406	91.56
474.625	89.56
474.844	95.56
475.063	92.56
475.282	95.56
475.501	88.56
475.72	97.56
475.939	103.56
476.158	90.56
476.377	93.56
476.596	83.56
476.814	99.56
477.033	97.56
477.252	87.56
477.471	92.56
477.69	67.56
477.908	100.56
478.127	94.56
478.346	84.56
478.564	88.56
478.783	81.56
479.002	85.56
479.22	91.56
479.439	101.56
479.658	107.56
479.876	109.56
480.095	106.56
480.313	91.56
480.532	104.56
480.751	91.56
480.969	82.56
481.188	91.56
481.406	102.56
481.624	81.56
481.843	91.56
482.061	95.56
482.28	87.56
482.498	86.56
482.717	98.56
482.935	85.56
483.153	86.56
483.372	77.56
483.59	99.56
483.808	105.56
484.027	109.56
484.245	89.56
484.463	85.56
484.681	102.56
484.9	87.56
485.118	103.56
485.336	85.56
485.554	93.56
485.772	95.56
485.99	96.56
486.209	107.56
486.427	108.56
486.645	111.56
486.863	104.56
487.081	92.56
487.299	93.56
487.517	105.56
487.735	111.56
487.953	100.56
488.171	88.56
488.389	93.56
488.607	101.56
488.825	94.56
489.043	85.56
489.261	102.56
489.479	97.56
489.696	88.56
489.914	85.56
490.132	95.56
490.35	98.56
490.568	90.56
490.786	85.56
491.003	78.56
491.221	94.56
491.439	97.56
491.657	93.56
491.874	98.56
492.092	88.56
492.31	99.56
492.527	76.56
492.745	97.56
492.963	98.56
493.18	102.56
493.398	88.56
493.615	96.56
493.833	98.56
494.05	101.56
494.268	86.56
494.485	92.56
494.703	98.56
494.92	98.56
495.138	84.56
495.355	84.56
495.573	99.56
495.79	91.56
496.008	92.56
496.225	102.56
496.442	91.56
496.66	88.56
496.877	105.56
497.094	83.56
497.312	79.56
497.529	93.56
497.746	100.56
497.963	106.56
498.181	104.56
498.398	93.56
498.615	106.56
498.832	98.56
499.049	102.56
499.267	98.56
499.484	93.56
499.701	98.56
499.918	91.56
500.135	79.56
500.352	87.56
500.569	98.56
500.786	105.56
501.003	94.56
501.22	93.56
501.437	93.56
501.654	89.56
501.871	98.56
502.088	104.56
502.305	96.56
502.522	94.56
502.739	82.56
502.956	95.56
503.172	100.56
503.389	96.56
503.606	96.56
503.823	95.56
504.04	83.56
504.256	96.56
504.473	81.56
504.69	91.56
504.907	98.56
505.123	92.56
505.34	88.56
505.557	97.56
505.773	102.56
505.99	83.56
506.207	86.56
506.423	101.56
506.64	103.56
506.856	87.56
507.073	85.56
507.289	115.56
507.506	105.56
507.722	101.56
507.939	93.56
508.155	85.56
508.372	81.56
508.588	96.56
508.805	99.56
509.021	97.56
509.238	101.56
509.454	102.56
509.67	92.56
509.887	109.56
510.103	122.56
510.319	211.56
510.536	671.56
510.752	2024.56
510.968	566.56
511.184	135.56
511.401	117.56
511.617	98.56
511.833	90.56
512.049	99.56
512.265	77.56
512.481	77.56
512.698	78.56
512.914	100.56
513.13	92.56
513.346	91.56
513.562	110.56
513.778	108.56
513.994	104.56
514.21	96.56
514.426	119.56
514.642	130.56
514.858	130.56
515.074	146.56
515.29	380.56
