Data from Uncirc_1993_H10_HRD10591_00070.txt Node
Date: Wed Jan 03 11:43:06 EST 2024
User: Yrep
Spectrometer: HR+D1059
Trigger mode: 1
Integration Time (sec): 1.000000E-1
Scans to average: 1
Electric dark correction enabled: true
Nonlinearity correction enabled: false
Boxcar width: 0
XAxis mode: Wavelengths
Number of Pixels in Spectrum: 2048
>>>>>Begin Spectral Data<<<<<
223.165	-28.69
223.4	-28.69
223.635	-28.69
223.869	-21.69
224.104	-14.69
224.338	-13.69
224.573	-1.69
224.808	-33.69
225.042	-7.69
225.277	11.31
225.511	-0.69
225.746	-7.69
225.98	18.31
226.215	8.31
226.449	11.31
226.683	22.31
226.918	31.31
227.152	27.31
227.387	34.31
227.621	42.31
227.856	35.31
228.09	43.31
228.324	45.31
228.559	59.31
228.793	55.31
229.027	59.31
229.262	61.31
229.496	65.31
229.73	88.31
229.964	95.31
230.199	59.31
230.433	70.31
230.667	65.31
230.901	73.31
231.136	75.31
231.37	92.31
231.604	46.31
231.838	77.31
232.072	75.31
232.306	80.31
232.541	66.31
232.775	72.31
233.009	81.31
233.243	90.31
233.477	76.31
233.711	76.31
233.945	77.31
234.179	79.31
234.413	64.31
234.647	74.31
234.881	77.31
235.115	73.31
235.349	64.31
235.583	82.31
235.817	64.31
236.051	72.31
236.285	79.31
236.519	67.31
236.753	71.31
236.987	77.31
237.221	82.31
237.455	74.31
237.689	81.31
237.922	69.31
238.156	81.31
238.39	65.31
238.624	77.31
238.858	70.31
239.091	66.31
239.325	73.31
239.559	73.31
239.793	71.31
240.027	80.31
240.26	79.31
240.494	92.31
240.728	79.31
240.961	73.31
241.195	74.31
241.429	80.31
241.662	78.31
241.896	72.31
242.13	59.31
242.363	64.31
242.597	72.31
242.83	64.31
243.064	87.31
243.298	74.31
243.531	59.31
243.765	71.31
243.998	78.31
244.232	76.31
244.465	71.31
244.699	79.31
244.932	61.31
245.166	78.31
245.399	78.31
245.633	74.31
245.866	66.31
246.099	69.31
246.333	65.31
246.566	87.31
246.8	77.31
247.033	74.31
247.266	74.31
247.5	70.31
247.733	72.31
247.966	64.31
248.2	72.31
248.433	80.31
248.666	91.31
248.899	80.31
249.133	75.31
249.366	92.31
249.599	94.31
249.832	86.31
250.066	82.31
250.299	80.31
250.532	64.31
250.765	76.31
250.998	70.31
251.231	64.31
251.465	92.31
251.698	65.31
251.931	60.31
252.164	79.31
252.397	77.31
252.63	81.31
252.863	75.31
253.096	67.31
253.329	85.31
253.562	82.31
253.795	77.31
254.028	71.31
254.261	59.31
254.494	82.31
254.727	71.31
254.96	63.31
255.193	72.31
255.426	80.31
255.659	82.31
255.892	78.31
256.124	72.31
256.357	73.31
256.59	81.31
256.823	75.31
257.056	77.31
257.289	67.31
257.521	78.31
257.754	72.31
257.987	79.31
258.22	78.31
258.452	82.31
258.685	78.31
258.918	79.31
259.151	77.31
259.383	75.31
259.616	83.31
259.849	85.31
260.081	74.31
260.314	76.31
260.547	78.31
260.779	72.31
261.012	71.31
261.244	82.31
261.477	89.31
261.71	76.31
261.942	102.31
262.175	107.31
262.407	84.31
262.64	85.31
262.872	78.31
263.105	71.31
263.337	77.31
263.57	67.31
263.802	81.31
264.035	78.31
264.267	76.31
264.499	65.31
264.732	73.31
264.964	73.31
265.197	76.31
265.429	91.31
265.661	77.31
265.894	86.31
266.126	82.31
266.358	81.31
266.591	89.31
266.823	75.31
267.055	72.31
267.287	81.31
267.52	91.31
267.752	66.31
267.984	71.31
268.216	78.31
268.448	79.31
268.681	94.31
268.913	93.31
269.145	78.31
269.377	66.31
269.609	72.31
269.841	80.31
270.073	81.31
270.306	71.31
270.538	80.31
270.77	79.31
271.002	95.31
271.234	84.31
271.466	92.31
271.698	96.31
271.93	83.31
272.162	75.31
272.394	74.31
272.626	71.31
272.858	77.31
273.09	79.31
273.322	91.31
273.553	83.31
273.785	91.31
274.017	82.31
274.249	78.31
274.481	75.31
274.713	78.31
274.945	90.31
275.176	88.31
275.408	83.31
275.64	65.31
275.872	77.31
276.104	75.31
276.335	91.31
276.567	87.31
276.799	94.31
277.031	89.31
277.262	85.31
277.494	84.31
277.726	81.31
277.957	73.31
278.189	83.31
278.421	88.31
278.652	88.31
278.884	88.31
279.115	78.31
279.347	86.31
279.579	83.31
279.81	81.31
280.042	88.31
280.273	74.31
280.505	76.31
280.736	89.31
280.968	80.31
281.199	73.31
281.431	70.31
281.662	63.31
281.894	84.31
282.125	85.31
282.356	99.31
282.588	115.31
282.819	109.31
283.051	77.31
283.282	74.31
283.513	86.31
283.745	80.31
283.976	91.31
284.207	85.31
284.439	92.31
284.67	78.31
284.901	88.31
285.132	76.31
285.364	77.31
285.595	88.31
285.826	88.31
286.057	82.31
286.288	73.31
286.52	80.31
286.751	73.31
286.982	94.31
287.213	88.31
287.444	86.31
287.675	80.31
287.906	94.31
288.138	79.31
288.369	80.31
288.6	92.31
288.831	89.31
289.062	90.31
289.293	84.31
289.524	86.31
289.755	76.31
289.986	79.31
290.217	77.31
290.448	76.31
290.679	85.31
290.91	87.31
291.141	101.31
291.371	78.31
291.602	87.31
291.833	71.31
292.064	82.31
292.295	79.31
292.526	77.31
292.757	93.31
292.987	88.31
293.218	88.31
293.449	78.31
293.68	95.31
293.91	83.31
294.141	82.31
294.372	93.31
294.603	100.31
294.833	79.31
295.064	87.31
295.295	99.31
295.525	99.31
295.756	89.31
295.987	95.31
296.217	115.31
296.448	103.31
296.679	87.31
296.909	91.31
297.14	81.31
297.37	95.31
297.601	74.31
297.831	88.31
298.062	91.31
298.292	81.31
298.523	70.31
298.753	83.31
298.984	81.31
299.214	74.31
299.445	93.31
299.675	78.31
299.905	91.31
300.136	90.31
300.366	73.31
300.597	93.31
300.827	92.31
301.057	97.31
301.288	89.31
301.518	101.31
301.748	93.31
301.979	107.31
302.209	71.31
302.439	86.31
302.669	85.31
302.9	94.31
303.13	77.31
303.36	108.31
303.59	85.31
303.82	102.31
304.051	92.31
304.281	79.31
304.511	88.31
304.741	78.31
304.971	96.31
305.201	71.31
305.431	83.31
305.661	74.31
305.891	77.31
306.121	89.31
306.352	101.31
306.582	102.31
306.812	97.31
307.042	77.31
307.272	89.31
307.502	97.31
307.731	97.31
307.961	88.31
308.191	85.31
308.421	93.31
308.651	98.31
308.881	79.31
309.111	75.31
309.341	89.31
309.571	101.31
309.8	77.31
310.03	97.31
310.26	77.31
310.49	97.31
310.72	90.31
310.949	94.31
311.179	85.31
311.409	94.31
311.639	79.31
311.868	87.31
312.098	81.31
312.328	88.31
312.557	92.31
312.787	89.31
313.017	90.31
313.246	96.31
313.476	88.31
313.706	88.31
313.935	89.31
314.165	86.31
314.394	90.31
314.624	89.31
314.853	86.31
315.083	93.31
315.312	92.31
315.542	81.31
315.771	87.31
316.001	84.31
316.23	91.31
316.46	89.31
316.689	105.31
316.919	97.31
317.148	83.31
317.377	97.31
317.607	91.31
317.836	83.31
318.065	99.31
318.295	95.31
318.524	93.31
318.753	93.31
318.983	92.31
319.212	95.31
319.441	94.31
319.67	84.31
319.9	88.31
320.129	77.31
320.358	88.31
320.587	87.31
320.816	91.31
321.046	95.31
321.275	108.31
321.504	82.31
321.733	87.31
321.962	89.31
322.191	88.31
322.42	97.31
322.649	91.31
322.878	95.31
323.108	99.31
323.337	120.31
323.566	125.31
323.795	121.31
324.024	163.31
324.253	338.31
324.482	665.31
324.71	1323.31
324.939	1745.31
325.168	639.31
325.397	224.31
325.626	125.31
325.855	105.31
326.084	118.31
326.313	122.31
326.542	143.31
326.77	197.31
326.999	362.31
327.228	757.31
327.457	1301.31
327.686	1029.31
327.914	281.31
328.143	183.31
328.372	125.31
328.6	117.31
328.829	102.31
329.058	117.31
329.287	120.31
329.515	92.31
329.744	96.31
329.972	95.31
330.201	97.31
330.43	100.31
330.658	105.31
330.887	124.31
331.115	116.31
331.344	93.31
331.572	91.31
331.801	102.31
332.03	87.31
332.258	82.31
332.486	92.31
332.715	83.31
332.943	85.31
333.172	105.31
333.4	89.31
333.629	97.31
333.857	105.31
334.085	91.31
334.314	91.31
334.542	94.31
334.771	101.31
334.999	86.31
335.227	100.31
335.455	95.31
335.684	90.31
335.912	92.31
336.14	77.31
336.369	98.31
336.597	98.31
336.825	92.31
337.053	97.31
337.281	91.31
337.51	88.31
337.738	109.31
337.966	86.31
338.194	88.31
338.422	101.31
338.65	100.31
338.878	91.31
339.106	80.31
339.334	85.31
339.562	90.31
339.79	96.31
340.018	93.31
340.246	99.31
340.474	88.31
340.702	112.31
340.93	76.31
341.158	108.31
341.386	101.31
341.614	91.31
341.842	75.31
342.07	82.31
342.298	87.31
342.526	81.31
342.754	86.31
342.981	87.31
343.209	88.31
343.437	94.31
343.665	92.31
343.893	97.31
344.12	92.31
344.348	87.31
344.576	94.31
344.804	92.31
345.031	96.31
345.259	100.31
345.487	105.31
345.714	81.31
345.942	85.31
346.17	97.31
346.397	89.31
346.625	95.31
346.853	83.31
347.08	96.31
347.308	90.31
347.535	77.31
347.763	85.31
347.99	103.31
348.218	99.31
348.445	87.31
348.673	90.31
348.9	86.31
349.128	99.31
349.355	92.31
349.583	104.31
349.81	97.31
350.037	105.31
350.265	93.31
350.492	107.31
350.72	82.31
350.947	97.31
351.174	93.31
351.402	112.31
351.629	92.31
351.856	100.31
352.083	98.31
352.311	95.31
352.538	98.31
352.765	108.31
352.992	118.31
353.22	107.31
353.447	101.31
353.674	84.31
353.901	93.31
354.128	87.31
354.355	83.31
354.583	95.31
354.81	94.31
355.037	83.31
355.264	86.31
355.491	98.31
355.718	87.31
355.945	100.31
356.172	93.31
356.399	90.31
356.626	93.31
356.853	92.31
357.08	70.31
357.307	79.31
357.534	87.31
357.761	96.31
357.988	93.31
358.215	86.31
358.441	96.31
358.668	97.31
358.895	81.31
359.122	77.31
359.349	98.31
359.576	78.31
359.802	82.31
360.029	95.31
360.256	98.31
360.483	89.31
360.709	96.31
360.936	82.31
361.163	87.31
361.39	95.31
361.616	92.31
361.843	72.31
362.07	89.31
362.296	81.31
362.523	97.31
362.749	87.31
362.976	91.31
363.203	102.31
363.429	78.31
363.656	89.31
363.882	93.31
364.109	92.31
364.335	83.31
364.562	94.31
364.788	86.31
365.015	88.31
365.241	92.31
365.468	85.31
365.694	86.31
365.92	84.31
366.147	96.31
366.373	90.31
366.599	84.31
366.826	81.31
367.052	85.31
367.278	93.31
367.505	75.31
367.731	95.31
367.957	85.31
368.184	83.31
368.41	99.31
368.636	93.31
368.862	107.31
369.089	98.31
369.315	95.31
369.541	85.31
369.767	89.31
369.993	88.31
370.219	69.31
370.445	86.31
370.672	89.31
370.898	97.31
371.124	83.31
371.35	96.31
371.576	95.31
371.802	94.31
372.028	90.31
372.254	81.31
372.48	81.31
372.706	85.31
372.932	82.31
373.158	89.31
373.384	82.31
373.61	82.31
373.835	72.31
374.061	82.31
374.287	96.31
374.513	85.31
374.739	85.31
374.965	75.31
375.191	90.31
375.416	93.31
375.642	84.31
375.868	80.31
376.094	110.31
376.319	74.31
376.545	83.31
376.771	89.31
376.997	84.31
377.222	90.31
377.448	107.31
377.674	86.31
377.899	77.31
378.125	85.31
378.35	87.31
378.576	79.31
378.802	90.31
379.027	92.31
379.253	105.31
379.478	97.31
379.704	75.31
379.929	81.31
380.155	91.31
380.38	74.31
380.606	92.31
380.831	97.31
381.057	88.31
381.282	86.31
381.507	102.31
381.733	77.31
381.958	96.31
382.184	103.31
382.409	84.31
382.634	85.31
382.86	95.31
383.085	97.31
383.31	74.31
383.535	83.31
383.761	81.31
383.986	82.31
384.211	98.31
384.436	88.31
384.662	89.31
384.887	91.31
385.112	89.31
385.337	92.31
385.562	89.31
385.787	94.31
386.013	91.31
386.238	109.31
386.463	103.31
386.688	108.31
386.913	97.31
387.138	102.31
387.363	87.31
387.588	89.31
387.813	89.31
388.038	102.31
388.263	120.31
388.488	104.31
388.713	92.31
388.938	94.31
389.163	85.31
389.387	91.31
389.612	92.31
389.837	96.31
390.062	95.31
390.287	100.31
390.512	103.31
390.736	89.31
390.961	76.31
391.186	82.31
391.411	81.31
391.636	85.31
391.86	66.31
392.085	77.31
392.31	85.31
392.534	94.31
392.759	88.31
392.984	63.31
393.208	83.31
393.433	93.31
393.658	89.31
393.882	90.31
394.107	84.31
394.331	77.31
394.556	81.31
394.78	85.31
395.005	80.31
395.229	75.31
395.454	73.31
395.678	78.31
395.903	82.31
396.127	79.31
396.352	101.31
396.576	80.31
396.801	86.31
397.025	83.31
397.249	87.31
397.474	85.31
397.698	84.31
397.922	87.31
398.147	90.31
398.371	89.31
398.595	71.31
398.82	97.31
399.044	81.31
399.268	72.31
399.492	80.31
399.717	98.31
399.941	91.31
400.165	95.31
400.389	95.31
400.613	65.31
400.837	83.31
401.062	78.31
401.286	89.31
401.51	93.31
401.734	88.31
401.958	97.31
402.182	125.31
402.406	142.31
402.63	105.31
402.854	81.31
403.078	80.31
403.302	83.31
403.526	85.31
403.75	96.31
403.974	85.31
404.198	98.31
404.422	93.31
404.645	94.31
404.869	93.31
405.093	79.31
405.317	97.31
405.541	94.31
405.765	92.31
405.988	122.31
406.212	153.31
406.436	198.31
406.66	126.31
406.883	99.31
407.107	98.31
407.331	82.31
407.555	94.31
407.778	87.31
408.002	89.31
408.226	87.31
408.449	107.31
408.673	85.31
408.896	87.31
409.12	88.31
409.344	78.31
409.567	79.31
409.791	86.31
410.014	95.31
410.238	86.31
410.461	93.31
410.685	91.31
410.908	94.31
411.132	98.31
411.355	103.31
411.578	96.31
411.802	82.31
412.025	87.31
412.249	87.31
412.472	82.31
412.695	85.31
412.919	79.31
413.142	85.31
413.365	82.31
413.589	87.31
413.812	74.31
414.035	83.31
414.258	85.31
414.482	76.31
414.705	82.31
414.928	94.31
415.151	79.31
415.374	95.31
415.597	92.31
415.821	65.31
416.044	84.31
416.267	82.31
416.49	94.31
416.713	90.31
416.936	86.31
417.159	82.31
417.382	89.31
417.605	91.31
417.828	95.31
418.051	90.31
418.274	95.31
418.497	78.31
418.72	81.31
418.943	77.31
419.166	73.31
419.389	83.31
419.611	76.31
419.834	82.31
420.057	80.31
420.28	81.31
420.503	87.31
420.726	79.31
420.948	85.31
421.171	74.31
421.394	76.31
421.617	85.31
421.839	85.31
422.062	88.31
422.285	104.31
422.507	93.31
422.73	94.31
422.953	82.31
423.175	81.31
423.398	95.31
423.621	95.31
423.843	76.31
424.066	85.31
424.288	85.31
424.511	81.31
424.733	94.31
424.956	104.31
425.178	100.31
425.401	98.31
425.623	92.31
425.846	79.31
426.068	100.31
426.291	92.31
426.513	78.31
426.735	80.31
426.958	95.31
427.18	98.31
427.402	107.31
427.625	149.31
427.847	117.31
428.069	99.31
428.292	75.31
428.514	90.31
428.736	85.31
428.958	91.31
429.181	79.31
429.403	82.31
429.625	82.31
429.847	82.31
430.069	87.31
430.292	87.31
430.514	70.31
430.736	86.31
430.958	82.31
431.18	78.31
431.402	92.31
431.624	77.31
431.846	80.31
432.068	80.31
432.29	80.31
432.512	86.31
432.734	86.31
432.956	85.31
433.178	96.31
433.4	89.31
433.622	90.31
433.844	76.31
434.066	90.31
434.287	76.31
434.509	78.31
434.731	74.31
434.953	79.31
435.175	75.31
435.397	99.31
435.618	91.31
435.84	86.31
436.062	95.31
436.284	105.31
436.505	72.31
436.727	101.31
436.949	97.31
437.17	90.31
437.392	82.31
437.614	93.31
437.835	103.31
438.057	102.31
438.278	97.31
438.5	90.31
438.721	110.31
438.943	80.31
439.165	79.31
439.386	86.31
439.608	78.31
439.829	85.31
440.05	113.31
440.272	120.31
440.493	94.31
440.715	94.31
440.936	94.31
441.158	88.31
441.379	91.31
441.6	92.31
441.822	94.31
442.043	78.31
442.264	88.31
442.486	111.31
442.707	89.31
442.928	88.31
443.149	108.31
443.371	107.31
443.592	101.31
443.813	104.31
444.034	76.31
444.255	82.31
444.476	102.31
444.698	95.31
444.919	95.31
445.14	124.31
445.361	103.31
445.582	107.31
445.803	126.31
446.024	118.31
446.245	116.31
446.466	96.31
446.687	94.31
446.908	81.31
447.129	82.31
447.35	82.31
447.571	76.31
447.792	110.31
448.013	89.31
448.234	102.31
448.455	98.31
448.675	125.31
448.896	106.31
449.117	96.31
449.338	98.31
449.559	104.31
449.779	122.31
450	74.31
450.221	91.31
450.442	86.31
450.662	93.31
450.883	85.31
451.104	85.31
451.324	85.31
451.545	88.31
451.766	84.31
451.986	81.31
452.207	93.31
452.428	90.31
452.648	91.31
452.869	97.31
453.089	114.31
453.31	107.31
453.53	92.31
453.751	92.31
453.971	91.31
454.192	102.31
454.412	81.31
454.633	89.31
454.853	83.31
455.073	76.31
455.294	86.31
455.514	99.31
455.734	92.31
455.955	76.31
456.175	74.31
456.395	92.31
456.616	75.31
456.836	90.31
457.056	99.31
457.276	65.31
457.497	87.31
457.717	85.31
457.937	86.31
458.157	81.31
458.377	91.31
458.598	99.31
458.818	135.31
459.038	145.31
459.258	106.31
459.478	75.31
459.698	76.31
459.918	85.31
460.138	92.31
460.358	87.31
460.578	91.31
460.798	79.31
461.018	77.31
461.238	81.31
461.458	96.31
461.678	75.31
461.898	83.31
462.118	76.31
462.338	76.31
462.558	79.31
462.777	89.31
462.997	82.31
463.217	79.31
463.437	74.31
463.657	92.31
463.876	85.31
464.096	85.31
464.316	86.31
464.536	67.31
464.755	88.31
464.975	100.31
465.195	153.31
465.414	139.31
465.634	94.31
465.854	81.31
466.073	76.31
466.293	80.31
466.512	90.31
466.732	85.31
466.951	79.31
467.171	87.31
467.391	95.31
467.61	102.31
467.829	78.31
468.049	96.31
468.268	90.31
468.488	73.31
468.707	75.31
468.927	72.31
469.146	71.31
469.365	90.31
469.585	92.31
469.804	89.31
470.023	98.31
470.243	96.31
470.462	104.31
470.681	105.31
470.901	72.31
471.12	79.31
471.339	82.31
471.558	87.31
471.777	79.31
471.997	88.31
472.216	93.31
472.435	80.31
472.654	78.31
472.873	78.31
473.092	86.31
473.311	80.31
473.53	79.31
473.749	74.31
473.968	81.31
474.187	113.31
474.406	94.31
474.625	98.31
474.844	95.31
475.063	72.31
475.282	87.31
475.501	81.31
475.72	89.31
475.939	77.31
476.158	83.31
476.377	84.31
476.596	84.31
476.814	89.31
477.033	91.31
477.252	89.31
477.471	77.31
477.69	94.31
477.908	71.31
478.127	93.31
478.346	93.31
478.564	96.31
478.783	94.31
479.002	87.31
479.22	85.31
479.439	95.31
479.658	106.31
479.876	81.31
480.095	95.31
480.313	88.31
480.532	82.31
480.751	83.31
480.969	75.31
481.188	105.31
481.406	98.31
481.624	76.31
481.843	81.31
482.061	82.31
482.28	89.31
482.498	81.31
482.717	80.31
482.935	99.31
483.153	61.31
483.372	81.31
483.59	89.31
483.808	95.31
484.027	85.31
484.245	90.31
484.463	81.31
484.681	91.31
484.9	90.31
485.118	95.31
485.336	81.31
485.554	91.31
485.772	95.31
485.99	95.31
486.209	108.31
486.427	90.31
486.645	96.31
486.863	101.31
487.081	91.31
487.299	87.31
487.517	88.31
487.735	96.31
487.953	93.31
488.171	87.31
488.389	94.31
488.607	87.31
488.825	90.31
489.043	89.31
489.261	78.31
489.479	86.31
489.696	100.31
489.914	86.31
490.132	85.31
490.35	102.31
490.568	88.31
490.786	96.31
491.003	92.31
491.221	74.31
491.439	92.31
491.657	88.31
491.874	83.31
492.092	89.31
492.31	74.31
492.527	85.31
492.745	88.31
492.963	91.31
493.18	74.31
493.398	81.31
493.615	99.31
493.833	78.31
494.05	91.31
494.268	80.31
494.485	90.31
494.703	90.31
494.92	79.31
495.138	90.31
495.355	99.31
495.573	84.31
495.79	81.31
496.008	76.31
496.225	83.31
496.442	84.31
496.66	99.31
496.877	105.31
497.094	94.31
497.312	89.31
497.529	93.31
497.746	92.31
497.963	76.31
498.181	88.31
498.398	94.31
498.615	98.31
498.832	83.31
499.049	81.31
499.267	92.31
499.484	88.31
499.701	85.31
499.918	95.31
500.135	81.31
500.352	77.31
500.569	84.31
500.786	81.31
501.003	89.31
501.22	88.31
501.437	84.31
501.654	81.31
501.871	89.31
502.088	87.31
502.305	81.31
502.522	91.31
502.739	85.31
502.956	79.31
503.172	92.31
503.389	83.31
503.606	91.31
503.823	92.31
504.04	82.31
504.256	77.31
504.473	89.31
504.69	102.31
504.907	94.31
505.123	80.31
505.34	83.31
505.557	73.31
505.773	91.31
505.99	89.31
506.207	87.31
506.423	86.31
506.64	78.31
506.856	85.31
507.073	81.31
507.289	90.31
507.506	84.31
507.722	101.31
507.939	95.31
508.155	94.31
508.372	94.31
508.588	93.31
508.805	81.31
509.021	78.31
509.238	84.31
509.454	78.31
509.67	91.31
509.887	98.31
510.103	126.31
510.319	202.31
510.536	694.31
510.752	2094.31
510.968	561.31
511.184	130.31
511.401	102.31
511.617	80.31
511.833	96.31
512.049	88.31
512.265	89.31
512.481	98.31
512.698	85.31
512.914	89.31
513.13	100.31
513.346	84.31
513.562	94.31
513.778	92.31
513.994	82.31
514.21	101.31
514.426	115.31
514.642	125.31
514.858	104.31
515.074	160.31
515.29	412.31
515.506	1269.31
515.721	456.31
515.937	135.31
516.153	100.31
516.369	101.31
516.585	92.31
516.801	114.31
517.016	90.31
517.232	85.31
517.448	89.31
517.664	86.31
