Data from Uncirc_1993_H10_HRD10591_00019.txt Node
Date: Wed Jan 03 11:42:56 EST 2024
User: Yrep
Spectrometer: HR+D1059
Trigger mode: 1
Integration Time (sec): 1.000000E-1
Scans to average: 1
Electric dark correction enabled: true
Nonlinearity correction enabled: false
Boxcar width: 0
XAxis mode: Wavelengths
Number of Pixels in Spectrum: 2048
>>>>>Begin Spectral Data<<<<<
223.165	-9
223.4	-9
223.635	-9
223.869	-15
224.104	-26
224.338	-14
224.573	-17
224.808	-28
225.042	-3
225.277	-9
225.511	-5
225.746	-11
225.98	0
226.215	6
226.449	39
226.683	25
226.918	39
227.152	28
227.387	33
227.621	46
227.856	36
228.09	56
228.324	74
228.559	60
228.793	55
229.027	67
229.262	65
229.496	70
229.73	80
229.964	88
230.199	87
230.433	92
230.667	84
230.901	77
231.136	68
231.37	79
231.604	73
231.838	76
232.072	96
232.306	85
232.541	76
232.775	73
233.009	78
233.243	77
233.477	89
233.711	87
233.945	94
234.179	79
234.413	66
234.647	81
234.881	90
235.115	81
235.349	82
235.583	101
235.817	79
236.051	78
236.285	60
236.519	86
236.753	76
236.987	79
237.221	75
237.455	91
237.689	85
237.922	77
238.156	84
238.39	75
238.624	82
238.858	80
239.091	79
239.325	89
239.559	84
239.793	93
240.027	68
240.26	73
240.494	88
240.728	90
240.961	72
241.195	92
241.429	79
241.662	88
241.896	82
242.13	89
242.363	72
242.597	81
242.83	79
243.064	70
243.298	83
243.531	78
243.765	70
243.998	83
244.232	83
244.465	87
244.699	77
244.932	80
245.166	88
245.399	75
245.633	81
245.866	80
246.099	92
246.333	83
246.566	73
246.8	79
247.033	72
247.266	80
247.5	75
247.733	78
247.966	84
248.2	86
248.433	76
248.666	68
248.899	79
249.133	78
249.366	107
249.599	93
249.832	87
250.066	80
250.299	89
250.532	87
250.765	87
250.998	77
251.231	72
251.465	77
251.698	81
251.931	88
252.164	85
252.397	79
252.63	90
252.863	73
253.096	75
253.329	77
253.562	72
253.795	72
254.028	78
254.261	89
254.494	89
254.727	85
254.96	78
255.193	84
255.426	86
255.659	73
255.892	87
256.124	81
256.357	93
256.59	79
256.823	86
257.056	73
257.289	87
257.521	82
257.754	85
257.987	90
258.22	91
258.452	82
258.685	77
258.918	95
259.151	89
259.383	100
259.616	82
259.849	79
260.081	96
260.314	100
260.547	87
260.779	92
261.012	89
261.244	94
261.477	90
261.71	81
261.942	97
262.175	95
262.407	82
262.64	92
262.872	95
263.105	85
263.337	95
263.57	87
263.802	86
264.035	86
264.267	88
264.499	81
264.732	96
264.964	86
265.197	84
265.429	91
265.661	69
265.894	87
266.126	86
266.358	79
266.591	91
266.823	92
267.055	83
267.287	97
267.52	81
267.752	83
267.984	78
268.216	91
268.448	92
268.681	93
268.913	94
269.145	87
269.377	84
269.609	77
269.841	75
270.073	83
270.306	93
270.538	80
270.77	93
271.002	90
271.234	79
271.466	70
271.698	88
271.93	82
272.162	80
272.394	80
272.626	79
272.858	71
273.09	89
273.322	86
273.553	87
273.785	89
274.017	86
274.249	70
274.481	84
274.713	81
274.945	86
275.176	91
275.408	85
275.64	75
275.872	92
276.104	90
276.335	84
276.567	101
276.799	103
277.031	94
277.262	97
277.494	77
277.726	90
277.957	77
278.189	80
278.421	79
278.652	106
278.884	86
279.115	79
279.347	85
279.579	84
279.81	75
280.042	101
280.273	97
280.505	74
280.736	95
280.968	75
281.199	95
281.431	84
281.662	82
281.894	96
282.125	100
282.356	115
282.588	119
282.819	108
283.051	91
283.282	68
283.513	91
283.745	90
283.976	86
284.207	96
284.439	93
284.67	84
284.901	87
285.132	91
285.364	77
285.595	92
285.826	85
286.057	100
286.288	95
286.52	83
286.751	98
286.982	83
287.213	98
287.444	80
287.675	99
287.906	104
288.138	84
288.369	92
288.6	96
288.831	87
289.062	76
289.293	92
289.524	99
289.755	90
289.986	82
290.217	82
290.448	92
290.679	93
290.91	94
291.141	91
291.371	87
291.602	82
291.833	89
292.064	81
292.295	72
292.526	70
292.757	85
292.987	93
293.218	101
293.449	79
293.68	97
293.91	99
294.141	93
294.372	92
294.603	98
294.833	85
295.064	92
295.295	92
295.525	92
295.756	99
295.987	119
296.217	120
296.448	110
296.679	75
296.909	104
297.14	89
297.37	92
297.601	84
297.831	78
298.062	90
298.292	81
298.523	95
298.753	83
298.984	86
299.214	88
299.445	84
299.675	98
299.905	91
300.136	88
300.366	79
300.597	89
300.827	94
301.057	98
301.288	110
301.518	104
301.748	95
301.979	87
302.209	75
302.439	100
302.669	88
302.9	90
303.13	95
303.36	89
303.59	96
303.82	95
304.051	95
304.281	88
304.511	103
304.741	78
304.971	92
305.201	89
305.431	84
305.661	103
305.891	105
306.121	91
306.352	103
306.582	89
306.812	104
307.042	91
307.272	85
307.502	87
307.731	99
307.961	91
308.191	93
308.421	116
308.651	91
308.881	88
309.111	85
309.341	97
309.571	107
309.8	91
310.03	109
310.26	103
310.49	88
310.72	92
310.949	103
311.179	87
311.409	94
311.639	110
311.868	103
312.098	109
312.328	88
312.557	100
312.787	99
313.017	102
313.246	93
313.476	92
313.706	89
313.935	87
314.165	91
314.394	88
314.624	105
314.853	103
315.083	103
315.312	101
315.542	80
315.771	96
316.001	115
316.23	84
316.46	79
316.689	94
316.919	83
317.148	97
317.377	100
317.607	90
317.836	96
318.065	98
318.295	85
318.524	100
318.753	99
318.983	89
319.212	100
319.441	98
319.67	96
319.9	90
320.129	99
320.358	79
320.587	103
320.816	95
321.046	88
321.275	111
321.504	95
321.733	91
321.962	95
322.191	105
322.42	107
322.649	104
322.878	118
323.108	118
323.337	99
323.566	117
323.795	143
324.024	176
324.253	305
324.482	596
324.71	1190
324.939	1455
325.168	558
325.397	205
325.626	143
325.855	115
326.084	105
326.313	118
326.542	117
326.77	192
326.999	352
327.228	672
327.457	1173
327.686	923
327.914	271
328.143	151
328.372	130
328.6	116
328.829	109
329.058	89
329.287	117
329.515	113
329.744	116
329.972	100
330.201	92
330.43	104
330.658	112
330.887	112
331.115	109
331.344	89
331.572	94
331.801	100
332.03	99
332.258	109
332.486	87
332.715	89
332.943	90
333.172	93
333.4	113
333.629	109
333.857	94
334.085	108
334.314	81
334.542	97
334.771	91
334.999	89
335.227	94
335.455	105
335.684	105
335.912	102
336.14	103
336.369	94
336.597	99
336.825	100
337.053	77
337.281	91
337.51	92
337.738	86
337.966	85
338.194	97
338.422	86
338.65	83
338.878	83
339.106	94
339.334	83
339.562	95
339.79	98
340.018	90
340.246	107
340.474	89
340.702	92
340.93	96
341.158	93
341.386	86
341.614	105
341.842	98
342.07	87
342.298	77
342.526	86
342.754	84
342.981	104
343.209	93
343.437	104
343.665	90
343.893	97
344.12	108
344.348	79
344.576	99
344.804	76
345.031	107
345.259	105
345.487	91
345.714	96
345.942	104
346.17	98
346.397	90
346.625	99
346.853	82
347.08	84
347.308	111
347.535	110
347.763	105
347.99	94
348.218	94
348.445	103
348.673	94
348.9	106
349.128	94
349.355	80
349.583	95
349.81	92
350.037	97
350.265	97
350.492	108
350.72	99
350.947	110
351.174	114
351.402	97
351.629	97
351.856	104
352.083	89
352.311	101
352.538	113
352.765	107
352.992	109
353.22	111
353.447	111
353.674	92
353.901	108
354.128	97
354.355	102
354.583	100
354.81	95
355.037	80
355.264	90
355.491	91
355.718	93
355.945	90
356.172	99
356.399	88
356.626	77
356.853	100
357.08	107
357.307	97
357.534	97
357.761	88
357.988	94
358.215	75
358.441	81
358.668	91
358.895	91
359.122	91
359.349	87
359.576	85
359.802	98
360.029	102
360.256	95
360.483	91
360.709	87
360.936	93
361.163	94
361.39	105
361.616	96
361.843	101
362.07	91
362.296	79
362.523	96
362.749	90
362.976	102
363.203	89
363.429	92
363.656	89
363.882	91
364.109	81
364.335	105
364.562	93
364.788	89
365.015	96
365.241	91
365.468	101
365.694	107
365.92	102
366.147	72
366.373	86
366.599	85
366.826	90
367.052	99
367.278	93
367.505	100
367.731	98
367.957	85
368.184	91
368.41	98
368.636	111
368.862	97
369.089	97
369.315	96
369.541	104
369.767	88
369.993	97
370.219	87
370.445	86
370.672	98
370.898	93
371.124	80
371.35	89
371.576	93
371.802	105
372.028	95
372.254	94
372.48	85
372.706	93
372.932	96
373.158	83
373.384	91
373.61	85
373.835	103
374.061	79
374.287	96
374.513	99
374.739	95
374.965	84
375.191	90
375.416	85
375.642	95
375.868	94
376.094	98
376.319	92
376.545	90
376.771	92
376.997	96
377.222	94
377.448	84
377.674	87
377.899	97
378.125	77
378.35	90
378.576	103
378.802	83
379.027	92
379.253	93
379.478	99
379.704	90
379.929	94
380.155	98
380.38	92
380.606	100
380.831	90
381.057	100
381.282	93
381.507	104
381.733	96
381.958	89
382.184	84
382.409	101
382.634	97
382.86	95
383.085	110
383.31	109
383.535	100
383.761	104
383.986	88
384.211	96
384.436	99
384.662	105
384.887	115
385.112	110
385.337	96
385.562	99
385.787	112
386.013	102
386.238	109
386.463	100
386.688	100
386.913	110
387.138	92
387.363	94
387.588	114
387.813	103
388.038	113
388.263	115
388.488	118
388.713	97
388.938	90
389.163	98
389.387	92
389.612	97
389.837	92
390.062	104
390.287	83
390.512	79
390.736	93
390.961	89
391.186	97
391.411	103
391.636	97
391.86	89
392.085	100
392.31	79
392.534	72
392.759	93
392.984	82
393.208	98
393.433	89
393.658	83
393.882	84
394.107	95
394.331	87
394.556	102
394.78	99
395.005	84
395.229	87
395.454	88
395.678	99
395.903	101
396.127	95
396.352	83
396.576	89
396.801	96
397.025	86
397.249	95
397.474	92
397.698	72
397.922	84
398.147	85
398.371	89
398.595	92
398.82	87
399.044	87
399.268	78
399.492	78
399.717	93
399.941	93
400.165	99
400.389	99
400.613	89
400.837	93
401.062	91
401.286	88
401.51	78
401.734	92
401.958	95
402.182	129
402.406	136
402.63	116
402.854	95
403.078	80
403.302	102
403.526	80
403.75	77
403.974	84
404.198	90
404.422	89
404.645	93
404.869	94
405.093	93
405.317	94
405.541	95
405.765	88
405.988	101
406.212	141
406.436	188
406.66	118
406.883	91
407.107	88
407.331	98
407.555	89
407.778	90
408.002	96
408.226	88
408.449	76
408.673	86
408.896	95
409.12	76
409.344	100
409.567	98
409.791	104
410.014	98
410.238	100
410.461	104
410.685	96
410.908	95
411.132	102
411.355	90
411.578	92
411.802	86
412.025	86
412.249	92
412.472	91
412.695	102
412.919	85
413.142	87
413.365	92
413.589	89
413.812	104
414.035	101
414.258	95
414.482	92
414.705	79
414.928	99
415.151	99
415.374	91
415.597	98
415.821	91
416.044	89
416.267	100
416.49	88
416.713	77
416.936	78
417.159	96
417.382	85
417.605	73
417.828	94
418.051	96
418.274	78
418.497	83
418.72	94
418.943	95
419.166	74
419.389	72
419.611	79
419.834	79
420.057	108
420.28	85
420.503	96
420.726	95
420.948	101
421.171	91
421.394	97
421.617	96
421.839	92
422.062	97
422.285	106
422.507	96
422.73	95
422.953	100
423.175	102
423.398	89
423.621	73
423.843	93
424.066	93
424.288	106
424.511	92
424.733	87
424.956	108
425.178	91
425.401	84
425.623	102
425.846	104
426.068	93
426.291	110
426.513	96
426.735	93
426.958	86
427.18	98
427.402	123
427.625	140
427.847	121
428.069	111
428.292	91
428.514	88
428.736	93
428.958	89
429.181	96
429.403	85
429.625	101
429.847	90
430.069	83
430.292	92
430.514	95
430.736	84
430.958	82
431.18	82
431.402	87
431.624	78
431.846	87
432.068	97
432.29	83
432.512	88
432.734	84
432.956	89
433.178	88
433.4	101
433.622	94
433.844	108
434.066	89
434.287	88
434.509	75
434.731	90
434.953	100
435.175	79
435.397	93
435.618	101
435.84	92
436.062	112
436.284	102
436.505	106
436.727	103
436.949	96
437.17	95
437.392	94
437.614	101
437.835	109
438.057	97
438.278	92
438.5	105
438.721	103
438.943	105
439.165	92
439.386	81
439.608	87
439.829	98
440.05	120
440.272	132
440.493	102
440.715	85
440.936	94
441.158	87
441.379	81
441.6	106
441.822	94
442.043	96
442.264	113
442.486	92
442.707	105
442.928	93
443.149	117
443.371	118
443.592	99
443.813	117
444.034	96
444.255	89
444.476	84
444.698	87
444.919	88
445.14	133
445.361	132
445.582	113
445.803	114
446.024	111
446.245	112
446.466	91
446.687	90
446.908	93
447.129	92
447.35	100
447.571	100
447.792	98
448.013	86
448.234	102
448.455	96
448.675	101
448.896	111
449.117	108
449.338	110
449.559	119
449.779	124
450	97
450.221	82
450.442	91
450.662	92
450.883	102
451.104	105
451.324	101
451.545	94
451.766	109
451.986	93
452.207	96
452.428	99
452.648	99
452.869	104
453.089	106
453.31	93
453.53	87
453.751	102
453.971	101
454.192	112
454.412	97
454.633	85
454.853	101
455.073	88
455.294	97
455.514	97
455.734	82
455.955	87
456.175	74
456.395	88
456.616	89
456.836	89
457.056	79
457.276	97
457.497	98
457.717	87
457.937	93
458.157	87
458.377	95
458.598	103
458.818	133
459.038	132
459.258	97
459.478	92
459.698	72
459.918	82
460.138	72
460.358	72
460.578	89
460.798	102
461.018	84
461.238	85
461.458	90
461.678	83
461.898	95
462.118	91
462.338	92
462.558	95
462.777	81
462.997	100
463.217	85
463.437	83
463.657	81
463.876	103
464.096	93
464.316	89
464.536	98
464.755	90
464.975	99
465.195	127
465.414	140
465.634	86
465.854	82
466.073	99
466.293	106
466.512	98
466.732	91
466.951	91
467.171	84
467.391	96
467.61	113
467.829	95
468.049	97
468.268	89
468.488	81
468.707	95
468.927	86
469.146	90
469.365	85
469.585	94
469.804	92
470.023	96
470.243	105
470.462	102
470.681	119
470.901	89
471.12	96
471.339	89
471.558	94
471.777	81
471.997	79
472.216	87
472.435	92
472.654	92
472.873	101
473.092	82
473.311	85
473.53	86
473.749	79
473.968	97
474.187	97
474.406	106
474.625	96
474.844	88
475.063	96
475.282	81
475.501	93
475.72	88
475.939	87
476.158	73
476.377	101
476.596	102
476.814	96
477.033	93
477.252	79
477.471	101
477.69	89
477.908	93
478.127	90
478.346	81
478.564	100
478.783	100
479.002	92
479.22	83
479.439	104
479.658	116
479.876	96
480.095	101
480.313	87
480.532	91
480.751	79
480.969	94
481.188	108
481.406	105
481.624	80
481.843	82
482.061	91
482.28	108
482.498	88
482.717	101
482.935	102
483.153	105
483.372	87
483.59	97
483.808	85
484.027	102
484.245	99
484.463	74
484.681	98
484.9	109
485.118	96
485.336	100
485.554	104
485.772	105
485.99	95
486.209	99
486.427	91
486.645	96
486.863	102
487.081	100
487.299	114
487.517	103
487.735	109
487.953	98
488.171	98
488.389	105
488.607	89
488.825	102
489.043	99
489.261	89
489.479	91
489.696	85
489.914	103
490.132	96
490.35	100
490.568	96
490.786	100
491.003	101
491.221	93
491.439	95
491.657	99
491.874	96
492.092	99
492.31	82
492.527	73
492.745	90
492.963	81
493.18	99
493.398	107
493.615	96
493.833	97
494.05	95
494.268	99
494.485	71
494.703	94
494.92	89
495.138	92
495.355	96
495.573	95
495.79	95
496.008	91
496.225	95
496.442	103
496.66	83
496.877	89
497.094	92
497.312	104
497.529	99
497.746	91
497.963	101
498.181	112
498.398	99
498.615	104
498.832	96
499.049	95
499.267	87
499.484	110
499.701	97
499.918	96
500.135	87
500.352	93
500.569	96
500.786	96
501.003	97
501.22	72
501.437	109
501.654	92
501.871	90
502.088	92
502.305	101
502.522	99
502.739	99
502.956	109
503.172	99
503.389	84
503.606	91
503.823	84
504.04	110
504.256	95
504.473	95
504.69	101
504.907	104
505.123	96
505.34	98
505.557	80
505.773	94
505.99	97
506.207	94
506.423	91
506.64	114
506.856	81
507.073	86
507.289	108
507.506	111
507.722	99
507.939	108
508.155	96
508.372	92
508.588	95
508.805	91
509.021	83
509.238	99
509.454	92
509.67	98
509.887	110
510.103	133
510.319	185
510.536	575
510.752	1735
510.968	492
511.184	143
511.401	107
511.617	104
511.833	101
512.049	97
512.265	85
512.481	76
512.698	91
512.914	97
513.13	95
513.346	93
513.562	93
513.778	97
513.994	92
514.21	103
514.426	113
514.642	127
514.858	111
515.074	134
515.29	369
515.506	1017
515.721	388
515.937	139
516.153	107
516.369	95
516.585	98
516.801	106
517.016	101
517.232	114
517.448	84
517.664	94
517.879	83
518.095	93
518.311	75
518.527	105
518.742	86
518.958	84
519.173	104
519.389	90
519.605	112
519.82	99
520.036	101
520.251	117
520.467	111
520.682	105
520.898	105
521.113	110
521.329	116
521.544	182
521.76	424
521.975	1715
522.19	1023
522.406	245
522.621	113
522.836	111
523.052	109
523.267	96
523.482	87
523.698	99
523.913	102
524.128	85
524.343	109
524.559	103
524.774	94
524.989	89
525.204	105
525.419	101
525.634	93
525.849	99
526.064	94
526.28	105
526.495	99
526.71	85
526.925	104
527.14	85
527.355	83
527.57	93
527.785	103
527.999	100
528.214	91
528.429	96
528.644	82
528.859	89
529.074	100
529.289	106
529.503	156
529.718	95
529.933	99
530.148	102
530.363	95
530.577	97
530.792	103
531.007	83
531.221	101
531.436	86
531.651	99
531.865	92
532.08	94
532.295	103
532.509	93
532.724	99
532.938	94
533.153	90
533.367	99
533.582	109
533.796	96
534.011	92
534.225	103
534.44	102
534.654	93
534.868	101
535.083	100
535.297	100
535.511	116
535.726	101
535.94	92
536.154	87
536.369	85
536.583	91
536.797	102
537.011	81
537.225	99
537.44	112
537.654	97
537.868	84
538.082	91
538.296	91
538.51	82
538.724	100
538.938	95
539.153	99
539.367	107
539.581	99
539.795	85
540.009	99
540.222	97
540.436	97
540.65	94
540.864	86
541.078	76
541.292	100
541.506	91
541.72	93
541.934	93
542.147	91
542.361	85
542.575	105
542.789	84
543.002	101
543.216	91
543.43	91
543.644	79
543.857	95
544.071	90
544.285	85
544.498	99
544.712	107
544.925	105
545.139	87
545.352	96
545.566	96
545.779	98
545.993	97
546.206	106
546.42	102
546.633	100
546.847	109
547.06	88
547.274	100
547.487	90
547.7	96
547.914	94
548.127	94
548.34	85
548.554	96
548.767	81
548.98	105
549.193	87
549.407	80
549.62	110
549.833	87
550.046	83
550.259	83
550.473	84
550.686	83
550.899	80
551.112	90
551.325	80
551.538	93
551.751	90
551.964	99
552.177	81
552.39	89
552.603	102
552.816	95
553.029	90
553.242	94
553.455	100
553.667	113
553.88	102
554.093	83
554.306	97
554.519	81
554.732	97
554.944	99
555.157	92
555.37	98
555.583	107
555.795	91
556.008	90
556.221	87
556.433	91
556.646	102
556.859	104
557.071	108
557.284	84
557.496	95
557.709	87
557.921	99
558.134	96
558.346	95
558.559	94
558.771	98
558.984	95
559.196	76
559.409	107
559.621	98
559.833	94
560.046	83
560.258	97
560.47	99
560.683	80
560.895	96
561.107	87
561.32	89
561.532	84
561.744	90
561.956	97
562.168	83
562.381	78
562.593	90
562.805	90
563.017	92
563.229	101
563.441	97
563.653	85
563.865	100
564.077	87
564.289	101
564.501	88
564.713	100
564.925	103
565.137	97
565.349	91
565.561	83
565.773	88
565.985	92
566.197	96
566.408	89
566.62	97
566.832	73
567.044	108
567.255	91
567.467	87
567.679	86
567.891	85
568.102	96
568.314	77
568.526	78
568.737	98
568.949	101
569.161	91
569.372	88
569.584	94
569.795	86
570.007	118
570.218	215
570.43	116
570.641	94
570.853	88
571.064	80
571.276	91
571.487	97
571.698	97
571.91	95
572.121	81
572.333	91
572.544	104
572.755	100
572.966	83
573.178	90
573.389	96
573.6	87
573.811	88
574.023	81
574.234	98
574.445	109
574.656	94
574.867	85
575.078	86
575.289	94
575.501	81
575.712	83
575.923	96
576.134	87
576.345	102
576.556	92
576.767	96
576.978	94
577.188	102
577.399	103
577.61	88
577.821	94
578.032	115
578.243	239
578.454	571
578.665	190
578.875	111
579.086	105
579.297	78
579.508	92
579.718	103
579.929	80
580.14	90
580.35	94
580.561	93
580.772	96
580.982	89
581.193	94
581.403	94
581.614	92
581.825	85
582.035	98
582.246	87
582.456	87
582.667	101
582.877	91
583.087	91
583.298	83
583.508	89
