Data from Uncirc_1993_H10_HRD10591_00009.txt Node
Date: Wed Jan 03 11:42:54 EST 2024
User: Yrep
Spectrometer: HR+D1059
Trigger mode: 1
Integration Time (sec): 1.000000E-1
Scans to average: 1
Electric dark correction enabled: true
Nonlinearity correction enabled: false
Boxcar width: 0
XAxis mode: Wavelengths
Number of Pixels in Spectrum: 2048
>>>>>Begin Spectral Data<<<<<
223.165	-10.81
223.4	-10.81
223.635	-10.81
223.869	-14.81
224.104	-16.81
224.338	-23.81
224.573	-21.81
224.808	-12.81
225.042	-9.81
225.277	-10.81
225.511	-1.81
225.746	-7.81
225.98	11.19
226.215	12.19
226.449	9.19
226.683	25.19
226.918	36.19
227.152	37.19
227.387	32.19
227.621	49.19
227.856	46.19
228.09	55.19
228.324	51.19
228.559	57.19
228.793	56.19
229.027	68.19
229.262	68.19
229.496	59.19
229.73	73.19
229.964	76.19
230.199	60.19
230.433	76.19
230.667	70.19
230.901	87.19
231.136	91.19
231.37	80.19
231.604	100.19
231.838	91.19
232.072	88.19
232.306	81.19
232.541	84.19
232.775	83.19
233.009	72.19
233.243	86.19
233.477	91.19
233.711	87.19
233.945	72.19
234.179	79.19
234.413	84.19
234.647	75.19
234.881	98.19
235.115	91.19
235.349	84.19
235.583	94.19
235.817	88.19
236.051	89.19
236.285	67.19
236.519	80.19
236.753	84.19
236.987	83.19
237.221	85.19
237.455	88.19
237.689	73.19
237.922	89.19
238.156	71.19
238.39	80.19
238.624	66.19
238.858	71.19
239.091	83.19
239.325	77.19
239.559	77.19
239.793	74.19
240.027	76.19
240.26	87.19
240.494	86.19
240.728	83.19
240.961	80.19
241.195	82.19
241.429	85.19
241.662	95.19
241.896	81.19
242.13	86.19
242.363	51.19
242.597	89.19
242.83	72.19
243.064	72.19
243.298	94.19
243.531	74.19
243.765	88.19
243.998	82.19
244.232	79.19
244.465	88.19
244.699	92.19
244.932	90.19
245.166	76.19
245.399	79.19
245.633	81.19
245.866	83.19
246.099	89.19
246.333	94.19
246.566	68.19
246.8	69.19
247.033	79.19
247.266	82.19
247.5	83.19
247.733	89.19
247.966	91.19
248.2	80.19
248.433	85.19
248.666	80.19
248.899	70.19
249.133	80.19
249.366	89.19
249.599	84.19
249.832	86.19
250.066	72.19
250.299	88.19
250.532	78.19
250.765	72.19
250.998	69.19
251.231	79.19
251.465	79.19
251.698	98.19
251.931	72.19
252.164	80.19
252.397	95.19
252.63	89.19
252.863	71.19
253.096	75.19
253.329	83.19
253.562	77.19
253.795	93.19
254.028	96.19
254.261	89.19
254.494	79.19
254.727	86.19
254.96	85.19
255.193	97.19
255.426	86.19
255.659	81.19
255.892	82.19
256.124	86.19
256.357	81.19
256.59	75.19
256.823	85.19
257.056	82.19
257.289	104.19
257.521	82.19
257.754	102.19
257.987	86.19
258.22	93.19
258.452	69.19
258.685	80.19
258.918	81.19
259.151	80.19
259.383	84.19
259.616	85.19
259.849	93.19
260.081	81.19
260.314	90.19
260.547	87.19
260.779	84.19
261.012	84.19
261.244	79.19
261.477	80.19
261.71	79.19
261.942	91.19
262.175	109.19
262.407	100.19
262.64	86.19
262.872	81.19
263.105	78.19
263.337	95.19
263.57	66.19
263.802	75.19
264.035	85.19
264.267	89.19
264.499	89.19
264.732	89.19
264.964	80.19
265.197	86.19
265.429	91.19
265.661	79.19
265.894	76.19
266.126	84.19
266.358	91.19
266.591	86.19
266.823	86.19
267.055	91.19
267.287	92.19
267.52	102.19
267.752	92.19
267.984	95.19
268.216	70.19
268.448	71.19
268.681	90.19
268.913	103.19
269.145	92.19
269.377	92.19
269.609	85.19
269.841	85.19
270.073	84.19
270.306	89.19
270.538	95.19
270.77	90.19
271.002	90.19
271.234	67.19
271.466	93.19
271.698	84.19
271.93	81.19
272.162	90.19
272.394	95.19
272.626	72.19
272.858	99.19
273.09	88.19
273.322	91.19
273.553	76.19
273.785	95.19
274.017	85.19
274.249	80.19
274.481	84.19
274.713	95.19
274.945	81.19
275.176	88.19
275.408	94.19
275.64	70.19
275.872	93.19
276.104	78.19
276.335	85.19
276.567	96.19
276.799	100.19
277.031	99.19
277.262	91.19
277.494	83.19
277.726	99.19
277.957	73.19
278.189	102.19
278.421	83.19
278.652	86.19
278.884	86.19
279.115	93.19
279.347	87.19
279.579	86.19
279.81	82.19
280.042	78.19
280.273	78.19
280.505	85.19
280.736	102.19
280.968	91.19
281.199	89.19
281.431	87.19
281.662	82.19
281.894	80.19
282.125	94.19
282.356	110.19
282.588	130.19
282.819	108.19
283.051	95.19
283.282	93.19
283.513	79.19
283.745	91.19
283.976	89.19
284.207	102.19
284.439	86.19
284.67	85.19
284.901	96.19
285.132	84.19
285.364	76.19
285.595	80.19
285.826	80.19
286.057	108.19
286.288	71.19
286.52	80.19
286.751	93.19
286.982	89.19
287.213	95.19
287.444	87.19
287.675	97.19
287.906	92.19
288.138	88.19
288.369	90.19
288.6	98.19
288.831	88.19
289.062	102.19
289.293	103.19
289.524	89.19
289.755	93.19
289.986	79.19
290.217	84.19
290.448	82.19
290.679	78.19
290.91	86.19
291.141	94.19
291.371	98.19
291.602	89.19
291.833	104.19
292.064	87.19
292.295	92.19
292.526	78.19
292.757	88.19
292.987	97.19
293.218	73.19
293.449	90.19
293.68	77.19
293.91	85.19
294.141	91.19
294.372	82.19
294.603	88.19
294.833	94.19
295.064	91.19
295.295	84.19
295.525	102.19
295.756	96.19
295.987	103.19
296.217	117.19
296.448	98.19
296.679	103.19
296.909	101.19
297.14	84.19
297.37	97.19
297.601	93.19
297.831	89.19
298.062	95.19
298.292	87.19
298.523	94.19
298.753	87.19
298.984	95.19
299.214	75.19
299.445	86.19
299.675	103.19
299.905	80.19
300.136	94.19
300.366	86.19
300.597	93.19
300.827	79.19
301.057	94.19
301.288	108.19
301.518	83.19
301.748	86.19
301.979	92.19
302.209	96.19
302.439	98.19
302.669	87.19
302.9	88.19
303.13	97.19
303.36	103.19
303.59	89.19
303.82	99.19
304.051	100.19
304.281	91.19
304.511	105.19
304.741	97.19
304.971	82.19
305.201	84.19
305.431	100.19
305.661	96.19
305.891	79.19
306.121	93.19
306.352	90.19
306.582	92.19
306.812	100.19
307.042	93.19
307.272	90.19
307.502	88.19
307.731	92.19
307.961	104.19
308.191	91.19
308.421	113.19
308.651	82.19
308.881	88.19
309.111	86.19
309.341	81.19
309.571	105.19
309.8	86.19
310.03	94.19
310.26	102.19
310.49	99.19
310.72	101.19
310.949	97.19
311.179	99.19
311.409	101.19
311.639	97.19
311.868	92.19
312.098	89.19
312.328	90.19
312.557	82.19
312.787	99.19
313.017	101.19
313.246	96.19
313.476	95.19
313.706	105.19
313.935	94.19
314.165	82.19
314.394	103.19
314.624	105.19
314.853	111.19
315.083	99.19
315.312	98.19
315.542	89.19
315.771	91.19
316.001	89.19
316.23	102.19
316.46	82.19
316.689	85.19
316.919	107.19
317.148	99.19
317.377	88.19
317.607	99.19
317.836	91.19
318.065	99.19
318.295	81.19
318.524	100.19
318.753	88.19
318.983	85.19
319.212	99.19
319.441	92.19
319.67	104.19
319.9	92.19
320.129	111.19
320.358	102.19
320.587	86.19
320.816	101.19
321.046	111.19
321.275	93.19
321.504	100.19
321.733	85.19
321.962	103.19
322.191	105.19
322.42	99.19
322.649	110.19
322.878	117.19
323.108	116.19
323.337	116.19
323.566	120.19
323.795	130.19
324.024	179.19
324.253	322.19
324.482	639.19
324.71	1286.19
324.939	1609.19
325.168	614.19
325.397	197.19
325.626	123.19
325.855	107.19
326.084	112.19
326.313	135.19
326.542	139.19
326.77	194.19
326.999	353.19
327.228	712.19
327.457	1272.19
327.686	1021.19
327.914	283.19
328.143	166.19
328.372	124.19
328.6	116.19
328.829	107.19
329.058	126.19
329.287	117.19
329.515	108.19
329.744	95.19
329.972	98.19
330.201	94.19
330.43	105.19
330.658	111.19
330.887	113.19
331.115	110.19
331.344	92.19
331.572	99.19
331.801	97.19
332.03	97.19
332.258	111.19
332.486	95.19
332.715	90.19
332.943	97.19
333.172	87.19
333.4	107.19
333.629	106.19
333.857	103.19
334.085	97.19
334.314	102.19
334.542	106.19
334.771	103.19
334.999	89.19
335.227	109.19
335.455	99.19
335.684	87.19
335.912	95.19
336.14	84.19
336.369	91.19
336.597	110.19
336.825	101.19
337.053	93.19
337.281	95.19
337.51	98.19
337.738	112.19
337.966	94.19
338.194	101.19
338.422	102.19
338.65	103.19
338.878	90.19
339.106	100.19
339.334	101.19
339.562	90.19
339.79	77.19
340.018	86.19
340.246	92.19
340.474	82.19
340.702	91.19
340.93	80.19
341.158	87.19
341.386	93.19
341.614	91.19
341.842	96.19
342.07	94.19
342.298	101.19
342.526	100.19
342.754	93.19
342.981	99.19
343.209	91.19
343.437	103.19
343.665	89.19
343.893	84.19
344.12	104.19
344.348	101.19
344.576	92.19
344.804	107.19
345.031	93.19
345.259	111.19
345.487	83.19
345.714	97.19
345.942	92.19
346.17	87.19
346.397	97.19
346.625	98.19
346.853	88.19
347.08	108.19
347.308	105.19
347.535	87.19
347.763	99.19
347.99	102.19
348.218	115.19
348.445	92.19
348.673	92.19
348.9	105.19
349.128	96.19
349.355	108.19
349.583	100.19
349.81	96.19
350.037	90.19
350.265	89.19
350.492	109.19
350.72	87.19
350.947	95.19
351.174	109.19
351.402	106.19
351.629	96.19
351.856	97.19
352.083	121.19
352.311	100.19
352.538	110.19
352.765	108.19
352.992	112.19
353.22	112.19
353.447	101.19
353.674	101.19
353.901	108.19
354.128	102.19
354.355	105.19
354.583	109.19
354.81	110.19
355.037	96.19
355.264	85.19
355.491	100.19
355.718	96.19
355.945	99.19
356.172	109.19
356.399	100.19
356.626	88.19
356.853	89.19
357.08	91.19
357.307	96.19
357.534	85.19
357.761	92.19
357.988	91.19
358.215	87.19
358.441	99.19
358.668	98.19
358.895	84.19
359.122	90.19
359.349	80.19
359.576	95.19
359.802	99.19
360.029	114.19
360.256	104.19
360.483	109.19
360.709	100.19
360.936	96.19
361.163	99.19
361.39	97.19
361.616	92.19
361.843	107.19
362.07	87.19
362.296	92.19
362.523	101.19
362.749	100.19
362.976	94.19
363.203	83.19
363.429	76.19
363.656	93.19
363.882	109.19
364.109	87.19
364.335	109.19
364.562	102.19
364.788	92.19
365.015	101.19
365.241	79.19
365.468	95.19
365.694	84.19
365.92	87.19
366.147	94.19
366.373	101.19
366.599	97.19
366.826	87.19
367.052	105.19
367.278	89.19
367.505	96.19
367.731	92.19
367.957	94.19
368.184	92.19
368.41	94.19
368.636	107.19
368.862	109.19
369.089	107.19
369.315	86.19
369.541	87.19
369.767	103.19
369.993	110.19
370.219	102.19
370.445	95.19
370.672	81.19
370.898	96.19
371.124	77.19
371.35	96.19
371.576	71.19
371.802	94.19
372.028	79.19
372.254	92.19
372.48	95.19
372.706	88.19
372.932	89.19
373.158	96.19
373.384	105.19
373.61	87.19
373.835	90.19
374.061	79.19
374.287	103.19
374.513	77.19
374.739	103.19
374.965	99.19
375.191	87.19
375.416	95.19
375.642	88.19
375.868	91.19
376.094	94.19
376.319	88.19
376.545	82.19
376.771	113.19
376.997	93.19
377.222	91.19
377.448	87.19
377.674	87.19
377.899	78.19
378.125	100.19
378.35	102.19
378.576	97.19
378.802	92.19
379.027	102.19
379.253	102.19
379.478	98.19
379.704	96.19
379.929	83.19
380.155	73.19
380.38	98.19
380.606	85.19
380.831	99.19
381.057	102.19
381.282	99.19
381.507	86.19
381.733	101.19
381.958	98.19
382.184	93.19
382.409	93.19
382.634	99.19
382.86	101.19
383.085	119.19
383.31	101.19
383.535	115.19
383.761	101.19
383.986	94.19
384.211	91.19
384.436	97.19
384.662	81.19
384.887	105.19
385.112	111.19
385.337	99.19
385.562	103.19
385.787	107.19
386.013	103.19
386.238	105.19
386.463	113.19
386.688	109.19
386.913	109.19
387.138	109.19
387.363	107.19
387.588	119.19
387.813	111.19
388.038	106.19
388.263	110.19
388.488	103.19
388.713	93.19
388.938	84.19
389.163	101.19
389.387	94.19
389.612	95.19
389.837	85.19
390.062	105.19
390.287	92.19
390.512	84.19
390.736	87.19
390.961	86.19
391.186	100.19
391.411	97.19
391.636	96.19
391.86	87.19
392.085	80.19
392.31	79.19
392.534	82.19
392.759	94.19
392.984	99.19
393.208	82.19
393.433	91.19
393.658	97.19
393.882	73.19
394.107	106.19
394.331	100.19
394.556	95.19
394.78	83.19
395.005	103.19
395.229	92.19
395.454	87.19
395.678	83.19
395.903	89.19
396.127	93.19
396.352	83.19
396.576	93.19
396.801	85.19
397.025	85.19
397.249	92.19
397.474	90.19
397.698	91.19
397.922	92.19
398.147	88.19
398.371	88.19
398.595	100.19
398.82	94.19
399.044	84.19
399.268	95.19
399.492	99.19
399.717	87.19
399.941	86.19
400.165	103.19
400.389	87.19
400.613	107.19
400.837	82.19
401.062	100.19
401.286	92.19
401.51	94.19
401.734	77.19
401.958	101.19
402.182	124.19
402.406	133.19
402.63	119.19
402.854	91.19
403.078	92.19
403.302	75.19
403.526	86.19
403.75	97.19
403.974	102.19
404.198	81.19
404.422	85.19
404.645	88.19
404.869	99.19
405.093	99.19
405.317	86.19
405.541	97.19
405.765	94.19
405.988	104.19
406.212	151.19
406.436	186.19
406.66	128.19
406.883	104.19
407.107	93.19
407.331	91.19
407.555	87.19
407.778	101.19
408.002	102.19
408.226	88.19
408.449	97.19
408.673	97.19
408.896	86.19
409.12	103.19
409.344	90.19
409.567	95.19
409.791	98.19
410.014	103.19
410.238	99.19
410.461	93.19
410.685	105.19
410.908	110.19
411.132	104.19
411.355	83.19
411.578	101.19
411.802	85.19
412.025	83.19
412.249	92.19
412.472	101.19
412.695	82.19
412.919	85.19
413.142	86.19
413.365	96.19
413.589	110.19
413.812	85.19
414.035	102.19
414.258	97.19
414.482	91.19
414.705	95.19
414.928	90.19
415.151	102.19
415.374	105.19
415.597	104.19
415.821	94.19
416.044	92.19
416.267	83.19
416.49	84.19
416.713	86.19
416.936	91.19
417.159	85.19
417.382	99.19
417.605	98.19
417.828	101.19
418.051	83.19
418.274	91.19
418.497	85.19
418.72	83.19
418.943	92.19
419.166	93.19
419.389	80.19
419.611	70.19
419.834	91.19
420.057	96.19
420.28	79.19
420.503	96.19
420.726	97.19
420.948	97.19
421.171	93.19
421.394	87.19
421.617	81.19
421.839	95.19
422.062	105.19
422.285	97.19
422.507	103.19
422.73	99.19
422.953	83.19
423.175	80.19
423.398	80.19
423.621	87.19
423.843	91.19
424.066	102.19
424.288	88.19
424.511	106.19
424.733	98.19
424.956	116.19
425.178	87.19
425.401	92.19
425.623	105.19
425.846	75.19
426.068	86.19
426.291	101.19
426.513	98.19
426.735	83.19
426.958	95.19
427.18	110.19
427.402	128.19
427.625	142.19
427.847	118.19
428.069	109.19
428.292	76.19
428.514	91.19
428.736	83.19
428.958	82.19
429.181	96.19
429.403	92.19
429.625	98.19
429.847	108.19
430.069	97.19
430.292	91.19
430.514	91.19
430.736	95.19
430.958	101.19
431.18	85.19
431.402	89.19
431.624	99.19
431.846	81.19
432.068	81.19
432.29	85.19
432.512	88.19
432.734	100.19
432.956	98.19
433.178	112.19
433.4	95.19
433.622	81.19
433.844	85.19
434.066	76.19
434.287	96.19
434.509	83.19
434.731	86.19
434.953	103.19
435.175	94.19
435.397	110.19
435.618	86.19
435.84	104.19
436.062	111.19
436.284	105.19
436.505	102.19
436.727	87.19
436.949	89.19
437.17	97.19
437.392	80.19
437.614	105.19
437.835	107.19
438.057	104.19
438.278	87.19
438.5	101.19
438.721	117.19
438.943	86.19
439.165	94.19
439.386	96.19
439.608	97.19
439.829	98.19
440.05	116.19
440.272	137.19
440.493	100.19
440.715	98.19
440.936	90.19
441.158	96.19
441.379	89.19
441.6	91.19
441.822	102.19
442.043	100.19
442.264	103.19
442.486	93.19
442.707	103.19
442.928	114.19
443.149	125.19
443.371	110.19
443.592	105.19
443.813	102.19
444.034	98.19
444.255	90.19
444.476	84.19
444.698	89.19
444.919	86.19
445.14	124.19
445.361	123.19
445.582	128.19
445.803	119.19
446.024	120.19
446.245	130.19
446.466	99.19
446.687	82.19
446.908	100.19
447.129	86.19
447.35	93.19
447.571	95.19
447.792	107.19
448.013	100.19
448.234	112.19
448.455	103.19
448.675	110.19
448.896	104.19
449.117	86.19
449.338	105.19
449.559	107.19
449.779	126.19
450	97.19
450.221	95.19
450.442	87.19
450.662	91.19
450.883	97.19
451.104	111.19
451.324	84.19
451.545	86.19
451.766	87.19
451.986	101.19
452.207	90.19
452.428	87.19
452.648	96.19
452.869	112.19
453.089	110.19
453.31	115.19
453.53	104.19
453.751	83.19
453.971	97.19
454.192	99.19
454.412	99.19
454.633	89.19
454.853	102.19
455.073	99.19
455.294	79.19
455.514	94.19
455.734	103.19
455.955	97.19
456.175	88.19
456.395	78.19
456.616	76.19
456.836	95.19
457.056	86.19
457.276	102.19
457.497	102.19
457.717	95.19
457.937	92.19
458.157	96.19
458.377	91.19
458.598	104.19
458.818	141.19
459.038	122.19
459.258	105.19
459.478	86.19
459.698	98.19
459.918	99.19
460.138	91.19
460.358	99.19
460.578	97.19
460.798	96.19
461.018	93.19
461.238	84.19
461.458	86.19
461.678	97.19
461.898	99.19
462.118	67.19
462.338	107.19
462.558	91.19
462.777	90.19
462.997	91.19
463.217	84.19
463.437	83.19
463.657	94.19
463.876	107.19
464.096	101.19
464.316	103.19
464.536	104.19
464.755	107.19
464.975	101.19
465.195	143.19
465.414	130.19
465.634	100.19
465.854	77.19
466.073	99.19
466.293	102.19
466.512	76.19
466.732	79.19
466.951	79.19
467.171	89.19
467.391	102.19
467.61	119.19
467.829	87.19
468.049	95.19
468.268	86.19
468.488	86.19
468.707	76.19
468.927	97.19
469.146	84.19
469.365	79.19
469.585	83.19
469.804	86.19
470.023	86.19
470.243	96.19
470.462	95.19
470.681	101.19
470.901	89.19
471.12	97.19
471.339	103.19
471.558	81.19
471.777	87.19
471.997	93.19
472.216	103.19
472.435	91.19
472.654	91.19
472.873	90.19
473.092	95.19
473.311	80.19
473.53	83.19
473.749	105.19
473.968	97.19
474.187	95.19
474.406	109.19
474.625	90.19
474.844	100.19
475.063	97.19
475.282	90.19
475.501	106.19
475.72	94.19
475.939	82.19
476.158	100.19
476.377	93.19
476.596	77.19
476.814	88.19
477.033	109.19
477.252	96.19
477.471	96.19
477.69	94.19
477.908	96.19
478.127	95.19
478.346	91.19
478.564	100.19
478.783	103.19
479.002	110.19
479.22	90.19
479.439	110.19
479.658	107.19
479.876	93.19
480.095	102.19
480.313	82.19
480.532	96.19
480.751	103.19
480.969	94.19
481.188	107.19
481.406	86.19
481.624	93.19
481.843	96.19
482.061	104.19
482.28	91.19
482.498	91.19
482.717	92.19
482.935	79.19
483.153	91.19
483.372	79.19
483.59	97.19
483.808	101.19
484.027	97.19
484.245	88.19
484.463	86.19
484.681	106.19
484.9	92.19
485.118	96.19
485.336	94.19
485.554	105.19
485.772	96.19
485.99	105.19
486.209	108.19
486.427	103.19
486.645	106.19
486.863	102.19
487.081	117.19
487.299	111.19
487.517	101.19
487.735	93.19
487.953	88.19
488.171	88.19
488.389	97.19
488.607	109.19
488.825	101.19
489.043	90.19
489.261	99.19
489.479	101.19
489.696	102.19
489.914	94.19
490.132	78.19
490.35	101.19
490.568	91.19
490.786	88.19
491.003	106.19
491.221	83.19
491.439	101.19
491.657	94.19
491.874	97.19
492.092	97.19
492.31	86.19
492.527	95.19
492.745	95.19
492.963	98.19
493.18	91.19
493.398	105.19
493.615	94.19
493.833	96.19
494.05	96.19
494.268	100.19
494.485	90.19
494.703	88.19
494.92	91.19
495.138	91.19
495.355	92.19
495.573	88.19
495.79	107.19
496.008	95.19
496.225	108.19
496.442	97.19
496.66	99.19
496.877	83.19
497.094	96.19
497.312	103.19
497.529	94.19
497.746	78.19
497.963	87.19
498.181	98.19
498.398	104.19
498.615	112.19
498.832	115.19
499.049	94.19
499.267	85.19
499.484	82.19
499.701	75.19
499.918	87.19
500.135	100.19
500.352	92.19
500.569	96.19
500.786	96.19
501.003	107.19
501.22	97.19
501.437	101.19
501.654	77.19
501.871	89.19
502.088	101.19
502.305	99.19
502.522	96.19
502.739	84.19
502.956	110.19
503.172	99.19
503.389	85.19
503.606	98.19
503.823	108.19
504.04	87.19
504.256	92.19
504.473	94.19
504.69	95.19
504.907	103.19
505.123	92.19
505.34	83.19
505.557	92.19
505.773	88.19
505.99	99.19
506.207	87.19
506.423	104.19
506.64	101.19
506.856	83.19
507.073	84.19
507.289	93.19
507.506	87.19
507.722	100.19
507.939	109.19
508.155	109.19
508.372	96.19
508.588	102.19
508.805	104.19
509.021	91.19
509.238	99.19
509.454	82.19
509.67	101.19
509.887	91.19
510.103	133.19
510.319	187.19
510.536	651.19
510.752	1856.19
510.968	517.19
511.184	125.19
511.401	117.19
511.617	97.19
511.833	107.19
512.049	88.19
512.265	101.19
512.481	102.19
512.698	100.19
512.914	87.19
513.13	91.19
513.346	85.19
513.562	87.19
513.778	102.19
513.994	112.19
514.21	102.19
514.426	109.19
514.642	114.19
