Data from Uncirc_1993_H10_HRD10591_00084.txt Node
Date: Wed Jan 03 11:43:09 EST 2024
User: Yrep
Spectrometer: HR+D1059
Trigger mode: 1
Integration Time (sec): 1.000000E-1
Scans to average: 1
Electric dark correction enabled: true
Nonlinearity correction enabled: false
Boxcar width: 0
XAxis mode: Wavelengths
Number of Pixels in Spectrum: 2048
>>>>>Begin Spectral Data<<<<<
223.165	-17.44
223.4	-17.44
223.635	-17.44
223.869	-26.44
224.104	-12.44
224.338	-18.44
224.573	-7.44
224.808	-8.44
225.042	-13.44
225.277	-10.44
225.511	-9.44
225.746	18.56
225.98	5.56
226.215	19.56
226.449	16.56
226.683	20.56
226.918	13.56
227.152	29.56
227.387	48.56
227.621	39.56
227.856	37.56
228.09	31.56
228.324	45.56
228.559	58.56
228.793	59.56
229.027	69.56
229.262	69.56
229.496	52.56
229.73	73.56
229.964	80.56
230.199	66.56
230.433	84.56
230.667	76.56
230.901	77.56
231.136	84.56
231.37	75.56
231.604	72.56
231.838	84.56
232.072	82.56
232.306	71.56
232.541	79.56
232.775	83.56
233.009	73.56
233.243	82.56
233.477	85.56
233.711	75.56
233.945	78.56
234.179	85.56
234.413	71.56
234.647	84.56
234.881	82.56
235.115	73.56
235.349	79.56
235.583	67.56
235.817	82.56
236.051	87.56
236.285	83.56
236.519	65.56
236.753	77.56
236.987	75.56
237.221	85.56
237.455	71.56
237.689	79.56
237.922	84.56
238.156	77.56
238.39	67.56
238.624	73.56
238.858	81.56
239.091	74.56
239.325	66.56
239.559	77.56
239.793	69.56
240.027	78.56
240.26	94.56
240.494	78.56
240.728	75.56
240.961	83.56
241.195	84.56
241.429	77.56
241.662	67.56
241.896	69.56
242.13	87.56
242.363	70.56
242.597	74.56
242.83	74.56
243.064	86.56
243.298	69.56
243.531	71.56
243.765	73.56
243.998	84.56
244.232	97.56
244.465	81.56
244.699	83.56
244.932	92.56
245.166	76.56
245.399	101.56
245.633	78.56
245.866	69.56
246.099	69.56
246.333	71.56
246.566	58.56
246.8	82.56
247.033	82.56
247.266	79.56
247.5	89.56
247.733	77.56
247.966	88.56
248.2	80.56
248.433	75.56
248.666	66.56
248.899	84.56
249.133	89.56
249.366	99.56
249.599	83.56
249.832	86.56
250.066	85.56
250.299	71.56
250.532	63.56
250.765	69.56
250.998	85.56
251.231	61.56
251.465	91.56
251.698	79.56
251.931	78.56
252.164	68.56
252.397	65.56
252.63	80.56
252.863	54.56
253.096	84.56
253.329	76.56
253.562	80.56
253.795	73.56
254.028	87.56
254.261	75.56
254.494	88.56
254.727	87.56
254.96	90.56
255.193	77.56
255.426	83.56
255.659	79.56
255.892	86.56
256.124	92.56
256.357	72.56
256.59	79.56
256.823	81.56
257.056	76.56
257.289	79.56
257.521	73.56
257.754	69.56
257.987	76.56
258.22	72.56
258.452	83.56
258.685	78.56
258.918	71.56
259.151	78.56
259.383	72.56
259.616	82.56
259.849	80.56
260.081	83.56
260.314	82.56
260.547	80.56
260.779	91.56
261.012	79.56
261.244	66.56
261.477	76.56
261.71	77.56
261.942	109.56
262.175	101.56
262.407	90.56
262.64	86.56
262.872	78.56
263.105	86.56
263.337	82.56
263.57	70.56
263.802	88.56
264.035	75.56
264.267	88.56
264.499	83.56
264.732	99.56
264.964	82.56
265.197	67.56
265.429	73.56
265.661	89.56
265.894	73.56
266.126	91.56
266.358	74.56
266.591	83.56
266.823	85.56
267.055	74.56
267.287	81.56
267.52	94.56
267.752	82.56
267.984	78.56
268.216	90.56
268.448	82.56
268.681	82.56
268.913	81.56
269.145	93.56
269.377	95.56
269.609	87.56
269.841	89.56
270.073	85.56
270.306	82.56
270.538	73.56
270.77	97.56
271.002	84.56
271.234	85.56
271.466	88.56
271.698	83.56
271.93	85.56
272.162	89.56
272.394	96.56
272.626	78.56
272.858	88.56
273.09	75.56
273.322	91.56
273.553	101.56
273.785	84.56
274.017	92.56
274.249	81.56
274.481	82.56
274.713	75.56
274.945	72.56
275.176	80.56
275.408	97.56
275.64	80.56
275.872	88.56
276.104	93.56
276.335	95.56
276.567	103.56
276.799	112.56
277.031	89.56
277.262	89.56
277.494	93.56
277.726	81.56
277.957	85.56
278.189	87.56
278.421	75.56
278.652	72.56
278.884	78.56
279.115	83.56
279.347	81.56
279.579	82.56
279.81	81.56
280.042	89.56
280.273	91.56
280.505	77.56
280.736	96.56
280.968	80.56
281.199	93.56
281.431	83.56
281.662	72.56
281.894	85.56
282.125	88.56
282.356	117.56
282.588	134.56
282.819	106.56
283.051	83.56
283.282	81.56
283.513	93.56
283.745	80.56
283.976	85.56
284.207	88.56
284.439	84.56
284.67	77.56
284.901	73.56
285.132	87.56
285.364	80.56
285.595	83.56
285.826	78.56
286.057	91.56
286.288	95.56
286.52	90.56
286.751	93.56
286.982	84.56
287.213	96.56
287.444	96.56
287.675	88.56
287.906	110.56
288.138	100.56
288.369	88.56
288.6	103.56
288.831	92.56
289.062	84.56
289.293	92.56
289.524	94.56
289.755	92.56
289.986	78.56
290.217	79.56
290.448	75.56
290.679	84.56
290.91	85.56
291.141	86.56
291.371	75.56
291.602	75.56
291.833	86.56
292.064	87.56
292.295	98.56
292.526	82.56
292.757	85.56
292.987	92.56
293.218	91.56
293.449	80.56
293.68	71.56
293.91	81.56
294.141	89.56
294.372	89.56
294.603	74.56
294.833	84.56
295.064	86.56
295.295	81.56
295.525	91.56
295.756	95.56
295.987	106.56
296.217	123.56
296.448	114.56
296.679	83.56
296.909	92.56
297.14	89.56
297.37	71.56
297.601	75.56
297.831	81.56
298.062	82.56
298.292	97.56
298.523	91.56
298.753	88.56
298.984	97.56
299.214	96.56
299.445	88.56
299.675	79.56
299.905	85.56
300.136	96.56
300.366	90.56
300.597	92.56
300.827	96.56
301.057	99.56
301.288	106.56
301.518	106.56
301.748	103.56
301.979	94.56
302.209	85.56
302.439	98.56
302.669	92.56
302.9	93.56
303.13	95.56
303.36	93.56
303.59	92.56
303.82	105.56
304.051	96.56
304.281	87.56
304.511	87.56
304.741	91.56
304.971	77.56
305.201	84.56
305.431	86.56
305.661	80.56
305.891	82.56
306.121	108.56
306.352	100.56
306.582	101.56
306.812	96.56
307.042	89.56
307.272	105.56
307.502	106.56
307.731	91.56
307.961	91.56
308.191	82.56
308.421	93.56
308.651	80.56
308.881	72.56
309.111	96.56
309.341	94.56
309.571	96.56
309.8	96.56
310.03	95.56
310.26	90.56
310.49	99.56
310.72	105.56
310.949	97.56
311.179	104.56
311.409	85.56
311.639	88.56
311.868	103.56
312.098	96.56
312.328	88.56
312.557	94.56
312.787	90.56
313.017	96.56
313.246	88.56
313.476	82.56
313.706	82.56
313.935	102.56
314.165	84.56
314.394	104.56
314.624	95.56
314.853	104.56
315.083	83.56
315.312	105.56
315.542	88.56
315.771	89.56
316.001	92.56
316.23	92.56
316.46	77.56
316.689	93.56
316.919	84.56
317.148	98.56
317.377	81.56
317.607	96.56
317.836	83.56
318.065	90.56
318.295	76.56
318.524	91.56
318.753	86.56
318.983	94.56
319.212	93.56
319.441	97.56
319.67	96.56
319.9	85.56
320.129	108.56
320.358	96.56
320.587	103.56
320.816	100.56
321.046	87.56
321.275	105.56
321.504	94.56
321.733	92.56
321.962	105.56
322.191	90.56
322.42	97.56
322.649	95.56
322.878	113.56
323.108	98.56
323.337	115.56
323.566	141.56
323.795	129.56
324.024	183.56
324.253	327.56
324.482	677.56
324.71	1297.56
324.939	1737.56
325.168	676.56
325.397	195.56
325.626	127.56
325.855	115.56
326.084	108.56
326.313	138.56
326.542	143.56
326.77	220.56
326.999	381.56
327.228	711.56
327.457	1315.56
327.686	1023.56
327.914	292.56
328.143	163.56
328.372	142.56
328.6	114.56
328.829	111.56
329.058	118.56
329.287	107.56
329.515	116.56
329.744	106.56
329.972	100.56
330.201	114.56
330.43	101.56
330.658	125.56
330.887	126.56
331.115	105.56
331.344	87.56
331.572	108.56
331.801	96.56
332.03	100.56
332.258	99.56
332.486	108.56
332.715	92.56
332.943	103.56
333.172	98.56
333.4	85.56
333.629	106.56
333.857	93.56
334.085	104.56
334.314	86.56
334.542	91.56
334.771	93.56
334.999	101.56
335.227	100.56
335.455	86.56
335.684	105.56
335.912	84.56
336.14	95.56
336.369	113.56
336.597	95.56
336.825	99.56
337.053	90.56
337.281	93.56
337.51	107.56
337.738	99.56
337.966	110.56
338.194	100.56
338.422	97.56
338.65	94.56
338.878	99.56
339.106	80.56
339.334	88.56
339.562	87.56
339.79	74.56
340.018	87.56
340.246	84.56
340.474	98.56
340.702	76.56
340.93	80.56
341.158	92.56
341.386	83.56
341.614	73.56
341.842	93.56
342.07	92.56
342.298	93.56
342.526	102.56
342.754	107.56
342.981	105.56
343.209	84.56
343.437	96.56
343.665	87.56
343.893	88.56
344.12	84.56
344.348	93.56
344.576	93.56
344.804	99.56
345.031	94.56
345.259	96.56
345.487	76.56
345.714	78.56
345.942	95.56
346.17	92.56
346.397	84.56
346.625	87.56
346.853	103.56
347.08	86.56
347.308	96.56
347.535	99.56
347.763	108.56
347.99	98.56
348.218	100.56
348.445	111.56
348.673	103.56
348.9	94.56
349.128	76.56
349.355	97.56
349.583	94.56
349.81	88.56
350.037	83.56
350.265	85.56
350.492	85.56
350.72	94.56
350.947	105.56
351.174	99.56
351.402	105.56
351.629	99.56
351.856	103.56
352.083	102.56
352.311	102.56
352.538	101.56
352.765	110.56
352.992	123.56
353.22	119.56
353.447	96.56
353.674	90.56
353.901	107.56
354.128	96.56
354.355	98.56
354.583	89.56
354.81	100.56
355.037	75.56
355.264	89.56
355.491	93.56
355.718	102.56
355.945	88.56
356.172	107.56
356.399	96.56
356.626	97.56
356.853	85.56
357.08	88.56
357.307	98.56
357.534	97.56
357.761	94.56
357.988	99.56
358.215	77.56
358.441	94.56
358.668	96.56
358.895	91.56
359.122	82.56
359.349	71.56
359.576	96.56
359.802	114.56
360.029	90.56
360.256	97.56
360.483	86.56
360.709	91.56
360.936	89.56
361.163	91.56
361.39	76.56
361.616	93.56
361.843	103.56
362.07	88.56
362.296	88.56
362.523	100.56
362.749	92.56
362.976	72.56
363.203	89.56
363.429	79.56
363.656	79.56
363.882	96.56
364.109	91.56
364.335	97.56
364.562	84.56
364.788	88.56
365.015	88.56
365.241	94.56
365.468	106.56
365.694	84.56
365.92	88.56
366.147	85.56
366.373	84.56
366.599	94.56
366.826	87.56
367.052	96.56
367.278	84.56
367.505	92.56
367.731	84.56
367.957	80.56
368.184	86.56
368.41	84.56
368.636	103.56
368.862	117.56
369.089	102.56
369.315	90.56
369.541	94.56
369.767	92.56
369.993	97.56
370.219	94.56
370.445	92.56
370.672	83.56
370.898	83.56
371.124	77.56
371.35	89.56
371.576	104.56
371.802	92.56
372.028	95.56
372.254	93.56
372.48	81.56
372.706	87.56
372.932	103.56
373.158	83.56
373.384	91.56
373.61	90.56
373.835	89.56
374.061	75.56
374.287	94.56
374.513	88.56
374.739	91.56
374.965	95.56
375.191	87.56
375.416	79.56
375.642	87.56
375.868	91.56
376.094	87.56
376.319	92.56
376.545	95.56
376.771	80.56
376.997	95.56
377.222	93.56
377.448	92.56
377.674	106.56
377.899	88.56
378.125	83.56
378.35	91.56
378.576	87.56
378.802	93.56
379.027	91.56
379.253	83.56
379.478	94.56
379.704	81.56
379.929	85.56
380.155	92.56
380.38	106.56
380.606	92.56
380.831	112.56
381.057	96.56
381.282	94.56
381.507	96.56
381.733	92.56
381.958	86.56
382.184	99.56
382.409	83.56
382.634	95.56
382.86	89.56
383.085	90.56
383.31	94.56
383.535	90.56
383.761	105.56
383.986	93.56
384.211	100.56
384.436	98.56
384.662	88.56
384.887	89.56
385.112	100.56
385.337	100.56
385.562	99.56
385.787	100.56
386.013	104.56
386.238	115.56
386.463	107.56
386.688	106.56
386.913	104.56
387.138	104.56
387.363	98.56
387.588	91.56
387.813	111.56
388.038	96.56
388.263	105.56
388.488	105.56
388.713	93.56
388.938	83.56
389.163	100.56
389.387	100.56
389.612	96.56
389.837	93.56
390.062	91.56
390.287	100.56
390.512	90.56
390.736	93.56
390.961	95.56
391.186	98.56
391.411	97.56
391.636	86.56
391.86	87.56
392.085	88.56
392.31	93.56
392.534	95.56
392.759	86.56
392.984	75.56
393.208	87.56
393.433	81.56
393.658	83.56
393.882	92.56
394.107	75.56
394.331	93.56
394.556	91.56
394.78	79.56
395.005	76.56
395.229	91.56
395.454	80.56
395.678	87.56
395.903	69.56
396.127	81.56
396.352	103.56
396.576	96.56
396.801	93.56
397.025	72.56
397.249	96.56
397.474	88.56
397.698	103.56
397.922	94.56
398.147	90.56
398.371	90.56
398.595	79.56
398.82	75.56
399.044	65.56
399.268	89.56
399.492	93.56
399.717	73.56
399.941	83.56
400.165	92.56
400.389	80.56
400.613	80.56
400.837	81.56
401.062	85.56
401.286	78.56
401.51	90.56
401.734	81.56
401.958	105.56
402.182	117.56
402.406	123.56
402.63	97.56
402.854	84.56
403.078	88.56
403.302	97.56
403.526	74.56
403.75	88.56
403.974	89.56
404.198	96.56
404.422	74.56
404.645	82.56
404.869	78.56
405.093	96.56
405.317	103.56
405.541	114.56
405.765	114.56
405.988	117.56
406.212	141.56
406.436	199.56
406.66	126.56
406.883	90.56
407.107	79.56
407.331	79.56
407.555	81.56
407.778	95.56
408.002	89.56
408.226	94.56
408.449	89.56
408.673	83.56
408.896	83.56
409.12	82.56
409.344	83.56
409.567	84.56
409.791	101.56
410.014	85.56
410.238	76.56
410.461	100.56
410.685	77.56
410.908	112.56
411.132	101.56
411.355	97.56
411.578	85.56
411.802	93.56
412.025	79.56
412.249	80.56
412.472	91.56
412.695	89.56
412.919	93.56
413.142	91.56
413.365	80.56
413.589	91.56
413.812	79.56
414.035	84.56
414.258	83.56
414.482	88.56
414.705	94.56
414.928	86.56
415.151	74.56
415.374	99.56
415.597	75.56
415.821	90.56
416.044	83.56
416.267	88.56
416.49	81.56
416.713	90.56
416.936	93.56
417.159	92.56
417.382	90.56
417.605	91.56
417.828	75.56
418.051	93.56
418.274	96.56
418.497	85.56
418.72	79.56
418.943	82.56
419.166	93.56
419.389	91.56
419.611	86.56
419.834	80.56
420.057	87.56
420.28	87.56
420.503	88.56
420.726	104.56
420.948	94.56
421.171	101.56
421.394	88.56
421.617	71.56
421.839	93.56
422.062	89.56
422.285	105.56
422.507	94.56
422.73	107.56
422.953	89.56
423.175	96.56
423.398	79.56
423.621	95.56
423.843	80.56
424.066	87.56
424.288	84.56
424.511	96.56
424.733	99.56
424.956	103.56
425.178	95.56
425.401	97.56
425.623	107.56
425.846	73.56
426.068	98.56
426.291	85.56
426.513	96.56
426.735	105.56
426.958	95.56
427.18	92.56
427.402	123.56
427.625	137.56
427.847	100.56
428.069	111.56
428.292	72.56
428.514	81.56
428.736	87.56
428.958	81.56
429.181	84.56
429.403	82.56
429.625	79.56
429.847	86.56
430.069	99.56
430.292	81.56
430.514	82.56
430.736	79.56
430.958	82.56
431.18	81.56
431.402	78.56
431.624	91.56
431.846	87.56
432.068	90.56
432.29	80.56
432.512	85.56
432.734	85.56
432.956	93.56
433.178	102.56
433.4	95.56
433.622	85.56
433.844	85.56
434.066	81.56
434.287	92.56
434.509	85.56
434.731	87.56
434.953	87.56
435.175	65.56
435.397	96.56
435.618	87.56
435.84	100.56
436.062	107.56
436.284	91.56
436.505	100.56
436.727	95.56
436.949	93.56
437.17	102.56
437.392	81.56
437.614	85.56
437.835	113.56
438.057	109.56
438.278	112.56
438.5	95.56
438.721	111.56
438.943	92.56
439.165	75.56
439.386	88.56
439.608	88.56
439.829	87.56
440.05	118.56
440.272	128.56
440.493	103.56
440.715	86.56
440.936	90.56
441.158	88.56
441.379	78.56
441.6	89.56
441.822	83.56
442.043	98.56
442.264	95.56
442.486	82.56
442.707	78.56
442.928	104.56
443.149	124.56
443.371	120.56
443.592	112.56
443.813	109.56
444.034	106.56
444.255	98.56
444.476	92.56
444.698	88.56
444.919	91.56
445.14	128.56
445.361	124.56
445.582	104.56
445.803	99.56
446.024	114.56
446.245	113.56
446.466	106.56
446.687	80.56
446.908	82.56
447.129	83.56
447.35	91.56
447.571	85.56
447.792	90.56
448.013	92.56
448.234	113.56
448.455	94.56
448.675	106.56
448.896	109.56
449.117	98.56
449.338	96.56
449.559	119.56
449.779	126.56
450	87.56
450.221	83.56
450.442	68.56
450.662	98.56
450.883	102.56
451.104	91.56
451.324	78.56
451.545	77.56
451.766	95.56
451.986	86.56
452.207	77.56
452.428	85.56
452.648	102.56
452.869	107.56
453.089	106.56
453.31	100.56
453.53	99.56
453.751	92.56
453.971	89.56
454.192	120.56
454.412	79.56
454.633	74.56
454.853	82.56
455.073	85.56
455.294	92.56
455.514	95.56
455.734	83.56
455.955	92.56
456.175	87.56
456.395	86.56
456.616	77.56
456.836	83.56
457.056	93.56
457.276	96.56
457.497	93.56
457.717	90.56
457.937	100.56
458.157	91.56
458.377	79.56
458.598	94.56
458.818	135.56
459.038	139.56
459.258	103.56
459.478	80.56
459.698	85.56
459.918	76.56
460.138	86.56
460.358	87.56
460.578	83.56
460.798	82.56
461.018	82.56
461.238	89.56
461.458	101.56
461.678	82.56
461.898	73.56
462.118	84.56
462.338	99.56
462.558	80.56
462.777	84.56
462.997	102.56
463.217	85.56
463.437	86.56
463.657	76.56
463.876	92.56
464.096	86.56
464.316	95.56
464.536	96.56
464.755	98.56
464.975	101.56
465.195	133.56
465.414	136.56
465.634	100.56
465.854	91.56
466.073	86.56
466.293	90.56
466.512	99.56
466.732	99.56
466.951	80.56
467.171	98.56
467.391	66.56
467.61	101.56
467.829	93.56
468.049	92.56
468.268	97.56
468.488	79.56
468.707	79.56
468.927	89.56
469.146	91.56
469.365	81.56
469.585	88.56
469.804	87.56
470.023	95.56
470.243	111.56
470.462	91.56
470.681	107.56
470.901	81.56
471.12	84.56
471.339	90.56
471.558	78.56
471.777	85.56
471.997	82.56
472.216	92.56
472.435	98.56
472.654	76.56
472.873	87.56
473.092	76.56
473.311	90.56
473.53	81.56
473.749	93.56
473.968	94.56
474.187	88.56
474.406	80.56
474.625	68.56
474.844	76.56
475.063	82.56
475.282	88.56
475.501	93.56
475.72	101.56
475.939	90.56
476.158	99.56
476.377	90.56
476.596	88.56
476.814	90.56
477.033	90.56
477.252	83.56
477.471	105.56
477.69	93.56
477.908	87.56
478.127	81.56
478.346	100.56
478.564	97.56
478.783	92.56
479.002	92.56
479.22	101.56
479.439	97.56
479.658	98.56
479.876	84.56
480.095	81.56
480.313	82.56
480.532	87.56
480.751	82.56
480.969	104.56
481.188	109.56
481.406	101.56
481.624	97.56
481.843	91.56
482.061	84.56
482.28	83.56
482.498	87.56
482.717	80.56
482.935	92.56
483.153	99.56
483.372	96.56
483.59	90.56
483.808	103.56
484.027	87.56
484.245	88.56
484.463	73.56
484.681	91.56
484.9	84.56
485.118	93.56
485.336	89.56
485.554	97.56
485.772	96.56
485.99	91.56
486.209	85.56
486.427	100.56
486.645	107.56
486.863	107.56
487.081	91.56
487.299	83.56
487.517	99.56
487.735	92.56
487.953	87.56
488.171	78.56
488.389	103.56
488.607	108.56
488.825	84.56
489.043	91.56
489.261	108.56
489.479	95.56
489.696	82.56
489.914	89.56
490.132	87.56
490.35	95.56
490.568	99.56
490.786	72.56
491.003	81.56
491.221	81.56
491.439	92.56
491.657	85.56
491.874	96.56
492.092	82.56
492.31	99.56
492.527	95.56
492.745	87.56
492.963	82.56
493.18	90.56
493.398	100.56
493.615	96.56
493.833	107.56
494.05	91.56
494.268	87.56
494.485	98.56
494.703	75.56
494.92	90.56
495.138	91.56
495.355	88.56
495.573	90.56
495.79	90.56
496.008	76.56
496.225	87.56
496.442	81.56
496.66	95.56
496.877	91.56
497.094	90.56
497.312	81.56
497.529	85.56
497.746	96.56
497.963	95.56
498.181	98.56
498.398	99.56
498.615	103.56
498.832	108.56
499.049	99.56
499.267	87.56
499.484	87.56
499.701	92.56
499.918	94.56
500.135	81.56
500.352	90.56
500.569	86.56
500.786	90.56
501.003	100.56
501.22	84.56
501.437	86.56
501.654	103.56
501.871	96.56
502.088	91.56
502.305	91.56
502.522	90.56
502.739	83.56
502.956	98.56
503.172	81.56
503.389	102.56
503.606	98.56
503.823	84.56
504.04	114.56
504.256	89.56
504.473	95.56
504.69	102.56
504.907	93.56
505.123	84.56
505.34	94.56
505.557	77.56
505.773	84.56
505.99	82.56
506.207	95.56
506.423	88.56
506.64	89.56
506.856	77.56
507.073	71.56
507.289	95.56
507.506	91.56
507.722	103.56
507.939	114.56
508.155	97.56
508.372	84.56
508.588	81.56
508.805	93.56
509.021	102.56
509.238	89.56
509.454	96.56
509.67	107.56
509.887	102.56
510.103	119.56
510.319	193.56
510.536	665.56
510.752	2065.56
510.968	576.56
511.184	143.56
511.401	83.56
511.617	91.56
511.833	88.56
512.049	96.56
512.265	80.56
512.481	88.56
512.698	96.56
512.914	100.56
513.13	89.56
513.346	92.56
513.562	82.56
513.778	101.56
513.994	95.56
514.21	104.56
514.426	90.56
514.642	135.56
514.858	122.56
515.074	151.56
515.29	375.56
515.506	1241.56
515.721	451.56
515.937	137.56
516.153	103.56
516.369	95.56
