Data from Uncirc_1993_H10_HRD10591_00022.txt Node
Date: Wed Jan 03 11:42:56 EST 2024
User: Yrep
Spectrometer: HR+D1059
Trigger mode: 1
Integration Time (sec): 1.000000E-1
Scans to average: 1
Electric dark correction enabled: true
Nonlinearity correction enabled: false
Boxcar width: 0
XAxis mode: Wavelengths
Number of Pixels in Spectrum: 2048
>>>>>Begin Spectral Data<<<<<
223.165	-26
223.4	-26
223.635	-26
223.869	-7
224.104	-19
224.338	-23
224.573	-24
224.808	-14
225.042	-2
225.277	-1
225.511	-9
225.746	-6
225.98	-4
226.215	9
226.449	21
226.683	28
226.918	37
227.152	40
227.387	21
227.621	46
227.856	52
228.09	38
228.324	39
228.559	52
228.793	60
229.027	60
229.262	61
229.496	76
229.73	78
229.964	88
230.199	85
230.433	78
230.667	74
230.901	90
231.136	85
231.37	88
231.604	84
231.838	71
232.072	84
232.306	83
232.541	83
232.775	89
233.009	66
233.243	84
233.477	77
233.711	70
233.945	74
234.179	82
234.413	83
234.647	96
234.881	72
235.115	67
235.349	75
235.583	79
235.817	72
236.051	81
236.285	79
236.519	68
236.753	91
236.987	84
237.221	82
237.455	69
237.689	79
237.922	68
238.156	67
238.39	64
238.624	85
238.858	70
239.091	64
239.325	62
239.559	74
239.793	69
240.027	83
240.26	68
240.494	89
240.728	77
240.961	59
241.195	91
241.429	80
241.662	72
241.896	76
242.13	84
242.363	66
242.597	81
242.83	77
243.064	82
243.298	71
243.531	85
243.765	71
243.998	75
244.232	71
244.465	76
244.699	84
244.932	75
245.166	66
245.399	82
245.633	78
245.866	81
246.099	71
246.333	75
246.566	83
246.8	75
247.033	78
247.266	69
247.5	80
247.733	77
247.966	72
248.2	81
248.433	73
248.666	65
248.899	78
249.133	87
249.366	89
249.599	99
249.832	76
250.066	72
250.299	69
250.532	75
250.765	89
250.998	75
251.231	72
251.465	69
251.698	77
251.931	71
252.164	64
252.397	86
252.63	73
252.863	82
253.096	60
253.329	80
253.562	64
253.795	75
254.028	87
254.261	73
254.494	85
254.727	82
254.96	74
255.193	82
255.426	87
255.659	81
255.892	89
256.124	77
256.357	78
256.59	72
256.823	80
257.056	84
257.289	78
257.521	81
257.754	59
257.987	83
258.22	79
258.452	66
258.685	75
258.918	81
259.151	72
259.383	85
259.616	73
259.849	82
260.081	86
260.314	86
260.547	72
260.779	75
261.012	87
261.244	77
261.477	85
261.71	78
261.942	97
262.175	94
262.407	96
262.64	95
262.872	77
263.105	77
263.337	73
263.57	80
263.802	99
264.035	87
264.267	55
264.499	83
264.732	83
264.964	90
265.197	100
265.429	83
265.661	83
265.894	83
266.126	73
266.358	65
266.591	70
266.823	75
267.055	85
267.287	72
267.52	79
267.752	95
267.984	91
268.216	80
268.448	68
268.681	76
268.913	77
269.145	77
269.377	84
269.609	85
269.841	73
270.073	76
270.306	77
270.538	79
270.77	79
271.002	82
271.234	86
271.466	86
271.698	80
271.93	87
272.162	75
272.394	62
272.626	88
272.858	81
273.09	87
273.322	80
273.553	71
273.785	63
274.017	75
274.249	92
274.481	84
274.713	58
274.945	96
275.176	85
275.408	89
275.64	76
275.872	73
276.104	91
276.335	74
276.567	76
276.799	101
277.031	81
277.262	84
277.494	80
277.726	76
277.957	82
278.189	85
278.421	98
278.652	82
278.884	84
279.115	67
279.347	89
279.579	95
279.81	91
280.042	89
280.273	98
280.505	79
280.736	84
280.968	73
281.199	74
281.431	91
281.662	79
281.894	84
282.125	81
282.356	101
282.588	117
282.819	104
283.051	81
283.282	83
283.513	74
283.745	90
283.976	82
284.207	85
284.439	73
284.67	69
284.901	78
285.132	81
285.364	73
285.595	91
285.826	77
286.057	98
286.288	75
286.52	99
286.751	74
286.982	80
287.213	81
287.444	93
287.675	81
287.906	88
288.138	85
288.369	104
288.6	88
288.831	93
289.062	79
289.293	81
289.524	72
289.755	77
289.986	89
290.217	94
290.448	83
290.679	80
290.91	83
291.141	79
291.371	82
291.602	82
291.833	93
292.064	93
292.295	83
292.526	85
292.757	90
292.987	94
293.218	101
293.449	94
293.68	88
293.91	73
294.141	87
294.372	82
294.603	83
294.833	85
295.064	92
295.295	73
295.525	100
295.756	93
295.987	109
296.217	120
296.448	103
296.679	72
296.909	85
297.14	88
297.37	91
297.601	79
297.831	105
298.062	91
298.292	82
298.523	89
298.753	91
298.984	76
299.214	83
299.445	85
299.675	82
299.905	85
300.136	97
300.366	95
300.597	87
300.827	95
301.057	90
301.288	95
301.518	90
301.748	102
301.979	106
302.209	80
302.439	80
302.669	101
302.9	91
303.13	92
303.36	97
303.59	101
303.82	91
304.051	84
304.281	84
304.511	84
304.741	87
304.971	92
305.201	98
305.431	79
305.661	83
305.891	87
306.121	93
306.352	109
306.582	96
306.812	95
307.042	73
307.272	88
307.502	89
307.731	95
307.961	87
308.191	84
308.421	82
308.651	89
308.881	98
309.111	95
309.341	92
309.571	88
309.8	82
310.03	93
310.26	92
310.49	84
310.72	81
310.949	97
311.179	87
311.409	90
311.639	99
311.868	91
312.098	92
312.328	84
312.557	93
312.787	93
313.017	88
313.246	95
313.476	93
313.706	91
313.935	92
314.165	70
314.394	100
314.624	95
314.853	93
315.083	95
315.312	82
315.542	96
315.771	88
316.001	92
316.23	83
316.46	88
316.689	101
316.919	83
317.148	89
317.377	97
317.607	95
317.836	91
318.065	92
318.295	84
318.524	77
318.753	88
318.983	104
319.212	82
319.441	98
319.67	92
319.9	84
320.129	93
320.358	94
320.587	94
320.816	106
321.046	93
321.275	78
321.504	93
321.733	91
321.962	89
322.191	90
322.42	100
322.649	102
322.878	111
323.108	95
323.337	107
323.566	119
323.795	130
324.024	181
324.253	300
324.482	601
324.71	1152
324.939	1533
325.168	583
325.397	189
325.626	133
325.855	101
326.084	107
326.313	120
326.542	123
326.77	208
326.999	357
327.228	661
327.457	1220
327.686	949
327.914	272
328.143	167
328.372	119
328.6	103
328.829	100
329.058	92
329.287	106
329.515	104
329.744	101
329.972	94
330.201	94
330.43	111
330.658	108
330.887	113
331.115	99
331.344	88
331.572	93
331.801	116
332.03	100
332.258	93
332.486	85
332.715	87
332.943	81
333.172	104
333.4	94
333.629	87
333.857	105
334.085	109
334.314	88
334.542	98
334.771	96
334.999	87
335.227	90
335.455	98
335.684	103
335.912	81
336.14	101
336.369	99
336.597	89
336.825	77
337.053	93
337.281	90
337.51	94
337.738	84
337.966	99
338.194	92
338.422	96
338.65	97
338.878	88
339.106	80
339.334	106
339.562	91
339.79	102
340.018	80
340.246	95
340.474	90
340.702	89
340.93	91
341.158	87
341.386	92
341.614	106
341.842	75
342.07	85
342.298	92
342.526	91
342.754	75
342.981	77
343.209	82
343.437	83
343.665	99
343.893	107
344.12	82
344.348	93
344.576	93
344.804	107
345.031	88
345.259	95
345.487	87
345.714	97
345.942	93
346.17	87
346.397	106
346.625	94
346.853	68
347.08	79
347.308	88
347.535	99
347.763	91
347.99	91
348.218	106
348.445	105
348.673	98
348.9	95
349.128	104
349.355	94
349.583	100
349.81	85
350.037	95
350.265	100
350.492	103
350.72	91
350.947	95
351.174	91
351.402	107
351.629	105
351.856	94
352.083	114
352.311	98
352.538	113
352.765	103
352.992	101
353.22	116
353.447	112
353.674	108
353.901	96
354.128	93
354.355	92
354.583	109
354.81	96
355.037	80
355.264	73
355.491	95
355.718	101
355.945	97
356.172	93
356.399	104
356.626	108
356.853	88
357.08	79
357.307	82
357.534	92
357.761	93
357.988	94
358.215	89
358.441	90
358.668	87
358.895	97
359.122	84
359.349	85
359.576	85
359.802	95
360.029	92
360.256	101
360.483	75
360.709	74
360.936	89
361.163	96
361.39	95
361.616	90
361.843	78
362.07	79
362.296	105
362.523	87
362.749	92
362.976	84
363.203	103
363.429	85
363.656	99
363.882	85
364.109	100
364.335	98
364.562	87
364.788	76
365.015	84
365.241	93
365.468	99
365.694	88
365.92	98
366.147	90
366.373	86
366.599	80
366.826	83
367.052	88
367.278	83
367.505	104
367.731	85
367.957	93
368.184	86
368.41	106
368.636	99
368.862	104
369.089	92
369.315	101
369.541	89
369.767	92
369.993	89
370.219	91
370.445	83
370.672	89
370.898	75
371.124	81
371.35	111
371.576	94
371.802	87
372.028	105
372.254	99
372.48	94
372.706	96
372.932	100
373.158	80
373.384	90
373.61	81
373.835	88
374.061	89
374.287	83
374.513	91
374.739	76
374.965	82
375.191	93
375.416	96
375.642	91
375.868	89
376.094	81
376.319	96
376.545	92
376.771	86
376.997	100
377.222	88
377.448	81
377.674	84
377.899	75
378.125	98
378.35	80
378.576	88
378.802	89
379.027	88
379.253	76
379.478	92
379.704	92
379.929	100
380.155	94
380.38	91
380.606	89
380.831	97
381.057	106
381.282	97
381.507	103
381.733	105
381.958	91
382.184	84
382.409	87
382.634	93
382.86	97
383.085	96
383.31	107
383.535	105
383.761	100
383.986	106
384.211	90
384.436	88
384.662	98
384.887	112
385.112	95
385.337	100
385.562	106
385.787	114
386.013	96
386.238	102
386.463	107
386.688	98
386.913	111
387.138	115
387.363	100
387.588	111
387.813	100
388.038	102
388.263	110
388.488	116
388.713	97
388.938	97
389.163	97
389.387	87
389.612	89
389.837	88
390.062	93
390.287	87
390.512	75
390.736	99
390.961	96
391.186	89
391.411	110
391.636	92
391.86	83
392.085	77
392.31	76
392.534	90
392.759	89
392.984	82
393.208	91
393.433	76
393.658	90
393.882	85
394.107	89
394.331	80
394.556	85
394.78	81
395.005	88
395.229	90
395.454	79
395.678	83
395.903	79
396.127	84
396.352	73
396.576	97
396.801	93
397.025	91
397.249	97
397.474	80
397.698	79
397.922	92
398.147	79
398.371	74
398.595	80
398.82	84
399.044	75
399.268	76
399.492	95
399.717	89
399.941	89
400.165	96
400.389	90
400.613	84
400.837	92
401.062	89
401.286	93
401.51	97
401.734	97
401.958	87
402.182	130
402.406	121
402.63	105
402.854	102
403.078	94
403.302	87
403.526	92
403.75	80
403.974	83
404.198	80
404.422	89
404.645	93
404.869	100
405.093	91
405.317	91
405.541	90
405.765	104
405.988	97
406.212	128
406.436	175
406.66	108
406.883	104
407.107	99
407.331	89
407.555	94
407.778	113
408.002	76
408.226	93
408.449	69
408.673	87
408.896	87
409.12	96
409.344	97
409.567	100
409.791	89
410.014	79
410.238	86
410.461	106
410.685	100
410.908	99
411.132	108
411.355	92
411.578	103
411.802	97
412.025	98
412.249	83
412.472	91
412.695	84
412.919	81
413.142	85
413.365	93
413.589	91
413.812	101
414.035	97
414.258	82
414.482	90
414.705	95
414.928	98
415.151	91
415.374	87
415.597	93
415.821	96
416.044	75
416.267	93
416.49	92
416.713	89
416.936	93
417.159	89
417.382	92
417.605	88
417.828	95
418.051	87
418.274	77
418.497	86
418.72	79
418.943	90
419.166	95
419.389	70
419.611	81
419.834	82
420.057	88
420.28	95
420.503	89
420.726	86
420.948	89
421.171	89
421.394	77
421.617	94
421.839	105
422.062	95
422.285	93
422.507	88
422.73	107
422.953	91
423.175	91
423.398	78
423.621	87
423.843	86
424.066	92
424.288	83
424.511	93
424.733	103
424.956	104
425.178	88
425.401	100
425.623	95
425.846	87
426.068	83
426.291	90
426.513	74
426.735	82
426.958	94
427.18	92
427.402	120
427.625	113
427.847	111
428.069	82
428.292	79
428.514	89
428.736	93
428.958	82
429.181	90
429.403	90
429.625	89
429.847	92
430.069	98
430.292	90
430.514	85
430.736	83
430.958	99
431.18	85
431.402	81
431.624	83
431.846	81
432.068	83
432.29	86
432.512	84
432.734	107
432.956	88
433.178	105
433.4	77
433.622	98
433.844	81
434.066	85
434.287	81
434.509	93
434.731	87
434.953	90
435.175	95
435.397	90
435.618	94
435.84	91
436.062	108
436.284	103
436.505	98
436.727	99
436.949	95
437.17	81
437.392	74
437.614	87
437.835	100
438.057	100
438.278	111
438.5	92
438.721	102
438.943	83
439.165	83
439.386	80
439.608	89
439.829	87
440.05	109
440.272	119
440.493	91
440.715	97
440.936	97
441.158	82
441.379	77
441.6	84
441.822	91
442.043	90
442.264	100
442.486	96
442.707	90
442.928	90
443.149	100
443.371	116
443.592	103
443.813	88
444.034	91
444.255	99
444.476	76
444.698	77
444.919	88
445.14	128
445.361	123
445.582	92
445.803	115
446.024	114
446.245	114
446.466	124
446.687	82
446.908	95
447.129	76
447.35	103
447.571	91
447.792	90
448.013	95
448.234	111
448.455	109
448.675	95
448.896	91
449.117	86
449.338	88
449.559	111
449.779	107
450	90
450.221	83
450.442	80
450.662	92
450.883	107
451.104	97
451.324	97
451.545	91
451.766	76
451.986	86
452.207	81
452.428	81
452.648	93
452.869	87
453.089	101
453.31	97
453.53	84
453.751	99
453.971	98
454.192	89
454.412	83
454.633	87
454.853	99
455.073	92
455.294	83
455.514	89
455.734	87
455.955	88
456.175	75
456.395	77
456.616	85
456.836	74
457.056	86
457.276	83
457.497	86
457.717	85
457.937	84
458.157	92
458.377	93
458.598	96
458.818	116
459.038	132
459.258	97
459.478	90
459.698	71
459.918	79
460.138	92
460.358	76
460.578	91
460.798	79
461.018	79
461.238	72
461.458	77
461.678	105
461.898	95
462.118	67
462.338	88
462.558	79
462.777	88
462.997	89
463.217	84
463.437	85
463.657	93
463.876	95
464.096	80
464.316	93
464.536	99
464.755	88
464.975	96
465.195	137
465.414	119
465.634	110
465.854	87
466.073	96
466.293	82
466.512	78
466.732	75
466.951	76
467.171	93
467.391	98
467.61	93
467.829	98
468.049	79
468.268	80
468.488	82
468.707	68
468.927	86
469.146	75
469.365	89
469.585	92
469.804	90
470.023	100
470.243	95
470.462	75
470.681	90
470.901	99
471.12	96
471.339	88
471.558	75
471.777	75
471.997	90
472.216	91
472.435	101
472.654	86
472.873	94
473.092	83
473.311	91
473.53	89
473.749	94
473.968	92
474.187	92
474.406	86
474.625	88
474.844	76
475.063	83
475.282	77
475.501	83
475.72	84
475.939	83
476.158	95
476.377	69
476.596	80
476.814	89
477.033	93
477.252	95
477.471	80
477.69	87
477.908	98
478.127	95
478.346	77
478.564	72
478.783	95
479.002	97
479.22	99
479.439	88
479.658	99
479.876	81
480.095	90
480.313	90
480.532	88
480.751	95
480.969	87
481.188	95
481.406	97
481.624	93
481.843	78
482.061	87
482.28	89
482.498	81
482.717	81
482.935	93
483.153	80
483.372	93
483.59	81
483.808	94
484.027	93
484.245	83
484.463	88
484.681	93
484.9	83
485.118	89
485.336	95
485.554	95
485.772	96
485.99	94
486.209	97
486.427	100
486.645	109
486.863	99
487.081	107
487.299	101
487.517	90
487.735	90
487.953	93
488.171	96
488.389	97
488.607	92
488.825	86
489.043	88
489.261	95
489.479	97
489.696	89
489.914	76
490.132	86
490.35	88
490.568	78
490.786	87
491.003	77
491.221	87
491.439	94
491.657	81
491.874	84
492.092	89
492.31	91
492.527	104
492.745	82
492.963	87
493.18	87
493.398	98
493.615	93
493.833	96
494.05	87
494.268	85
494.485	75
494.703	91
494.92	90
495.138	86
495.355	89
495.573	84
495.79	87
496.008	86
496.225	95
496.442	88
496.66	83
496.877	74
497.094	94
497.312	82
497.529	96
497.746	91
497.963	86
498.181	89
498.398	88
498.615	97
498.832	100
499.049	74
499.267	94
499.484	88
499.701	98
499.918	87
500.135	99
500.352	100
500.569	92
500.786	89
501.003	88
501.22	90
501.437	99
501.654	95
501.871	104
502.088	97
502.305	95
502.522	90
502.739	91
502.956	67
503.172	85
503.389	102
503.606	95
503.823	95
504.04	85
504.256	89
504.473	97
504.69	91
504.907	115
505.123	89
505.34	95
505.557	98
505.773	93
505.99	84
506.207	96
506.423	60
506.64	89
506.856	91
507.073	110
507.289	85
507.506	78
507.722	104
507.939	105
508.155	85
508.372	79
508.588	89
508.805	83
509.021	94
509.238	101
509.454	96
509.67	94
509.887	108
510.103	114
510.319	188
510.536	596
510.752	1866
510.968	521
511.184	132
511.401	101
511.617	106
511.833	88
512.049	71
512.265	79
512.481	98
512.698	66
512.914	83
513.13	90
513.346	99
513.562	99
513.778	92
513.994	97
514.21	99
514.426	113
514.642	121
514.858	128
515.074	140
515.29	335
515.506	1095
515.721	407
515.937	125
516.153	97
516.369	93
516.585	91
516.801	91
517.016	82
517.232	89
517.448	91
517.664	90
517.879	93
518.095	77
518.311	87
518.527	77
518.742	90
518.958	96
519.173	98
519.389	89
519.605	82
519.82	94
520.036	99
520.251	101
520.467	100
520.682	108
520.898	93
521.113	92
521.329	112
521.544	157
521.76	425
521.975	1730
522.19	1071
522.406	231
522.621	107
522.836	98
523.052	100
523.267	94
523.482	82
523.698	95
523.913	99
524.128	92
524.343	83
524.559	75
524.774	84
524.989	98
525.204	99
525.419	89
525.634	108
525.849	91
526.064	87
526.28	74
526.495	88
526.71	82
526.925	84
527.14	87
527.355	80
527.57	82
527.785	84
527.999	92
528.214	89
528.429	89
528.644	86
528.859	95
529.074	88
529.289	104
529.503	149
529.718	89
529.933	90
530.148	82
530.363	90
530.577	91
530.792	91
531.007	85
531.221	83
531.436	72
531.651	96
531.865	78
532.08	94
532.295	107
532.509	95
532.724	81
532.938	91
533.153	91
533.367	90
533.582	100
533.796	90
534.011	80
534.225	87
534.44	83
534.654	94
534.868	83
535.083	93
535.297	102
535.511	95
535.726	110
535.94	88
536.154	98
536.369	105
536.583	73
536.797	92
537.011	90
537.225	84
537.44	88
537.654	106
537.868	101
538.082	100
538.296	85
538.51	89
538.724	91
538.938	90
539.153	82
539.367	85
539.581	82
539.795	77
540.009	73
540.222	91
540.436	87
540.65	78
540.864	83
541.078	78
541.292	92
541.506	91
541.72	77
541.934	99
542.147	67
542.361	91
542.575	84
542.789	84
543.002	78
543.216	77
543.43	91
543.644	99
543.857	88
544.071	81
544.285	78
544.498	79
544.712	92
544.925	87
545.139	87
545.352	92
545.566	86
545.779	86
545.993	92
546.206	87
546.42	101
546.633	83
546.847	79
547.06	100
547.274	80
547.487	91
547.7	80
547.914	89
548.127	84
548.34	81
548.554	104
548.767	93
548.98	93
549.193	76
549.407	80
549.62	85
549.833	81
550.046	91
550.259	81
550.473	86
550.686	91
550.899	82
551.112	92
551.325	75
551.538	85
551.751	73
551.964	87
552.177	77
552.39	98
552.603	68
552.816	91
553.029	85
553.242	86
553.455	88
553.667	90
553.88	101
554.093	91
554.306	89
554.519	90
554.732	96
554.944	77
555.157	73
555.37	66
555.583	75
555.795	94
556.008	88
556.221	84
556.433	91
556.646	78
556.859	95
557.071	92
557.284	97
557.496	83
557.709	81
557.921	90
558.134	79
558.346	91
558.559	88
558.771	89
558.984	74
559.196	73
559.409	107
559.621	88
559.833	79
560.046	76
560.258	90
560.47	91
560.683	81
560.895	83
561.107	73
561.32	104
561.532	94
561.744	81
561.956	87
562.168	113
562.381	81
562.593	87
562.805	86
563.017	103
563.229	80
563.441	79
563.653	88
563.865	92
564.077	83
564.289	66
564.501	68
564.713	90
564.925	86
565.137	93
565.349	91
565.561	85
565.773	100
565.985	79
566.197	83
566.408	70
566.62	81
566.832	83
567.044	84
567.255	94
567.467	101
567.679	79
567.891	84
568.102	87
568.314	87
568.526	67
568.737	94
568.949	87
569.161	87
569.372	68
569.584	92
569.795	84
570.007	109
570.218	208
570.43	127
570.641	83
570.853	95
571.064	99
571.276	88
571.487	85
571.698	76
571.91	101
572.121	85
572.333	78
572.544	72
572.755	83
572.966	89
573.178	88
573.389	91
573.6	81
573.811	88
574.023	73
574.234	81
574.445	96
574.656	84
574.867	83
575.078	93
575.289	87
575.501	84
575.712	89
575.923	79
576.134	84
576.345	81
576.556	84
576.767	84
576.978	107
577.188	86
577.399	89
577.61	106
577.821	96
578.032	93
578.243	233
578.454	616
578.665	191
578.875	93
579.086	89
579.297	59
579.508	94
579.718	66
579.929	93
580.14	88
580.35	89
580.561	87
580.772	83
580.982	89
581.193	78
581.403	82
581.614	87
581.825	77
582.035	60
582.246	80
582.456	99
582.667	84
582.877	89
583.087	55
583.298	93
583.508	77
583.719	84
583.929	83
584.139	75
584.35	107
584.56	89
584.77	72
584.981	88
585.191	75
585.401	95
585.611	89
585.821	82
586.032	83
586.242	88
586.452	97
