Data from Uncirc_1993_H10_HRD10591_00036.txt Node
Date: Wed Jan 03 11:42:59 EST 2024
User: Yrep
Spectrometer: HR+D1059
Trigger mode: 1
Integration Time (sec): 1.000000E-1
Scans to average: 1
Electric dark correction enabled: true
Nonlinearity correction enabled: false
Boxcar width: 0
XAxis mode: Wavelengths
Number of Pixels in Spectrum: 2048
>>>>>Begin Spectral Data<<<<<
223.165	-19.19
223.4	-19.19
223.635	-19.19
223.869	-24.19
224.104	-25.19
224.338	-24.19
224.573	-10.19
224.808	-14.19
225.042	-1.19
225.277	-16.19
225.511	-3.19
225.746	2.81
225.98	18.81
226.215	18.81
226.449	24.81
226.683	9.81
226.918	26.81
227.152	35.81
227.387	38.81
227.621	46.81
227.856	57.81
228.09	45.81
228.324	65.81
228.559	59.81
228.793	52.81
229.027	73.81
229.262	75.81
229.496	72.81
229.73	77.81
229.964	78.81
230.199	65.81
230.433	83.81
230.667	80.81
230.901	81.81
231.136	81.81
231.37	81.81
231.604	91.81
231.838	90.81
232.072	76.81
232.306	67.81
232.541	73.81
232.775	88.81
233.009	79.81
233.243	76.81
233.477	79.81
233.711	85.81
233.945	73.81
234.179	73.81
234.413	89.81
234.647	65.81
234.881	87.81
235.115	96.81
235.349	75.81
235.583	75.81
235.817	73.81
236.051	86.81
236.285	67.81
236.519	76.81
236.753	75.81
236.987	75.81
237.221	80.81
237.455	91.81
237.689	95.81
237.922	67.81
238.156	76.81
238.39	73.81
238.624	88.81
238.858	85.81
239.091	64.81
239.325	62.81
239.559	70.81
239.793	84.81
240.027	75.81
240.26	94.81
240.494	73.81
240.728	83.81
240.961	82.81
241.195	74.81
241.429	88.81
241.662	87.81
241.896	67.81
242.13	70.81
242.363	89.81
242.597	78.81
242.83	69.81
243.064	77.81
243.298	80.81
243.531	76.81
243.765	87.81
243.998	81.81
244.232	88.81
244.465	80.81
244.699	84.81
244.932	70.81
245.166	78.81
245.399	84.81
245.633	76.81
245.866	85.81
246.099	79.81
246.333	78.81
246.566	89.81
246.8	83.81
247.033	64.81
247.266	81.81
247.5	91.81
247.733	75.81
247.966	94.81
248.2	77.81
248.433	74.81
248.666	73.81
248.899	91.81
249.133	72.81
249.366	90.81
249.599	94.81
249.832	92.81
250.066	102.81
250.299	81.81
250.532	69.81
250.765	85.81
250.998	77.81
251.231	73.81
251.465	64.81
251.698	87.81
251.931	79.81
252.164	78.81
252.397	69.81
252.63	78.81
252.863	88.81
253.096	82.81
253.329	77.81
253.562	79.81
253.795	90.81
254.028	83.81
254.261	83.81
254.494	91.81
254.727	84.81
254.96	89.81
255.193	76.81
255.426	100.81
255.659	81.81
255.892	95.81
256.124	90.81
256.357	76.81
256.59	97.81
256.823	79.81
257.056	73.81
257.289	76.81
257.521	60.81
257.754	76.81
257.987	93.81
258.22	75.81
258.452	92.81
258.685	87.81
258.918	70.81
259.151	85.81
259.383	87.81
259.616	80.81
259.849	86.81
260.081	78.81
260.314	79.81
260.547	75.81
260.779	91.81
261.012	92.81
261.244	99.81
261.477	86.81
261.71	106.81
261.942	114.81
262.175	102.81
262.407	97.81
262.64	84.81
262.872	86.81
263.105	69.81
263.337	91.81
263.57	98.81
263.802	77.81
264.035	81.81
264.267	78.81
264.499	77.81
264.732	71.81
264.964	89.81
265.197	75.81
265.429	78.81
265.661	90.81
265.894	94.81
266.126	87.81
266.358	75.81
266.591	87.81
266.823	93.81
267.055	68.81
267.287	80.81
267.52	74.81
267.752	93.81
267.984	100.81
268.216	82.81
268.448	94.81
268.681	93.81
268.913	87.81
269.145	93.81
269.377	87.81
269.609	86.81
269.841	78.81
270.073	73.81
270.306	103.81
270.538	83.81
270.77	83.81
271.002	69.81
271.234	83.81
271.466	88.81
271.698	82.81
271.93	83.81
272.162	81.81
272.394	83.81
272.626	84.81
272.858	86.81
273.09	91.81
273.322	85.81
273.553	76.81
273.785	85.81
274.017	91.81
274.249	82.81
274.481	101.81
274.713	85.81
274.945	69.81
275.176	84.81
275.408	81.81
275.64	82.81
275.872	95.81
276.104	100.81
276.335	87.81
276.567	86.81
276.799	112.81
277.031	107.81
277.262	88.81
277.494	93.81
277.726	79.81
277.957	74.81
278.189	79.81
278.421	94.81
278.652	91.81
278.884	78.81
279.115	99.81
279.347	86.81
279.579	84.81
279.81	82.81
280.042	89.81
280.273	86.81
280.505	96.81
280.736	89.81
280.968	86.81
281.199	92.81
281.431	81.81
281.662	100.81
281.894	86.81
282.125	95.81
282.356	117.81
282.588	131.81
282.819	109.81
283.051	86.81
283.282	93.81
283.513	86.81
283.745	91.81
283.976	86.81
284.207	80.81
284.439	85.81
284.67	85.81
284.901	92.81
285.132	96.81
285.364	92.81
285.595	91.81
285.826	76.81
286.057	94.81
286.288	106.81
286.52	86.81
286.751	77.81
286.982	90.81
287.213	92.81
287.444	90.81
287.675	92.81
287.906	88.81
288.138	83.81
288.369	98.81
288.6	94.81
288.831	90.81
289.062	82.81
289.293	86.81
289.524	96.81
289.755	79.81
289.986	89.81
290.217	75.81
290.448	88.81
290.679	80.81
290.91	85.81
291.141	80.81
291.371	92.81
291.602	79.81
291.833	94.81
292.064	89.81
292.295	97.81
292.526	103.81
292.757	79.81
292.987	84.81
293.218	81.81
293.449	104.81
293.68	83.81
293.91	100.81
294.141	93.81
294.372	81.81
294.603	92.81
294.833	95.81
295.064	91.81
295.295	86.81
295.525	85.81
295.756	103.81
295.987	102.81
296.217	134.81
296.448	122.81
296.679	97.81
296.909	102.81
297.14	104.81
297.37	99.81
297.601	88.81
297.831	91.81
298.062	89.81
298.292	110.81
298.523	107.81
298.753	98.81
298.984	92.81
299.214	87.81
299.445	86.81
299.675	90.81
299.905	89.81
300.136	106.81
300.366	97.81
300.597	80.81
300.827	89.81
301.057	92.81
301.288	91.81
301.518	99.81
301.748	89.81
301.979	90.81
302.209	101.81
302.439	98.81
302.669	82.81
302.9	85.81
303.13	86.81
303.36	82.81
303.59	93.81
303.82	95.81
304.051	107.81
304.281	89.81
304.511	99.81
304.741	79.81
304.971	86.81
305.201	91.81
305.431	102.81
305.661	79.81
305.891	88.81
306.121	107.81
306.352	87.81
306.582	105.81
306.812	97.81
307.042	87.81
307.272	90.81
307.502	84.81
307.731	94.81
307.961	84.81
308.191	100.81
308.421	84.81
308.651	102.81
308.881	97.81
309.111	90.81
309.341	87.81
309.571	103.81
309.8	88.81
310.03	95.81
310.26	91.81
310.49	102.81
310.72	111.81
310.949	93.81
311.179	97.81
311.409	90.81
311.639	107.81
311.868	101.81
312.098	96.81
312.328	115.81
312.557	99.81
312.787	102.81
313.017	94.81
313.246	76.81
313.476	93.81
313.706	91.81
313.935	102.81
314.165	104.81
314.394	99.81
314.624	87.81
314.853	100.81
315.083	94.81
315.312	90.81
315.542	90.81
315.771	100.81
316.001	89.81
316.23	98.81
316.46	77.81
316.689	101.81
316.919	92.81
317.148	85.81
317.377	88.81
317.607	96.81
317.836	105.81
318.065	86.81
318.295	79.81
318.524	96.81
318.753	73.81
318.983	89.81
319.212	96.81
319.441	99.81
319.67	107.81
319.9	94.81
320.129	89.81
320.358	110.81
320.587	99.81
320.816	99.81
321.046	92.81
321.275	89.81
321.504	86.81
321.733	90.81
321.962	110.81
322.191	88.81
322.42	106.81
322.649	106.81
322.878	105.81
323.108	111.81
323.337	111.81
323.566	132.81
323.795	141.81
324.024	198.81
324.253	357.81
324.482	729.81
324.71	1450.81
324.939	1887.81
325.168	719.81
325.397	222.81
325.626	143.81
325.855	129.81
326.084	130.81
326.313	125.81
326.542	139.81
326.77	233.81
326.999	420.81
327.228	808.81
327.457	1485.81
327.686	1145.81
327.914	331.81
328.143	177.81
328.372	130.81
328.6	131.81
328.829	104.81
329.058	129.81
329.287	128.81
329.515	98.81
329.744	98.81
329.972	91.81
330.201	96.81
330.43	117.81
330.658	111.81
330.887	131.81
331.115	105.81
331.344	103.81
331.572	97.81
331.801	93.81
332.03	93.81
332.258	91.81
332.486	105.81
332.715	101.81
332.943	101.81
333.172	106.81
333.4	105.81
333.629	98.81
333.857	103.81
334.085	103.81
334.314	112.81
334.542	108.81
334.771	98.81
334.999	85.81
335.227	97.81
335.455	102.81
335.684	94.81
335.912	95.81
336.14	87.81
336.369	101.81
336.597	96.81
336.825	101.81
337.053	93.81
337.281	82.81
337.51	93.81
337.738	98.81
337.966	97.81
338.194	88.81
338.422	78.81
338.65	85.81
338.878	82.81
339.106	96.81
339.334	98.81
339.562	91.81
339.79	92.81
340.018	81.81
340.246	86.81
340.474	90.81
340.702	85.81
340.93	86.81
341.158	101.81
341.386	97.81
341.614	88.81
341.842	95.81
342.07	85.81
342.298	71.81
342.526	88.81
342.754	91.81
342.981	85.81
343.209	88.81
343.437	98.81
343.665	81.81
343.893	95.81
344.12	95.81
344.348	91.81
344.576	94.81
344.804	95.81
345.031	87.81
345.259	91.81
345.487	104.81
345.714	90.81
345.942	82.81
346.17	86.81
346.397	80.81
346.625	95.81
346.853	90.81
347.08	85.81
347.308	93.81
347.535	92.81
347.763	85.81
347.99	83.81
348.218	88.81
348.445	105.81
348.673	105.81
348.9	97.81
349.128	105.81
349.355	106.81
349.583	83.81
349.81	94.81
350.037	83.81
350.265	94.81
350.492	91.81
350.72	97.81
350.947	106.81
351.174	112.81
351.402	117.81
351.629	105.81
351.856	99.81
352.083	85.81
352.311	111.81
352.538	105.81
352.765	122.81
352.992	99.81
353.22	109.81
353.447	98.81
353.674	97.81
353.901	102.81
354.128	107.81
354.355	106.81
354.583	106.81
354.81	93.81
355.037	102.81
355.264	100.81
355.491	101.81
355.718	86.81
355.945	108.81
356.172	94.81
356.399	101.81
356.626	108.81
356.853	99.81
357.08	99.81
357.307	93.81
357.534	75.81
357.761	98.81
357.988	86.81
358.215	97.81
358.441	86.81
358.668	87.81
358.895	101.81
359.122	98.81
359.349	87.81
359.576	84.81
359.802	95.81
360.029	118.81
360.256	100.81
360.483	110.81
360.709	103.81
360.936	100.81
361.163	82.81
361.39	86.81
361.616	83.81
361.843	93.81
362.07	82.81
362.296	98.81
362.523	106.81
362.749	91.81
362.976	82.81
363.203	106.81
363.429	89.81
363.656	87.81
363.882	94.81
364.109	106.81
364.335	89.81
364.562	104.81
364.788	80.81
365.015	92.81
365.241	86.81
365.468	121.81
365.694	101.81
365.92	91.81
366.147	107.81
366.373	92.81
366.599	90.81
366.826	96.81
367.052	80.81
367.278	97.81
367.505	97.81
367.731	78.81
367.957	96.81
368.184	111.81
368.41	119.81
368.636	104.81
368.862	104.81
369.089	103.81
369.315	102.81
369.541	107.81
369.767	97.81
369.993	86.81
370.219	90.81
370.445	81.81
370.672	98.81
370.898	87.81
371.124	90.81
371.35	93.81
371.576	85.81
371.802	82.81
372.028	93.81
372.254	75.81
372.48	99.81
372.706	92.81
372.932	100.81
373.158	76.81
373.384	89.81
373.61	95.81
373.835	84.81
374.061	77.81
374.287	77.81
374.513	103.81
374.739	98.81
374.965	89.81
375.191	92.81
375.416	93.81
375.642	98.81
375.868	81.81
376.094	90.81
376.319	88.81
376.545	85.81
376.771	85.81
376.997	80.81
377.222	94.81
377.448	101.81
377.674	82.81
377.899	83.81
378.125	83.81
378.35	86.81
378.576	90.81
378.802	93.81
379.027	88.81
379.253	94.81
379.478	90.81
379.704	103.81
379.929	103.81
380.155	87.81
380.38	102.81
380.606	111.81
380.831	93.81
381.057	85.81
381.282	100.81
381.507	86.81
381.733	97.81
381.958	108.81
382.184	97.81
382.409	102.81
382.634	107.81
382.86	114.81
383.085	111.81
383.31	92.81
383.535	99.81
383.761	97.81
383.986	98.81
384.211	94.81
384.436	89.81
384.662	95.81
384.887	97.81
385.112	100.81
385.337	97.81
385.562	102.81
385.787	97.81
386.013	105.81
386.238	120.81
386.463	115.81
386.688	103.81
386.913	108.81
387.138	90.81
387.363	100.81
387.588	90.81
387.813	100.81
388.038	91.81
388.263	107.81
388.488	106.81
388.713	108.81
388.938	94.81
389.163	73.81
389.387	94.81
389.612	91.81
389.837	88.81
390.062	104.81
390.287	92.81
390.512	78.81
390.736	78.81
390.961	77.81
391.186	84.81
391.411	105.81
391.636	104.81
391.86	73.81
392.085	98.81
392.31	100.81
392.534	96.81
392.759	84.81
392.984	84.81
393.208	88.81
393.433	89.81
393.658	87.81
393.882	91.81
394.107	92.81
394.331	91.81
394.556	76.81
394.78	91.81
395.005	106.81
395.229	97.81
395.454	79.81
395.678	89.81
395.903	90.81
396.127	88.81
396.352	100.81
396.576	89.81
396.801	80.81
397.025	83.81
397.249	89.81
397.474	86.81
397.698	81.81
397.922	86.81
398.147	92.81
398.371	94.81
398.595	91.81
398.82	87.81
399.044	98.81
399.268	81.81
399.492	87.81
399.717	108.81
399.941	90.81
400.165	91.81
400.389	87.81
400.613	93.81
400.837	90.81
401.062	86.81
401.286	88.81
401.51	81.81
401.734	77.81
401.958	96.81
402.182	127.81
402.406	160.81
402.63	113.81
402.854	86.81
403.078	87.81
403.302	85.81
403.526	95.81
403.75	85.81
403.974	78.81
404.198	81.81
404.422	92.81
404.645	86.81
404.869	96.81
405.093	87.81
405.317	102.81
405.541	85.81
405.765	106.81
405.988	107.81
406.212	156.81
406.436	207.81
406.66	138.81
406.883	87.81
407.107	88.81
407.331	85.81
407.555	91.81
407.778	88.81
408.002	94.81
408.226	86.81
408.449	86.81
408.673	89.81
408.896	83.81
409.12	92.81
409.344	87.81
409.567	78.81
409.791	94.81
410.014	85.81
410.238	88.81
410.461	81.81
410.685	93.81
410.908	100.81
411.132	118.81
411.355	93.81
411.578	108.81
411.802	85.81
412.025	93.81
412.249	105.81
412.472	95.81
412.695	81.81
412.919	73.81
413.142	94.81
413.365	80.81
413.589	84.81
413.812	85.81
414.035	97.81
414.258	97.81
414.482	92.81
414.705	83.81
414.928	89.81
415.151	89.81
415.374	81.81
415.597	83.81
415.821	101.81
416.044	81.81
416.267	77.81
416.49	95.81
416.713	85.81
416.936	85.81
417.159	67.81
417.382	80.81
417.605	90.81
417.828	77.81
418.051	98.81
418.274	97.81
418.497	94.81
418.72	92.81
418.943	95.81
419.166	92.81
419.389	105.81
419.611	90.81
419.834	77.81
420.057	85.81
420.28	99.81
420.503	93.81
420.726	89.81
420.948	86.81
421.171	95.81
421.394	90.81
421.617	68.81
421.839	95.81
422.062	93.81
422.285	91.81
422.507	118.81
422.73	105.81
422.953	103.81
423.175	82.81
423.398	75.81
423.621	84.81
423.843	70.81
424.066	90.81
424.288	87.81
424.511	99.81
424.733	86.81
424.956	109.81
425.178	108.81
425.401	107.81
425.623	110.81
425.846	99.81
426.068	85.81
426.291	103.81
426.513	82.81
426.735	87.81
426.958	99.81
427.18	89.81
427.402	121.81
427.625	165.81
427.847	130.81
428.069	113.81
428.292	87.81
428.514	84.81
428.736	78.81
428.958	93.81
429.181	89.81
429.403	105.81
429.625	87.81
429.847	82.81
430.069	85.81
430.292	91.81
430.514	87.81
430.736	95.81
430.958	81.81
431.18	74.81
431.402	77.81
431.624	92.81
431.846	93.81
432.068	91.81
432.29	97.81
432.512	91.81
432.734	78.81
432.956	85.81
433.178	90.81
433.4	96.81
433.622	98.81
433.844	108.81
434.066	98.81
434.287	108.81
434.509	91.81
434.731	87.81
434.953	85.81
435.175	96.81
435.397	79.81
435.618	97.81
435.84	105.81
436.062	111.81
436.284	100.81
436.505	101.81
436.727	99.81
436.949	95.81
437.17	84.81
437.392	81.81
437.614	102.81
437.835	90.81
438.057	114.81
438.278	106.81
438.5	103.81
438.721	126.81
438.943	114.81
439.165	91.81
439.386	79.81
439.608	85.81
439.829	114.81
440.05	120.81
440.272	133.81
440.493	91.81
440.715	79.81
440.936	87.81
441.158	83.81
441.379	82.81
441.6	89.81
441.822	80.81
442.043	87.81
442.264	107.81
442.486	94.81
442.707	89.81
442.928	99.81
443.149	133.81
443.371	118.81
443.592	102.81
443.813	99.81
444.034	98.81
444.255	98.81
444.476	95.81
444.698	89.81
444.919	81.81
445.14	126.81
445.361	119.81
445.582	119.81
445.803	126.81
446.024	125.81
446.245	115.81
446.466	106.81
446.687	92.81
446.908	89.81
447.129	99.81
447.35	98.81
447.571	84.81
447.792	99.81
448.013	111.81
448.234	115.81
448.455	102.81
448.675	111.81
448.896	106.81
449.117	106.81
449.338	109.81
449.559	123.81
449.779	132.81
450	93.81
450.221	90.81
450.442	100.81
450.662	97.81
450.883	98.81
451.104	113.81
451.324	100.81
451.545	94.81
451.766	70.81
451.986	83.81
452.207	97.81
452.428	95.81
452.648	90.81
452.869	104.81
453.089	115.81
453.31	108.81
453.53	102.81
453.751	93.81
453.971	83.81
454.192	115.81
454.412	87.81
454.633	101.81
454.853	80.81
455.073	97.81
455.294	81.81
455.514	101.81
455.734	75.81
455.955	91.81
456.175	80.81
456.395	98.81
456.616	74.81
456.836	86.81
457.056	92.81
457.276	77.81
457.497	83.81
457.717	86.81
457.937	82.81
458.157	89.81
458.377	86.81
458.598	97.81
458.818	133.81
459.038	155.81
459.258	120.81
459.478	83.81
459.698	102.81
459.918	92.81
460.138	93.81
460.358	89.81
460.578	82.81
460.798	95.81
461.018	89.81
461.238	89.81
461.458	79.81
461.678	78.81
461.898	85.81
462.118	79.81
462.338	78.81
462.558	82.81
462.777	97.81
462.997	80.81
463.217	80.81
463.437	70.81
463.657	83.81
463.876	95.81
464.096	100.81
464.316	90.81
464.536	83.81
464.755	98.81
464.975	122.81
465.195	163.81
465.414	146.81
465.634	101.81
465.854	76.81
466.073	98.81
466.293	92.81
466.512	79.81
466.732	78.81
466.951	93.81
467.171	72.81
467.391	77.81
467.61	101.81
467.829	91.81
468.049	90.81
468.268	86.81
468.488	87.81
468.707	87.81
468.927	85.81
469.146	82.81
469.365	97.81
469.585	83.81
469.804	98.81
470.023	96.81
470.243	90.81
470.462	97.81
470.681	110.81
470.901	94.81
471.12	84.81
471.339	75.81
471.558	85.81
471.777	91.81
471.997	89.81
472.216	85.81
472.435	105.81
472.654	82.81
472.873	94.81
473.092	83.81
473.311	90.81
473.53	83.81
473.749	92.81
473.968	81.81
474.187	97.81
474.406	93.81
474.625	88.81
474.844	83.81
475.063	92.81
475.282	94.81
475.501	95.81
475.72	68.81
475.939	86.81
476.158	85.81
476.377	87.81
476.596	99.81
476.814	91.81
477.033	84.81
477.252	90.81
477.471	84.81
477.69	100.81
477.908	92.81
478.127	93.81
478.346	95.81
478.564	95.81
478.783	77.81
479.002	98.81
479.22	98.81
479.439	99.81
479.658	85.81
479.876	103.81
480.095	95.81
480.313	102.81
480.532	90.81
480.751	86.81
480.969	88.81
481.188	106.81
481.406	109.81
481.624	90.81
481.843	87.81
482.061	92.81
482.28	106.81
482.498	84.81
482.717	103.81
482.935	96.81
483.153	96.81
483.372	93.81
483.59	98.81
483.808	82.81
484.027	90.81
484.245	93.81
484.463	86.81
484.681	97.81
484.9	90.81
485.118	107.81
485.336	97.81
485.554	92.81
485.772	114.81
485.99	103.81
486.209	109.81
486.427	117.81
486.645	110.81
486.863	108.81
487.081	96.81
487.299	108.81
487.517	99.81
487.735	95.81
487.953	93.81
488.171	92.81
488.389	85.81
488.607	99.81
488.825	103.81
489.043	100.81
489.261	85.81
489.479	83.81
489.696	101.81
489.914	74.81
490.132	81.81
490.35	95.81
490.568	100.81
490.786	96.81
491.003	85.81
491.221	102.81
491.439	87.81
491.657	91.81
491.874	95.81
492.092	80.81
492.31	84.81
492.527	92.81
492.745	94.81
492.963	100.81
493.18	93.81
493.398	95.81
493.615	95.81
493.833	95.81
494.05	82.81
494.268	88.81
494.485	93.81
494.703	107.81
494.92	89.81
495.138	74.81
495.355	77.81
495.573	93.81
495.79	82.81
496.008	79.81
496.225	90.81
496.442	85.81
496.66	94.81
496.877	94.81
497.094	100.81
497.312	97.81
497.529	80.81
497.746	96.81
497.963	97.81
498.181	84.81
498.398	99.81
498.615	100.81
498.832	99.81
499.049	99.81
499.267	93.81
499.484	94.81
499.701	83.81
499.918	98.81
500.135	96.81
500.352	103.81
500.569	92.81
500.786	95.81
501.003	87.81
501.22	77.81
501.437	84.81
501.654	82.81
501.871	114.81
502.088	92.81
502.305	101.81
502.522	85.81
502.739	92.81
502.956	82.81
503.172	83.81
503.389	94.81
503.606	103.81
503.823	103.81
504.04	98.81
504.256	78.81
504.473	93.81
504.69	79.81
504.907	79.81
505.123	95.81
505.34	90.81
505.557	87.81
505.773	92.81
505.99	90.81
506.207	84.81
506.423	90.81
506.64	95.81
506.856	88.81
507.073	95.81
507.289	91.81
507.506	96.81
507.722	104.81
507.939	106.81
508.155	92.81
508.372	97.81
508.588	103.81
508.805	96.81
509.021	97.81
509.238	96.81
509.454	93.81
509.67	97.81
509.887	115.81
510.103	132.81
510.319	202.81
510.536	739.81
510.752	2230.81
510.968	601.81
511.184	147.81
511.401	121.81
511.617	103.81
511.833	89.81
512.049	103.81
512.265	88.81
512.481	102.81
512.698	89.81
512.914	102.81
513.13	82.81
513.346	102.81
513.562	88.81
513.778	97.81
513.994	84.81
514.21	104.81
514.426	129.81
514.642	130.81
514.858	124.81
515.074	159.81
515.29	417.81
515.506	1339.81
