Data from Uncirc_1993_H10_HRD10591_00075.txt Node
Date: Wed Jan 03 11:43:07 EST 2024
User: Yrep
Spectrometer: HR+D1059
Trigger mode: 1
Integration Time (sec): 1.000000E-1
Scans to average: 1
Electric dark correction enabled: true
Nonlinearity correction enabled: false
Boxcar width: 0
XAxis mode: Wavelengths
Number of Pixels in Spectrum: 2048
>>>>>Begin Spectral Data<<<<<
223.165	-24.38
223.4	-24.38
223.635	-24.38
223.869	-22.38
224.104	-28.38
224.338	-13.38
224.573	-9.38
224.808	-13.38
225.042	5.62
225.277	0.62
225.511	-7.38
225.746	13.62
225.98	-0.38
226.215	0.62
226.449	19.62
226.683	13.62
226.918	29.62
227.152	35.62
227.387	41.62
227.621	42.62
227.856	34.62
228.09	43.62
228.324	44.62
228.559	61.62
228.793	66.62
229.027	75.62
229.262	54.62
229.496	63.62
229.73	65.62
229.964	85.62
230.199	69.62
230.433	72.62
230.667	61.62
230.901	69.62
231.136	75.62
231.37	76.62
231.604	82.62
231.838	65.62
232.072	64.62
232.306	82.62
232.541	75.62
232.775	71.62
233.009	80.62
233.243	85.62
233.477	86.62
233.711	72.62
233.945	70.62
234.179	79.62
234.413	73.62
234.647	78.62
234.881	69.62
235.115	67.62
235.349	79.62
235.583	76.62
235.817	85.62
236.051	85.62
236.285	77.62
236.519	73.62
236.753	79.62
236.987	87.62
237.221	73.62
237.455	74.62
237.689	63.62
237.922	73.62
238.156	73.62
238.39	76.62
238.624	79.62
238.858	74.62
239.091	74.62
239.325	80.62
239.559	94.62
239.793	60.62
240.027	78.62
240.26	59.62
240.494	71.62
240.728	69.62
240.961	71.62
241.195	72.62
241.429	74.62
241.662	67.62
241.896	53.62
242.13	67.62
242.363	70.62
242.597	81.62
242.83	70.62
243.064	77.62
243.298	78.62
243.531	63.62
243.765	71.62
243.998	88.62
244.232	75.62
244.465	79.62
244.699	62.62
244.932	81.62
245.166	85.62
245.399	77.62
245.633	66.62
245.866	58.62
246.099	62.62
246.333	74.62
246.566	69.62
246.8	88.62
247.033	71.62
247.266	79.62
247.5	71.62
247.733	74.62
247.966	96.62
248.2	82.62
248.433	80.62
248.666	86.62
248.899	65.62
249.133	81.62
249.366	78.62
249.599	98.62
249.832	71.62
250.066	73.62
250.299	74.62
250.532	70.62
250.765	84.62
250.998	71.62
251.231	72.62
251.465	81.62
251.698	69.62
251.931	75.62
252.164	88.62
252.397	76.62
252.63	68.62
252.863	73.62
253.096	76.62
253.329	66.62
253.562	89.62
253.795	84.62
254.028	88.62
254.261	77.62
254.494	71.62
254.727	81.62
254.96	63.62
255.193	71.62
255.426	74.62
255.659	78.62
255.892	74.62
256.124	67.62
256.357	82.62
256.59	70.62
256.823	76.62
257.056	69.62
257.289	71.62
257.521	64.62
257.754	82.62
257.987	82.62
258.22	70.62
258.452	67.62
258.685	71.62
258.918	81.62
259.151	75.62
259.383	87.62
259.616	73.62
259.849	66.62
260.081	81.62
260.314	73.62
260.547	91.62
260.779	63.62
261.012	84.62
261.244	63.62
261.477	88.62
261.71	89.62
261.942	104.62
262.175	98.62
262.407	73.62
262.64	85.62
262.872	59.62
263.105	79.62
263.337	78.62
263.57	88.62
263.802	76.62
264.035	79.62
264.267	82.62
264.499	65.62
264.732	71.62
264.964	96.62
265.197	83.62
265.429	86.62
265.661	79.62
265.894	74.62
266.126	71.62
266.358	83.62
266.591	98.62
266.823	79.62
267.055	91.62
267.287	92.62
267.52	84.62
267.752	75.62
267.984	75.62
268.216	78.62
268.448	88.62
268.681	80.62
268.913	74.62
269.145	88.62
269.377	72.62
269.609	73.62
269.841	70.62
270.073	79.62
270.306	73.62
270.538	82.62
270.77	89.62
271.002	88.62
271.234	75.62
271.466	66.62
271.698	85.62
271.93	88.62
272.162	81.62
272.394	75.62
272.626	85.62
272.858	95.62
273.09	88.62
273.322	89.62
273.553	84.62
273.785	84.62
274.017	82.62
274.249	76.62
274.481	63.62
274.713	76.62
274.945	71.62
275.176	81.62
275.408	88.62
275.64	73.62
275.872	86.62
276.104	85.62
276.335	74.62
276.567	91.62
276.799	100.62
277.031	86.62
277.262	77.62
277.494	105.62
277.726	86.62
277.957	85.62
278.189	81.62
278.421	67.62
278.652	75.62
278.884	89.62
279.115	66.62
279.347	75.62
279.579	85.62
279.81	82.62
280.042	88.62
280.273	85.62
280.505	74.62
280.736	80.62
280.968	83.62
281.199	70.62
281.431	76.62
281.662	89.62
281.894	98.62
282.125	89.62
282.356	101.62
282.588	110.62
282.819	98.62
283.051	74.62
283.282	76.62
283.513	88.62
283.745	77.62
283.976	85.62
284.207	87.62
284.439	84.62
284.67	80.62
284.901	79.62
285.132	93.62
285.364	84.62
285.595	72.62
285.826	96.62
286.057	86.62
286.288	88.62
286.52	79.62
286.751	69.62
286.982	90.62
287.213	77.62
287.444	69.62
287.675	82.62
287.906	93.62
288.138	89.62
288.369	80.62
288.6	87.62
288.831	75.62
289.062	90.62
289.293	77.62
289.524	79.62
289.755	77.62
289.986	90.62
290.217	77.62
290.448	80.62
290.679	74.62
290.91	102.62
291.141	71.62
291.371	78.62
291.602	93.62
291.833	89.62
292.064	74.62
292.295	97.62
292.526	73.62
292.757	80.62
292.987	80.62
293.218	78.62
293.449	86.62
293.68	86.62
293.91	67.62
294.141	79.62
294.372	101.62
294.603	72.62
294.833	76.62
295.064	72.62
295.295	71.62
295.525	79.62
295.756	85.62
295.987	109.62
296.217	115.62
296.448	108.62
296.679	86.62
296.909	89.62
297.14	86.62
297.37	81.62
297.601	79.62
297.831	78.62
298.062	81.62
298.292	74.62
298.523	82.62
298.753	87.62
298.984	86.62
299.214	79.62
299.445	92.62
299.675	90.62
299.905	87.62
300.136	88.62
300.366	94.62
300.597	94.62
300.827	88.62
301.057	77.62
301.288	101.62
301.518	83.62
301.748	90.62
301.979	94.62
302.209	92.62
302.439	86.62
302.669	92.62
302.9	61.62
303.13	82.62
303.36	69.62
303.59	82.62
303.82	95.62
304.051	82.62
304.281	91.62
304.511	89.62
304.741	77.62
304.971	93.62
305.201	93.62
305.431	74.62
305.661	91.62
305.891	85.62
306.121	93.62
306.352	98.62
306.582	109.62
306.812	80.62
307.042	80.62
307.272	86.62
307.502	90.62
307.731	89.62
307.961	81.62
308.191	93.62
308.421	80.62
308.651	83.62
308.881	97.62
309.111	85.62
309.341	90.62
309.571	88.62
309.8	93.62
310.03	97.62
310.26	92.62
310.49	82.62
310.72	89.62
310.949	96.62
311.179	93.62
311.409	80.62
311.639	91.62
311.868	94.62
312.098	76.62
312.328	111.62
312.557	100.62
312.787	109.62
313.017	91.62
313.246	94.62
313.476	88.62
313.706	88.62
313.935	94.62
314.165	80.62
314.394	99.62
314.624	89.62
314.853	97.62
315.083	65.62
315.312	96.62
315.542	89.62
315.771	85.62
316.001	82.62
316.23	90.62
316.46	81.62
316.689	89.62
316.919	87.62
317.148	93.62
317.377	91.62
317.607	98.62
317.836	72.62
318.065	86.62
318.295	97.62
318.524	103.62
318.753	100.62
318.983	93.62
319.212	84.62
319.441	101.62
319.67	100.62
319.9	98.62
320.129	94.62
320.358	94.62
320.587	90.62
320.816	100.62
321.046	114.62
321.275	102.62
321.504	82.62
321.733	96.62
321.962	91.62
322.191	92.62
322.42	97.62
322.649	106.62
322.878	94.62
323.108	97.62
323.337	120.62
323.566	108.62
323.795	119.62
324.024	187.62
324.253	325.62
324.482	663.62
324.71	1260.62
324.939	1637.62
325.168	623.62
325.397	203.62
325.626	151.62
325.855	105.62
326.084	100.62
326.313	120.62
326.542	146.62
326.77	210.62
326.999	381.62
327.228	728.62
327.457	1300.62
327.686	1034.62
327.914	299.62
328.143	175.62
328.372	118.62
328.6	99.62
328.829	103.62
329.058	107.62
329.287	118.62
329.515	101.62
329.744	96.62
329.972	76.62
330.201	85.62
330.43	103.62
330.658	117.62
330.887	107.62
331.115	104.62
331.344	97.62
331.572	102.62
331.801	88.62
332.03	95.62
332.258	93.62
332.486	84.62
332.715	79.62
332.943	85.62
333.172	105.62
333.4	81.62
333.629	108.62
333.857	90.62
334.085	92.62
334.314	107.62
334.542	71.62
334.771	112.62
334.999	89.62
335.227	79.62
335.455	94.62
335.684	86.62
335.912	94.62
336.14	96.62
336.369	91.62
336.597	103.62
336.825	105.62
337.053	99.62
337.281	81.62
337.51	98.62
337.738	92.62
337.966	91.62
338.194	97.62
338.422	89.62
338.65	81.62
338.878	85.62
339.106	85.62
339.334	85.62
339.562	79.62
339.79	89.62
340.018	93.62
340.246	72.62
340.474	96.62
340.702	92.62
340.93	83.62
341.158	81.62
341.386	82.62
341.614	87.62
341.842	83.62
342.07	99.62
342.298	103.62
342.526	91.62
342.754	80.62
342.981	82.62
343.209	78.62
343.437	85.62
343.665	90.62
343.893	90.62
344.12	80.62
344.348	75.62
344.576	69.62
344.804	94.62
345.031	94.62
345.259	91.62
345.487	86.62
345.714	89.62
345.942	70.62
346.17	86.62
346.397	87.62
346.625	103.62
346.853	75.62
347.08	81.62
347.308	103.62
347.535	86.62
347.763	90.62
347.99	98.62
348.218	94.62
348.445	95.62
348.673	102.62
348.9	86.62
349.128	87.62
349.355	86.62
349.583	88.62
349.81	77.62
350.037	99.62
350.265	100.62
350.492	89.62
350.72	104.62
350.947	104.62
351.174	105.62
351.402	107.62
351.629	106.62
351.856	96.62
352.083	106.62
352.311	104.62
352.538	94.62
352.765	81.62
352.992	98.62
353.22	104.62
353.447	105.62
353.674	113.62
353.901	97.62
354.128	95.62
354.355	94.62
354.583	86.62
354.81	106.62
355.037	94.62
355.264	93.62
355.491	92.62
355.718	87.62
355.945	94.62
356.172	106.62
356.399	95.62
356.626	89.62
356.853	83.62
357.08	97.62
357.307	104.62
357.534	105.62
357.761	101.62
357.988	82.62
358.215	63.62
358.441	98.62
358.668	89.62
358.895	96.62
359.122	101.62
359.349	88.62
359.576	85.62
359.802	91.62
360.029	95.62
360.256	106.62
360.483	84.62
360.709	79.62
360.936	83.62
361.163	107.62
361.39	87.62
361.616	85.62
361.843	87.62
362.07	81.62
362.296	80.62
362.523	96.62
362.749	91.62
362.976	89.62
363.203	78.62
363.429	87.62
363.656	84.62
363.882	82.62
364.109	88.62
364.335	81.62
364.562	89.62
364.788	85.62
365.015	85.62
365.241	103.62
365.468	99.62
365.694	81.62
365.92	97.62
366.147	85.62
366.373	91.62
366.599	96.62
366.826	71.62
367.052	69.62
367.278	101.62
367.505	95.62
367.731	79.62
367.957	79.62
368.184	94.62
368.41	75.62
368.636	110.62
368.862	98.62
369.089	102.62
369.315	96.62
369.541	92.62
369.767	98.62
369.993	95.62
370.219	81.62
370.445	87.62
370.672	90.62
370.898	82.62
371.124	85.62
371.35	89.62
371.576	84.62
371.802	102.62
372.028	79.62
372.254	75.62
372.48	78.62
372.706	72.62
372.932	82.62
373.158	86.62
373.384	91.62
373.61	95.62
373.835	85.62
374.061	84.62
374.287	91.62
374.513	83.62
374.739	66.62
374.965	73.62
375.191	68.62
375.416	88.62
375.642	94.62
375.868	93.62
376.094	83.62
376.319	77.62
376.545	78.62
376.771	84.62
376.997	89.62
377.222	86.62
377.448	90.62
377.674	99.62
377.899	89.62
378.125	88.62
378.35	88.62
378.576	85.62
378.802	80.62
379.027	88.62
379.253	74.62
379.478	89.62
379.704	85.62
379.929	91.62
380.155	83.62
380.38	105.62
380.606	91.62
380.831	93.62
381.057	84.62
381.282	89.62
381.507	83.62
381.733	94.62
381.958	82.62
382.184	84.62
382.409	86.62
382.634	91.62
382.86	72.62
383.085	96.62
383.31	86.62
383.535	117.62
383.761	103.62
383.986	106.62
384.211	97.62
384.436	91.62
384.662	87.62
384.887	109.62
385.112	94.62
385.337	103.62
385.562	80.62
385.787	94.62
386.013	114.62
386.238	106.62
386.463	84.62
386.688	94.62
386.913	98.62
387.138	96.62
387.363	98.62
387.588	79.62
387.813	97.62
388.038	92.62
388.263	104.62
388.488	97.62
388.713	96.62
388.938	86.62
389.163	95.62
389.387	91.62
389.612	96.62
389.837	101.62
390.062	97.62
390.287	92.62
390.512	87.62
390.736	95.62
390.961	90.62
391.186	83.62
391.411	88.62
391.636	69.62
391.86	87.62
392.085	94.62
392.31	82.62
392.534	82.62
392.759	85.62
392.984	91.62
393.208	77.62
393.433	86.62
393.658	91.62
393.882	91.62
394.107	89.62
394.331	89.62
394.556	82.62
394.78	84.62
395.005	94.62
395.229	75.62
395.454	92.62
395.678	77.62
395.903	79.62
396.127	79.62
396.352	95.62
396.576	78.62
396.801	85.62
397.025	81.62
397.249	78.62
397.474	90.62
397.698	97.62
397.922	79.62
398.147	80.62
398.371	70.62
398.595	77.62
398.82	71.62
399.044	95.62
399.268	87.62
399.492	78.62
399.717	94.62
399.941	82.62
400.165	102.62
400.389	89.62
400.613	69.62
400.837	94.62
401.062	71.62
401.286	78.62
401.51	83.62
401.734	80.62
401.958	85.62
402.182	127.62
402.406	151.62
402.63	104.62
402.854	94.62
403.078	84.62
403.302	69.62
403.526	86.62
403.75	86.62
403.974	89.62
404.198	88.62
404.422	93.62
404.645	79.62
404.869	90.62
405.093	73.62
405.317	97.62
405.541	96.62
405.765	79.62
405.988	106.62
406.212	140.62
406.436	186.62
406.66	134.62
406.883	91.62
407.107	91.62
407.331	89.62
407.555	89.62
407.778	90.62
408.002	90.62
408.226	88.62
408.449	89.62
408.673	79.62
408.896	100.62
409.12	87.62
409.344	94.62
409.567	88.62
409.791	86.62
410.014	95.62
410.238	83.62
410.461	96.62
410.685	96.62
410.908	80.62
411.132	107.62
411.355	93.62
411.578	91.62
411.802	102.62
412.025	83.62
412.249	85.62
412.472	85.62
412.695	76.62
412.919	75.62
413.142	90.62
413.365	88.62
413.589	94.62
413.812	97.62
414.035	73.62
414.258	73.62
414.482	78.62
414.705	76.62
414.928	85.62
415.151	95.62
415.374	97.62
415.597	74.62
415.821	86.62
416.044	99.62
416.267	77.62
416.49	79.62
416.713	91.62
416.936	82.62
417.159	95.62
417.382	105.62
417.605	86.62
417.828	79.62
418.051	88.62
418.274	87.62
418.497	72.62
418.72	85.62
418.943	71.62
419.166	84.62
419.389	82.62
419.611	89.62
419.834	101.62
420.057	96.62
420.28	79.62
420.503	86.62
420.726	94.62
420.948	75.62
421.171	92.62
421.394	98.62
421.617	94.62
421.839	78.62
422.062	70.62
422.285	87.62
422.507	97.62
422.73	103.62
422.953	84.62
423.175	89.62
423.398	98.62
423.621	93.62
423.843	77.62
424.066	83.62
424.288	89.62
424.511	82.62
424.733	95.62
424.956	98.62
425.178	99.62
425.401	85.62
425.623	99.62
425.846	84.62
426.068	89.62
426.291	92.62
426.513	86.62
426.735	88.62
426.958	98.62
427.18	97.62
427.402	110.62
427.625	145.62
427.847	114.62
428.069	92.62
428.292	79.62
428.514	95.62
428.736	94.62
428.958	94.62
429.181	84.62
429.403	73.62
429.625	87.62
429.847	83.62
430.069	87.62
430.292	86.62
430.514	86.62
430.736	77.62
430.958	81.62
431.18	62.62
431.402	90.62
431.624	81.62
431.846	62.62
432.068	83.62
432.29	75.62
432.512	101.62
432.734	94.62
432.956	81.62
433.178	94.62
433.4	77.62
433.622	90.62
433.844	75.62
434.066	92.62
434.287	83.62
434.509	76.62
434.731	71.62
434.953	78.62
435.175	86.62
435.397	99.62
435.618	94.62
435.84	90.62
436.062	128.62
436.284	107.62
436.505	100.62
436.727	110.62
436.949	89.62
437.17	90.62
437.392	89.62
437.614	84.62
437.835	88.62
438.057	102.62
438.278	101.62
438.5	94.62
438.721	99.62
438.943	100.62
439.165	72.62
439.386	94.62
439.608	87.62
439.829	95.62
440.05	109.62
440.272	107.62
440.493	113.62
440.715	75.62
440.936	87.62
441.158	80.62
441.379	75.62
441.6	85.62
441.822	96.62
442.043	78.62
442.264	105.62
442.486	96.62
442.707	91.62
442.928	105.62
443.149	117.62
443.371	106.62
443.592	111.62
443.813	93.62
444.034	87.62
444.255	106.62
444.476	74.62
444.698	78.62
444.919	87.62
445.14	132.62
445.361	122.62
445.582	99.62
445.803	120.62
446.024	116.62
446.245	99.62
446.466	103.62
446.687	91.62
446.908	85.62
447.129	89.62
447.35	91.62
447.571	88.62
447.792	84.62
448.013	94.62
448.234	83.62
448.455	91.62
448.675	98.62
448.896	99.62
449.117	93.62
449.338	82.62
449.559	107.62
449.779	121.62
450	82.62
450.221	90.62
450.442	82.62
450.662	77.62
450.883	95.62
451.104	112.62
451.324	89.62
451.545	86.62
451.766	95.62
451.986	73.62
452.207	84.62
452.428	79.62
452.648	93.62
452.869	97.62
453.089	99.62
453.31	111.62
453.53	88.62
453.751	95.62
453.971	95.62
454.192	102.62
454.412	96.62
454.633	87.62
454.853	88.62
455.073	87.62
455.294	88.62
455.514	98.62
455.734	106.62
455.955	94.62
456.175	80.62
456.395	89.62
456.616	85.62
456.836	84.62
457.056	73.62
457.276	93.62
457.497	75.62
457.717	77.62
457.937	85.62
458.157	82.62
458.377	79.62
458.598	94.62
458.818	139.62
459.038	138.62
459.258	94.62
459.478	79.62
459.698	86.62
459.918	95.62
460.138	80.62
460.358	101.62
460.578	79.62
460.798	103.62
461.018	86.62
461.238	83.62
461.458	84.62
461.678	79.62
461.898	83.62
462.118	88.62
462.338	87.62
462.558	89.62
462.777	72.62
462.997	79.62
463.217	77.62
463.437	95.62
463.657	78.62
463.876	85.62
464.096	79.62
464.316	92.62
464.536	91.62
464.755	96.62
464.975	105.62
465.195	160.62
465.414	134.62
465.634	88.62
465.854	93.62
466.073	90.62
466.293	85.62
466.512	98.62
466.732	61.62
466.951	82.62
467.171	87.62
467.391	85.62
467.61	114.62
467.829	89.62
468.049	93.62
468.268	78.62
468.488	85.62
468.707	88.62
468.927	83.62
469.146	73.62
469.365	79.62
469.585	83.62
469.804	89.62
470.023	90.62
470.243	86.62
470.462	92.62
470.681	92.62
470.901	97.62
471.12	73.62
471.339	89.62
471.558	71.62
471.777	91.62
471.997	88.62
472.216	86.62
472.435	85.62
472.654	77.62
472.873	102.62
473.092	90.62
473.311	70.62
473.53	82.62
473.749	85.62
473.968	88.62
474.187	96.62
474.406	80.62
474.625	78.62
474.844	96.62
475.063	65.62
475.282	74.62
475.501	82.62
475.72	98.62
475.939	89.62
476.158	101.62
476.377	80.62
476.596	74.62
476.814	95.62
477.033	84.62
477.252	79.62
477.471	86.62
477.69	93.62
477.908	80.62
478.127	77.62
478.346	88.62
478.564	89.62
478.783	88.62
479.002	83.62
479.22	94.62
479.439	106.62
479.658	90.62
479.876	79.62
480.095	75.62
480.313	86.62
480.532	82.62
480.751	97.62
480.969	71.62
481.188	99.62
481.406	92.62
481.624	91.62
481.843	95.62
482.061	87.62
482.28	82.62
482.498	83.62
482.717	89.62
482.935	79.62
483.153	89.62
483.372	98.62
483.59	87.62
483.808	81.62
484.027	101.62
484.245	99.62
484.463	106.62
484.681	93.62
484.9	82.62
485.118	96.62
485.336	88.62
485.554	93.62
485.772	82.62
485.99	89.62
486.209	122.62
486.427	103.62
486.645	102.62
486.863	99.62
487.081	99.62
487.299	92.62
487.517	98.62
487.735	91.62
487.953	89.62
488.171	101.62
488.389	86.62
488.607	105.62
488.825	89.62
489.043	84.62
489.261	98.62
489.479	85.62
489.696	91.62
489.914	83.62
490.132	74.62
490.35	70.62
490.568	74.62
490.786	80.62
491.003	82.62
491.221	79.62
491.439	85.62
491.657	89.62
491.874	91.62
492.092	81.62
492.31	87.62
492.527	89.62
492.745	92.62
492.963	82.62
493.18	90.62
493.398	100.62
493.615	93.62
493.833	83.62
494.05	82.62
494.268	100.62
494.485	78.62
494.703	82.62
494.92	85.62
495.138	94.62
495.355	89.62
495.573	99.62
495.79	86.62
496.008	89.62
496.225	96.62
496.442	87.62
496.66	87.62
496.877	78.62
497.094	81.62
497.312	76.62
497.529	77.62
497.746	89.62
497.963	95.62
498.181	78.62
498.398	81.62
498.615	106.62
498.832	108.62
499.049	87.62
499.267	91.62
499.484	83.62
499.701	85.62
499.918	95.62
500.135	77.62
500.352	91.62
500.569	84.62
500.786	74.62
501.003	106.62
501.22	86.62
501.437	82.62
501.654	95.62
501.871	118.62
502.088	82.62
502.305	82.62
502.522	87.62
502.739	90.62
502.956	104.62
503.172	94.62
503.389	78.62
503.606	95.62
503.823	94.62
504.04	80.62
504.256	85.62
504.473	84.62
504.69	87.62
504.907	83.62
505.123	79.62
505.34	86.62
505.557	85.62
505.773	97.62
505.99	83.62
506.207	90.62
506.423	92.62
506.64	77.62
506.856	83.62
507.073	87.62
507.289	95.62
507.506	95.62
507.722	112.62
507.939	108.62
508.155	90.62
508.372	89.62
508.588	94.62
508.805	96.62
509.021	94.62
509.238	101.62
509.454	101.62
509.67	98.62
509.887	103.62
510.103	119.62
510.319	193.62
510.536	675.62
510.752	2043.62
510.968	553.62
511.184	140.62
511.401	100.62
511.617	101.62
511.833	95.62
512.049	79.62
512.265	103.62
512.481	88.62
512.698	86.62
512.914	92.62
513.13	93.62
513.346	85.62
513.562	86.62
513.778	90.62
513.994	83.62
514.21	99.62
514.426	95.62
514.642	113.62
514.858	113.62
515.074	140.62
515.29	399.62
515.506	1252.62
515.721	472.62
515.937	138.62
516.153	103.62
516.369	89.62
516.585	101.62
516.801	98.62
517.016	86.62
517.232	79.62
517.448	91.62
