Data from Uncirc_1993_H10_HRD10591_00035.txt Node
Date: Wed Jan 03 11:42:59 EST 2024
User: Yrep
Spectrometer: HR+D1059
Trigger mode: 1
Integration Time (sec): 1.000000E-1
Scans to average: 1
Electric dark correction enabled: true
Nonlinearity correction enabled: false
Boxcar width: 0
XAxis mode: Wavelengths
Number of Pixels in Spectrum: 2048
>>>>>Begin Spectral Data<<<<<
223.165	-30.81
223.4	-30.81
223.635	-30.81
223.869	-19.81
224.104	-16.81
224.338	-15.81
224.573	-8.81
224.808	-15.81
225.042	-1.81
225.277	-8.81
225.511	3.19
225.746	-6.81
225.98	20.19
226.215	14.19
226.449	23.19
226.683	14.19
226.918	27.19
227.152	23.19
227.387	36.19
227.621	45.19
227.856	46.19
228.09	42.19
228.324	38.19
228.559	48.19
228.793	46.19
229.027	60.19
229.262	50.19
229.496	76.19
229.73	80.19
229.964	64.19
230.199	62.19
230.433	84.19
230.667	77.19
230.901	89.19
231.136	62.19
231.37	75.19
231.604	71.19
231.838	72.19
232.072	67.19
232.306	83.19
232.541	88.19
232.775	75.19
233.009	94.19
233.243	74.19
233.477	74.19
233.711	73.19
233.945	77.19
234.179	76.19
234.413	87.19
234.647	80.19
234.881	91.19
235.115	83.19
235.349	75.19
235.583	78.19
235.817	56.19
236.051	81.19
236.285	73.19
236.519	85.19
236.753	79.19
236.987	80.19
237.221	72.19
237.455	84.19
237.689	86.19
237.922	84.19
238.156	67.19
238.39	75.19
238.624	66.19
238.858	89.19
239.091	75.19
239.325	68.19
239.559	66.19
239.793	82.19
240.027	80.19
240.26	67.19
240.494	90.19
240.728	84.19
240.961	74.19
241.195	80.19
241.429	73.19
241.662	90.19
241.896	65.19
242.13	67.19
242.363	80.19
242.597	77.19
242.83	69.19
243.064	68.19
243.298	82.19
243.531	79.19
243.765	80.19
243.998	79.19
244.232	84.19
244.465	96.19
244.699	93.19
244.932	76.19
245.166	73.19
245.399	66.19
245.633	78.19
245.866	82.19
246.099	79.19
246.333	78.19
246.566	90.19
246.8	84.19
247.033	80.19
247.266	81.19
247.5	72.19
247.733	80.19
247.966	78.19
248.2	76.19
248.433	77.19
248.666	69.19
248.899	92.19
249.133	95.19
249.366	82.19
249.599	95.19
249.832	91.19
250.066	80.19
250.299	84.19
250.532	85.19
250.765	86.19
250.998	82.19
251.231	75.19
251.465	77.19
251.698	72.19
251.931	84.19
252.164	71.19
252.397	101.19
252.63	85.19
252.863	89.19
253.096	76.19
253.329	75.19
253.562	78.19
253.795	60.19
254.028	83.19
254.261	84.19
254.494	73.19
254.727	82.19
254.96	82.19
255.193	88.19
255.426	96.19
255.659	77.19
255.892	93.19
256.124	74.19
256.357	84.19
256.59	86.19
256.823	89.19
257.056	76.19
257.289	90.19
257.521	86.19
257.754	74.19
257.987	81.19
258.22	73.19
258.452	80.19
258.685	81.19
258.918	77.19
259.151	88.19
259.383	92.19
259.616	78.19
259.849	74.19
260.081	67.19
260.314	94.19
260.547	91.19
260.779	77.19
261.012	90.19
261.244	91.19
261.477	90.19
261.71	80.19
261.942	98.19
262.175	120.19
262.407	98.19
262.64	93.19
262.872	95.19
263.105	68.19
263.337	89.19
263.57	86.19
263.802	67.19
264.035	84.19
264.267	76.19
264.499	73.19
264.732	79.19
264.964	77.19
265.197	66.19
265.429	77.19
265.661	88.19
265.894	76.19
266.126	93.19
266.358	95.19
266.591	62.19
266.823	89.19
267.055	69.19
267.287	81.19
267.52	84.19
267.752	79.19
267.984	90.19
268.216	70.19
268.448	92.19
268.681	101.19
268.913	91.19
269.145	72.19
269.377	95.19
269.609	71.19
269.841	58.19
270.073	86.19
270.306	84.19
270.538	75.19
270.77	82.19
271.002	86.19
271.234	75.19
271.466	95.19
271.698	93.19
271.93	84.19
272.162	89.19
272.394	84.19
272.626	94.19
272.858	74.19
273.09	90.19
273.322	77.19
273.553	87.19
273.785	90.19
274.017	73.19
274.249	83.19
274.481	79.19
274.713	96.19
274.945	83.19
275.176	75.19
275.408	85.19
275.64	82.19
275.872	86.19
276.104	80.19
276.335	81.19
276.567	91.19
276.799	99.19
277.031	101.19
277.262	91.19
277.494	83.19
277.726	79.19
277.957	85.19
278.189	84.19
278.421	84.19
278.652	96.19
278.884	79.19
279.115	92.19
279.347	80.19
279.579	87.19
279.81	89.19
280.042	97.19
280.273	84.19
280.505	77.19
280.736	94.19
280.968	84.19
281.199	83.19
281.431	95.19
281.662	75.19
281.894	84.19
282.125	95.19
282.356	114.19
282.588	113.19
282.819	106.19
283.051	77.19
283.282	84.19
283.513	84.19
283.745	86.19
283.976	92.19
284.207	87.19
284.439	80.19
284.67	87.19
284.901	91.19
285.132	87.19
285.364	79.19
285.595	79.19
285.826	94.19
286.057	88.19
286.288	91.19
286.52	81.19
286.751	75.19
286.982	87.19
287.213	92.19
287.444	87.19
287.675	86.19
287.906	89.19
288.138	76.19
288.369	92.19
288.6	95.19
288.831	88.19
289.062	90.19
289.293	83.19
289.524	76.19
289.755	88.19
289.986	91.19
290.217	68.19
290.448	81.19
290.679	81.19
290.91	85.19
291.141	71.19
291.371	84.19
291.602	84.19
291.833	88.19
292.064	75.19
292.295	79.19
292.526	85.19
292.757	83.19
292.987	98.19
293.218	84.19
293.449	81.19
293.68	96.19
293.91	87.19
294.141	83.19
294.372	82.19
294.603	99.19
294.833	78.19
295.064	91.19
295.295	92.19
295.525	105.19
295.756	95.19
295.987	113.19
296.217	121.19
296.448	104.19
296.679	106.19
296.909	83.19
297.14	96.19
297.37	95.19
297.601	99.19
297.831	87.19
298.062	81.19
298.292	83.19
298.523	90.19
298.753	85.19
298.984	92.19
299.214	83.19
299.445	91.19
299.675	83.19
299.905	110.19
300.136	83.19
300.366	98.19
300.597	83.19
300.827	103.19
301.057	106.19
301.288	94.19
301.518	85.19
301.748	94.19
301.979	101.19
302.209	81.19
302.439	80.19
302.669	78.19
302.9	91.19
303.13	99.19
303.36	90.19
303.59	85.19
303.82	104.19
304.051	98.19
304.281	81.19
304.511	95.19
304.741	82.19
304.971	81.19
305.201	93.19
305.431	98.19
305.661	88.19
305.891	91.19
306.121	95.19
306.352	89.19
306.582	109.19
306.812	88.19
307.042	88.19
307.272	74.19
307.502	88.19
307.731	87.19
307.961	81.19
308.191	94.19
308.421	88.19
308.651	90.19
308.881	83.19
309.111	99.19
309.341	90.19
309.571	91.19
309.8	84.19
310.03	81.19
310.26	79.19
310.49	82.19
310.72	87.19
310.949	96.19
311.179	87.19
311.409	80.19
311.639	95.19
311.868	91.19
312.098	87.19
312.328	86.19
312.557	92.19
312.787	93.19
313.017	94.19
313.246	77.19
313.476	92.19
313.706	94.19
313.935	98.19
314.165	100.19
314.394	93.19
314.624	94.19
314.853	98.19
315.083	87.19
315.312	93.19
315.542	79.19
315.771	97.19
316.001	74.19
316.23	100.19
316.46	78.19
316.689	95.19
316.919	87.19
317.148	79.19
317.377	89.19
317.607	92.19
317.836	99.19
318.065	95.19
318.295	82.19
318.524	91.19
318.753	85.19
318.983	84.19
319.212	117.19
319.441	94.19
319.67	109.19
319.9	86.19
320.129	87.19
320.358	95.19
320.587	75.19
320.816	88.19
321.046	92.19
321.275	91.19
321.504	77.19
321.733	91.19
321.962	96.19
322.191	89.19
322.42	98.19
322.649	100.19
322.878	103.19
323.108	100.19
323.337	98.19
323.566	125.19
323.795	132.19
324.024	166.19
324.253	299.19
324.482	610.19
324.71	1276.19
324.939	1651.19
325.168	637.19
325.397	203.19
325.626	155.19
325.855	120.19
326.084	119.19
326.313	121.19
326.542	135.19
326.77	193.19
326.999	368.19
327.228	735.19
327.457	1305.19
327.686	993.19
327.914	296.19
328.143	178.19
328.372	132.19
328.6	96.19
328.829	113.19
329.058	107.19
329.287	119.19
329.515	84.19
329.744	93.19
329.972	96.19
330.201	103.19
330.43	94.19
330.658	107.19
330.887	123.19
331.115	116.19
331.344	101.19
331.572	82.19
331.801	96.19
332.03	93.19
332.258	96.19
332.486	83.19
332.715	96.19
332.943	89.19
333.172	97.19
333.4	88.19
333.629	88.19
333.857	97.19
334.085	100.19
334.314	97.19
334.542	84.19
334.771	88.19
334.999	92.19
335.227	93.19
335.455	92.19
335.684	89.19
335.912	84.19
336.14	113.19
336.369	90.19
336.597	92.19
336.825	91.19
337.053	96.19
337.281	106.19
337.51	92.19
337.738	91.19
337.966	86.19
338.194	82.19
338.422	105.19
338.65	93.19
338.878	66.19
339.106	94.19
339.334	78.19
339.562	99.19
339.79	84.19
340.018	95.19
340.246	99.19
340.474	81.19
340.702	91.19
340.93	95.19
341.158	88.19
341.386	90.19
341.614	101.19
341.842	99.19
342.07	88.19
342.298	95.19
342.526	79.19
342.754	87.19
342.981	81.19
343.209	78.19
343.437	93.19
343.665	84.19
343.893	92.19
344.12	99.19
344.348	81.19
344.576	89.19
344.804	80.19
345.031	99.19
345.259	81.19
345.487	90.19
345.714	91.19
345.942	96.19
346.17	103.19
346.397	94.19
346.625	84.19
346.853	89.19
347.08	86.19
347.308	88.19
347.535	83.19
347.763	77.19
347.99	73.19
348.218	103.19
348.445	86.19
348.673	88.19
348.9	94.19
349.128	93.19
349.355	84.19
349.583	90.19
349.81	98.19
350.037	91.19
350.265	77.19
350.492	91.19
350.72	95.19
350.947	79.19
351.174	104.19
351.402	98.19
351.629	102.19
351.856	93.19
352.083	101.19
352.311	115.19
352.538	95.19
352.765	105.19
352.992	95.19
353.22	100.19
353.447	105.19
353.674	95.19
353.901	92.19
354.128	98.19
354.355	96.19
354.583	94.19
354.81	109.19
355.037	103.19
355.264	92.19
355.491	90.19
355.718	95.19
355.945	95.19
356.172	101.19
356.399	81.19
356.626	94.19
356.853	83.19
357.08	79.19
357.307	101.19
357.534	92.19
357.761	88.19
357.988	90.19
358.215	97.19
358.441	83.19
358.668	87.19
358.895	92.19
359.122	91.19
359.349	92.19
359.576	85.19
359.802	81.19
360.029	92.19
360.256	96.19
360.483	98.19
360.709	90.19
360.936	101.19
361.163	96.19
361.39	86.19
361.616	85.19
361.843	87.19
362.07	85.19
362.296	92.19
362.523	91.19
362.749	86.19
362.976	76.19
363.203	92.19
363.429	88.19
363.656	86.19
363.882	93.19
364.109	85.19
364.335	85.19
364.562	71.19
364.788	97.19
365.015	80.19
365.241	99.19
365.468	120.19
365.694	107.19
365.92	96.19
366.147	93.19
366.373	83.19
366.599	91.19
366.826	90.19
367.052	86.19
367.278	76.19
367.505	72.19
367.731	87.19
367.957	90.19
368.184	80.19
368.41	84.19
368.636	104.19
368.862	108.19
369.089	110.19
369.315	82.19
369.541	70.19
369.767	68.19
369.993	81.19
370.219	84.19
370.445	99.19
370.672	83.19
370.898	90.19
371.124	90.19
371.35	73.19
371.576	87.19
371.802	77.19
372.028	91.19
372.254	90.19
372.48	79.19
372.706	81.19
372.932	79.19
373.158	85.19
373.384	91.19
373.61	87.19
373.835	101.19
374.061	97.19
374.287	79.19
374.513	81.19
374.739	117.19
374.965	80.19
375.191	82.19
375.416	76.19
375.642	88.19
375.868	91.19
376.094	91.19
376.319	98.19
376.545	92.19
376.771	80.19
376.997	88.19
377.222	88.19
377.448	89.19
377.674	81.19
377.899	89.19
378.125	97.19
378.35	82.19
378.576	81.19
378.802	89.19
379.027	107.19
379.253	76.19
379.478	99.19
379.704	97.19
379.929	74.19
380.155	97.19
380.38	82.19
380.606	95.19
380.831	91.19
381.057	85.19
381.282	92.19
381.507	91.19
381.733	99.19
381.958	89.19
382.184	98.19
382.409	90.19
382.634	88.19
382.86	96.19
383.085	100.19
383.31	95.19
383.535	91.19
383.761	83.19
383.986	88.19
384.211	98.19
384.436	106.19
384.662	96.19
384.887	98.19
385.112	114.19
385.337	103.19
385.562	92.19
385.787	100.19
386.013	79.19
386.238	117.19
386.463	103.19
386.688	118.19
386.913	112.19
387.138	105.19
387.363	99.19
387.588	98.19
387.813	106.19
388.038	93.19
388.263	99.19
388.488	101.19
388.713	103.19
388.938	102.19
389.163	94.19
389.387	96.19
389.612	86.19
389.837	94.19
390.062	85.19
390.287	69.19
390.512	87.19
390.736	94.19
390.961	88.19
391.186	104.19
391.411	100.19
391.636	97.19
391.86	99.19
392.085	81.19
392.31	99.19
392.534	87.19
392.759	88.19
392.984	81.19
393.208	93.19
393.433	89.19
393.658	86.19
393.882	104.19
394.107	68.19
394.331	96.19
394.556	86.19
394.78	78.19
395.005	87.19
395.229	87.19
395.454	90.19
395.678	102.19
395.903	87.19
396.127	81.19
396.352	89.19
396.576	93.19
396.801	94.19
397.025	87.19
397.249	81.19
397.474	81.19
397.698	76.19
397.922	93.19
398.147	82.19
398.371	83.19
398.595	88.19
398.82	99.19
399.044	89.19
399.268	87.19
399.492	106.19
399.717	75.19
399.941	88.19
400.165	95.19
400.389	95.19
400.613	91.19
400.837	86.19
401.062	88.19
401.286	83.19
401.51	77.19
401.734	85.19
401.958	82.19
402.182	106.19
402.406	122.19
402.63	110.19
402.854	75.19
403.078	91.19
403.302	84.19
403.526	93.19
403.75	87.19
403.974	84.19
404.198	92.19
404.422	77.19
404.645	89.19
404.869	105.19
405.093	84.19
405.317	95.19
405.541	72.19
405.765	77.19
405.988	110.19
406.212	130.19
406.436	194.19
406.66	125.19
406.883	83.19
407.107	69.19
407.331	92.19
407.555	99.19
407.778	93.19
408.002	100.19
408.226	73.19
408.449	88.19
408.673	92.19
408.896	96.19
409.12	101.19
409.344	99.19
409.567	90.19
409.791	84.19
410.014	75.19
410.238	103.19
410.461	88.19
410.685	95.19
410.908	81.19
411.132	105.19
411.355	92.19
411.578	89.19
411.802	91.19
412.025	100.19
412.249	92.19
412.472	79.19
412.695	101.19
412.919	97.19
413.142	82.19
413.365	99.19
413.589	96.19
413.812	84.19
414.035	104.19
414.258	81.19
414.482	97.19
414.705	92.19
414.928	81.19
415.151	89.19
415.374	83.19
415.597	80.19
415.821	93.19
416.044	85.19
416.267	83.19
416.49	82.19
416.713	90.19
416.936	94.19
417.159	91.19
417.382	92.19
417.605	73.19
417.828	90.19
418.051	98.19
418.274	92.19
418.497	96.19
418.72	91.19
418.943	92.19
419.166	82.19
419.389	99.19
419.611	87.19
419.834	87.19
420.057	88.19
420.28	91.19
420.503	85.19
420.726	97.19
420.948	86.19
421.171	98.19
421.394	83.19
421.617	99.19
421.839	96.19
422.062	102.19
422.285	100.19
422.507	91.19
422.73	107.19
422.953	96.19
423.175	91.19
423.398	71.19
423.621	83.19
423.843	81.19
424.066	88.19
424.288	95.19
424.511	91.19
424.733	113.19
424.956	96.19
425.178	99.19
425.401	113.19
425.623	97.19
425.846	94.19
426.068	90.19
426.291	87.19
426.513	88.19
426.735	84.19
426.958	98.19
427.18	104.19
427.402	114.19
427.625	137.19
427.847	121.19
428.069	97.19
428.292	92.19
428.514	87.19
428.736	76.19
428.958	80.19
429.181	80.19
429.403	78.19
429.625	86.19
429.847	82.19
430.069	84.19
430.292	96.19
430.514	97.19
430.736	98.19
430.958	86.19
431.18	89.19
431.402	88.19
431.624	83.19
431.846	87.19
432.068	92.19
432.29	95.19
432.512	85.19
432.734	75.19
432.956	97.19
433.178	88.19
433.4	75.19
433.622	90.19
433.844	85.19
434.066	98.19
434.287	93.19
434.509	82.19
434.731	95.19
434.953	87.19
435.175	81.19
435.397	93.19
435.618	83.19
435.84	94.19
436.062	103.19
436.284	113.19
436.505	108.19
436.727	88.19
436.949	86.19
437.17	84.19
437.392	90.19
437.614	88.19
437.835	107.19
438.057	107.19
438.278	80.19
438.5	110.19
438.721	126.19
438.943	89.19
439.165	96.19
439.386	101.19
439.608	88.19
439.829	91.19
440.05	121.19
440.272	135.19
440.493	97.19
440.715	93.19
440.936	87.19
441.158	82.19
441.379	84.19
441.6	82.19
441.822	104.19
442.043	106.19
442.264	85.19
442.486	101.19
442.707	95.19
442.928	92.19
443.149	109.19
443.371	112.19
443.592	92.19
443.813	97.19
444.034	97.19
444.255	93.19
444.476	88.19
444.698	86.19
444.919	76.19
445.14	122.19
445.361	111.19
445.582	100.19
445.803	115.19
446.024	116.19
446.245	122.19
446.466	103.19
446.687	98.19
446.908	89.19
447.129	75.19
447.35	87.19
447.571	81.19
447.792	93.19
448.013	86.19
448.234	89.19
448.455	92.19
448.675	87.19
448.896	121.19
449.117	85.19
449.338	90.19
449.559	127.19
449.779	115.19
450	95.19
450.221	81.19
450.442	92.19
450.662	81.19
450.883	95.19
451.104	91.19
451.324	80.19
451.545	89.19
451.766	80.19
451.986	76.19
452.207	107.19
452.428	80.19
452.648	104.19
452.869	97.19
453.089	107.19
453.31	106.19
453.53	88.19
453.751	95.19
453.971	94.19
454.192	103.19
454.412	86.19
454.633	88.19
454.853	95.19
455.073	72.19
455.294	93.19
455.514	88.19
455.734	80.19
455.955	104.19
456.175	86.19
456.395	89.19
456.616	101.19
456.836	93.19
457.056	82.19
457.276	88.19
457.497	89.19
457.717	88.19
457.937	81.19
458.157	83.19
458.377	98.19
458.598	100.19
458.818	116.19
459.038	129.19
459.258	95.19
459.478	102.19
459.698	89.19
459.918	82.19
460.138	99.19
460.358	85.19
460.578	73.19
460.798	86.19
461.018	90.19
461.238	78.19
461.458	91.19
461.678	80.19
461.898	95.19
462.118	91.19
462.338	81.19
462.558	93.19
462.777	87.19
462.997	86.19
463.217	92.19
463.437	87.19
463.657	84.19
463.876	98.19
464.096	89.19
464.316	87.19
464.536	89.19
464.755	95.19
464.975	100.19
465.195	124.19
465.414	138.19
465.634	87.19
465.854	88.19
466.073	85.19
466.293	85.19
466.512	87.19
466.732	86.19
466.951	72.19
467.171	88.19
467.391	101.19
467.61	101.19
467.829	80.19
468.049	75.19
468.268	91.19
468.488	82.19
468.707	85.19
468.927	77.19
469.146	97.19
469.365	92.19
469.585	84.19
469.804	99.19
470.023	90.19
470.243	87.19
470.462	92.19
470.681	102.19
470.901	100.19
471.12	82.19
471.339	92.19
471.558	82.19
471.777	93.19
471.997	92.19
472.216	90.19
472.435	98.19
472.654	88.19
472.873	85.19
473.092	88.19
473.311	83.19
473.53	89.19
473.749	99.19
473.968	95.19
474.187	89.19
474.406	101.19
474.625	89.19
474.844	81.19
475.063	86.19
475.282	89.19
475.501	89.19
475.72	89.19
475.939	82.19
476.158	87.19
476.377	85.19
476.596	88.19
476.814	94.19
477.033	91.19
477.252	95.19
477.471	90.19
477.69	90.19
477.908	81.19
478.127	82.19
478.346	87.19
478.564	83.19
478.783	91.19
479.002	105.19
479.22	92.19
479.439	100.19
479.658	84.19
479.876	90.19
480.095	95.19
480.313	96.19
480.532	93.19
480.751	94.19
480.969	106.19
481.188	107.19
481.406	99.19
481.624	92.19
481.843	84.19
482.061	90.19
482.28	84.19
482.498	96.19
482.717	85.19
482.935	95.19
483.153	76.19
483.372	102.19
483.59	83.19
483.808	87.19
484.027	80.19
484.245	93.19
484.463	79.19
484.681	93.19
484.9	81.19
485.118	106.19
485.336	85.19
485.554	94.19
485.772	107.19
485.99	110.19
486.209	109.19
486.427	102.19
486.645	100.19
486.863	99.19
487.081	101.19
487.299	99.19
487.517	93.19
487.735	106.19
487.953	97.19
488.171	91.19
488.389	89.19
488.607	98.19
488.825	89.19
489.043	85.19
489.261	87.19
489.479	89.19
489.696	91.19
489.914	82.19
490.132	92.19
490.35	76.19
490.568	93.19
490.786	92.19
491.003	87.19
491.221	73.19
491.439	96.19
491.657	101.19
491.874	98.19
492.092	86.19
492.31	104.19
492.527	97.19
492.745	92.19
492.963	80.19
493.18	87.19
493.398	82.19
493.615	102.19
493.833	85.19
494.05	74.19
494.268	80.19
494.485	85.19
494.703	87.19
494.92	79.19
495.138	77.19
495.355	74.19
495.573	91.19
495.79	80.19
496.008	91.19
496.225	87.19
496.442	104.19
496.66	93.19
496.877	91.19
497.094	94.19
497.312	81.19
497.529	85.19
497.746	87.19
497.963	88.19
498.181	104.19
498.398	83.19
498.615	101.19
498.832	96.19
499.049	85.19
499.267	96.19
499.484	104.19
499.701	103.19
499.918	100.19
500.135	81.19
500.352	79.19
500.569	97.19
500.786	94.19
501.003	75.19
501.22	90.19
501.437	106.19
501.654	84.19
501.871	97.19
502.088	75.19
502.305	80.19
502.522	87.19
502.739	87.19
502.956	94.19
503.172	92.19
503.389	93.19
503.606	83.19
503.823	94.19
504.04	81.19
504.256	89.19
504.473	99.19
504.69	88.19
504.907	99.19
505.123	94.19
505.34	84.19
505.557	95.19
505.773	93.19
505.99	105.19
506.207	99.19
506.423	95.19
506.64	88.19
506.856	99.19
507.073	88.19
507.289	83.19
507.506	93.19
507.722	109.19
507.939	106.19
508.155	100.19
508.372	89.19
508.588	96.19
508.805	89.19
509.021	97.19
509.238	104.19
509.454	95.19
509.67	92.19
509.887	102.19
510.103	113.19
510.319	187.19
510.536	637.19
510.752	1849.19
510.968	520.19
511.184	136.19
511.401	110.19
511.617	92.19
511.833	99.19
512.049	84.19
512.265	95.19
512.481	87.19
512.698	91.19
512.914	97.19
513.13	95.19
513.346	85.19
513.562	112.19
513.778	94.19
513.994	93.19
514.21	94.19
514.426	97.19
514.642	114.19
514.858	111.19
515.074	146.19
515.29	375.19
515.506	1088.19
515.721	413.19
515.937	134.19
516.153	99.19
516.369	95.19
516.585	106.19
516.801	89.19
517.016	101.19
