Data from Uncirc_1993_H10_HRD10591_00069.txt Node
Date: Wed Jan 03 11:43:06 EST 2024
User: Yrep
Spectrometer: HR+D1059
Trigger mode: 1
Integration Time (sec): 1.000000E-1
Scans to average: 1
Electric dark correction enabled: true
Nonlinearity correction enabled: false
Boxcar width: 0
XAxis mode: Wavelengths
Number of Pixels in Spectrum: 2048
>>>>>Begin Spectral Data<<<<<
223.165	-15.69
223.4	-15.69
223.635	-15.69
223.869	-7.69
224.104	-25.69
224.338	-27.69
224.573	-21.69
224.808	-9.69
225.042	0.31
225.277	-1.69
225.511	-2.69
225.746	-1.69
225.98	11.31
226.215	16.31
226.449	13.31
226.683	16.31
226.918	23.31
227.152	33.31
227.387	31.31
227.621	28.31
227.856	59.31
228.09	44.31
228.324	44.31
228.559	49.31
228.793	51.31
229.027	39.31
229.262	57.31
229.496	64.31
229.73	66.31
229.964	59.31
230.199	67.31
230.433	64.31
230.667	71.31
230.901	78.31
231.136	68.31
231.37	72.31
231.604	79.31
231.838	77.31
232.072	88.31
232.306	84.31
232.541	70.31
232.775	84.31
233.009	70.31
233.243	83.31
233.477	76.31
233.711	84.31
233.945	66.31
234.179	67.31
234.413	73.31
234.647	84.31
234.881	78.31
235.115	80.31
235.349	84.31
235.583	71.31
235.817	72.31
236.051	79.31
236.285	82.31
236.519	84.31
236.753	73.31
236.987	66.31
237.221	73.31
237.455	80.31
237.689	77.31
237.922	79.31
238.156	80.31
238.39	62.31
238.624	66.31
238.858	57.31
239.091	72.31
239.325	84.31
239.559	62.31
239.793	69.31
240.027	84.31
240.26	70.31
240.494	87.31
240.728	78.31
240.961	77.31
241.195	77.31
241.429	71.31
241.662	55.31
241.896	72.31
242.13	75.31
242.363	76.31
242.597	78.31
242.83	75.31
243.064	67.31
243.298	82.31
243.531	74.31
243.765	77.31
243.998	70.31
244.232	75.31
244.465	78.31
244.699	85.31
244.932	84.31
245.166	74.31
245.399	75.31
245.633	70.31
245.866	77.31
246.099	78.31
246.333	80.31
246.566	71.31
246.8	73.31
247.033	77.31
247.266	76.31
247.5	77.31
247.733	75.31
247.966	74.31
248.2	86.31
248.433	74.31
248.666	73.31
248.899	73.31
249.133	96.31
249.366	105.31
249.599	102.31
249.832	86.31
250.066	81.31
250.299	89.31
250.532	77.31
250.765	83.31
250.998	79.31
251.231	77.31
251.465	74.31
251.698	66.31
251.931	67.31
252.164	55.31
252.397	66.31
252.63	77.31
252.863	76.31
253.096	76.31
253.329	60.31
253.562	78.31
253.795	73.31
254.028	68.31
254.261	70.31
254.494	68.31
254.727	89.31
254.96	65.31
255.193	75.31
255.426	79.31
255.659	72.31
255.892	71.31
256.124	75.31
256.357	74.31
256.59	62.31
256.823	76.31
257.056	79.31
257.289	91.31
257.521	90.31
257.754	75.31
257.987	64.31
258.22	79.31
258.452	84.31
258.685	86.31
258.918	85.31
259.151	76.31
259.383	76.31
259.616	89.31
259.849	71.31
260.081	79.31
260.314	74.31
260.547	86.31
260.779	81.31
261.012	79.31
261.244	80.31
261.477	88.31
261.71	113.31
261.942	111.31
262.175	107.31
262.407	78.31
262.64	80.31
262.872	79.31
263.105	80.31
263.337	85.31
263.57	79.31
263.802	83.31
264.035	84.31
264.267	86.31
264.499	60.31
264.732	88.31
264.964	78.31
265.197	67.31
265.429	84.31
265.661	72.31
265.894	89.31
266.126	78.31
266.358	82.31
266.591	61.31
266.823	68.31
267.055	88.31
267.287	82.31
267.52	70.31
267.752	73.31
267.984	85.31
268.216	75.31
268.448	91.31
268.681	73.31
268.913	86.31
269.145	79.31
269.377	83.31
269.609	79.31
269.841	87.31
270.073	90.31
270.306	78.31
270.538	78.31
270.77	67.31
271.002	82.31
271.234	84.31
271.466	96.31
271.698	81.31
271.93	81.31
272.162	81.31
272.394	88.31
272.626	91.31
272.858	95.31
273.09	79.31
273.322	94.31
273.553	84.31
273.785	79.31
274.017	75.31
274.249	91.31
274.481	87.31
274.713	87.31
274.945	89.31
275.176	75.31
275.408	82.31
275.64	91.31
275.872	67.31
276.104	86.31
276.335	75.31
276.567	90.31
276.799	107.31
277.031	105.31
277.262	94.31
277.494	94.31
277.726	76.31
277.957	92.31
278.189	88.31
278.421	78.31
278.652	79.31
278.884	74.31
279.115	90.31
279.347	84.31
279.579	83.31
279.81	84.31
280.042	77.31
280.273	97.31
280.505	83.31
280.736	76.31
280.968	90.31
281.199	72.31
281.431	87.31
281.662	83.31
281.894	94.31
282.125	86.31
282.356	109.31
282.588	121.31
282.819	109.31
283.051	85.31
283.282	85.31
283.513	82.31
283.745	82.31
283.976	79.31
284.207	72.31
284.439	81.31
284.67	90.31
284.901	72.31
285.132	73.31
285.364	65.31
285.595	79.31
285.826	90.31
286.057	83.31
286.288	80.31
286.52	85.31
286.751	86.31
286.982	79.31
287.213	74.31
287.444	75.31
287.675	90.31
287.906	78.31
288.138	73.31
288.369	99.31
288.6	90.31
288.831	66.31
289.062	82.31
289.293	78.31
289.524	67.31
289.755	82.31
289.986	88.31
290.217	80.31
290.448	78.31
290.679	81.31
290.91	88.31
291.141	86.31
291.371	97.31
291.602	97.31
291.833	84.31
292.064	90.31
292.295	92.31
292.526	84.31
292.757	92.31
292.987	73.31
293.218	78.31
293.449	83.31
293.68	70.31
293.91	76.31
294.141	78.31
294.372	89.31
294.603	101.31
294.833	81.31
295.064	75.31
295.295	87.31
295.525	89.31
295.756	94.31
295.987	92.31
296.217	131.31
296.448	110.31
296.679	95.31
296.909	76.31
297.14	90.31
297.37	89.31
297.601	88.31
297.831	92.31
298.062	90.31
298.292	83.31
298.523	95.31
298.753	87.31
298.984	87.31
299.214	101.31
299.445	70.31
299.675	88.31
299.905	90.31
300.136	83.31
300.366	97.31
300.597	88.31
300.827	88.31
301.057	76.31
301.288	100.31
301.518	87.31
301.748	89.31
301.979	99.31
302.209	90.31
302.439	96.31
302.669	80.31
302.9	89.31
303.13	73.31
303.36	94.31
303.59	90.31
303.82	82.31
304.051	89.31
304.281	83.31
304.511	83.31
304.741	89.31
304.971	78.31
305.201	79.31
305.431	95.31
305.661	99.31
305.891	93.31
306.121	98.31
306.352	98.31
306.582	97.31
306.812	88.31
307.042	83.31
307.272	85.31
307.502	88.31
307.731	89.31
307.961	95.31
308.191	101.31
308.421	92.31
308.651	92.31
308.881	90.31
309.111	95.31
309.341	90.31
309.571	91.31
309.8	87.31
310.03	81.31
310.26	98.31
310.49	97.31
310.72	94.31
310.949	87.31
311.179	99.31
311.409	75.31
311.639	86.31
311.868	94.31
312.098	88.31
312.328	90.31
312.557	88.31
312.787	83.31
313.017	81.31
313.246	91.31
313.476	78.31
313.706	102.31
313.935	94.31
314.165	92.31
314.394	89.31
314.624	99.31
314.853	94.31
315.083	78.31
315.312	93.31
315.542	84.31
315.771	81.31
316.001	93.31
316.23	78.31
316.46	88.31
316.689	95.31
316.919	103.31
317.148	90.31
317.377	90.31
317.607	90.31
317.836	95.31
318.065	84.31
318.295	96.31
318.524	70.31
318.753	82.31
318.983	93.31
319.212	98.31
319.441	95.31
319.67	94.31
319.9	96.31
320.129	80.31
320.358	103.31
320.587	90.31
320.816	97.31
321.046	90.31
321.275	102.31
321.504	100.31
321.733	88.31
321.962	87.31
322.191	106.31
322.42	92.31
322.649	105.31
322.878	113.31
323.108	111.31
323.337	107.31
323.566	125.31
323.795	142.31
324.024	184.31
324.253	317.31
324.482	676.31
324.71	1344.31
324.939	1794.31
325.168	669.31
325.397	218.31
325.626	132.31
325.855	124.31
326.084	101.31
326.313	119.31
326.542	140.31
326.77	191.31
326.999	381.31
327.228	754.31
327.457	1360.31
327.686	1115.31
327.914	304.31
328.143	170.31
328.372	129.31
328.6	119.31
328.829	103.31
329.058	116.31
329.287	124.31
329.515	115.31
329.744	91.31
329.972	93.31
330.201	91.31
330.43	111.31
330.658	128.31
330.887	118.31
331.115	98.31
331.344	95.31
331.572	96.31
331.801	96.31
332.03	97.31
332.258	110.31
332.486	97.31
332.715	95.31
332.943	87.31
333.172	91.31
333.4	100.31
333.629	95.31
333.857	113.31
334.085	107.31
334.314	94.31
334.542	88.31
334.771	87.31
334.999	80.31
335.227	89.31
335.455	103.31
335.684	94.31
335.912	96.31
336.14	92.31
336.369	98.31
336.597	82.31
336.825	83.31
337.053	95.31
337.281	72.31
337.51	82.31
337.738	98.31
337.966	83.31
338.194	97.31
338.422	98.31
338.65	92.31
338.878	100.31
339.106	83.31
339.334	96.31
339.562	102.31
339.79	86.31
340.018	89.31
340.246	84.31
340.474	84.31
340.702	82.31
340.93	109.31
341.158	92.31
341.386	94.31
341.614	82.31
341.842	98.31
342.07	88.31
342.298	78.31
342.526	83.31
342.754	91.31
342.981	88.31
343.209	92.31
343.437	90.31
343.665	80.31
343.893	82.31
344.12	90.31
344.348	83.31
344.576	84.31
344.804	98.31
345.031	81.31
345.259	87.31
345.487	94.31
345.714	88.31
345.942	84.31
346.17	88.31
346.397	87.31
346.625	92.31
346.853	88.31
347.08	74.31
347.308	99.31
347.535	90.31
347.763	104.31
347.99	106.31
348.218	94.31
348.445	81.31
348.673	93.31
348.9	93.31
349.128	78.31
349.355	95.31
349.583	86.31
349.81	98.31
350.037	90.31
350.265	96.31
350.492	97.31
350.72	95.31
350.947	107.31
351.174	90.31
351.402	82.31
351.629	89.31
351.856	91.31
352.083	108.31
352.311	106.31
352.538	100.31
352.765	101.31
352.992	110.31
353.22	97.31
353.447	99.31
353.674	100.31
353.901	88.31
354.128	84.31
354.355	96.31
354.583	100.31
354.81	106.31
355.037	98.31
355.264	100.31
355.491	99.31
355.718	88.31
355.945	91.31
356.172	89.31
356.399	98.31
356.626	95.31
356.853	92.31
357.08	98.31
357.307	90.31
357.534	104.31
357.761	88.31
357.988	92.31
358.215	94.31
358.441	90.31
358.668	83.31
358.895	90.31
359.122	87.31
359.349	83.31
359.576	87.31
359.802	78.31
360.029	111.31
360.256	110.31
360.483	104.31
360.709	85.31
360.936	93.31
361.163	84.31
361.39	91.31
361.616	94.31
361.843	84.31
362.07	92.31
362.296	97.31
362.523	90.31
362.749	88.31
362.976	96.31
363.203	102.31
363.429	89.31
363.656	85.31
363.882	93.31
364.109	99.31
364.335	82.31
364.562	88.31
364.788	94.31
365.015	94.31
365.241	92.31
365.468	98.31
365.694	93.31
365.92	103.31
366.147	102.31
366.373	90.31
366.599	92.31
366.826	76.31
367.052	75.31
367.278	71.31
367.505	82.31
367.731	83.31
367.957	97.31
368.184	86.31
368.41	91.31
368.636	113.31
368.862	116.31
369.089	98.31
369.315	106.31
369.541	88.31
369.767	83.31
369.993	91.31
370.219	94.31
370.445	92.31
370.672	88.31
370.898	85.31
371.124	100.31
371.35	77.31
371.576	90.31
371.802	79.31
372.028	87.31
372.254	79.31
372.48	86.31
372.706	81.31
372.932	109.31
373.158	81.31
373.384	84.31
373.61	91.31
373.835	80.31
374.061	87.31
374.287	90.31
374.513	104.31
374.739	94.31
374.965	80.31
375.191	88.31
375.416	88.31
375.642	83.31
375.868	86.31
376.094	89.31
376.319	91.31
376.545	80.31
376.771	85.31
376.997	93.31
377.222	96.31
377.448	93.31
377.674	83.31
377.899	91.31
378.125	80.31
378.35	94.31
378.576	93.31
378.802	94.31
379.027	89.31
379.253	92.31
379.478	86.31
379.704	103.31
379.929	98.31
380.155	92.31
380.38	96.31
380.606	86.31
380.831	95.31
381.057	88.31
381.282	82.31
381.507	112.31
381.733	79.31
381.958	82.31
382.184	101.31
382.409	81.31
382.634	97.31
382.86	99.31
383.085	98.31
383.31	100.31
383.535	89.31
383.761	81.31
383.986	88.31
384.211	99.31
384.436	99.31
384.662	98.31
384.887	80.31
385.112	108.31
385.337	88.31
385.562	88.31
385.787	111.31
386.013	106.31
386.238	104.31
386.463	88.31
386.688	117.31
386.913	105.31
387.138	112.31
387.363	100.31
387.588	113.31
387.813	90.31
388.038	104.31
388.263	104.31
388.488	96.31
388.713	88.31
388.938	81.31
389.163	89.31
389.387	90.31
389.612	98.31
389.837	87.31
390.062	92.31
390.287	85.31
390.512	82.31
390.736	99.31
390.961	77.31
391.186	111.31
391.411	100.31
391.636	100.31
391.86	74.31
392.085	85.31
392.31	91.31
392.534	85.31
392.759	95.31
392.984	80.31
393.208	89.31
393.433	81.31
393.658	92.31
393.882	95.31
394.107	101.31
394.331	91.31
394.556	80.31
394.78	96.31
395.005	84.31
395.229	77.31
395.454	83.31
395.678	96.31
395.903	101.31
396.127	91.31
396.352	74.31
396.576	74.31
396.801	83.31
397.025	75.31
397.249	95.31
397.474	97.31
397.698	83.31
397.922	93.31
398.147	73.31
398.371	80.31
398.595	79.31
398.82	86.31
399.044	78.31
399.268	82.31
399.492	75.31
399.717	79.31
399.941	89.31
400.165	94.31
400.389	92.31
400.613	76.31
400.837	85.31
401.062	89.31
401.286	84.31
401.51	84.31
401.734	87.31
401.958	93.31
402.182	111.31
402.406	135.31
402.63	99.31
402.854	88.31
403.078	75.31
403.302	67.31
403.526	84.31
403.75	86.31
403.974	86.31
404.198	79.31
404.422	77.31
404.645	75.31
404.869	79.31
405.093	84.31
405.317	81.31
405.541	84.31
405.765	79.31
405.988	106.31
406.212	167.31
406.436	192.31
406.66	120.31
406.883	101.31
407.107	99.31
407.331	96.31
407.555	97.31
407.778	95.31
408.002	92.31
408.226	95.31
408.449	79.31
408.673	84.31
408.896	90.31
409.12	94.31
409.344	94.31
409.567	91.31
409.791	80.31
410.014	94.31
410.238	87.31
410.461	100.31
410.685	90.31
410.908	94.31
411.132	99.31
411.355	98.31
411.578	80.31
411.802	78.31
412.025	78.31
412.249	82.31
412.472	91.31
412.695	82.31
412.919	92.31
413.142	88.31
413.365	87.31
413.589	80.31
413.812	90.31
414.035	98.31
414.258	76.31
414.482	79.31
414.705	99.31
414.928	88.31
415.151	99.31
415.374	82.31
415.597	86.31
415.821	94.31
416.044	81.31
416.267	75.31
416.49	96.31
416.713	90.31
416.936	82.31
417.159	84.31
417.382	97.31
417.605	91.31
417.828	93.31
418.051	99.31
418.274	85.31
418.497	85.31
418.72	99.31
418.943	96.31
419.166	82.31
419.389	94.31
419.611	87.31
419.834	84.31
420.057	83.31
420.28	67.31
420.503	88.31
420.726	81.31
420.948	86.31
421.171	89.31
421.394	103.31
421.617	94.31
421.839	87.31
422.062	82.31
422.285	94.31
422.507	79.31
422.73	93.31
422.953	83.31
423.175	91.31
423.398	82.31
423.621	76.31
423.843	93.31
424.066	92.31
424.288	82.31
424.511	93.31
424.733	97.31
424.956	93.31
425.178	96.31
425.401	90.31
425.623	96.31
425.846	73.31
426.068	90.31
426.291	99.31
426.513	80.31
426.735	89.31
426.958	90.31
427.18	93.31
427.402	123.31
427.625	136.31
427.847	108.31
428.069	108.31
428.292	92.31
428.514	87.31
428.736	94.31
428.958	84.31
429.181	74.31
429.403	87.31
429.625	74.31
429.847	82.31
430.069	98.31
430.292	94.31
430.514	79.31
430.736	89.31
430.958	90.31
431.18	83.31
431.402	82.31
431.624	80.31
431.846	87.31
432.068	79.31
432.29	90.31
432.512	76.31
432.734	95.31
432.956	93.31
433.178	87.31
433.4	90.31
433.622	96.31
433.844	93.31
434.066	80.31
434.287	78.31
434.509	74.31
434.731	82.31
434.953	81.31
435.175	90.31
435.397	77.31
435.618	79.31
435.84	94.31
436.062	108.31
436.284	109.31
436.505	88.31
436.727	82.31
436.949	97.31
437.17	88.31
437.392	97.31
437.614	81.31
437.835	90.31
438.057	112.31
438.278	103.31
438.5	91.31
438.721	121.31
438.943	103.31
439.165	95.31
439.386	80.31
439.608	75.31
439.829	89.31
440.05	116.31
440.272	123.31
440.493	98.31
440.715	89.31
440.936	90.31
441.158	79.31
441.379	91.31
441.6	85.31
441.822	98.31
442.043	91.31
442.264	94.31
442.486	96.31
442.707	86.31
442.928	95.31
443.149	109.31
443.371	120.31
443.592	104.31
443.813	99.31
444.034	106.31
444.255	94.31
444.476	77.31
444.698	84.31
444.919	87.31
445.14	118.31
445.361	110.31
445.582	103.31
445.803	134.31
446.024	118.31
446.245	118.31
446.466	108.31
446.687	100.31
446.908	96.31
447.129	82.31
447.35	91.31
447.571	87.31
447.792	102.31
448.013	102.31
448.234	114.31
448.455	97.31
448.675	91.31
448.896	113.31
449.117	91.31
449.338	106.31
449.559	120.31
449.779	126.31
450	86.31
450.221	79.31
450.442	85.31
450.662	83.31
450.883	90.31
451.104	103.31
451.324	84.31
451.545	93.31
451.766	83.31
451.986	79.31
452.207	97.31
452.428	96.31
452.648	87.31
452.869	104.31
453.089	110.31
453.31	114.31
453.53	96.31
453.751	93.31
453.971	104.31
454.192	102.31
454.412	90.31
454.633	98.31
454.853	90.31
455.073	81.31
455.294	88.31
455.514	92.31
455.734	101.31
455.955	93.31
456.175	71.31
456.395	88.31
456.616	75.31
456.836	83.31
457.056	79.31
457.276	80.31
457.497	88.31
457.717	78.31
457.937	81.31
458.157	68.31
458.377	79.31
458.598	100.31
458.818	140.31
459.038	131.31
459.258	101.31
459.478	87.31
459.698	88.31
459.918	97.31
460.138	90.31
460.358	88.31
460.578	94.31
460.798	73.31
461.018	96.31
461.238	73.31
461.458	83.31
461.678	81.31
461.898	87.31
462.118	87.31
462.338	90.31
462.558	88.31
462.777	70.31
462.997	75.31
463.217	98.31
463.437	83.31
463.657	82.31
463.876	99.31
464.096	100.31
464.316	90.31
464.536	98.31
464.755	91.31
464.975	111.31
465.195	158.31
465.414	155.31
465.634	87.31
465.854	94.31
466.073	86.31
466.293	82.31
466.512	80.31
466.732	84.31
466.951	95.31
467.171	94.31
467.391	101.31
467.61	89.31
467.829	95.31
468.049	82.31
468.268	84.31
468.488	83.31
468.707	77.31
468.927	81.31
469.146	68.31
469.365	82.31
469.585	90.31
469.804	83.31
470.023	92.31
470.243	81.31
470.462	99.31
470.681	100.31
470.901	91.31
471.12	84.31
471.339	83.31
471.558	79.31
471.777	76.31
471.997	82.31
472.216	87.31
472.435	91.31
472.654	91.31
472.873	89.31
473.092	90.31
473.311	91.31
473.53	88.31
473.749	90.31
473.968	72.31
474.187	102.31
474.406	98.31
474.625	75.31
474.844	78.31
475.063	73.31
475.282	73.31
475.501	78.31
475.72	86.31
475.939	80.31
476.158	81.31
476.377	78.31
476.596	95.31
476.814	85.31
477.033	85.31
477.252	74.31
477.471	79.31
477.69	96.31
477.908	95.31
478.127	75.31
478.346	84.31
478.564	76.31
478.783	79.31
479.002	95.31
479.22	90.31
479.439	109.31
479.658	103.31
479.876	93.31
480.095	86.31
480.313	94.31
480.532	83.31
480.751	70.31
480.969	83.31
481.188	106.31
481.406	88.31
481.624	98.31
481.843	84.31
482.061	80.31
482.28	88.31
482.498	84.31
482.717	79.31
482.935	91.31
483.153	88.31
483.372	86.31
483.59	92.31
483.808	83.31
484.027	84.31
484.245	82.31
484.463	89.31
484.681	80.31
484.9	90.31
485.118	97.31
485.336	86.31
485.554	99.31
485.772	94.31
485.99	98.31
486.209	102.31
486.427	91.31
486.645	111.31
486.863	107.31
487.081	104.31
487.299	88.31
487.517	81.31
487.735	90.31
487.953	82.31
488.171	91.31
488.389	90.31
488.607	99.31
488.825	88.31
489.043	98.31
489.261	88.31
489.479	77.31
489.696	82.31
489.914	68.31
490.132	94.31
490.35	77.31
490.568	84.31
490.786	90.31
491.003	79.31
491.221	81.31
491.439	104.31
491.657	96.31
491.874	92.31
492.092	82.31
492.31	99.31
492.527	97.31
492.745	81.31
492.963	92.31
493.18	86.31
493.398	90.31
493.615	98.31
493.833	89.31
494.05	88.31
494.268	86.31
494.485	100.31
494.703	95.31
494.92	80.31
495.138	91.31
495.355	80.31
495.573	72.31
495.79	80.31
496.008	98.31
496.225	97.31
496.442	91.31
496.66	85.31
496.877	79.31
497.094	90.31
497.312	82.31
497.529	78.31
497.746	89.31
497.963	104.31
498.181	84.31
498.398	104.31
498.615	95.31
498.832	89.31
499.049	90.31
499.267	92.31
499.484	80.31
499.701	75.31
499.918	92.31
500.135	89.31
500.352	83.31
500.569	94.31
500.786	85.31
501.003	73.31
501.22	82.31
501.437	83.31
501.654	94.31
501.871	102.31
502.088	83.31
502.305	86.31
502.522	93.31
502.739	91.31
502.956	80.31
503.172	94.31
503.389	90.31
503.606	105.31
503.823	80.31
504.04	86.31
504.256	92.31
504.473	87.31
504.69	86.31
504.907	87.31
505.123	92.31
505.34	83.31
505.557	91.31
505.773	86.31
505.99	70.31
506.207	92.31
506.423	83.31
506.64	79.31
506.856	88.31
507.073	94.31
507.289	65.31
507.506	99.31
507.722	98.31
507.939	101.31
508.155	88.31
508.372	92.31
508.588	79.31
508.805	91.31
509.021	97.31
509.238	102.31
509.454	106.31
509.67	101.31
509.887	95.31
510.103	119.31
510.319	207.31
510.536	718.31
510.752	2168.31
510.968	604.31
511.184	140.31
511.401	101.31
511.617	96.31
511.833	99.31
512.049	92.31
512.265	86.31
512.481	80.31
512.698	87.31
512.914	88.31
513.13	86.31
513.346	86.31
513.562	93.31
513.778	96.31
513.994	92.31
514.21	81.31
514.426	104.31
514.642	103.31
514.858	119.31
515.074	160.31
515.29	413.31
515.506	1318.31
515.721	463.31
515.937	137.31
516.153	118.31
516.369	89.31
516.585	84.31
516.801	94.31
517.016	88.31
517.232	85.31
