Data from Uncirc_1993_H10_HRD10591_00024.txt Node
Date: Wed Jan 03 11:42:57 EST 2024
User: Yrep
Spectrometer: HR+D1059
Trigger mode: 1
Integration Time (sec): 1.000000E-1
Scans to average: 1
Electric dark correction enabled: true
Nonlinearity correction enabled: false
Boxcar width: 0
XAxis mode: Wavelengths
Number of Pixels in Spectrum: 2048
>>>>>Begin Spectral Data<<<<<
223.165	-15
223.4	-15
223.635	-15
223.869	-16
224.104	-20
224.338	-2
224.573	-18
224.808	-14
225.042	-12
225.277	-10
225.511	-10
225.746	5
225.98	0
226.215	7
226.449	20
226.683	28
226.918	27
227.152	30
227.387	25
227.621	39
227.856	40
228.09	45
228.324	44
228.559	64
228.793	166
229.027	400
229.262	459
229.496	518
229.73	705
229.964	716
230.199	487
230.433	442
230.667	454
230.901	421
231.136	415
231.37	421
231.604	426
231.838	431
232.072	433
232.306	437
232.541	447
232.775	444
233.009	458
233.243	448
233.477	461
233.711	475
233.945	496
234.179	487
234.413	471
234.647	488
234.881	472
235.115	497
235.349	502
235.583	513
235.817	547
236.051	585
236.285	561
236.519	593
236.753	635
236.987	848
237.221	1233
237.455	1325
237.689	825
237.922	660
238.156	685
238.39	635
238.624	601
238.858	601
239.091	594
239.325	630
239.559	621
239.793	641
240.027	706
240.26	838
240.494	851
240.728	849
240.961	822
241.195	758
241.429	735
241.662	734
241.896	709
242.13	695
242.363	732
242.597	751
242.83	792
243.064	767
243.298	783
243.531	797
243.765	780
243.998	804
244.232	806
244.465	847
244.699	831
244.932	859
245.166	821
245.399	858
245.633	836
245.866	855
246.099	858
246.333	877
246.566	861
246.8	926
247.033	944
247.266	1006
247.5	1024
247.733	1061
247.966	1053
248.2	1074
248.433	1083
248.666	1125
248.899	1229
249.133	1306
249.366	1285
249.599	1233
249.832	1091
250.066	1100
250.299	1153
250.532	1245
250.765	1392
250.998	1536
251.231	1467
251.465	1362
251.698	1339
251.931	1284
252.164	1305
252.397	1315
252.63	1365
252.863	1442
253.096	1533
253.329	1609
253.562	1502
253.795	1432
254.028	1430
254.261	1511
254.494	1644
254.727	1909
254.96	1983
255.193	1763
255.426	1592
255.659	1505
255.892	1481
256.124	1426
256.357	1428
256.59	1452
256.823	1389
257.056	1433
257.289	1440
257.521	1431
257.754	1416
257.987	1449
258.22	1442
258.452	1447
258.685	1446
258.918	1448
259.151	1525
259.383	1564
259.616	1591
259.849	1652
260.081	1744
260.314	1920
260.547	1855
260.779	1737
261.012	1671
261.244	1602
261.477	1568
261.71	1575
261.942	1626
262.175	1664
262.407	1600
262.64	1541
262.872	1531
263.105	1548
263.337	1545
263.57	1570
263.802	1583
264.035	1584
264.267	1609
264.499	1581
264.732	1584
264.964	1593
265.197	1620
265.429	1613
265.661	1601
265.894	1645
266.126	1639
266.358	1633
266.591	1710
266.823	1765
267.055	1755
267.287	1778
267.52	1709
267.752	1746
267.984	1793
268.216	1791
268.448	1799
268.681	1869
268.913	1981
269.145	2142
269.377	2169
269.609	2118
269.841	2105
270.073	2198
270.306	2390
270.538	2563
270.77	2442
271.002	2316
271.234	2297
271.466	2406
271.698	2468
271.93	2491
272.162	2534
272.394	2447
272.626	2355
272.858	2227
273.09	2151
273.322	2114
273.553	2093
273.785	2099
274.017	2099
274.249	2097
274.481	2138
274.713	2151
274.945	2147
275.176	2117
275.408	2085
275.64	2163
275.872	2153
276.104	2129
276.335	2163
276.567	2279
276.799	2405
277.031	2547
277.262	2596
277.494	2525
277.726	2363
277.957	2329
278.189	2284
278.421	2249
278.652	2233
278.884	2270
279.115	2257
279.347	2246
279.579	2268
279.81	2255
280.042	2215
280.273	2243
280.505	2275
280.736	2310
280.968	2319
281.199	2309
281.431	2355
281.662	2315
281.894	2360
282.125	2387
282.356	2538
282.588	2609
282.819	2561
283.051	2380
283.282	2390
283.513	2431
283.745	2475
283.976	2540
284.207	2491
284.439	2496
284.67	2415
284.901	2530
285.132	2524
285.364	2480
285.595	2530
285.826	2500
286.057	2550
286.288	2485
286.52	2524
286.751	2587
286.982	2555
287.213	2599
287.444	2625
287.675	2663
287.906	2689
288.138	2777
288.369	2756
288.6	2763
288.831	2734
289.062	2717
289.293	2730
289.524	2692
289.755	2679
289.986	2686
290.217	2682
290.448	2700
290.679	2630
290.91	2638
291.141	2678
291.371	2719
291.602	2654
291.833	2656
292.064	2681
292.295	2718
292.526	2713
292.757	2721
292.987	2676
293.218	2736
293.449	2769
293.68	2704
293.91	2728
294.141	2725
294.372	2724
294.603	2726
294.833	2708
295.064	2783
295.295	2750
295.525	2733
295.756	2797
295.987	2845
296.217	3050
296.448	2912
296.679	2824
296.909	2835
297.14	2878
297.37	2935
297.601	2870
297.831	2892
298.062	2905
298.292	2960
298.523	2997
298.753	2963
298.984	2946
299.214	2935
299.445	2987
299.675	2953
299.905	3006
300.136	2941
300.366	3008
300.597	3027
300.827	3160
301.057	3191
301.288	3248
301.518	3154
301.748	3184
301.979	3233
302.209	3276
302.439	3212
302.669	3217
302.9	3191
303.13	3107
303.36	3206
303.59	3236
303.82	3242
304.051	3207
304.281	3187
304.511	3116
304.741	3147
304.971	3161
305.201	3143
305.431	3134
305.661	3106
305.891	3115
306.121	3177
306.352	3147
306.582	3124
306.812	3106
307.042	3100
307.272	3121
307.502	3145
307.731	3151
307.961	3142
308.191	3067
308.421	3151
308.651	3156
308.881	3127
309.111	3159
309.341	3216
309.571	3239
309.8	3328
310.03	3351
310.26	3398
310.49	3330
310.72	3475
310.949	3515
311.179	3506
311.409	3425
311.639	3461
311.868	3458
312.098	3428
312.328	3569
312.557	3666
312.787	3685
313.017	3617
313.246	3589
313.476	3554
313.706	3593
313.935	3617
314.165	3709
314.394	3745
314.624	3701
314.853	3639
315.083	3613
315.312	3571
315.542	3526
315.771	3558
316.001	3485
316.23	3494
316.46	3507
316.689	3546
316.919	3531
317.148	3552
317.377	3580
317.607	3525
317.836	3539
318.065	3477
318.295	3513
318.524	3503
318.753	3480
318.983	3490
319.212	3514
319.441	3590
319.67	3568
319.9	3518
320.129	3497
320.358	3505
320.587	3556
320.816	3629
321.046	3579
321.275	3655
321.504	3649
321.733	3678
321.962	3688
322.191	3806
322.42	3876
322.649	3825
322.878	3955
323.108	4078
323.337	4263
323.566	4332
323.795	4619
324.024	5055
324.253	6558
324.482	9691
324.71	14204
324.939	15623
325.168	10406
325.397	5910
325.626	4845
325.855	4539
326.084	4390
326.313	4461
326.542	4587
326.77	5174
326.999	6429
327.228	9184
327.457	13120
327.686	12006
327.914	6501
328.143	5242
328.372	4939
328.6	4766
328.829	4739
329.058	4910
329.287	4873
329.515	4592
329.744	4402
329.972	4433
330.201	4564
330.43	4760
330.658	4930
330.887	5197
331.115	4921
331.344	4577
331.572	4587
331.801	4648
332.03	4693
332.258	4708
332.486	4716
332.715	4828
332.943	4958
333.172	5043
333.4	5140
333.629	5303
333.857	5305
334.085	5263
334.314	5193
334.542	5114
334.771	5085
334.999	4966
335.227	4925
335.455	4870
335.684	4830
335.912	4773
336.14	4663
336.369	4772
336.597	4738
336.825	4671
337.053	4671
337.281	4575
337.51	4498
337.738	4523
337.966	4517
338.194	4511
338.422	4345
338.65	4371
338.878	4334
339.106	4301
339.334	4370
339.562	4221
339.79	4142
340.018	4117
340.246	4204
340.474	4198
340.702	4213
340.93	4221
341.158	4210
341.386	4212
341.614	4215
341.842	4143
342.07	4059
342.298	4131
342.526	4157
342.754	4136
342.981	4161
343.209	4248
343.437	4415
343.665	4703
343.893	4923
344.12	4967
344.348	4693
344.576	4550
344.804	4581
345.031	4375
345.259	4388
345.487	4235
345.714	4135
345.942	4098
346.17	4043
346.397	3985
346.625	3988
346.853	3961
347.08	3999
347.308	4009
347.535	4086
347.763	4081
347.99	4048
348.218	4121
348.445	4113
348.673	3990
348.9	3964
349.128	3993
349.355	3877
349.583	3917
349.81	3852
350.037	3867
350.265	3859
350.492	3881
350.72	3873
350.947	3943
351.174	3964
351.402	3981
351.629	3907
351.856	3933
352.083	4021
352.311	3979
352.538	4009
352.765	4001
352.992	3923
353.22	3941
353.447	3878
353.674	3794
353.901	3787
354.128	3845
354.355	3804
354.583	3788
354.81	3778
355.037	3809
355.264	3828
355.491	3842
355.718	3765
355.945	3827
356.172	3814
356.399	3801
356.626	3796
356.853	3841
357.08	3754
357.307	3745
357.534	3731
357.761	3824
357.988	3828
358.215	3840
358.441	3857
358.668	3755
358.895	3875
359.122	3899
359.349	4002
359.576	4029
359.802	4166
360.029	4217
360.256	4306
360.483	4105
360.709	4044
360.936	3965
361.163	4015
361.39	4029
361.616	4031
361.843	3913
362.07	3958
362.296	3975
362.523	3932
362.749	3981
362.976	3974
363.203	3837
363.429	3831
363.656	3843
363.882	3888
364.109	3811
364.335	3848
364.562	3829
364.788	3839
365.015	3891
365.241	3841
365.468	3897
365.694	3869
365.92	3892
366.147	3842
366.373	3851
366.599	3843
366.826	3772
367.052	3844
367.278	3865
367.505	3847
367.731	3950
367.957	3904
368.184	3951
368.41	4047
368.636	4076
368.862	4042
369.089	3949
369.315	3885
369.541	3994
369.767	3970
369.993	3937
370.219	3950
370.445	3980
370.672	3994
370.898	4108
371.124	4129
371.35	4205
371.576	4153
371.802	4077
372.028	4137
372.254	4179
372.48	4150
372.706	4290
372.932	4350
373.158	4283
373.384	4202
373.61	4169
373.835	4166
374.061	4216
374.287	4249
374.513	4292
374.739	4405
374.965	4521
375.191	4573
375.416	4483
375.642	4315
375.868	4349
376.094	4255
376.319	4279
376.545	4251
376.771	4226
376.997	4146
377.222	4138
377.448	4225
377.674	4144
377.899	4129
378.125	4075
378.35	4074
378.576	4077
378.802	4086
379.027	4131
379.253	4124
379.478	4087
379.704	4175
379.929	4125
380.155	4147
380.38	4151
380.606	4180
380.831	4105
381.057	4181
381.282	4135
381.507	4119
381.733	4261
381.958	4200
382.184	4281
382.409	4400
382.634	4297
382.86	4414
383.085	4387
383.31	4481
383.535	4553
383.761	4613
383.986	4710
384.211	4802
384.436	4887
384.662	4941
384.887	4958
385.112	4987
385.337	5003
385.562	5005
385.787	5035
386.013	5076
386.238	5141
386.463	5110
386.688	5053
386.913	4952
387.138	4976
387.363	4982
387.588	4928
387.813	4946
388.038	4899
388.263	4998
388.488	5063
388.713	4962
388.938	4900
389.163	4882
389.387	4896
389.612	4897
389.837	4912
390.062	4881
390.287	4955
390.512	4965
390.736	5019
390.961	5099
391.186	5095
391.411	5262
391.636	5356
391.86	5533
392.085	5664
392.31	5522
392.534	5340
392.759	5336
392.984	5203
393.208	5118
393.433	5205
393.658	5208
393.882	5148
394.107	5179
394.331	5200
394.556	5245
394.78	5211
395.005	5292
395.229	5319
395.454	5557
395.678	5619
395.903	5570
396.127	5612
396.352	5483
396.576	5286
396.801	5224
397.025	5339
397.249	5461
397.474	5583
397.698	5611
397.922	5722
398.147	5849
398.371	5882
398.595	6071
398.82	6284
399.044	6874
399.268	7684
399.492	8637
399.717	9365
399.941	8934
400.165	8334
400.389	7692
400.613	6957
400.837	6553
401.062	6406
401.286	6273
401.51	6289
401.734	6203
401.958	6410
402.182	6483
402.406	6562
402.63	6715
402.854	6703
403.078	6786
403.302	6989
403.526	7043
403.75	6976
403.974	7124
404.198	7057
404.422	7201
404.645	7098
404.869	6979
405.093	7088
405.317	7212
405.541	7220
405.765	7007
405.988	6899
406.212	7130
406.436	7278
406.66	7382
406.883	7439
407.107	8035
407.331	8495
407.555	8936
407.778	8525
408.002	7885
408.226	7574
408.449	7413
408.673	7340
408.896	7477
409.12	7660
409.344	7226
409.567	6882
409.791	6835
410.014	6666
410.238	6733
410.461	6748
410.685	6810
410.908	6797
411.132	6993
411.355	7050
411.578	6650
411.802	6429
412.025	6442
412.249	6613
412.472	6573
412.695	6437
412.919	6278
413.142	6212
413.365	6163
413.589	6183
413.812	6199
414.035	6062
414.258	6160
414.482	6207
414.705	6204
414.928	6166
415.151	6131
415.374	6165
415.597	6067
415.821	5990
416.044	5963
416.267	5949
416.49	5945
416.713	5959
416.936	6083
417.159	6017
417.382	6148
417.605	6018
417.828	6293
418.051	6374
418.274	6254
418.497	6108
418.72	6277
418.943	6276
419.166	6644
419.389	6949
419.611	6865
419.834	6637
420.057	6484
420.28	6334
420.503	6150
420.726	6189
420.948	6336
421.171	6676
421.394	6702
421.617	6299
421.839	6205
422.062	6291
422.285	6538
422.507	7133
422.73	7545
422.953	7015
423.175	6658
423.398	6733
423.621	6652
423.843	6949
424.066	6884
424.288	6864
424.511	6941
424.733	7405
424.956	7794
425.178	7267
425.401	7463
425.623	7327
425.846	6401
426.068	6300
426.291	6221
426.513	6240
426.735	6377
426.958	6707
427.18	7355
427.402	8453
427.625	8354
427.847	7093
428.069	6318
428.292	6058
428.514	5839
428.736	5701
428.958	5746
429.181	5577
429.403	5566
429.625	5778
429.847	6014
430.069	6491
430.292	5997
430.514	5534
430.736	5491
430.958	5467
431.18	5410
431.402	5427
431.624	5375
431.846	5469
432.068	5500
432.29	5618
432.512	5459
432.734	5581
432.956	5542
433.178	5607
433.4	5522
433.622	5517
433.844	5542
434.066	5541
434.287	5641
434.509	5848
434.731	5985
434.953	6204
435.175	6267
435.397	6330
435.618	6315
435.84	6627
436.062	7340
436.284	7247
436.505	6165
436.727	5886
436.949	5691
437.17	5564
437.392	5498
437.614	5704
437.835	6051
438.057	6889
438.278	7460
438.5	7341
438.721	8103
438.943	7104
439.165	6061
439.386	5841
439.608	5940
439.829	5978
440.05	6309
440.272	6629
440.493	6073
440.715	5878
440.936	5798
441.158	5929
441.379	5971
441.6	6226
441.822	6503
442.043	6951
442.264	7596
442.486	7225
442.707	6550
442.928	6355
443.149	6579
443.371	6717
443.592	7339
443.813	8150
444.034	8102
444.255	7193
444.476	6963
444.698	7106
444.919	7340
445.14	7146
445.361	6869
445.582	6964
445.803	7372
446.024	8061
446.245	7612
446.466	6921
446.687	6139
446.908	5858
447.129	5561
447.35	5406
447.571	5410
447.792	5337
448.013	5415
448.234	5617
448.455	6131
448.675	7145
448.896	7481
449.117	6326
449.338	6557
449.559	7629
449.779	7765
450	6029
450.221	5428
450.442	5293
450.662	5140
450.883	5166
451.104	5349
451.324	5188
451.545	5076
451.766	4957
451.986	4858
452.207	4840
452.428	4799
452.648	4862
452.869	4879
453.089	4908
453.31	4974
453.53	4840
453.751	4806
453.971	4777
454.192	4897
454.412	4715
454.633	4661
454.853	4688
455.073	4669
455.294	5107
455.514	5502
455.734	4996
455.955	4581
456.175	4496
456.395	4453
456.616	4361
456.836	4393
457.056	4470
457.276	4318
457.497	4575
457.717	4541
457.937	4550
458.157	4611
458.377	4794
458.598	5125
458.818	5628
459.038	6325
459.258	6189
459.478	5615
459.698	5546
459.918	5660
460.138	5862
460.358	5976
460.578	5962
460.798	6120
461.018	6106
461.238	6096
461.458	5969
461.678	5950
461.898	6130
462.118	6144
462.338	6451
462.558	6567
462.777	6895
462.997	7611
463.217	7819
463.437	7578
463.657	7087
463.876	6837
464.096	6900
464.316	6806
464.536	6990
464.755	6680
464.975	6542
465.195	6743
465.414	6658
465.634	5818
465.854	5552
466.073	5378
466.293	5307
466.512	5141
466.732	4995
466.951	5001
467.171	4970
467.391	5075
467.61	5114
467.829	5070
468.049	4919
468.268	4798
468.488	4738
468.707	4779
468.927	4801
469.146	4828
469.365	4862
469.585	4853
469.804	5044
470.023	5157
470.243	5115
470.462	5214
470.681	5367
470.901	5272
471.12	5073
471.339	5053
471.558	4963
471.777	4949
471.997	4862
472.216	4834
472.435	4861
472.654	4825
472.873	4760
473.092	4717
473.311	4717
473.53	4799
473.749	4877
473.968	5339
474.187	6196
474.406	5772
474.625	4997
474.844	4838
475.063	4789
475.282	4790
475.501	4861
475.72	4863
475.939	4923
476.158	4913
476.377	4923
476.596	4908
476.814	5086
477.033	5179
477.252	5220
477.471	5289
477.69	5405
477.908	5454
478.127	5662
478.346	5709
478.564	5775
478.783	5938
479.002	6119
479.22	6015
479.439	6083
479.658	6191
479.876	6191
480.095	6473
480.313	6789
480.532	6713
480.751	6460
480.969	6393
481.188	6347
481.406	6213
481.624	5889
481.843	5744
482.061	5712
482.28	5636
482.498	5645
482.717	5577
482.935	5539
483.153	5527
483.372	5523
483.59	5659
483.808	5643
484.027	5599
484.245	5598
484.463	5629
484.681	5771
484.9	5829
485.118	5767
485.336	5905
485.554	5906
485.772	5924
485.99	5913
486.209	5980
486.427	5988
486.645	6051
486.863	6111
487.081	6119
487.299	5922
487.517	5907
487.735	5918
487.953	5919
488.171	5967
488.389	5920
488.607	6013
488.825	6032
489.043	5987
489.261	6034
489.479	6006
489.696	6037
489.914	6172
490.132	6189
490.35	6302
490.568	6246
490.786	6412
491.003	6374
491.221	6499
491.439	6582
491.657	6549
491.874	6535
492.092	6642
492.31	6699
492.527	6708
492.745	6714
492.963	6813
493.18	6831
493.398	6994
493.615	6976
493.833	7053
494.05	6998
494.268	6974
494.485	7034
494.703	6992
494.92	7031
495.138	6998
495.355	7065
495.573	7041
495.79	6972
496.008	7038
496.225	7101
496.442	7119
496.66	7198
496.877	7169
497.094	7329
497.312	7435
497.529	7629
497.746	7848
497.963	8046
498.181	8417
498.398	8699
498.615	9057
498.832	9454
499.049	10019
499.267	10657
499.484	11442
499.701	12212
499.918	13012
500.135	13978
500.352	14591
500.569	14691
500.786	14507
501.003	14068
501.22	13289
501.437	12515
501.654	11650
501.871	11031
502.088	10226
502.305	9719
502.522	9214
502.739	8983
502.956	8478
503.172	8171
503.389	7975
503.606	7838
503.823	7729
504.04	7702
504.256	7724
504.473	7889
504.69	7905
504.907	7687
505.123	7316
505.34	7019
505.557	6803
505.773	6738
505.99	6690
506.207	6682
506.423	6549
506.64	6409
506.856	6386
507.073	6313
507.289	6252
507.506	6187
507.722	6355
507.939	6303
508.155	6121
508.372	5983
508.588	6002
508.805	5950
509.021	5958
509.238	6103
509.454	6119
509.67	5991
509.887	5866
510.103	5893
510.319	6026
510.536	7191
510.752	10286
510.968	6890
511.184	5770
511.401	5729
511.617	5594
511.833	5553
512.049	5505
512.265	5504
512.481	5505
512.698	5474
512.914	5535
513.13	5510
513.346	5513
513.562	5577
513.778	5491
513.994	5550
514.21	5651
514.426	5862
514.642	6149
514.858	6210
515.074	6449
515.29	7753
515.506	10121
515.721	7479
515.937	6410
516.153	6295
516.369	6218
516.585	6300
516.801	6498
517.016	6643
517.232	6953
517.448	7097
517.664	7278
517.879	7292
518.095	7111
518.311	6966
518.527	6725
518.742	6495
518.958	6241
519.173	6097
519.389	6059
519.605	5954
519.82	5839
520.036	5758
520.251	5971
520.467	5933
520.682	5919
520.898	5969
521.113	6025
521.329	6166
521.544	6697
521.76	8331
521.975	12701
522.19	9783
522.406	6336
522.621	5593
522.836	5342
523.052	5218
523.267	5101
523.482	4937
523.698	4941
523.913	4945
524.128	4860
524.343	4825
524.559	4741
524.774	4718
524.989	4710
525.204	4761
525.419	4716
525.634	4723
525.849	4651
526.064	4606
526.28	4595
526.495	4563
526.71	4563
526.925	4568
527.14	4580
527.355	4507
527.57	4534
527.785	4556
527.999	4506
528.214	4493
528.429	4547
528.644	4543
528.859	4538
529.074	4470
529.289	4651
529.503	5068
529.718	4857
529.933	4671
530.148	4625
530.363	4525
530.577	4507
530.792	4453
531.007	4453
531.221	4501
531.436	4525
531.651	4572
531.865	4470
532.08	4445
532.295	4484
532.509	4461
532.724	4447
532.938	4457
533.153	4446
533.367	4452
533.582	4368
533.796	4329
534.011	4427
534.225	4415
534.44	4332
534.654	4332
534.868	4300
535.083	4335
535.297	4354
535.511	4321
535.726	4406
535.94	4329
536.154	4255
536.369	4162
536.583	4168
536.797	4128
537.011	4170
537.225	4073
537.44	4139
537.654	4160
537.868	4116
538.082	4131
538.296	4134
538.51	4102
538.724	4073
538.938	4141
539.153	4016
539.367	4130
539.581	4025
539.795	4057
540.009	4005
540.222	3999
540.436	4037
540.65	4046
540.864	4086
541.078	4111
541.292	4038
541.506	3936
541.72	3940
541.934	3909
542.147	3900
