Data from Uncirc_1993_H10_HRD10591_00034.txt Node
Date: Wed Jan 03 11:42:59 EST 2024
User: Yrep
Spectrometer: HR+D1059
Trigger mode: 1
Integration Time (sec): 1.000000E-1
Scans to average: 1
Electric dark correction enabled: true
Nonlinearity correction enabled: false
Boxcar width: 0
XAxis mode: Wavelengths
Number of Pixels in Spectrum: 2048
>>>>>Begin Spectral Data<<<<<
223.165	-14.62
223.4	-14.62
223.635	-14.62
223.869	-6.62
224.104	-17.62
224.338	-18.62
224.573	-6.62
224.808	-18.62
225.042	-23.62
225.277	-13.62
225.511	-4.62
225.746	4.38
225.98	0.38
226.215	8.38
226.449	27.38
226.683	24.38
226.918	31.38
227.152	28.38
227.387	40.38
227.621	31.38
227.856	36.38
228.09	58.38
228.324	62.38
228.559	45.38
228.793	57.38
229.027	62.38
229.262	73.38
229.496	73.38
229.73	84.38
229.964	80.38
230.199	84.38
230.433	73.38
230.667	68.38
230.901	83.38
231.136	78.38
231.37	67.38
231.604	91.38
231.838	73.38
232.072	75.38
232.306	88.38
232.541	74.38
232.775	91.38
233.009	78.38
233.243	77.38
233.477	71.38
233.711	81.38
233.945	74.38
234.179	71.38
234.413	85.38
234.647	75.38
234.881	74.38
235.115	68.38
235.349	73.38
235.583	73.38
235.817	84.38
236.051	82.38
236.285	86.38
236.519	79.38
236.753	72.38
236.987	71.38
237.221	53.38
237.455	84.38
237.689	69.38
237.922	83.38
238.156	94.38
238.39	78.38
238.624	68.38
238.858	80.38
239.091	85.38
239.325	93.38
239.559	72.38
239.793	71.38
240.027	66.38
240.26	89.38
240.494	77.38
240.728	77.38
240.961	74.38
241.195	55.38
241.429	65.38
241.662	72.38
241.896	81.38
242.13	76.38
242.363	84.38
242.597	81.38
242.83	76.38
243.064	69.38
243.298	71.38
243.531	69.38
243.765	73.38
243.998	76.38
244.232	66.38
244.465	85.38
244.699	82.38
244.932	80.38
245.166	80.38
245.399	68.38
245.633	68.38
245.866	73.38
246.099	79.38
246.333	64.38
246.566	76.38
246.8	73.38
247.033	74.38
247.266	63.38
247.5	61.38
247.733	75.38
247.966	81.38
248.2	87.38
248.433	74.38
248.666	81.38
248.899	77.38
249.133	83.38
249.366	97.38
249.599	96.38
249.832	84.38
250.066	71.38
250.299	81.38
250.532	83.38
250.765	69.38
250.998	76.38
251.231	75.38
251.465	90.38
251.698	75.38
251.931	80.38
252.164	76.38
252.397	73.38
252.63	95.38
252.863	94.38
253.096	83.38
253.329	72.38
253.562	75.38
253.795	67.38
254.028	87.38
254.261	83.38
254.494	76.38
254.727	92.38
254.96	80.38
255.193	73.38
255.426	63.38
255.659	89.38
255.892	87.38
256.124	80.38
256.357	83.38
256.59	64.38
256.823	76.38
257.056	87.38
257.289	83.38
257.521	88.38
257.754	73.38
257.987	82.38
258.22	75.38
258.452	78.38
258.685	91.38
258.918	92.38
259.151	84.38
259.383	90.38
259.616	93.38
259.849	72.38
260.081	84.38
260.314	76.38
260.547	80.38
260.779	77.38
261.012	66.38
261.244	74.38
261.477	77.38
261.71	104.38
261.942	105.38
262.175	103.38
262.407	81.38
262.64	76.38
262.872	86.38
263.105	89.38
263.337	79.38
263.57	87.38
263.802	75.38
264.035	71.38
264.267	67.38
264.499	75.38
264.732	84.38
264.964	78.38
265.197	88.38
265.429	68.38
265.661	75.38
265.894	61.38
266.126	77.38
266.358	81.38
266.591	65.38
266.823	73.38
267.055	78.38
267.287	77.38
267.52	87.38
267.752	81.38
267.984	75.38
268.216	65.38
268.448	81.38
268.681	83.38
268.913	89.38
269.145	82.38
269.377	87.38
269.609	71.38
269.841	83.38
270.073	84.38
270.306	79.38
270.538	90.38
270.77	76.38
271.002	62.38
271.234	101.38
271.466	96.38
271.698	69.38
271.93	80.38
272.162	75.38
272.394	76.38
272.626	82.38
272.858	78.38
273.09	76.38
273.322	87.38
273.553	78.38
273.785	68.38
274.017	74.38
274.249	95.38
274.481	81.38
274.713	86.38
274.945	65.38
275.176	79.38
275.408	71.38
275.64	86.38
275.872	87.38
276.104	94.38
276.335	99.38
276.567	90.38
276.799	90.38
277.031	78.38
277.262	87.38
277.494	96.38
277.726	96.38
277.957	89.38
278.189	92.38
278.421	86.38
278.652	90.38
278.884	77.38
279.115	81.38
279.347	83.38
279.579	85.38
279.81	82.38
280.042	87.38
280.273	75.38
280.505	56.38
280.736	78.38
280.968	81.38
281.199	79.38
281.431	87.38
281.662	81.38
281.894	88.38
282.125	93.38
282.356	115.38
282.588	122.38
282.819	113.38
283.051	81.38
283.282	77.38
283.513	85.38
283.745	85.38
283.976	71.38
284.207	82.38
284.439	76.38
284.67	87.38
284.901	86.38
285.132	78.38
285.364	80.38
285.595	85.38
285.826	79.38
286.057	78.38
286.288	87.38
286.52	98.38
286.751	79.38
286.982	81.38
287.213	93.38
287.444	93.38
287.675	84.38
287.906	83.38
288.138	78.38
288.369	79.38
288.6	80.38
288.831	91.38
289.062	101.38
289.293	91.38
289.524	84.38
289.755	97.38
289.986	83.38
290.217	83.38
290.448	91.38
290.679	89.38
290.91	84.38
291.141	76.38
291.371	87.38
291.602	80.38
291.833	91.38
292.064	96.38
292.295	79.38
292.526	83.38
292.757	82.38
292.987	96.38
293.218	88.38
293.449	84.38
293.68	93.38
293.91	97.38
294.141	86.38
294.372	86.38
294.603	77.38
294.833	88.38
295.064	94.38
295.295	87.38
295.525	85.38
295.756	100.38
295.987	119.38
296.217	108.38
296.448	111.38
296.679	86.38
296.909	81.38
297.14	95.38
297.37	82.38
297.601	84.38
297.831	94.38
298.062	92.38
298.292	80.38
298.523	76.38
298.753	68.38
298.984	69.38
299.214	91.38
299.445	87.38
299.675	79.38
299.905	96.38
300.136	91.38
300.366	80.38
300.597	82.38
300.827	91.38
301.057	104.38
301.288	105.38
301.518	99.38
301.748	90.38
301.979	103.38
302.209	79.38
302.439	80.38
302.669	102.38
302.9	87.38
303.13	102.38
303.36	98.38
303.59	95.38
303.82	100.38
304.051	106.38
304.281	86.38
304.511	88.38
304.741	88.38
304.971	80.38
305.201	83.38
305.431	80.38
305.661	87.38
305.891	88.38
306.121	88.38
306.352	96.38
306.582	91.38
306.812	71.38
307.042	80.38
307.272	87.38
307.502	89.38
307.731	92.38
307.961	85.38
308.191	103.38
308.421	84.38
308.651	80.38
308.881	74.38
309.111	87.38
309.341	92.38
309.571	84.38
309.8	112.38
310.03	101.38
310.26	85.38
310.49	90.38
310.72	96.38
310.949	93.38
311.179	75.38
311.409	99.38
311.639	92.38
311.868	81.38
312.098	93.38
312.328	99.38
312.557	92.38
312.787	101.38
313.017	87.38
313.246	102.38
313.476	84.38
313.706	95.38
313.935	101.38
314.165	89.38
314.394	100.38
314.624	88.38
314.853	94.38
315.083	93.38
315.312	98.38
315.542	90.38
315.771	86.38
316.001	83.38
316.23	92.38
316.46	79.38
316.689	87.38
316.919	89.38
317.148	89.38
317.377	86.38
317.607	86.38
317.836	86.38
318.065	84.38
318.295	99.38
318.524	96.38
318.753	79.38
318.983	94.38
319.212	101.38
319.441	97.38
319.67	104.38
319.9	81.38
320.129	90.38
320.358	74.38
320.587	96.38
320.816	98.38
321.046	98.38
321.275	89.38
321.504	97.38
321.733	92.38
321.962	88.38
322.191	98.38
322.42	100.38
322.649	99.38
322.878	98.38
323.108	91.38
323.337	104.38
323.566	126.38
323.795	141.38
324.024	181.38
324.253	310.38
324.482	631.38
324.71	1227.38
324.939	1599.38
325.168	613.38
325.397	206.38
325.626	127.38
325.855	131.38
326.084	125.38
326.313	117.38
326.542	118.38
326.77	183.38
326.999	346.38
327.228	720.38
327.457	1216.38
327.686	988.38
327.914	288.38
328.143	162.38
328.372	126.38
328.6	106.38
328.829	120.38
329.058	109.38
329.287	121.38
329.515	95.38
329.744	99.38
329.972	90.38
330.201	91.38
330.43	104.38
330.658	108.38
330.887	116.38
331.115	104.38
331.344	98.38
331.572	82.38
331.801	105.38
332.03	100.38
332.258	98.38
332.486	91.38
332.715	90.38
332.943	98.38
333.172	100.38
333.4	92.38
333.629	99.38
333.857	114.38
334.085	72.38
334.314	87.38
334.542	82.38
334.771	95.38
334.999	90.38
335.227	85.38
335.455	107.38
335.684	96.38
335.912	103.38
336.14	105.38
336.369	91.38
336.597	86.38
336.825	95.38
337.053	78.38
337.281	75.38
337.51	87.38
337.738	94.38
337.966	100.38
338.194	96.38
338.422	106.38
338.65	92.38
338.878	87.38
339.106	89.38
339.334	75.38
339.562	95.38
339.79	92.38
340.018	91.38
340.246	77.38
340.474	90.38
340.702	83.38
340.93	99.38
341.158	85.38
341.386	80.38
341.614	98.38
341.842	87.38
342.07	112.38
342.298	91.38
342.526	81.38
342.754	86.38
342.981	93.38
343.209	96.38
343.437	94.38
343.665	92.38
343.893	88.38
344.12	89.38
344.348	92.38
344.576	90.38
344.804	99.38
345.031	99.38
345.259	84.38
345.487	84.38
345.714	101.38
345.942	104.38
346.17	93.38
346.397	92.38
346.625	85.38
346.853	92.38
347.08	83.38
347.308	104.38
347.535	106.38
347.763	111.38
347.99	113.38
348.218	89.38
348.445	97.38
348.673	99.38
348.9	99.38
349.128	99.38
349.355	82.38
349.583	107.38
349.81	95.38
350.037	97.38
350.265	90.38
350.492	90.38
350.72	93.38
350.947	107.38
351.174	104.38
351.402	103.38
351.629	108.38
351.856	111.38
352.083	90.38
352.311	99.38
352.538	98.38
352.765	105.38
352.992	107.38
353.22	116.38
353.447	102.38
353.674	100.38
353.901	105.38
354.128	103.38
354.355	84.38
354.583	99.38
354.81	92.38
355.037	89.38
355.264	94.38
355.491	88.38
355.718	100.38
355.945	98.38
356.172	79.38
356.399	92.38
356.626	99.38
356.853	106.38
357.08	93.38
357.307	88.38
357.534	91.38
357.761	94.38
357.988	92.38
358.215	81.38
358.441	103.38
358.668	82.38
358.895	81.38
359.122	85.38
359.349	87.38
359.576	87.38
359.802	112.38
360.029	91.38
360.256	91.38
360.483	92.38
360.709	86.38
360.936	98.38
361.163	85.38
361.39	94.38
361.616	88.38
361.843	101.38
362.07	84.38
362.296	104.38
362.523	97.38
362.749	89.38
362.976	108.38
363.203	106.38
363.429	91.38
363.656	90.38
363.882	96.38
364.109	107.38
364.335	89.38
364.562	82.38
364.788	94.38
365.015	99.38
365.241	99.38
365.468	105.38
365.694	96.38
365.92	98.38
366.147	86.38
366.373	92.38
366.599	100.38
366.826	93.38
367.052	85.38
367.278	94.38
367.505	92.38
367.731	94.38
367.957	89.38
368.184	93.38
368.41	90.38
368.636	101.38
368.862	121.38
369.089	98.38
369.315	90.38
369.541	97.38
369.767	100.38
369.993	91.38
370.219	84.38
370.445	77.38
370.672	75.38
370.898	83.38
371.124	95.38
371.35	77.38
371.576	82.38
371.802	90.38
372.028	85.38
372.254	91.38
372.48	95.38
372.706	86.38
372.932	87.38
373.158	81.38
373.384	97.38
373.61	99.38
373.835	98.38
374.061	78.38
374.287	94.38
374.513	94.38
374.739	87.38
374.965	90.38
375.191	92.38
375.416	85.38
375.642	99.38
375.868	93.38
376.094	85.38
376.319	84.38
376.545	90.38
376.771	66.38
376.997	92.38
377.222	92.38
377.448	91.38
377.674	87.38
377.899	98.38
378.125	90.38
378.35	78.38
378.576	86.38
378.802	84.38
379.027	104.38
379.253	87.38
379.478	101.38
379.704	80.38
379.929	99.38
380.155	83.38
380.38	94.38
380.606	89.38
380.831	96.38
381.057	104.38
381.282	86.38
381.507	100.38
381.733	97.38
381.958	94.38
382.184	94.38
382.409	111.38
382.634	91.38
382.86	84.38
383.085	87.38
383.31	101.38
383.535	104.38
383.761	89.38
383.986	104.38
384.211	73.38
384.436	88.38
384.662	86.38
384.887	100.38
385.112	86.38
385.337	79.38
385.562	93.38
385.787	107.38
386.013	112.38
386.238	97.38
386.463	101.38
386.688	102.38
386.913	114.38
387.138	99.38
387.363	100.38
387.588	104.38
387.813	101.38
388.038	100.38
388.263	103.38
388.488	104.38
388.713	87.38
388.938	106.38
389.163	101.38
389.387	99.38
389.612	105.38
389.837	99.38
390.062	114.38
390.287	105.38
390.512	83.38
390.736	99.38
390.961	79.38
391.186	85.38
391.411	87.38
391.636	102.38
391.86	82.38
392.085	93.38
392.31	78.38
392.534	99.38
392.759	90.38
392.984	97.38
393.208	83.38
393.433	83.38
393.658	88.38
393.882	75.38
394.107	85.38
394.331	97.38
394.556	88.38
394.78	101.38
395.005	89.38
395.229	74.38
395.454	99.38
395.678	90.38
395.903	81.38
396.127	84.38
396.352	75.38
396.576	101.38
396.801	72.38
397.025	81.38
397.249	93.38
397.474	88.38
397.698	99.38
397.922	89.38
398.147	78.38
398.371	92.38
398.595	74.38
398.82	79.38
399.044	89.38
399.268	78.38
399.492	98.38
399.717	85.38
399.941	94.38
400.165	91.38
400.389	79.38
400.613	94.38
400.837	89.38
401.062	87.38
401.286	89.38
401.51	96.38
401.734	109.38
401.958	99.38
402.182	122.38
402.406	138.38
402.63	112.38
402.854	83.38
403.078	84.38
403.302	81.38
403.526	95.38
403.75	92.38
403.974	97.38
404.198	83.38
404.422	69.38
404.645	81.38
404.869	84.38
405.093	94.38
405.317	99.38
405.541	88.38
405.765	91.38
405.988	116.38
406.212	165.38
406.436	204.38
406.66	119.38
406.883	96.38
407.107	92.38
407.331	80.38
407.555	95.38
407.778	90.38
408.002	81.38
408.226	88.38
408.449	88.38
408.673	81.38
408.896	100.38
409.12	105.38
409.344	100.38
409.567	96.38
409.791	109.38
410.014	76.38
410.238	99.38
410.461	86.38
410.685	97.38
410.908	81.38
411.132	102.38
411.355	97.38
411.578	96.38
411.802	86.38
412.025	88.38
412.249	88.38
412.472	89.38
412.695	99.38
412.919	100.38
413.142	92.38
413.365	92.38
413.589	97.38
413.812	105.38
414.035	84.38
414.258	85.38
414.482	71.38
414.705	99.38
414.928	89.38
415.151	90.38
415.374	97.38
415.597	95.38
415.821	80.38
416.044	84.38
416.267	89.38
416.49	101.38
416.713	85.38
416.936	91.38
417.159	85.38
417.382	88.38
417.605	87.38
417.828	96.38
418.051	92.38
418.274	75.38
418.497	74.38
418.72	95.38
418.943	82.38
419.166	91.38
419.389	93.38
419.611	85.38
419.834	96.38
420.057	92.38
420.28	98.38
420.503	80.38
420.726	84.38
420.948	98.38
421.171	83.38
421.394	105.38
421.617	87.38
421.839	93.38
422.062	102.38
422.285	77.38
422.507	88.38
422.73	88.38
422.953	100.38
423.175	82.38
423.398	102.38
423.621	84.38
423.843	95.38
424.066	88.38
424.288	95.38
424.511	79.38
424.733	99.38
424.956	76.38
425.178	103.38
425.401	114.38
425.623	98.38
425.846	89.38
426.068	102.38
426.291	89.38
426.513	95.38
426.735	100.38
426.958	101.38
427.18	84.38
427.402	108.38
427.625	141.38
427.847	107.38
428.069	96.38
428.292	101.38
428.514	93.38
428.736	87.38
428.958	77.38
429.181	80.38
429.403	88.38
429.625	91.38
429.847	95.38
430.069	94.38
430.292	100.38
430.514	97.38
430.736	85.38
430.958	88.38
431.18	75.38
431.402	88.38
431.624	87.38
431.846	87.38
432.068	78.38
432.29	89.38
432.512	86.38
432.734	92.38
432.956	90.38
433.178	96.38
433.4	91.38
433.622	83.38
433.844	88.38
434.066	81.38
434.287	91.38
434.509	83.38
434.731	92.38
434.953	83.38
435.175	89.38
435.397	109.38
435.618	87.38
435.84	97.38
436.062	108.38
436.284	108.38
436.505	102.38
436.727	98.38
436.949	86.38
437.17	83.38
437.392	74.38
437.614	95.38
437.835	103.38
438.057	115.38
438.278	110.38
438.5	89.38
438.721	113.38
438.943	103.38
439.165	99.38
439.386	71.38
439.608	96.38
439.829	87.38
440.05	123.38
440.272	123.38
440.493	93.38
440.715	83.38
440.936	87.38
441.158	73.38
441.379	93.38
441.6	104.38
441.822	97.38
442.043	83.38
442.264	107.38
442.486	94.38
442.707	92.38
442.928	92.38
443.149	130.38
443.371	97.38
443.592	100.38
443.813	105.38
444.034	108.38
444.255	83.38
444.476	95.38
444.698	83.38
444.919	88.38
445.14	130.38
445.361	111.38
445.582	100.38
445.803	126.38
446.024	105.38
446.245	98.38
446.466	116.38
446.687	83.38
446.908	83.38
447.129	100.38
447.35	96.38
447.571	94.38
447.792	76.38
448.013	96.38
448.234	108.38
448.455	100.38
448.675	113.38
448.896	113.38
449.117	105.38
449.338	98.38
449.559	116.38
449.779	126.38
450	98.38
450.221	77.38
450.442	90.38
450.662	99.38
450.883	97.38
451.104	103.38
451.324	99.38
451.545	85.38
451.766	94.38
451.986	83.38
452.207	88.38
452.428	96.38
452.648	87.38
452.869	101.38
453.089	123.38
453.31	104.38
453.53	82.38
453.751	88.38
453.971	100.38
454.192	110.38
454.412	91.38
454.633	74.38
454.853	84.38
455.073	91.38
455.294	82.38
455.514	96.38
455.734	79.38
455.955	78.38
456.175	86.38
456.395	95.38
456.616	77.38
456.836	73.38
457.056	73.38
457.276	87.38
457.497	83.38
457.717	100.38
457.937	93.38
458.157	84.38
458.377	71.38
458.598	92.38
458.818	129.38
459.038	131.38
459.258	104.38
459.478	85.38
459.698	83.38
459.918	91.38
460.138	78.38
460.358	75.38
460.578	83.38
460.798	87.38
461.018	83.38
461.238	89.38
461.458	93.38
461.678	89.38
461.898	76.38
462.118	66.38
462.338	73.38
462.558	83.38
462.777	88.38
462.997	84.38
463.217	94.38
463.437	81.38
463.657	93.38
463.876	88.38
464.096	89.38
464.316	79.38
464.536	81.38
464.755	88.38
464.975	99.38
465.195	159.38
465.414	132.38
465.634	95.38
465.854	81.38
466.073	75.38
466.293	100.38
466.512	85.38
466.732	78.38
466.951	87.38
467.171	102.38
467.391	109.38
467.61	93.38
467.829	101.38
468.049	97.38
468.268	65.38
468.488	84.38
468.707	82.38
468.927	76.38
469.146	80.38
469.365	91.38
469.585	89.38
469.804	97.38
470.023	104.38
470.243	79.38
470.462	111.38
470.681	102.38
470.901	86.38
471.12	91.38
471.339	78.38
471.558	79.38
471.777	90.38
471.997	77.38
472.216	90.38
472.435	112.38
472.654	91.38
472.873	89.38
473.092	83.38
473.311	81.38
473.53	88.38
473.749	96.38
473.968	89.38
474.187	92.38
474.406	83.38
474.625	90.38
474.844	103.38
475.063	92.38
475.282	75.38
475.501	76.38
475.72	79.38
475.939	87.38
476.158	83.38
476.377	75.38
476.596	79.38
476.814	81.38
477.033	101.38
477.252	88.38
477.471	87.38
477.69	92.38
477.908	85.38
478.127	100.38
478.346	97.38
478.564	101.38
478.783	94.38
479.002	89.38
479.22	90.38
479.439	83.38
479.658	95.38
479.876	101.38
480.095	82.38
480.313	96.38
480.532	89.38
480.751	90.38
480.969	91.38
481.188	128.38
481.406	95.38
481.624	86.38
481.843	73.38
482.061	75.38
482.28	93.38
482.498	77.38
482.717	73.38
482.935	105.38
483.153	75.38
483.372	79.38
483.59	97.38
483.808	87.38
484.027	81.38
484.245	88.38
484.463	95.38
484.681	98.38
484.9	76.38
485.118	84.38
485.336	98.38
485.554	89.38
485.772	101.38
485.99	83.38
486.209	95.38
486.427	102.38
486.645	84.38
486.863	97.38
487.081	101.38
487.299	97.38
487.517	95.38
487.735	90.38
487.953	91.38
488.171	82.38
488.389	96.38
488.607	92.38
488.825	88.38
489.043	83.38
489.261	91.38
489.479	85.38
489.696	92.38
489.914	86.38
490.132	95.38
490.35	91.38
490.568	92.38
490.786	80.38
491.003	77.38
491.221	91.38
491.439	61.38
491.657	96.38
491.874	92.38
492.092	88.38
492.31	92.38
492.527	99.38
492.745	90.38
492.963	94.38
493.18	104.38
493.398	80.38
493.615	103.38
493.833	101.38
494.05	83.38
494.268	101.38
494.485	110.38
494.703	88.38
494.92	79.38
495.138	93.38
495.355	94.38
495.573	87.38
495.79	83.38
496.008	95.38
496.225	93.38
496.442	100.38
496.66	93.38
496.877	93.38
497.094	91.38
497.312	89.38
497.529	83.38
497.746	102.38
497.963	89.38
498.181	93.38
498.398	93.38
498.615	103.38
498.832	106.38
499.049	85.38
499.267	81.38
499.484	67.38
499.701	90.38
499.918	93.38
500.135	79.38
500.352	86.38
500.569	85.38
500.786	89.38
501.003	88.38
501.22	67.38
501.437	84.38
501.654	92.38
501.871	94.38
502.088	87.38
502.305	94.38
502.522	98.38
502.739	89.38
502.956	90.38
503.172	78.38
503.389	92.38
503.606	104.38
503.823	105.38
504.04	87.38
504.256	115.38
504.473	80.38
504.69	104.38
504.907	91.38
505.123	83.38
505.34	84.38
505.557	91.38
505.773	72.38
505.99	64.38
506.207	88.38
506.423	93.38
506.64	78.38
506.856	91.38
507.073	98.38
507.289	104.38
507.506	100.38
507.722	95.38
507.939	104.38
508.155	95.38
508.372	90.38
508.588	76.38
508.805	89.38
509.021	80.38
509.238	89.38
509.454	97.38
509.67	99.38
509.887	106.38
510.103	126.38
510.319	199.38
510.536	657.38
510.752	1995.38
510.968	537.38
511.184	144.38
511.401	108.38
511.617	97.38
511.833	93.38
512.049	90.38
512.265	94.38
512.481	87.38
512.698	95.38
512.914	94.38
513.13	84.38
513.346	98.38
513.562	93.38
513.778	91.38
513.994	100.38
514.21	85.38
514.426	106.38
514.642	122.38
514.858	114.38
515.074	158.38
515.29	385.38
515.506	1139.38
515.721	438.38
515.937	139.38
516.153	106.38
516.369	91.38
