Data from Uncirc_1993_H10_HRD10591_00095.txt Node
Date: Wed Jan 03 11:43:11 EST 2024
User: Yrep
Spectrometer: HR+D1059
Trigger mode: 1
Integration Time (sec): 1.000000E-1
Scans to average: 1
Electric dark correction enabled: true
Nonlinearity correction enabled: false
Boxcar width: 0
XAxis mode: Wavelengths
Number of Pixels in Spectrum: 2048
>>>>>Begin Spectral Data<<<<<
223.165	-16.25
223.4	-16.25
223.635	-16.25
223.869	-22.25
224.104	-11.25
224.338	-19.25
224.573	-18.25
224.808	-29.25
225.042	7.75
225.277	9.75
225.511	-1.25
225.746	-3.25
225.98	14.75
226.215	1.75
226.449	15.75
226.683	15.75
226.918	28.75
227.152	26.75
227.387	27.75
227.621	36.75
227.856	36.75
228.09	50.75
228.324	44.75
228.559	49.75
228.793	52.75
229.027	62.75
229.262	65.75
229.496	75.75
229.73	75.75
229.964	72.75
230.199	65.75
230.433	71.75
230.667	74.75
230.901	71.75
231.136	77.75
231.37	80.75
231.604	66.75
231.838	71.75
232.072	81.75
232.306	78.75
232.541	87.75
232.775	67.75
233.009	83.75
233.243	83.75
233.477	80.75
233.711	76.75
233.945	84.75
234.179	90.75
234.413	80.75
234.647	93.75
234.881	89.75
235.115	83.75
235.349	70.75
235.583	93.75
235.817	80.75
236.051	88.75
236.285	63.75
236.519	79.75
236.753	80.75
236.987	83.75
237.221	76.75
237.455	83.75
237.689	91.75
237.922	88.75
238.156	68.75
238.39	71.75
238.624	57.75
238.858	57.75
239.091	81.75
239.325	88.75
239.559	80.75
239.793	83.75
240.027	82.75
240.26	63.75
240.494	67.75
240.728	68.75
240.961	75.75
241.195	81.75
241.429	71.75
241.662	77.75
241.896	65.75
242.13	79.75
242.363	71.75
242.597	73.75
242.83	60.75
243.064	92.75
243.298	79.75
243.531	83.75
243.765	75.75
243.998	73.75
244.232	91.75
244.465	71.75
244.699	71.75
244.932	73.75
245.166	77.75
245.399	81.75
245.633	81.75
245.866	57.75
246.099	71.75
246.333	69.75
246.566	77.75
246.8	65.75
247.033	73.75
247.266	87.75
247.5	78.75
247.733	83.75
247.966	90.75
248.2	65.75
248.433	77.75
248.666	81.75
248.899	72.75
249.133	77.75
249.366	95.75
249.599	87.75
249.832	90.75
250.066	80.75
250.299	79.75
250.532	91.75
250.765	77.75
250.998	80.75
251.231	66.75
251.465	74.75
251.698	69.75
251.931	73.75
252.164	82.75
252.397	71.75
252.63	77.75
252.863	84.75
253.096	84.75
253.329	79.75
253.562	75.75
253.795	99.75
254.028	89.75
254.261	75.75
254.494	74.75
254.727	73.75
254.96	79.75
255.193	69.75
255.426	76.75
255.659	73.75
255.892	79.75
256.124	77.75
256.357	83.75
256.59	78.75
256.823	74.75
257.056	80.75
257.289	69.75
257.521	80.75
257.754	78.75
257.987	81.75
258.22	79.75
258.452	72.75
258.685	72.75
258.918	73.75
259.151	73.75
259.383	83.75
259.616	76.75
259.849	86.75
260.081	71.75
260.314	85.75
260.547	78.75
260.779	76.75
261.012	71.75
261.244	85.75
261.477	79.75
261.71	89.75
261.942	104.75
262.175	107.75
262.407	89.75
262.64	83.75
262.872	78.75
263.105	78.75
263.337	88.75
263.57	75.75
263.802	98.75
264.035	76.75
264.267	79.75
264.499	87.75
264.732	78.75
264.964	67.75
265.197	81.75
265.429	104.75
265.661	81.75
265.894	78.75
266.126	90.75
266.358	73.75
266.591	85.75
266.823	72.75
267.055	71.75
267.287	86.75
267.52	81.75
267.752	88.75
267.984	82.75
268.216	99.75
268.448	83.75
268.681	91.75
268.913	88.75
269.145	73.75
269.377	71.75
269.609	82.75
269.841	80.75
270.073	90.75
270.306	92.75
270.538	99.75
270.77	88.75
271.002	95.75
271.234	75.75
271.466	96.75
271.698	83.75
271.93	84.75
272.162	83.75
272.394	71.75
272.626	58.75
272.858	89.75
273.09	80.75
273.322	80.75
273.553	84.75
273.785	84.75
274.017	94.75
274.249	85.75
274.481	90.75
274.713	83.75
274.945	78.75
275.176	90.75
275.408	71.75
275.64	93.75
275.872	83.75
276.104	92.75
276.335	89.75
276.567	95.75
276.799	98.75
277.031	89.75
277.262	84.75
277.494	78.75
277.726	83.75
277.957	79.75
278.189	88.75
278.421	89.75
278.652	90.75
278.884	83.75
279.115	80.75
279.347	77.75
279.579	93.75
279.81	79.75
280.042	80.75
280.273	83.75
280.505	72.75
280.736	87.75
280.968	100.75
281.199	76.75
281.431	85.75
281.662	84.75
281.894	89.75
282.125	106.75
282.356	118.75
282.588	129.75
282.819	124.75
283.051	91.75
283.282	75.75
283.513	88.75
283.745	88.75
283.976	94.75
284.207	80.75
284.439	85.75
284.67	99.75
284.901	89.75
285.132	100.75
285.364	82.75
285.595	75.75
285.826	97.75
286.057	89.75
286.288	76.75
286.52	88.75
286.751	74.75
286.982	94.75
287.213	62.75
287.444	79.75
287.675	71.75
287.906	91.75
288.138	81.75
288.369	86.75
288.6	107.75
288.831	83.75
289.062	82.75
289.293	77.75
289.524	85.75
289.755	75.75
289.986	81.75
290.217	93.75
290.448	92.75
290.679	95.75
290.91	83.75
291.141	83.75
291.371	89.75
291.602	77.75
291.833	91.75
292.064	94.75
292.295	86.75
292.526	106.75
292.757	72.75
292.987	92.75
293.218	93.75
293.449	81.75
293.68	96.75
293.91	90.75
294.141	90.75
294.372	79.75
294.603	82.75
294.833	94.75
295.064	82.75
295.295	93.75
295.525	99.75
295.756	83.75
295.987	109.75
296.217	130.75
296.448	119.75
296.679	106.75
296.909	97.75
297.14	87.75
297.37	77.75
297.601	84.75
297.831	89.75
298.062	81.75
298.292	82.75
298.523	91.75
298.753	98.75
298.984	67.75
299.214	86.75
299.445	80.75
299.675	84.75
299.905	93.75
300.136	91.75
300.366	95.75
300.597	87.75
300.827	100.75
301.057	111.75
301.288	108.75
301.518	84.75
301.748	81.75
301.979	108.75
302.209	85.75
302.439	81.75
302.669	82.75
302.9	87.75
303.13	95.75
303.36	93.75
303.59	109.75
303.82	102.75
304.051	94.75
304.281	83.75
304.511	98.75
304.741	83.75
304.971	81.75
305.201	81.75
305.431	93.75
305.661	80.75
305.891	85.75
306.121	95.75
306.352	99.75
306.582	92.75
306.812	95.75
307.042	98.75
307.272	83.75
307.502	79.75
307.731	81.75
307.961	92.75
308.191	89.75
308.421	94.75
308.651	93.75
308.881	83.75
309.111	93.75
309.341	85.75
309.571	101.75
309.8	87.75
310.03	95.75
310.26	106.75
310.49	97.75
310.72	89.75
310.949	105.75
311.179	92.75
311.409	96.75
311.639	88.75
311.868	96.75
312.098	77.75
312.328	97.75
312.557	101.75
312.787	112.75
313.017	90.75
313.246	94.75
313.476	86.75
313.706	87.75
313.935	81.75
314.165	98.75
314.394	99.75
314.624	94.75
314.853	84.75
315.083	99.75
315.312	79.75
315.542	86.75
315.771	90.75
316.001	96.75
316.23	94.75
316.46	85.75
316.689	88.75
316.919	91.75
317.148	81.75
317.377	88.75
317.607	99.75
317.836	98.75
318.065	91.75
318.295	83.75
318.524	93.75
318.753	97.75
318.983	87.75
319.212	99.75
319.441	103.75
319.67	103.75
319.9	83.75
320.129	90.75
320.358	82.75
320.587	94.75
320.816	100.75
321.046	96.75
321.275	90.75
321.504	105.75
321.733	95.75
321.962	87.75
322.191	85.75
322.42	100.75
322.649	104.75
322.878	116.75
323.108	105.75
323.337	121.75
323.566	132.75
323.795	141.75
324.024	194.75
324.253	363.75
324.482	746.75
324.71	1487.75
324.939	1914.75
325.168	705.75
325.397	217.75
325.626	141.75
325.855	124.75
326.084	111.75
326.313	125.75
326.542	139.75
326.77	213.75
326.999	413.75
327.228	828.75
327.457	1468.75
327.686	1184.75
327.914	347.75
328.143	185.75
328.372	136.75
328.6	106.75
328.829	108.75
329.058	119.75
329.287	122.75
329.515	110.75
329.744	107.75
329.972	111.75
330.201	106.75
330.43	109.75
330.658	102.75
330.887	132.75
331.115	112.75
331.344	97.75
331.572	88.75
331.801	84.75
332.03	97.75
332.258	90.75
332.486	106.75
332.715	97.75
332.943	97.75
333.172	97.75
333.4	92.75
333.629	89.75
333.857	115.75
334.085	97.75
334.314	77.75
334.542	98.75
334.771	77.75
334.999	95.75
335.227	100.75
335.455	103.75
335.684	89.75
335.912	91.75
336.14	99.75
336.369	95.75
336.597	105.75
336.825	107.75
337.053	88.75
337.281	103.75
337.51	96.75
337.738	97.75
337.966	86.75
338.194	111.75
338.422	107.75
338.65	94.75
338.878	96.75
339.106	85.75
339.334	107.75
339.562	88.75
339.79	99.75
340.018	90.75
340.246	92.75
340.474	92.75
340.702	97.75
340.93	95.75
341.158	94.75
341.386	87.75
341.614	109.75
341.842	108.75
342.07	100.75
342.298	92.75
342.526	90.75
342.754	93.75
342.981	97.75
343.209	92.75
343.437	105.75
343.665	90.75
343.893	85.75
344.12	79.75
344.348	99.75
344.576	95.75
344.804	104.75
345.031	92.75
345.259	98.75
345.487	95.75
345.714	107.75
345.942	87.75
346.17	84.75
346.397	75.75
346.625	84.75
346.853	89.75
347.08	95.75
347.308	97.75
347.535	83.75
347.763	93.75
347.99	96.75
348.218	98.75
348.445	96.75
348.673	103.75
348.9	95.75
349.128	87.75
349.355	88.75
349.583	89.75
349.81	81.75
350.037	95.75
350.265	90.75
350.492	94.75
350.72	92.75
350.947	109.75
351.174	109.75
351.402	119.75
351.629	107.75
351.856	99.75
352.083	107.75
352.311	99.75
352.538	106.75
352.765	95.75
352.992	112.75
353.22	115.75
353.447	111.75
353.674	100.75
353.901	96.75
354.128	92.75
354.355	98.75
354.583	90.75
354.81	110.75
355.037	88.75
355.264	85.75
355.491	89.75
355.718	90.75
355.945	98.75
356.172	98.75
356.399	93.75
356.626	91.75
356.853	96.75
357.08	96.75
357.307	94.75
357.534	86.75
357.761	90.75
357.988	105.75
358.215	113.75
358.441	103.75
358.668	84.75
358.895	82.75
359.122	98.75
359.349	95.75
359.576	83.75
359.802	96.75
360.029	116.75
360.256	97.75
360.483	113.75
360.709	96.75
360.936	91.75
361.163	96.75
361.39	109.75
361.616	98.75
361.843	93.75
362.07	92.75
362.296	96.75
362.523	92.75
362.749	89.75
362.976	84.75
363.203	98.75
363.429	80.75
363.656	84.75
363.882	84.75
364.109	81.75
364.335	91.75
364.562	85.75
364.788	93.75
365.015	97.75
365.241	114.75
365.468	95.75
365.694	103.75
365.92	84.75
366.147	95.75
366.373	90.75
366.599	88.75
366.826	89.75
367.052	77.75
367.278	69.75
367.505	83.75
367.731	93.75
367.957	97.75
368.184	86.75
368.41	98.75
368.636	104.75
368.862	123.75
369.089	112.75
369.315	71.75
369.541	89.75
369.767	102.75
369.993	88.75
370.219	94.75
370.445	91.75
370.672	93.75
370.898	89.75
371.124	78.75
371.35	74.75
371.576	85.75
371.802	86.75
372.028	96.75
372.254	88.75
372.48	100.75
372.706	81.75
372.932	89.75
373.158	83.75
373.384	79.75
373.61	89.75
373.835	95.75
374.061	88.75
374.287	82.75
374.513	87.75
374.739	93.75
374.965	96.75
375.191	78.75
375.416	95.75
375.642	97.75
375.868	97.75
376.094	95.75
376.319	98.75
376.545	71.75
376.771	91.75
376.997	91.75
377.222	86.75
377.448	98.75
377.674	88.75
377.899	98.75
378.125	92.75
378.35	95.75
378.576	89.75
378.802	85.75
379.027	85.75
379.253	97.75
379.478	103.75
379.704	80.75
379.929	84.75
380.155	82.75
380.38	89.75
380.606	96.75
380.831	78.75
381.057	81.75
381.282	76.75
381.507	98.75
381.733	85.75
381.958	82.75
382.184	82.75
382.409	96.75
382.634	82.75
382.86	89.75
383.085	94.75
383.31	101.75
383.535	100.75
383.761	99.75
383.986	104.75
384.211	85.75
384.436	99.75
384.662	98.75
384.887	88.75
385.112	96.75
385.337	82.75
385.562	99.75
385.787	106.75
386.013	108.75
386.238	114.75
386.463	94.75
386.688	104.75
386.913	79.75
387.138	88.75
387.363	99.75
387.588	93.75
387.813	104.75
388.038	99.75
388.263	114.75
388.488	89.75
388.713	98.75
388.938	96.75
389.163	85.75
389.387	101.75
389.612	108.75
389.837	97.75
390.062	102.75
390.287	90.75
390.512	103.75
390.736	95.75
390.961	67.75
391.186	84.75
391.411	88.75
391.636	95.75
391.86	90.75
392.085	91.75
392.31	80.75
392.534	94.75
392.759	100.75
392.984	90.75
393.208	79.75
393.433	91.75
393.658	85.75
393.882	81.75
394.107	90.75
394.331	78.75
394.556	91.75
394.78	90.75
395.005	80.75
395.229	80.75
395.454	83.75
395.678	90.75
395.903	91.75
396.127	78.75
396.352	79.75
396.576	94.75
396.801	90.75
397.025	83.75
397.249	83.75
397.474	72.75
397.698	89.75
397.922	99.75
398.147	90.75
398.371	78.75
398.595	79.75
398.82	100.75
399.044	89.75
399.268	85.75
399.492	91.75
399.717	81.75
399.941	104.75
400.165	93.75
400.389	93.75
400.613	82.75
400.837	84.75
401.062	74.75
401.286	74.75
401.51	83.75
401.734	100.75
401.958	102.75
402.182	134.75
402.406	161.75
402.63	116.75
402.854	89.75
403.078	82.75
403.302	95.75
403.526	81.75
403.75	79.75
403.974	76.75
404.198	83.75
404.422	98.75
404.645	74.75
404.869	82.75
405.093	102.75
405.317	81.75
405.541	89.75
405.765	88.75
405.988	131.75
406.212	160.75
406.436	209.75
406.66	140.75
406.883	97.75
407.107	91.75
407.331	91.75
407.555	108.75
407.778	74.75
408.002	86.75
408.226	103.75
408.449	87.75
408.673	73.75
408.896	100.75
409.12	84.75
409.344	87.75
409.567	85.75
409.791	95.75
410.014	82.75
410.238	92.75
410.461	83.75
410.685	91.75
410.908	92.75
411.132	108.75
411.355	101.75
411.578	87.75
411.802	91.75
412.025	92.75
412.249	91.75
412.472	86.75
412.695	80.75
412.919	89.75
413.142	95.75
413.365	93.75
413.589	84.75
413.812	84.75
414.035	104.75
414.258	94.75
414.482	80.75
414.705	89.75
414.928	88.75
415.151	90.75
415.374	87.75
415.597	86.75
415.821	101.75
416.044	89.75
416.267	83.75
416.49	85.75
416.713	94.75
416.936	83.75
417.159	79.75
417.382	96.75
417.605	100.75
417.828	100.75
418.051	92.75
418.274	77.75
418.497	100.75
418.72	85.75
418.943	81.75
419.166	75.75
419.389	77.75
419.611	94.75
419.834	91.75
420.057	84.75
420.28	96.75
420.503	93.75
420.726	93.75
420.948	87.75
421.171	102.75
421.394	85.75
421.617	91.75
421.839	95.75
422.062	76.75
422.285	99.75
422.507	105.75
422.73	96.75
422.953	96.75
423.175	74.75
423.398	83.75
423.621	75.75
423.843	79.75
424.066	100.75
424.288	99.75
424.511	95.75
424.733	97.75
424.956	98.75
425.178	98.75
425.401	97.75
425.623	108.75
425.846	92.75
426.068	85.75
426.291	85.75
426.513	83.75
426.735	86.75
426.958	97.75
427.18	103.75
427.402	121.75
427.625	168.75
427.847	117.75
428.069	105.75
428.292	88.75
428.514	93.75
428.736	96.75
428.958	81.75
429.181	65.75
429.403	76.75
429.625	79.75
429.847	93.75
430.069	115.75
430.292	91.75
430.514	91.75
430.736	78.75
430.958	84.75
431.18	78.75
431.402	83.75
431.624	78.75
431.846	85.75
432.068	83.75
432.29	69.75
432.512	96.75
432.734	93.75
432.956	92.75
433.178	90.75
433.4	97.75
433.622	89.75
433.844	96.75
434.066	96.75
434.287	89.75
434.509	79.75
434.731	82.75
434.953	90.75
435.175	85.75
435.397	76.75
435.618	96.75
435.84	97.75
436.062	112.75
436.284	96.75
436.505	97.75
436.727	102.75
436.949	89.75
437.17	88.75
437.392	100.75
437.614	92.75
437.835	109.75
438.057	101.75
438.278	104.75
438.5	108.75
438.721	128.75
438.943	103.75
439.165	85.75
439.386	83.75
439.608	81.75
439.829	80.75
440.05	116.75
440.272	124.75
440.493	91.75
440.715	66.75
440.936	82.75
441.158	78.75
441.379	83.75
441.6	89.75
441.822	91.75
442.043	85.75
442.264	91.75
442.486	91.75
442.707	92.75
442.928	99.75
443.149	99.75
443.371	120.75
443.592	124.75
443.813	82.75
444.034	111.75
444.255	79.75
444.476	87.75
444.698	87.75
444.919	78.75
445.14	135.75
445.361	111.75
445.582	93.75
445.803	116.75
446.024	122.75
446.245	133.75
446.466	104.75
446.687	92.75
446.908	87.75
447.129	77.75
447.35	86.75
447.571	96.75
447.792	104.75
448.013	104.75
448.234	100.75
448.455	107.75
448.675	118.75
448.896	105.75
449.117	92.75
449.338	89.75
449.559	130.75
449.779	129.75
450	95.75
450.221	99.75
450.442	68.75
450.662	85.75
450.883	112.75
451.104	106.75
451.324	98.75
451.545	88.75
451.766	83.75
451.986	79.75
452.207	86.75
452.428	96.75
452.648	91.75
452.869	112.75
453.089	101.75
453.31	116.75
453.53	96.75
453.751	75.75
453.971	98.75
454.192	110.75
454.412	81.75
454.633	90.75
454.853	91.75
455.073	73.75
455.294	90.75
455.514	101.75
455.734	104.75
455.955	80.75
456.175	85.75
456.395	101.75
456.616	86.75
456.836	90.75
457.056	84.75
457.276	64.75
457.497	79.75
457.717	80.75
457.937	88.75
458.157	76.75
458.377	82.75
458.598	95.75
458.818	146.75
459.038	152.75
459.258	122.75
459.478	91.75
459.698	79.75
459.918	77.75
460.138	78.75
460.358	81.75
460.578	69.75
460.798	83.75
461.018	92.75
461.238	87.75
461.458	82.75
461.678	76.75
461.898	77.75
462.118	96.75
462.338	100.75
462.558	97.75
462.777	77.75
462.997	84.75
463.217	79.75
463.437	89.75
463.657	89.75
463.876	88.75
464.096	99.75
464.316	91.75
464.536	97.75
464.755	95.75
464.975	107.75
465.195	143.75
465.414	141.75
465.634	94.75
465.854	83.75
466.073	84.75
466.293	82.75
466.512	93.75
466.732	93.75
466.951	90.75
467.171	97.75
467.391	106.75
467.61	103.75
467.829	98.75
468.049	89.75
468.268	78.75
468.488	84.75
468.707	76.75
468.927	94.75
469.146	77.75
469.365	106.75
469.585	89.75
469.804	107.75
470.023	93.75
470.243	93.75
470.462	91.75
470.681	91.75
470.901	89.75
471.12	79.75
471.339	83.75
471.558	90.75
471.777	83.75
471.997	98.75
472.216	98.75
472.435	93.75
472.654	83.75
472.873	80.75
473.092	85.75
473.311	98.75
473.53	92.75
473.749	79.75
473.968	87.75
474.187	93.75
474.406	96.75
474.625	82.75
474.844	97.75
475.063	82.75
475.282	84.75
475.501	87.75
475.72	108.75
475.939	91.75
476.158	84.75
476.377	94.75
476.596	73.75
476.814	93.75
477.033	97.75
477.252	99.75
477.471	88.75
477.69	80.75
477.908	88.75
478.127	91.75
478.346	86.75
478.564	90.75
478.783	80.75
479.002	89.75
479.22	87.75
479.439	90.75
479.658	100.75
479.876	93.75
480.095	88.75
480.313	91.75
480.532	103.75
480.751	90.75
480.969	100.75
481.188	101.75
481.406	111.75
481.624	82.75
481.843	81.75
482.061	88.75
482.28	89.75
482.498	86.75
482.717	76.75
482.935	96.75
483.153	100.75
483.372	88.75
483.59	94.75
483.808	95.75
484.027	86.75
484.245	85.75
484.463	79.75
484.681	98.75
484.9	100.75
485.118	96.75
485.336	95.75
485.554	87.75
485.772	97.75
485.99	98.75
486.209	106.75
486.427	96.75
486.645	95.75
486.863	101.75
487.081	104.75
487.299	79.75
487.517	98.75
487.735	94.75
487.953	74.75
488.171	82.75
488.389	93.75
488.607	86.75
488.825	83.75
489.043	86.75
489.261	82.75
489.479	79.75
489.696	80.75
489.914	84.75
490.132	83.75
490.35	103.75
490.568	82.75
490.786	81.75
491.003	82.75
491.221	92.75
491.439	83.75
491.657	82.75
491.874	81.75
492.092	78.75
492.31	81.75
492.527	91.75
492.745	77.75
492.963	96.75
493.18	102.75
493.398	91.75
493.615	86.75
493.833	88.75
494.05	102.75
494.268	92.75
494.485	86.75
494.703	83.75
494.92	90.75
495.138	85.75
495.355	85.75
495.573	89.75
495.79	78.75
496.008	84.75
496.225	76.75
496.442	94.75
496.66	113.75
496.877	98.75
497.094	85.75
497.312	84.75
497.529	92.75
497.746	93.75
497.963	94.75
498.181	83.75
498.398	114.75
498.615	104.75
498.832	87.75
499.049	89.75
499.267	95.75
499.484	85.75
499.701	91.75
499.918	87.75
500.135	92.75
500.352	101.75
500.569	82.75
500.786	104.75
501.003	95.75
501.22	78.75
501.437	95.75
501.654	89.75
501.871	109.75
502.088	104.75
502.305	101.75
502.522	90.75
502.739	91.75
502.956	91.75
503.172	80.75
503.389	83.75
503.606	90.75
503.823	98.75
504.04	88.75
504.256	95.75
504.473	77.75
504.69	81.75
504.907	89.75
505.123	69.75
505.34	76.75
505.557	91.75
505.773	89.75
505.99	85.75
506.207	99.75
506.423	93.75
506.64	92.75
506.856	83.75
507.073	84.75
507.289	92.75
507.506	100.75
507.722	121.75
507.939	109.75
508.155	115.75
508.372	104.75
508.588	104.75
508.805	99.75
509.021	93.75
509.238	98.75
509.454	89.75
509.67	103.75
509.887	111.75
510.103	125.75
510.319	192.75
510.536	747.75
510.752	2320.75
510.968	630.75
511.184	144.75
511.401	99.75
511.617	107.75
511.833	107.75
512.049	95.75
512.265	91.75
512.481	108.75
512.698	85.75
512.914	85.75
513.13	86.75
513.346	105.75
513.562	100.75
513.778	96.75
513.994	108.75
514.21	98.75
514.426	120.75
514.642	141.75
514.858	127.75
515.074	154.75
515.29	455.75
515.506	1382.75
515.721	518.75
515.937	145.75
516.153	106.75
516.369	99.75
