Data from Uncirc_1993_H10_HRD10591_00100.txt Node
Date: Wed Jan 03 11:43:12 EST 2024
User: Yrep
Spectrometer: HR+D1059
Trigger mode: 1
Integration Time (sec): 1.000000E-1
Scans to average: 1
Electric dark correction enabled: true
Nonlinearity correction enabled: false
Boxcar width: 0
XAxis mode: Wavelengths
Number of Pixels in Spectrum: 2048
>>>>>Begin Spectral Data<<<<<
223.165	-9.94
223.4	-9.94
223.635	-9.94
223.869	-14.94
224.104	-23.94
224.338	-9.94
224.573	-14.94
224.808	-38.94
225.042	-20.94
225.277	-9.94
225.511	0.06
225.746	12.06
225.98	14.06
226.215	22.06
226.449	18.06
226.683	18.06
226.918	25.06
227.152	34.06
227.387	39.06
227.621	35.06
227.856	49.06
228.09	39.06
228.324	54.06
228.559	60.06
228.793	59.06
229.027	64.06
229.262	50.06
229.496	70.06
229.73	75.06
229.964	86.06
230.199	70.06
230.433	66.06
230.667	74.06
230.901	67.06
231.136	65.06
231.37	77.06
231.604	77.06
231.838	68.06
232.072	95.06
232.306	84.06
232.541	71.06
232.775	75.06
233.009	91.06
233.243	77.06
233.477	76.06
233.711	83.06
233.945	73.06
234.179	83.06
234.413	66.06
234.647	80.06
234.881	67.06
235.115	80.06
235.349	78.06
235.583	92.06
235.817	88.06
236.051	81.06
236.285	54.06
236.519	60.06
236.753	73.06
236.987	77.06
237.221	78.06
237.455	99.06
237.689	76.06
237.922	63.06
238.156	77.06
238.39	74.06
238.624	64.06
238.858	61.06
239.091	79.06
239.325	79.06
239.559	64.06
239.793	83.06
240.027	83.06
240.26	54.06
240.494	66.06
240.728	68.06
240.961	78.06
241.195	89.06
241.429	86.06
241.662	67.06
241.896	78.06
242.13	74.06
242.363	64.06
242.597	65.06
242.83	79.06
243.064	83.06
243.298	75.06
243.531	91.06
243.765	86.06
243.998	77.06
244.232	68.06
244.465	86.06
244.699	78.06
244.932	87.06
245.166	74.06
245.399	77.06
245.633	81.06
245.866	79.06
246.099	57.06
246.333	66.06
246.566	71.06
246.8	90.06
247.033	70.06
247.266	81.06
247.5	89.06
247.733	82.06
247.966	80.06
248.2	76.06
248.433	71.06
248.666	79.06
248.899	82.06
249.133	87.06
249.366	110.06
249.599	78.06
249.832	77.06
250.066	85.06
250.299	76.06
250.532	64.06
250.765	65.06
250.998	72.06
251.231	76.06
251.465	73.06
251.698	64.06
251.931	57.06
252.164	81.06
252.397	64.06
252.63	80.06
252.863	67.06
253.096	77.06
253.329	82.06
253.562	86.06
253.795	86.06
254.028	101.06
254.261	80.06
254.494	68.06
254.727	72.06
254.96	79.06
255.193	75.06
255.426	70.06
255.659	84.06
255.892	79.06
256.124	76.06
256.357	79.06
256.59	79.06
256.823	82.06
257.056	90.06
257.289	99.06
257.521	79.06
257.754	94.06
257.987	82.06
258.22	97.06
258.452	88.06
258.685	78.06
258.918	71.06
259.151	76.06
259.383	60.06
259.616	86.06
259.849	88.06
260.081	84.06
260.314	74.06
260.547	79.06
260.779	78.06
261.012	72.06
261.244	86.06
261.477	87.06
261.71	91.06
261.942	106.06
262.175	110.06
262.407	84.06
262.64	96.06
262.872	84.06
263.105	82.06
263.337	81.06
263.57	87.06
263.802	77.06
264.035	87.06
264.267	86.06
264.499	79.06
264.732	83.06
264.964	68.06
265.197	82.06
265.429	87.06
265.661	83.06
265.894	84.06
266.126	88.06
266.358	75.06
266.591	81.06
266.823	78.06
267.055	76.06
267.287	78.06
267.52	89.06
267.752	83.06
267.984	81.06
268.216	77.06
268.448	105.06
268.681	58.06
268.913	67.06
269.145	85.06
269.377	83.06
269.609	98.06
269.841	87.06
270.073	86.06
270.306	85.06
270.538	75.06
270.77	75.06
271.002	85.06
271.234	76.06
271.466	89.06
271.698	66.06
271.93	91.06
272.162	93.06
272.394	83.06
272.626	80.06
272.858	63.06
273.09	78.06
273.322	80.06
273.553	86.06
273.785	80.06
274.017	87.06
274.249	90.06
274.481	73.06
274.713	81.06
274.945	88.06
275.176	85.06
275.408	105.06
275.64	87.06
275.872	83.06
276.104	85.06
276.335	92.06
276.567	97.06
276.799	88.06
277.031	88.06
277.262	89.06
277.494	71.06
277.726	99.06
277.957	95.06
278.189	89.06
278.421	83.06
278.652	71.06
278.884	88.06
279.115	85.06
279.347	83.06
279.579	89.06
279.81	72.06
280.042	80.06
280.273	78.06
280.505	73.06
280.736	90.06
280.968	73.06
281.199	90.06
281.431	81.06
281.662	91.06
281.894	92.06
282.125	98.06
282.356	125.06
282.588	139.06
282.819	109.06
283.051	86.06
283.282	78.06
283.513	84.06
283.745	78.06
283.976	91.06
284.207	80.06
284.439	78.06
284.67	88.06
284.901	73.06
285.132	98.06
285.364	77.06
285.595	96.06
285.826	88.06
286.057	97.06
286.288	92.06
286.52	74.06
286.751	72.06
286.982	74.06
287.213	77.06
287.444	90.06
287.675	86.06
287.906	80.06
288.138	84.06
288.369	93.06
288.6	87.06
288.831	96.06
289.062	80.06
289.293	82.06
289.524	79.06
289.755	79.06
289.986	94.06
290.217	91.06
290.448	83.06
290.679	82.06
290.91	89.06
291.141	102.06
291.371	100.06
291.602	86.06
291.833	91.06
292.064	81.06
292.295	81.06
292.526	94.06
292.757	83.06
292.987	90.06
293.218	88.06
293.449	84.06
293.68	93.06
293.91	73.06
294.141	79.06
294.372	75.06
294.603	83.06
294.833	82.06
295.064	83.06
295.295	90.06
295.525	80.06
295.756	99.06
295.987	107.06
296.217	126.06
296.448	111.06
296.679	90.06
296.909	86.06
297.14	86.06
297.37	83.06
297.601	91.06
297.831	80.06
298.062	92.06
298.292	96.06
298.523	87.06
298.753	89.06
298.984	94.06
299.214	81.06
299.445	74.06
299.675	81.06
299.905	107.06
300.136	90.06
300.366	92.06
300.597	77.06
300.827	98.06
301.057	78.06
301.288	103.06
301.518	102.06
301.748	93.06
301.979	83.06
302.209	99.06
302.439	79.06
302.669	95.06
302.9	82.06
303.13	100.06
303.36	91.06
303.59	83.06
303.82	98.06
304.051	98.06
304.281	87.06
304.511	89.06
304.741	84.06
304.971	100.06
305.201	96.06
305.431	86.06
305.661	79.06
305.891	81.06
306.121	106.06
306.352	96.06
306.582	80.06
306.812	77.06
307.042	89.06
307.272	92.06
307.502	89.06
307.731	93.06
307.961	98.06
308.191	88.06
308.421	84.06
308.651	84.06
308.881	88.06
309.111	97.06
309.341	95.06
309.571	87.06
309.8	92.06
310.03	88.06
310.26	80.06
310.49	91.06
310.72	101.06
310.949	107.06
311.179	100.06
311.409	84.06
311.639	96.06
311.868	91.06
312.098	95.06
312.328	76.06
312.557	102.06
312.787	105.06
313.017	81.06
313.246	95.06
313.476	86.06
313.706	106.06
313.935	103.06
314.165	99.06
314.394	106.06
314.624	97.06
314.853	104.06
315.083	107.06
315.312	84.06
315.542	93.06
315.771	103.06
316.001	78.06
316.23	89.06
316.46	88.06
316.689	90.06
316.919	81.06
317.148	81.06
317.377	95.06
317.607	93.06
317.836	92.06
318.065	87.06
318.295	83.06
318.524	79.06
318.753	91.06
318.983	99.06
319.212	104.06
319.441	110.06
319.67	103.06
319.9	89.06
320.129	99.06
320.358	89.06
320.587	88.06
320.816	95.06
321.046	94.06
321.275	102.06
321.504	94.06
321.733	94.06
321.962	94.06
322.191	107.06
322.42	98.06
322.649	102.06
322.878	114.06
323.108	116.06
323.337	115.06
323.566	131.06
323.795	158.06
324.024	180.06
324.253	327.06
324.482	678.06
324.71	1371.06
324.939	1790.06
325.168	691.06
325.397	209.06
325.626	128.06
325.855	117.06
326.084	114.06
326.313	118.06
326.542	134.06
326.77	202.06
326.999	406.06
327.228	788.06
327.457	1412.06
327.686	1114.06
327.914	301.06
328.143	174.06
328.372	158.06
328.6	122.06
328.829	115.06
329.058	106.06
329.287	115.06
329.515	105.06
329.744	92.06
329.972	97.06
330.201	111.06
330.43	103.06
330.658	111.06
330.887	131.06
331.115	118.06
331.344	92.06
331.572	94.06
331.801	97.06
332.03	111.06
332.258	98.06
332.486	102.06
332.715	94.06
332.943	93.06
333.172	104.06
333.4	87.06
333.629	102.06
333.857	106.06
334.085	119.06
334.314	89.06
334.542	93.06
334.771	93.06
334.999	103.06
335.227	84.06
335.455	92.06
335.684	101.06
335.912	107.06
336.14	98.06
336.369	102.06
336.597	106.06
336.825	89.06
337.053	105.06
337.281	87.06
337.51	81.06
337.738	80.06
337.966	81.06
338.194	94.06
338.422	96.06
338.65	80.06
338.878	89.06
339.106	91.06
339.334	88.06
339.562	85.06
339.79	96.06
340.018	80.06
340.246	98.06
340.474	91.06
340.702	92.06
340.93	93.06
341.158	97.06
341.386	84.06
341.614	104.06
341.842	80.06
342.07	88.06
342.298	103.06
342.526	95.06
342.754	71.06
342.981	82.06
343.209	96.06
343.437	101.06
343.665	74.06
343.893	90.06
344.12	103.06
344.348	105.06
344.576	80.06
344.804	87.06
345.031	92.06
345.259	94.06
345.487	80.06
345.714	90.06
345.942	88.06
346.17	89.06
346.397	87.06
346.625	82.06
346.853	100.06
347.08	88.06
347.308	99.06
347.535	91.06
347.763	99.06
347.99	103.06
348.218	106.06
348.445	112.06
348.673	105.06
348.9	97.06
349.128	86.06
349.355	96.06
349.583	100.06
349.81	104.06
350.037	95.06
350.265	89.06
350.492	103.06
350.72	104.06
350.947	99.06
351.174	107.06
351.402	91.06
351.629	104.06
351.856	109.06
352.083	92.06
352.311	102.06
352.538	106.06
352.765	87.06
352.992	114.06
353.22	103.06
353.447	113.06
353.674	107.06
353.901	82.06
354.128	92.06
354.355	100.06
354.583	103.06
354.81	105.06
355.037	118.06
355.264	83.06
355.491	97.06
355.718	86.06
355.945	102.06
356.172	98.06
356.399	95.06
356.626	104.06
356.853	91.06
357.08	83.06
357.307	93.06
357.534	100.06
357.761	78.06
357.988	95.06
358.215	92.06
358.441	97.06
358.668	105.06
358.895	82.06
359.122	87.06
359.349	83.06
359.576	84.06
359.802	98.06
360.029	115.06
360.256	106.06
360.483	94.06
360.709	88.06
360.936	93.06
361.163	80.06
361.39	89.06
361.616	77.06
361.843	99.06
362.07	91.06
362.296	99.06
362.523	86.06
362.749	94.06
362.976	76.06
363.203	93.06
363.429	84.06
363.656	94.06
363.882	98.06
364.109	100.06
364.335	94.06
364.562	102.06
364.788	97.06
365.015	89.06
365.241	105.06
365.468	111.06
365.694	93.06
365.92	103.06
366.147	89.06
366.373	88.06
366.599	86.06
366.826	95.06
367.052	71.06
367.278	80.06
367.505	95.06
367.731	95.06
367.957	97.06
368.184	86.06
368.41	106.06
368.636	97.06
368.862	110.06
369.089	100.06
369.315	91.06
369.541	89.06
369.767	66.06
369.993	87.06
370.219	78.06
370.445	75.06
370.672	82.06
370.898	88.06
371.124	88.06
371.35	78.06
371.576	76.06
371.802	91.06
372.028	71.06
372.254	87.06
372.48	86.06
372.706	84.06
372.932	82.06
373.158	71.06
373.384	74.06
373.61	95.06
373.835	87.06
374.061	88.06
374.287	80.06
374.513	83.06
374.739	81.06
374.965	94.06
375.191	77.06
375.416	90.06
375.642	86.06
375.868	97.06
376.094	88.06
376.319	89.06
376.545	90.06
376.771	80.06
376.997	99.06
377.222	82.06
377.448	88.06
377.674	82.06
377.899	89.06
378.125	82.06
378.35	101.06
378.576	90.06
378.802	96.06
379.027	90.06
379.253	100.06
379.478	105.06
379.704	86.06
379.929	86.06
380.155	79.06
380.38	89.06
380.606	97.06
380.831	94.06
381.057	90.06
381.282	79.06
381.507	95.06
381.733	103.06
381.958	82.06
382.184	93.06
382.409	97.06
382.634	108.06
382.86	92.06
383.085	89.06
383.31	84.06
383.535	87.06
383.761	92.06
383.986	95.06
384.211	96.06
384.436	88.06
384.662	89.06
384.887	96.06
385.112	80.06
385.337	101.06
385.562	93.06
385.787	97.06
386.013	92.06
386.238	98.06
386.463	83.06
386.688	104.06
386.913	100.06
387.138	90.06
387.363	110.06
387.588	108.06
387.813	99.06
388.038	89.06
388.263	103.06
388.488	102.06
388.713	100.06
388.938	86.06
389.163	100.06
389.387	98.06
389.612	110.06
389.837	79.06
390.062	81.06
390.287	98.06
390.512	90.06
390.736	105.06
390.961	93.06
391.186	91.06
391.411	113.06
391.636	85.06
391.86	86.06
392.085	77.06
392.31	86.06
392.534	88.06
392.759	81.06
392.984	87.06
393.208	91.06
393.433	90.06
393.658	95.06
393.882	83.06
394.107	79.06
394.331	78.06
394.556	90.06
394.78	87.06
395.005	90.06
395.229	96.06
395.454	89.06
395.678	81.06
395.903	87.06
396.127	82.06
396.352	74.06
396.576	69.06
396.801	87.06
397.025	74.06
397.249	90.06
397.474	75.06
397.698	96.06
397.922	94.06
398.147	93.06
398.371	107.06
398.595	88.06
398.82	91.06
399.044	78.06
399.268	80.06
399.492	81.06
399.717	95.06
399.941	85.06
400.165	92.06
400.389	86.06
400.613	66.06
400.837	93.06
401.062	72.06
401.286	79.06
401.51	79.06
401.734	75.06
401.958	93.06
402.182	122.06
402.406	152.06
402.63	107.06
402.854	93.06
403.078	102.06
403.302	96.06
403.526	107.06
403.75	89.06
403.974	96.06
404.198	78.06
404.422	87.06
404.645	73.06
404.869	78.06
405.093	92.06
405.317	96.06
405.541	91.06
405.765	99.06
405.988	107.06
406.212	169.06
406.436	214.06
406.66	136.06
406.883	91.06
407.107	93.06
407.331	85.06
407.555	91.06
407.778	97.06
408.002	81.06
408.226	86.06
408.449	83.06
408.673	99.06
408.896	78.06
409.12	86.06
409.344	100.06
409.567	94.06
409.791	86.06
410.014	98.06
410.238	103.06
410.461	111.06
410.685	106.06
410.908	100.06
411.132	105.06
411.355	91.06
411.578	91.06
411.802	81.06
412.025	89.06
412.249	86.06
412.472	88.06
412.695	90.06
412.919	66.06
413.142	93.06
413.365	88.06
413.589	88.06
413.812	90.06
414.035	100.06
414.258	92.06
414.482	95.06
414.705	65.06
414.928	82.06
415.151	87.06
415.374	82.06
415.597	94.06
415.821	92.06
416.044	95.06
416.267	92.06
416.49	90.06
416.713	101.06
416.936	95.06
417.159	82.06
417.382	89.06
417.605	82.06
417.828	91.06
418.051	88.06
418.274	90.06
418.497	89.06
418.72	70.06
418.943	70.06
419.166	94.06
419.389	88.06
419.611	86.06
419.834	66.06
420.057	86.06
420.28	96.06
420.503	96.06
420.726	80.06
420.948	84.06
421.171	74.06
421.394	87.06
421.617	91.06
421.839	88.06
422.062	90.06
422.285	88.06
422.507	99.06
422.73	92.06
422.953	106.06
423.175	98.06
423.398	97.06
423.621	105.06
423.843	77.06
424.066	87.06
424.288	82.06
424.511	97.06
424.733	95.06
424.956	97.06
425.178	88.06
425.401	88.06
425.623	98.06
425.846	96.06
426.068	96.06
426.291	96.06
426.513	87.06
426.735	71.06
426.958	90.06
427.18	100.06
427.402	145.06
427.625	142.06
427.847	106.06
428.069	82.06
428.292	85.06
428.514	76.06
428.736	80.06
428.958	82.06
429.181	98.06
429.403	97.06
429.625	103.06
429.847	88.06
430.069	100.06
430.292	91.06
430.514	87.06
430.736	94.06
430.958	90.06
431.18	82.06
431.402	84.06
431.624	82.06
431.846	65.06
432.068	81.06
432.29	95.06
432.512	83.06
432.734	82.06
432.956	89.06
433.178	91.06
433.4	94.06
433.622	81.06
433.844	87.06
434.066	78.06
434.287	89.06
434.509	73.06
434.731	99.06
434.953	99.06
435.175	84.06
435.397	94.06
435.618	78.06
435.84	82.06
436.062	110.06
436.284	84.06
436.505	98.06
436.727	98.06
436.949	104.06
437.17	89.06
437.392	93.06
437.614	83.06
437.835	101.06
438.057	108.06
438.278	106.06
438.5	87.06
438.721	102.06
438.943	106.06
439.165	80.06
439.386	92.06
439.608	91.06
439.829	92.06
440.05	121.06
440.272	125.06
440.493	105.06
440.715	98.06
440.936	81.06
441.158	78.06
441.379	81.06
441.6	92.06
441.822	84.06
442.043	92.06
442.264	109.06
442.486	95.06
442.707	89.06
442.928	110.06
443.149	120.06
443.371	121.06
443.592	98.06
443.813	98.06
444.034	87.06
444.255	83.06
444.476	90.06
444.698	87.06
444.919	76.06
445.14	142.06
445.361	113.06
445.582	113.06
445.803	126.06
446.024	122.06
446.245	119.06
446.466	91.06
446.687	97.06
446.908	98.06
447.129	83.06
447.35	83.06
447.571	99.06
447.792	97.06
448.013	98.06
448.234	98.06
448.455	91.06
448.675	106.06
448.896	109.06
449.117	88.06
449.338	86.06
449.559	123.06
449.779	116.06
450	95.06
450.221	102.06
450.442	94.06
450.662	87.06
450.883	105.06
451.104	104.06
451.324	81.06
451.545	75.06
451.766	90.06
451.986	87.06
452.207	70.06
452.428	88.06
452.648	94.06
452.869	98.06
453.089	101.06
453.31	102.06
453.53	79.06
453.751	94.06
453.971	89.06
454.192	75.06
454.412	90.06
454.633	92.06
454.853	90.06
455.073	90.06
455.294	78.06
455.514	92.06
455.734	88.06
455.955	87.06
456.175	95.06
456.395	88.06
456.616	79.06
456.836	79.06
457.056	80.06
457.276	83.06
457.497	73.06
457.717	81.06
457.937	89.06
458.157	89.06
458.377	87.06
458.598	88.06
458.818	121.06
459.038	154.06
459.258	98.06
459.478	87.06
459.698	82.06
459.918	86.06
460.138	64.06
460.358	78.06
460.578	95.06
460.798	76.06
461.018	86.06
461.238	89.06
461.458	73.06
461.678	92.06
461.898	86.06
462.118	83.06
462.338	78.06
462.558	89.06
462.777	84.06
462.997	90.06
463.217	86.06
463.437	95.06
463.657	67.06
463.876	94.06
464.096	92.06
464.316	90.06
464.536	86.06
464.755	75.06
464.975	96.06
465.195	140.06
465.414	136.06
465.634	91.06
465.854	97.06
466.073	81.06
466.293	80.06
466.512	75.06
466.732	67.06
466.951	73.06
467.171	90.06
467.391	87.06
467.61	96.06
467.829	95.06
468.049	73.06
468.268	96.06
468.488	80.06
468.707	83.06
468.927	88.06
469.146	89.06
469.365	91.06
469.585	77.06
469.804	91.06
470.023	105.06
470.243	64.06
470.462	88.06
470.681	90.06
470.901	86.06
471.12	91.06
471.339	85.06
471.558	86.06
471.777	90.06
471.997	90.06
472.216	75.06
472.435	86.06
472.654	90.06
472.873	90.06
473.092	90.06
473.311	87.06
473.53	82.06
473.749	78.06
473.968	86.06
474.187	84.06
474.406	95.06
474.625	88.06
474.844	87.06
475.063	74.06
475.282	82.06
475.501	84.06
475.72	88.06
475.939	80.06
476.158	87.06
476.377	74.06
476.596	80.06
476.814	81.06
477.033	83.06
477.252	81.06
477.471	84.06
477.69	94.06
477.908	87.06
478.127	89.06
478.346	93.06
478.564	95.06
478.783	102.06
479.002	82.06
479.22	92.06
479.439	95.06
479.658	106.06
479.876	90.06
480.095	70.06
480.313	90.06
480.532	78.06
480.751	89.06
480.969	102.06
481.188	106.06
481.406	95.06
481.624	94.06
481.843	81.06
482.061	83.06
482.28	86.06
482.498	91.06
482.717	88.06
482.935	93.06
483.153	82.06
483.372	94.06
483.59	88.06
483.808	91.06
484.027	81.06
484.245	93.06
484.463	86.06
484.681	108.06
484.9	104.06
485.118	101.06
485.336	100.06
485.554	102.06
485.772	104.06
485.99	100.06
486.209	98.06
486.427	100.06
486.645	94.06
486.863	115.06
487.081	79.06
487.299	82.06
487.517	104.06
487.735	83.06
487.953	95.06
488.171	95.06
488.389	95.06
488.607	109.06
488.825	89.06
489.043	93.06
489.261	98.06
489.479	104.06
489.696	91.06
489.914	84.06
490.132	70.06
490.35	77.06
490.568	96.06
490.786	88.06
491.003	76.06
491.221	79.06
491.439	92.06
491.657	83.06
491.874	86.06
492.092	104.06
492.31	84.06
492.527	82.06
492.745	75.06
492.963	81.06
493.18	81.06
493.398	90.06
493.615	85.06
493.833	84.06
494.05	87.06
494.268	94.06
494.485	90.06
494.703	82.06
494.92	95.06
495.138	90.06
495.355	98.06
495.573	91.06
495.79	74.06
496.008	90.06
496.225	96.06
496.442	93.06
496.66	97.06
496.877	87.06
497.094	91.06
497.312	74.06
497.529	101.06
497.746	84.06
497.963	84.06
498.181	90.06
498.398	106.06
498.615	94.06
498.832	102.06
499.049	102.06
499.267	76.06
499.484	75.06
499.701	87.06
499.918	86.06
500.135	86.06
500.352	106.06
500.569	97.06
500.786	80.06
501.003	78.06
501.22	85.06
501.437	86.06
501.654	86.06
501.871	92.06
502.088	97.06
502.305	86.06
502.522	82.06
502.739	94.06
502.956	92.06
503.172	87.06
503.389	96.06
503.606	99.06
503.823	90.06
504.04	93.06
504.256	81.06
504.473	84.06
504.69	78.06
504.907	104.06
505.123	81.06
505.34	94.06
505.557	76.06
505.773	81.06
505.99	84.06
506.207	96.06
506.423	81.06
506.64	79.06
506.856	66.06
507.073	78.06
507.289	75.06
507.506	99.06
507.722	98.06
507.939	91.06
508.155	106.06
508.372	92.06
508.588	92.06
508.805	95.06
509.021	94.06
509.238	98.06
509.454	104.06
509.67	97.06
509.887	96.06
510.103	112.06
510.319	227.06
510.536	706.06
510.752	2128.06
510.968	598.06
511.184	146.06
511.401	105.06
511.617	96.06
511.833	92.06
512.049	94.06
512.265	101.06
512.481	90.06
512.698	87.06
512.914	88.06
513.13	85.06
513.346	82.06
513.562	100.06
513.778	95.06
513.994	113.06
514.21	97.06
514.426	100.06
514.642	104.06
514.858	131.06
515.074	146.06
515.29	405.06
515.506	1311.06
515.721	474.06
515.937	144.06
516.153	109.06
516.369	80.06
516.585	91.06
