Data from Uncirc_1993_H10_HRD10591_00026.txt Node
Date: Wed Jan 03 11:42:57 EST 2024
User: Yrep
Spectrometer: HR+D1059
Trigger mode: 1
Integration Time (sec): 1.000000E-1
Scans to average: 1
Electric dark correction enabled: true
Nonlinearity correction enabled: false
Boxcar width: 0
XAxis mode: Wavelengths
Number of Pixels in Spectrum: 2048
>>>>>Begin Spectral Data<<<<<
223.165	-25.62
223.4	-25.62
223.635	-25.62
223.869	-17.62
224.104	-11.62
224.338	-13.62
224.573	-20.62
224.808	-17.62
225.042	-16.62
225.277	0.38
225.511	4.38
225.746	-6.62
225.98	-1.62
226.215	17.38
226.449	15.38
226.683	12.38
226.918	47.38
227.152	34.38
227.387	30.38
227.621	34.38
227.856	39.38
228.09	30.38
228.324	41.38
228.559	50.38
228.793	44.38
229.027	62.38
229.262	62.38
229.496	63.38
229.73	72.38
229.964	87.38
230.199	73.38
230.433	67.38
230.667	76.38
230.901	74.38
231.136	67.38
231.37	87.38
231.604	73.38
231.838	75.38
232.072	65.38
232.306	79.38
232.541	91.38
232.775	82.38
233.009	81.38
233.243	66.38
233.477	75.38
233.711	74.38
233.945	80.38
234.179	70.38
234.413	74.38
234.647	89.38
234.881	76.38
235.115	74.38
235.349	78.38
235.583	77.38
235.817	81.38
236.051	71.38
236.285	82.38
236.519	84.38
236.753	78.38
236.987	76.38
237.221	64.38
237.455	61.38
237.689	80.38
237.922	80.38
238.156	73.38
238.39	74.38
238.624	79.38
238.858	72.38
239.091	56.38
239.325	72.38
239.559	63.38
239.793	92.38
240.027	64.38
240.26	82.38
240.494	80.38
240.728	71.38
240.961	61.38
241.195	82.38
241.429	82.38
241.662	63.38
241.896	80.38
242.13	71.38
242.363	85.38
242.597	76.38
242.83	77.38
243.064	72.38
243.298	65.38
243.531	71.38
243.765	71.38
243.998	68.38
244.232	72.38
244.465	78.38
244.699	82.38
244.932	74.38
245.166	90.38
245.399	75.38
245.633	95.38
245.866	55.38
246.099	76.38
246.333	78.38
246.566	75.38
246.8	84.38
247.033	95.38
247.266	67.38
247.5	63.38
247.733	74.38
247.966	67.38
248.2	90.38
248.433	86.38
248.666	65.38
248.899	90.38
249.133	80.38
249.366	90.38
249.599	89.38
249.832	83.38
250.066	72.38
250.299	66.38
250.532	71.38
250.765	74.38
250.998	77.38
251.231	73.38
251.465	71.38
251.698	78.38
251.931	75.38
252.164	85.38
252.397	81.38
252.63	68.38
252.863	80.38
253.096	73.38
253.329	78.38
253.562	74.38
253.795	89.38
254.028	84.38
254.261	84.38
254.494	73.38
254.727	79.38
254.96	82.38
255.193	85.38
255.426	79.38
255.659	86.38
255.892	69.38
256.124	73.38
256.357	78.38
256.59	70.38
256.823	83.38
257.056	79.38
257.289	72.38
257.521	82.38
257.754	78.38
257.987	65.38
258.22	82.38
258.452	66.38
258.685	90.38
258.918	86.38
259.151	74.38
259.383	79.38
259.616	75.38
259.849	78.38
260.081	86.38
260.314	85.38
260.547	59.38
260.779	84.38
261.012	72.38
261.244	75.38
261.477	94.38
261.71	82.38
261.942	95.38
262.175	121.38
262.407	82.38
262.64	78.38
262.872	68.38
263.105	81.38
263.337	78.38
263.57	90.38
263.802	83.38
264.035	80.38
264.267	71.38
264.499	77.38
264.732	79.38
264.964	75.38
265.197	81.38
265.429	78.38
265.661	74.38
265.894	79.38
266.126	75.38
266.358	73.38
266.591	73.38
266.823	86.38
267.055	75.38
267.287	76.38
267.52	82.38
267.752	85.38
267.984	78.38
268.216	77.38
268.448	89.38
268.681	68.38
268.913	66.38
269.145	89.38
269.377	78.38
269.609	80.38
269.841	74.38
270.073	74.38
270.306	82.38
270.538	80.38
270.77	79.38
271.002	76.38
271.234	63.38
271.466	75.38
271.698	97.38
271.93	85.38
272.162	74.38
272.394	95.38
272.626	90.38
272.858	92.38
273.09	70.38
273.322	84.38
273.553	84.38
273.785	91.38
274.017	80.38
274.249	63.38
274.481	88.38
274.713	75.38
274.945	80.38
275.176	84.38
275.408	84.38
275.64	95.38
275.872	77.38
276.104	83.38
276.335	87.38
276.567	100.38
276.799	104.38
277.031	85.38
277.262	78.38
277.494	92.38
277.726	76.38
277.957	76.38
278.189	90.38
278.421	81.38
278.652	93.38
278.884	82.38
279.115	74.38
279.347	56.38
279.579	72.38
279.81	77.38
280.042	80.38
280.273	74.38
280.505	76.38
280.736	78.38
280.968	78.38
281.199	89.38
281.431	81.38
281.662	79.38
281.894	100.38
282.125	100.38
282.356	104.38
282.588	110.38
282.819	106.38
283.051	73.38
283.282	84.38
283.513	90.38
283.745	96.38
283.976	83.38
284.207	86.38
284.439	93.38
284.67	75.38
284.901	92.38
285.132	82.38
285.364	76.38
285.595	89.38
285.826	100.38
286.057	91.38
286.288	99.38
286.52	78.38
286.751	70.38
286.982	90.38
287.213	86.38
287.444	107.38
287.675	78.38
287.906	92.38
288.138	94.38
288.369	81.38
288.6	95.38
288.831	78.38
289.062	81.38
289.293	87.38
289.524	80.38
289.755	80.38
289.986	84.38
290.217	81.38
290.448	70.38
290.679	83.38
290.91	79.38
291.141	82.38
291.371	86.38
291.602	89.38
291.833	84.38
292.064	82.38
292.295	75.38
292.526	87.38
292.757	88.38
292.987	76.38
293.218	94.38
293.449	96.38
293.68	95.38
293.91	78.38
294.141	96.38
294.372	103.38
294.603	81.38
294.833	83.38
295.064	93.38
295.295	95.38
295.525	84.38
295.756	97.38
295.987	103.38
296.217	125.38
296.448	102.38
296.679	85.38
296.909	79.38
297.14	100.38
297.37	91.38
297.601	73.38
297.831	91.38
298.062	79.38
298.292	84.38
298.523	94.38
298.753	91.38
298.984	82.38
299.214	90.38
299.445	87.38
299.675	106.38
299.905	83.38
300.136	101.38
300.366	98.38
300.597	94.38
300.827	82.38
301.057	90.38
301.288	91.38
301.518	98.38
301.748	91.38
301.979	102.38
302.209	94.38
302.439	78.38
302.669	82.38
302.9	76.38
303.13	105.38
303.36	87.38
303.59	101.38
303.82	100.38
304.051	81.38
304.281	83.38
304.511	86.38
304.741	92.38
304.971	107.38
305.201	86.38
305.431	73.38
305.661	86.38
305.891	87.38
306.121	89.38
306.352	91.38
306.582	94.38
306.812	88.38
307.042	85.38
307.272	86.38
307.502	81.38
307.731	76.38
307.961	87.38
308.191	79.38
308.421	96.38
308.651	80.38
308.881	97.38
309.111	90.38
309.341	94.38
309.571	100.38
309.8	92.38
310.03	83.38
310.26	83.38
310.49	104.38
310.72	86.38
310.949	98.38
311.179	95.38
311.409	93.38
311.639	96.38
311.868	105.38
312.098	93.38
312.328	88.38
312.557	94.38
312.787	113.38
313.017	94.38
313.246	92.38
313.476	92.38
313.706	88.38
313.935	94.38
314.165	103.38
314.394	98.38
314.624	82.38
314.853	88.38
315.083	94.38
315.312	79.38
315.542	94.38
315.771	98.38
316.001	73.38
316.23	87.38
316.46	83.38
316.689	84.38
316.919	83.38
317.148	96.38
317.377	103.38
317.607	91.38
317.836	103.38
318.065	93.38
318.295	88.38
318.524	91.38
318.753	99.38
318.983	86.38
319.212	86.38
319.441	109.38
319.67	96.38
319.9	86.38
320.129	95.38
320.358	82.38
320.587	84.38
320.816	102.38
321.046	95.38
321.275	103.38
321.504	86.38
321.733	92.38
321.962	92.38
322.191	108.38
322.42	101.38
322.649	99.38
322.878	102.38
323.108	102.38
323.337	117.38
323.566	127.38
323.795	138.38
324.024	173.38
324.253	332.38
324.482	676.38
324.71	1343.38
324.939	1755.38
325.168	651.38
325.397	202.38
325.626	140.38
325.855	114.38
326.084	119.38
326.313	121.38
326.542	139.38
326.77	194.38
326.999	362.38
327.228	752.38
327.457	1340.38
327.686	1069.38
327.914	318.38
328.143	163.38
328.372	135.38
328.6	116.38
328.829	103.38
329.058	118.38
329.287	106.38
329.515	97.38
329.744	110.38
329.972	97.38
330.201	102.38
330.43	86.38
330.658	109.38
330.887	120.38
331.115	114.38
331.344	97.38
331.572	102.38
331.801	99.38
332.03	101.38
332.258	94.38
332.486	93.38
332.715	92.38
332.943	71.38
333.172	94.38
333.4	97.38
333.629	93.38
333.857	106.38
334.085	104.38
334.314	89.38
334.542	97.38
334.771	98.38
334.999	91.38
335.227	100.38
335.455	97.38
335.684	93.38
335.912	83.38
336.14	81.38
336.369	94.38
336.597	106.38
336.825	107.38
337.053	97.38
337.281	84.38
337.51	94.38
337.738	89.38
337.966	95.38
338.194	88.38
338.422	84.38
338.65	93.38
338.878	90.38
339.106	96.38
339.334	78.38
339.562	87.38
339.79	84.38
340.018	93.38
340.246	103.38
340.474	86.38
340.702	98.38
340.93	89.38
341.158	93.38
341.386	103.38
341.614	95.38
341.842	100.38
342.07	94.38
342.298	81.38
342.526	91.38
342.754	82.38
342.981	90.38
343.209	92.38
343.437	94.38
343.665	92.38
343.893	100.38
344.12	106.38
344.348	82.38
344.576	85.38
344.804	86.38
345.031	97.38
345.259	95.38
345.487	87.38
345.714	109.38
345.942	90.38
346.17	91.38
346.397	90.38
346.625	96.38
346.853	102.38
347.08	95.38
347.308	93.38
347.535	92.38
347.763	89.38
347.99	93.38
348.218	109.38
348.445	101.38
348.673	92.38
348.9	92.38
349.128	90.38
349.355	91.38
349.583	84.38
349.81	78.38
350.037	96.38
350.265	84.38
350.492	92.38
350.72	103.38
350.947	96.38
351.174	103.38
351.402	96.38
351.629	105.38
351.856	100.38
352.083	105.38
352.311	85.38
352.538	107.38
352.765	97.38
352.992	110.38
353.22	101.38
353.447	99.38
353.674	109.38
353.901	101.38
354.128	107.38
354.355	93.38
354.583	98.38
354.81	96.38
355.037	91.38
355.264	90.38
355.491	100.38
355.718	91.38
355.945	90.38
356.172	95.38
356.399	87.38
356.626	80.38
356.853	93.38
357.08	98.38
357.307	82.38
357.534	90.38
357.761	94.38
357.988	100.38
358.215	93.38
358.441	88.38
358.668	78.38
358.895	89.38
359.122	90.38
359.349	85.38
359.576	88.38
359.802	82.38
360.029	104.38
360.256	112.38
360.483	90.38
360.709	64.38
360.936	110.38
361.163	95.38
361.39	93.38
361.616	98.38
361.843	92.38
362.07	86.38
362.296	94.38
362.523	81.38
362.749	94.38
362.976	82.38
363.203	100.38
363.429	103.38
363.656	89.38
363.882	80.38
364.109	99.38
364.335	98.38
364.562	95.38
364.788	88.38
365.015	96.38
365.241	98.38
365.468	99.38
365.694	98.38
365.92	85.38
366.147	65.38
366.373	86.38
366.599	92.38
366.826	83.38
367.052	89.38
367.278	98.38
367.505	88.38
367.731	91.38
367.957	103.38
368.184	85.38
368.41	84.38
368.636	95.38
368.862	124.38
369.089	97.38
369.315	81.38
369.541	93.38
369.767	74.38
369.993	93.38
370.219	93.38
370.445	80.38
370.672	81.38
370.898	93.38
371.124	84.38
371.35	86.38
371.576	80.38
371.802	87.38
372.028	98.38
372.254	92.38
372.48	89.38
372.706	89.38
372.932	78.38
373.158	82.38
373.384	94.38
373.61	106.38
373.835	91.38
374.061	85.38
374.287	97.38
374.513	76.38
374.739	86.38
374.965	85.38
375.191	97.38
375.416	78.38
375.642	98.38
375.868	88.38
376.094	87.38
376.319	103.38
376.545	93.38
376.771	86.38
376.997	91.38
377.222	84.38
377.448	104.38
377.674	87.38
377.899	85.38
378.125	94.38
378.35	98.38
378.576	72.38
378.802	80.38
379.027	89.38
379.253	72.38
379.478	91.38
379.704	78.38
379.929	91.38
380.155	92.38
380.38	84.38
380.606	86.38
380.831	95.38
381.057	98.38
381.282	92.38
381.507	77.38
381.733	94.38
381.958	87.38
382.184	90.38
382.409	102.38
382.634	99.38
382.86	91.38
383.085	92.38
383.31	107.38
383.535	88.38
383.761	90.38
383.986	96.38
384.211	93.38
384.436	105.38
384.662	92.38
384.887	100.38
385.112	87.38
385.337	109.38
385.562	101.38
385.787	96.38
386.013	101.38
386.238	102.38
386.463	97.38
386.688	113.38
386.913	104.38
387.138	104.38
387.363	109.38
387.588	102.38
387.813	91.38
388.038	112.38
388.263	113.38
388.488	105.38
388.713	90.38
388.938	100.38
389.163	107.38
389.387	93.38
389.612	100.38
389.837	88.38
390.062	80.38
390.287	94.38
390.512	80.38
390.736	90.38
390.961	88.38
391.186	82.38
391.411	96.38
391.636	97.38
391.86	88.38
392.085	87.38
392.31	88.38
392.534	89.38
392.759	73.38
392.984	83.38
393.208	85.38
393.433	105.38
393.658	79.38
393.882	74.38
394.107	94.38
394.331	84.38
394.556	93.38
394.78	89.38
395.005	89.38
395.229	87.38
395.454	92.38
395.678	82.38
395.903	73.38
396.127	78.38
396.352	92.38
396.576	80.38
396.801	77.38
397.025	80.38
397.249	73.38
397.474	86.38
397.698	84.38
397.922	81.38
398.147	86.38
398.371	81.38
398.595	82.38
398.82	83.38
399.044	78.38
399.268	82.38
399.492	83.38
399.717	87.38
399.941	81.38
400.165	93.38
400.389	94.38
400.613	91.38
400.837	78.38
401.062	86.38
401.286	86.38
401.51	85.38
401.734	69.38
401.958	93.38
402.182	125.38
402.406	147.38
402.63	111.38
402.854	90.38
403.078	83.38
403.302	86.38
403.526	81.38
403.75	90.38
403.974	101.38
404.198	102.38
404.422	82.38
404.645	91.38
404.869	94.38
405.093	91.38
405.317	99.38
405.541	98.38
405.765	106.38
405.988	99.38
406.212	164.38
406.436	203.38
406.66	129.38
406.883	99.38
407.107	81.38
407.331	90.38
407.555	93.38
407.778	94.38
408.002	91.38
408.226	96.38
408.449	83.38
408.673	80.38
408.896	110.38
409.12	91.38
409.344	106.38
409.567	88.38
409.791	95.38
410.014	84.38
410.238	94.38
410.461	89.38
410.685	95.38
410.908	100.38
411.132	108.38
411.355	100.38
411.578	91.38
411.802	85.38
412.025	88.38
412.249	95.38
412.472	92.38
412.695	86.38
412.919	95.38
413.142	85.38
413.365	84.38
413.589	90.38
413.812	91.38
414.035	70.38
414.258	84.38
414.482	82.38
414.705	95.38
414.928	82.38
415.151	91.38
415.374	90.38
415.597	95.38
415.821	94.38
416.044	89.38
416.267	86.38
416.49	97.38
416.713	81.38
416.936	90.38
417.159	87.38
417.382	77.38
417.605	83.38
417.828	95.38
418.051	78.38
418.274	84.38
418.497	96.38
418.72	85.38
418.943	80.38
419.166	74.38
419.389	83.38
419.611	80.38
419.834	84.38
420.057	76.38
420.28	102.38
420.503	76.38
420.726	73.38
420.948	82.38
421.171	90.38
421.394	98.38
421.617	91.38
421.839	100.38
422.062	83.38
422.285	82.38
422.507	91.38
422.73	94.38
422.953	97.38
423.175	83.38
423.398	80.38
423.621	82.38
423.843	79.38
424.066	86.38
424.288	92.38
424.511	93.38
424.733	101.38
424.956	91.38
425.178	89.38
425.401	96.38
425.623	88.38
425.846	98.38
426.068	94.38
426.291	85.38
426.513	98.38
426.735	90.38
426.958	94.38
427.18	93.38
427.402	129.38
427.625	137.38
427.847	118.38
428.069	112.38
428.292	89.38
428.514	84.38
428.736	98.38
428.958	83.38
429.181	94.38
429.403	87.38
429.625	82.38
429.847	67.38
430.069	94.38
430.292	97.38
430.514	99.38
430.736	67.38
430.958	79.38
431.18	83.38
431.402	90.38
431.624	75.38
431.846	74.38
432.068	75.38
432.29	81.38
432.512	78.38
432.734	75.38
432.956	86.38
433.178	85.38
433.4	87.38
433.622	95.38
433.844	79.38
434.066	95.38
434.287	97.38
434.509	96.38
434.731	90.38
434.953	59.38
435.175	77.38
435.397	90.38
435.618	99.38
435.84	94.38
436.062	106.38
436.284	103.38
436.505	110.38
436.727	97.38
436.949	86.38
437.17	95.38
437.392	87.38
437.614	107.38
437.835	98.38
438.057	114.38
438.278	99.38
438.5	100.38
438.721	109.38
438.943	105.38
439.165	71.38
439.386	90.38
439.608	93.38
439.829	86.38
440.05	113.38
440.272	123.38
440.493	97.38
440.715	84.38
440.936	79.38
441.158	71.38
441.379	99.38
441.6	87.38
441.822	82.38
442.043	85.38
442.264	95.38
442.486	106.38
442.707	90.38
442.928	99.38
443.149	115.38
443.371	119.38
443.592	99.38
443.813	98.38
444.034	109.38
444.255	92.38
444.476	83.38
444.698	89.38
444.919	91.38
445.14	128.38
445.361	113.38
445.582	110.38
445.803	112.38
446.024	122.38
446.245	141.38
446.466	108.38
446.687	91.38
446.908	95.38
447.129	80.38
447.35	88.38
447.571	92.38
447.792	95.38
448.013	99.38
448.234	107.38
448.455	90.38
448.675	98.38
448.896	100.38
449.117	89.38
449.338	94.38
449.559	118.38
449.779	120.38
450	70.38
450.221	84.38
450.442	91.38
450.662	102.38
450.883	86.38
451.104	95.38
451.324	99.38
451.545	82.38
451.766	78.38
451.986	88.38
452.207	79.38
452.428	87.38
452.648	83.38
452.869	103.38
453.089	115.38
453.31	110.38
453.53	106.38
453.751	81.38
453.971	104.38
454.192	106.38
454.412	82.38
454.633	86.38
454.853	83.38
455.073	80.38
455.294	90.38
455.514	96.38
455.734	99.38
455.955	87.38
456.175	95.38
456.395	89.38
456.616	87.38
456.836	86.38
457.056	82.38
457.276	71.38
457.497	83.38
457.717	78.38
457.937	88.38
458.157	87.38
458.377	93.38
458.598	90.38
458.818	136.38
459.038	156.38
459.258	115.38
459.478	91.38
459.698	75.38
459.918	90.38
460.138	91.38
460.358	75.38
460.578	76.38
460.798	98.38
461.018	85.38
461.238	77.38
461.458	81.38
461.678	83.38
461.898	73.38
462.118	107.38
462.338	80.38
462.558	98.38
462.777	73.38
462.997	92.38
463.217	94.38
463.437	81.38
463.657	89.38
463.876	94.38
464.096	76.38
464.316	80.38
464.536	93.38
464.755	96.38
464.975	96.38
465.195	147.38
465.414	141.38
465.634	101.38
465.854	90.38
466.073	92.38
466.293	71.38
466.512	82.38
466.732	80.38
466.951	75.38
467.171	88.38
467.391	95.38
467.61	100.38
467.829	96.38
468.049	82.38
468.268	98.38
468.488	82.38
468.707	76.38
468.927	85.38
469.146	101.38
469.365	94.38
469.585	81.38
469.804	96.38
470.023	88.38
470.243	86.38
470.462	91.38
470.681	99.38
470.901	90.38
471.12	83.38
471.339	74.38
471.558	90.38
471.777	87.38
471.997	82.38
472.216	80.38
472.435	82.38
472.654	93.38
472.873	95.38
473.092	87.38
473.311	69.38
473.53	83.38
473.749	80.38
473.968	89.38
474.187	95.38
474.406	87.38
474.625	61.38
474.844	83.38
475.063	80.38
475.282	87.38
475.501	60.38
475.72	88.38
475.939	88.38
476.158	81.38
476.377	65.38
476.596	78.38
476.814	94.38
477.033	93.38
477.252	89.38
477.471	87.38
477.69	76.38
477.908	86.38
478.127	91.38
478.346	94.38
478.564	100.38
478.783	85.38
479.002	90.38
479.22	92.38
479.439	97.38
479.658	92.38
479.876	91.38
480.095	86.38
480.313	87.38
480.532	82.38
480.751	80.38
480.969	88.38
481.188	92.38
481.406	86.38
481.624	88.38
481.843	88.38
482.061	88.38
482.28	87.38
482.498	83.38
482.717	88.38
482.935	87.38
483.153	71.38
483.372	84.38
483.59	99.38
483.808	99.38
484.027	100.38
484.245	99.38
484.463	97.38
484.681	92.38
484.9	96.38
485.118	88.38
485.336	89.38
485.554	83.38
485.772	80.38
485.99	98.38
486.209	106.38
486.427	106.38
486.645	111.38
486.863	103.38
487.081	105.38
487.299	95.38
487.517	99.38
487.735	94.38
487.953	91.38
488.171	86.38
488.389	108.38
488.607	89.38
488.825	88.38
489.043	71.38
489.261	71.38
489.479	95.38
489.696	91.38
489.914	81.38
490.132	94.38
490.35	89.38
490.568	80.38
490.786	75.38
491.003	78.38
491.221	90.38
491.439	85.38
491.657	92.38
491.874	105.38
492.092	83.38
492.31	96.38
492.527	92.38
492.745	91.38
492.963	85.38
493.18	82.38
493.398	93.38
493.615	92.38
493.833	93.38
494.05	88.38
494.268	92.38
494.485	93.38
494.703	93.38
494.92	83.38
495.138	99.38
495.355	95.38
495.573	82.38
495.79	94.38
496.008	81.38
496.225	90.38
496.442	94.38
496.66	105.38
496.877	91.38
497.094	100.38
497.312	95.38
497.529	89.38
497.746	96.38
497.963	85.38
498.181	95.38
498.398	84.38
498.615	96.38
498.832	122.38
499.049	98.38
499.267	96.38
499.484	84.38
499.701	92.38
499.918	90.38
500.135	89.38
500.352	94.38
500.569	89.38
500.786	82.38
501.003	76.38
501.22	80.38
501.437	96.38
501.654	90.38
501.871	110.38
502.088	89.38
502.305	95.38
502.522	86.38
502.739	89.38
502.956	73.38
503.172	88.38
503.389	86.38
503.606	103.38
503.823	87.38
504.04	88.38
504.256	92.38
504.473	87.38
504.69	95.38
504.907	85.38
505.123	104.38
505.34	84.38
505.557	90.38
505.773	83.38
505.99	87.38
506.207	74.38
506.423	78.38
506.64	77.38
506.856	66.38
507.073	82.38
507.289	101.38
507.506	94.38
507.722	119.38
507.939	116.38
508.155	84.38
508.372	95.38
508.588	95.38
508.805	87.38
509.021	92.38
509.238	100.38
509.454	94.38
509.67	91.38
509.887	92.38
510.103	130.38
510.319	204.38
510.536	751.38
510.752	2206.38
510.968	604.38
511.184	150.38
511.401	107.38
511.617	84.38
511.833	99.38
512.049	93.38
512.265	92.38
512.481	94.38
512.698	91.38
512.914	91.38
513.13	99.38
513.346	86.38
513.562	96.38
513.778	97.38
513.994	94.38
514.21	113.38
514.426	120.38
514.642	127.38
514.858	128.38
515.074	157.38
515.29	415.38
515.506	1373.38
515.721	477.38
515.937	147.38
516.153	113.38
516.369	102.38
516.585	98.38
516.801	90.38
