Data from Uncirc_1993_H10_HRD10591_00013.txt Node
Date: Wed Jan 03 11:42:54 EST 2024
User: Yrep
Spectrometer: HR+D1059
Trigger mode: 1
Integration Time (sec): 1.000000E-1
Scans to average: 1
Electric dark correction enabled: true
Nonlinearity correction enabled: false
Boxcar width: 0
XAxis mode: Wavelengths
Number of Pixels in Spectrum: 2048
>>>>>Begin Spectral Data<<<<<
223.165	-14.81
223.4	-14.81
223.635	-14.81
223.869	-19.81
224.104	-13.81
224.338	-15.81
224.573	-19.81
224.808	-13.81
225.042	-0.81
225.277	-6.81
225.511	4.19
225.746	0.19
225.98	1.19
226.215	4.19
226.449	25.19
226.683	17.19
226.918	23.19
227.152	30.19
227.387	34.19
227.621	43.19
227.856	37.19
228.09	52.19
228.324	59.19
228.559	56.19
228.793	65.19
229.027	56.19
229.262	62.19
229.496	62.19
229.73	77.19
229.964	86.19
230.199	81.19
230.433	82.19
230.667	79.19
230.901	67.19
231.136	75.19
231.37	81.19
231.604	71.19
231.838	79.19
232.072	77.19
232.306	74.19
232.541	80.19
232.775	97.19
233.009	72.19
233.243	66.19
233.477	85.19
233.711	83.19
233.945	82.19
234.179	76.19
234.413	74.19
234.647	63.19
234.881	77.19
235.115	84.19
235.349	76.19
235.583	81.19
235.817	79.19
236.051	73.19
236.285	84.19
236.519	72.19
236.753	75.19
236.987	81.19
237.221	75.19
237.455	75.19
237.689	75.19
237.922	92.19
238.156	82.19
238.39	71.19
238.624	84.19
238.858	79.19
239.091	87.19
239.325	77.19
239.559	74.19
239.793	69.19
240.027	67.19
240.26	84.19
240.494	77.19
240.728	59.19
240.961	47.19
241.195	73.19
241.429	87.19
241.662	77.19
241.896	74.19
242.13	79.19
242.363	71.19
242.597	84.19
242.83	78.19
243.064	72.19
243.298	84.19
243.531	72.19
243.765	56.19
243.998	64.19
244.232	86.19
244.465	79.19
244.699	67.19
244.932	81.19
245.166	75.19
245.399	66.19
245.633	76.19
245.866	73.19
246.099	75.19
246.333	72.19
246.566	89.19
246.8	79.19
247.033	87.19
247.266	79.19
247.5	73.19
247.733	78.19
247.966	79.19
248.2	80.19
248.433	87.19
248.666	79.19
248.899	75.19
249.133	91.19
249.366	79.19
249.599	95.19
249.832	91.19
250.066	89.19
250.299	92.19
250.532	92.19
250.765	78.19
250.998	76.19
251.231	92.19
251.465	77.19
251.698	60.19
251.931	88.19
252.164	77.19
252.397	74.19
252.63	68.19
252.863	80.19
253.096	76.19
253.329	85.19
253.562	85.19
253.795	79.19
254.028	88.19
254.261	87.19
254.494	80.19
254.727	93.19
254.96	82.19
255.193	86.19
255.426	64.19
255.659	95.19
255.892	73.19
256.124	92.19
256.357	88.19
256.59	77.19
256.823	81.19
257.056	83.19
257.289	84.19
257.521	87.19
257.754	77.19
257.987	95.19
258.22	78.19
258.452	81.19
258.685	66.19
258.918	74.19
259.151	79.19
259.383	67.19
259.616	75.19
259.849	93.19
260.081	91.19
260.314	89.19
260.547	79.19
260.779	80.19
261.012	78.19
261.244	86.19
261.477	90.19
261.71	78.19
261.942	103.19
262.175	104.19
262.407	88.19
262.64	86.19
262.872	80.19
263.105	86.19
263.337	90.19
263.57	91.19
263.802	90.19
264.035	79.19
264.267	96.19
264.499	82.19
264.732	97.19
264.964	71.19
265.197	88.19
265.429	78.19
265.661	76.19
265.894	93.19
266.126	88.19
266.358	77.19
266.591	90.19
266.823	78.19
267.055	77.19
267.287	79.19
267.52	82.19
267.752	73.19
267.984	80.19
268.216	81.19
268.448	83.19
268.681	89.19
268.913	93.19
269.145	83.19
269.377	71.19
269.609	75.19
269.841	99.19
270.073	87.19
270.306	89.19
270.538	98.19
270.77	83.19
271.002	79.19
271.234	94.19
271.466	86.19
271.698	82.19
271.93	87.19
272.162	97.19
272.394	91.19
272.626	89.19
272.858	96.19
273.09	77.19
273.322	83.19
273.553	67.19
273.785	66.19
274.017	87.19
274.249	84.19
274.481	75.19
274.713	81.19
274.945	81.19
275.176	89.19
275.408	82.19
275.64	99.19
275.872	90.19
276.104	94.19
276.335	82.19
276.567	94.19
276.799	96.19
277.031	109.19
277.262	81.19
277.494	84.19
277.726	89.19
277.957	77.19
278.189	87.19
278.421	82.19
278.652	74.19
278.884	85.19
279.115	86.19
279.347	89.19
279.579	90.19
279.81	74.19
280.042	85.19
280.273	81.19
280.505	79.19
280.736	91.19
280.968	86.19
281.199	87.19
281.431	87.19
281.662	83.19
281.894	81.19
282.125	100.19
282.356	101.19
282.588	125.19
282.819	98.19
283.051	85.19
283.282	100.19
283.513	81.19
283.745	78.19
283.976	82.19
284.207	91.19
284.439	83.19
284.67	88.19
284.901	87.19
285.132	87.19
285.364	83.19
285.595	86.19
285.826	72.19
286.057	87.19
286.288	73.19
286.52	90.19
286.751	93.19
286.982	90.19
287.213	71.19
287.444	82.19
287.675	90.19
287.906	87.19
288.138	88.19
288.369	90.19
288.6	100.19
288.831	91.19
289.062	87.19
289.293	97.19
289.524	88.19
289.755	91.19
289.986	92.19
290.217	80.19
290.448	75.19
290.679	90.19
290.91	88.19
291.141	87.19
291.371	91.19
291.602	88.19
291.833	86.19
292.064	97.19
292.295	79.19
292.526	83.19
292.757	87.19
292.987	88.19
293.218	62.19
293.449	91.19
293.68	77.19
293.91	83.19
294.141	95.19
294.372	97.19
294.603	83.19
294.833	99.19
295.064	99.19
295.295	81.19
295.525	88.19
295.756	93.19
295.987	105.19
296.217	115.19
296.448	95.19
296.679	97.19
296.909	98.19
297.14	93.19
297.37	86.19
297.601	94.19
297.831	103.19
298.062	80.19
298.292	85.19
298.523	83.19
298.753	76.19
298.984	83.19
299.214	92.19
299.445	110.19
299.675	96.19
299.905	92.19
300.136	104.19
300.366	80.19
300.597	98.19
300.827	84.19
301.057	89.19
301.288	101.19
301.518	91.19
301.748	102.19
301.979	94.19
302.209	87.19
302.439	95.19
302.669	79.19
302.9	93.19
303.13	84.19
303.36	105.19
303.59	105.19
303.82	99.19
304.051	83.19
304.281	84.19
304.511	87.19
304.741	95.19
304.971	80.19
305.201	102.19
305.431	92.19
305.661	98.19
305.891	91.19
306.121	97.19
306.352	97.19
306.582	96.19
306.812	88.19
307.042	85.19
307.272	104.19
307.502	95.19
307.731	91.19
307.961	80.19
308.191	103.19
308.421	90.19
308.651	87.19
308.881	71.19
309.111	92.19
309.341	95.19
309.571	94.19
309.8	96.19
310.03	83.19
310.26	99.19
310.49	84.19
310.72	89.19
310.949	102.19
311.179	100.19
311.409	88.19
311.639	79.19
311.868	99.19
312.098	84.19
312.328	101.19
312.557	98.19
312.787	89.19
313.017	99.19
313.246	95.19
313.476	106.19
313.706	93.19
313.935	90.19
314.165	93.19
314.394	95.19
314.624	96.19
314.853	100.19
315.083	95.19
315.312	91.19
315.542	86.19
315.771	92.19
316.001	81.19
316.23	80.19
316.46	74.19
316.689	96.19
316.919	99.19
317.148	99.19
317.377	98.19
317.607	89.19
317.836	109.19
318.065	86.19
318.295	83.19
318.524	87.19
318.753	95.19
318.983	83.19
319.212	105.19
319.441	106.19
319.67	98.19
319.9	93.19
320.129	96.19
320.358	87.19
320.587	89.19
320.816	88.19
321.046	100.19
321.275	92.19
321.504	92.19
321.733	97.19
321.962	89.19
322.191	97.19
322.42	103.19
322.649	105.19
322.878	101.19
323.108	109.19
323.337	98.19
323.566	111.19
323.795	122.19
324.024	181.19
324.253	294.19
324.482	601.19
324.71	1274.19
324.939	1605.19
325.168	614.19
325.397	218.19
325.626	136.19
325.855	100.19
326.084	105.19
326.313	120.19
326.542	124.19
326.77	183.19
326.999	380.19
327.228	715.19
327.457	1259.19
327.686	1012.19
327.914	293.19
328.143	140.19
328.372	131.19
328.6	109.19
328.829	107.19
329.058	114.19
329.287	131.19
329.515	89.19
329.744	91.19
329.972	98.19
330.201	89.19
330.43	106.19
330.658	115.19
330.887	124.19
331.115	108.19
331.344	100.19
331.572	107.19
331.801	90.19
332.03	101.19
332.258	93.19
332.486	84.19
332.715	87.19
332.943	101.19
333.172	100.19
333.4	97.19
333.629	100.19
333.857	95.19
334.085	98.19
334.314	96.19
334.542	98.19
334.771	100.19
334.999	98.19
335.227	98.19
335.455	83.19
335.684	108.19
335.912	110.19
336.14	84.19
336.369	87.19
336.597	98.19
336.825	97.19
337.053	91.19
337.281	95.19
337.51	97.19
337.738	86.19
337.966	96.19
338.194	96.19
338.422	88.19
338.65	108.19
338.878	90.19
339.106	82.19
339.334	91.19
339.562	82.19
339.79	95.19
340.018	85.19
340.246	78.19
340.474	91.19
340.702	76.19
340.93	88.19
341.158	90.19
341.386	92.19
341.614	91.19
341.842	89.19
342.07	91.19
342.298	91.19
342.526	103.19
342.754	79.19
342.981	80.19
343.209	96.19
343.437	103.19
343.665	84.19
343.893	77.19
344.12	85.19
344.348	97.19
344.576	102.19
344.804	94.19
345.031	81.19
345.259	94.19
345.487	85.19
345.714	81.19
345.942	85.19
346.17	84.19
346.397	84.19
346.625	98.19
346.853	89.19
347.08	105.19
347.308	88.19
347.535	97.19
347.763	95.19
347.99	94.19
348.218	87.19
348.445	89.19
348.673	105.19
348.9	99.19
349.128	107.19
349.355	97.19
349.583	84.19
349.81	95.19
350.037	85.19
350.265	83.19
350.492	99.19
350.72	92.19
350.947	107.19
351.174	102.19
351.402	102.19
351.629	90.19
351.856	87.19
352.083	99.19
352.311	101.19
352.538	93.19
352.765	93.19
352.992	108.19
353.22	98.19
353.447	114.19
353.674	91.19
353.901	92.19
354.128	92.19
354.355	92.19
354.583	97.19
354.81	98.19
355.037	95.19
355.264	111.19
355.491	98.19
355.718	105.19
355.945	84.19
356.172	101.19
356.399	98.19
356.626	99.19
356.853	92.19
357.08	86.19
357.307	99.19
357.534	95.19
357.761	83.19
357.988	82.19
358.215	99.19
358.441	92.19
358.668	89.19
358.895	92.19
359.122	89.19
359.349	87.19
359.576	90.19
359.802	88.19
360.029	101.19
360.256	93.19
360.483	95.19
360.709	79.19
360.936	105.19
361.163	84.19
361.39	75.19
361.616	73.19
361.843	87.19
362.07	99.19
362.296	72.19
362.523	83.19
362.749	89.19
362.976	77.19
363.203	85.19
363.429	80.19
363.656	98.19
363.882	69.19
364.109	85.19
364.335	99.19
364.562	92.19
364.788	99.19
365.015	102.19
365.241	84.19
365.468	93.19
365.694	91.19
365.92	88.19
366.147	82.19
366.373	78.19
366.599	88.19
366.826	81.19
367.052	93.19
367.278	91.19
367.505	87.19
367.731	92.19
367.957	105.19
368.184	96.19
368.41	100.19
368.636	101.19
368.862	117.19
369.089	88.19
369.315	103.19
369.541	102.19
369.767	88.19
369.993	92.19
370.219	73.19
370.445	88.19
370.672	86.19
370.898	78.19
371.124	76.19
371.35	86.19
371.576	85.19
371.802	85.19
372.028	85.19
372.254	82.19
372.48	87.19
372.706	87.19
372.932	92.19
373.158	84.19
373.384	73.19
373.61	79.19
373.835	94.19
374.061	88.19
374.287	80.19
374.513	79.19
374.739	75.19
374.965	72.19
375.191	78.19
375.416	83.19
375.642	91.19
375.868	93.19
376.094	89.19
376.319	80.19
376.545	87.19
376.771	90.19
376.997	89.19
377.222	84.19
377.448	84.19
377.674	93.19
377.899	75.19
378.125	95.19
378.35	87.19
378.576	88.19
378.802	95.19
379.027	86.19
379.253	91.19
379.478	80.19
379.704	91.19
379.929	71.19
380.155	86.19
380.38	97.19
380.606	95.19
380.831	77.19
381.057	96.19
381.282	92.19
381.507	88.19
381.733	100.19
381.958	79.19
382.184	89.19
382.409	93.19
382.634	109.19
382.86	91.19
383.085	96.19
383.31	82.19
383.535	100.19
383.761	102.19
383.986	100.19
384.211	75.19
384.436	86.19
384.662	92.19
384.887	96.19
385.112	101.19
385.337	105.19
385.562	98.19
385.787	86.19
386.013	104.19
386.238	104.19
386.463	93.19
386.688	93.19
386.913	85.19
387.138	91.19
387.363	92.19
387.588	99.19
387.813	95.19
388.038	100.19
388.263	96.19
388.488	112.19
388.713	104.19
388.938	97.19
389.163	93.19
389.387	86.19
389.612	99.19
389.837	104.19
390.062	103.19
390.287	91.19
390.512	87.19
390.736	96.19
390.961	86.19
391.186	96.19
391.411	85.19
391.636	81.19
391.86	72.19
392.085	81.19
392.31	82.19
392.534	68.19
392.759	83.19
392.984	81.19
393.208	64.19
393.433	83.19
393.658	85.19
393.882	96.19
394.107	87.19
394.331	97.19
394.556	76.19
394.78	94.19
395.005	99.19
395.229	83.19
395.454	73.19
395.678	84.19
395.903	93.19
396.127	83.19
396.352	104.19
396.576	92.19
396.801	81.19
397.025	71.19
397.249	87.19
397.474	87.19
397.698	82.19
397.922	78.19
398.147	98.19
398.371	93.19
398.595	80.19
398.82	86.19
399.044	87.19
399.268	100.19
399.492	78.19
399.717	85.19
399.941	91.19
400.165	98.19
400.389	112.19
400.613	95.19
400.837	78.19
401.062	72.19
401.286	79.19
401.51	81.19
401.734	65.19
401.958	93.19
402.182	115.19
402.406	145.19
402.63	106.19
402.854	83.19
403.078	70.19
403.302	75.19
403.526	77.19
403.75	75.19
403.974	90.19
404.198	90.19
404.422	85.19
404.645	78.19
404.869	91.19
405.093	90.19
405.317	90.19
405.541	106.19
405.765	83.19
405.988	93.19
406.212	151.19
406.436	200.19
406.66	117.19
406.883	96.19
407.107	83.19
407.331	73.19
407.555	99.19
407.778	91.19
408.002	80.19
408.226	90.19
408.449	97.19
408.673	87.19
408.896	91.19
409.12	91.19
409.344	74.19
409.567	76.19
409.791	87.19
410.014	107.19
410.238	98.19
410.461	89.19
410.685	101.19
410.908	97.19
411.132	108.19
411.355	100.19
411.578	81.19
411.802	77.19
412.025	72.19
412.249	104.19
412.472	90.19
412.695	87.19
412.919	80.19
413.142	90.19
413.365	95.19
413.589	75.19
413.812	90.19
414.035	92.19
414.258	95.19
414.482	92.19
414.705	79.19
414.928	89.19
415.151	88.19
415.374	84.19
415.597	98.19
415.821	85.19
416.044	91.19
416.267	84.19
416.49	91.19
416.713	91.19
416.936	87.19
417.159	84.19
417.382	84.19
417.605	72.19
417.828	112.19
418.051	98.19
418.274	84.19
418.497	93.19
418.72	75.19
418.943	65.19
419.166	87.19
419.389	92.19
419.611	81.19
419.834	66.19
420.057	91.19
420.28	85.19
420.503	73.19
420.726	77.19
420.948	84.19
421.171	95.19
421.394	87.19
421.617	88.19
421.839	79.19
422.062	85.19
422.285	88.19
422.507	96.19
422.73	91.19
422.953	91.19
423.175	92.19
423.398	76.19
423.621	105.19
423.843	74.19
424.066	97.19
424.288	89.19
424.511	95.19
424.733	96.19
424.956	93.19
425.178	90.19
425.401	87.19
425.623	92.19
425.846	81.19
426.068	85.19
426.291	82.19
426.513	79.19
426.735	84.19
426.958	93.19
427.18	87.19
427.402	117.19
427.625	123.19
427.847	109.19
428.069	90.19
428.292	93.19
428.514	84.19
428.736	92.19
428.958	79.19
429.181	76.19
429.403	82.19
429.625	83.19
429.847	82.19
430.069	90.19
430.292	87.19
430.514	98.19
430.736	84.19
430.958	73.19
431.18	75.19
431.402	73.19
431.624	84.19
431.846	91.19
432.068	83.19
432.29	84.19
432.512	73.19
432.734	84.19
432.956	87.19
433.178	105.19
433.4	97.19
433.622	73.19
433.844	82.19
434.066	95.19
434.287	84.19
434.509	79.19
434.731	101.19
434.953	93.19
435.175	87.19
435.397	89.19
435.618	88.19
435.84	92.19
436.062	112.19
436.284	100.19
436.505	88.19
436.727	98.19
436.949	83.19
437.17	92.19
437.392	88.19
437.614	91.19
437.835	94.19
438.057	104.19
438.278	105.19
438.5	80.19
438.721	108.19
438.943	88.19
439.165	81.19
439.386	77.19
439.608	94.19
439.829	101.19
440.05	109.19
440.272	132.19
440.493	88.19
440.715	87.19
440.936	76.19
441.158	89.19
441.379	72.19
441.6	90.19
441.822	84.19
442.043	96.19
442.264	92.19
442.486	79.19
442.707	93.19
442.928	93.19
443.149	119.19
443.371	115.19
443.592	95.19
443.813	100.19
444.034	101.19
444.255	90.19
444.476	95.19
444.698	87.19
444.919	85.19
445.14	121.19
445.361	117.19
445.582	113.19
445.803	124.19
446.024	119.19
446.245	107.19
446.466	80.19
446.687	89.19
446.908	82.19
447.129	83.19
447.35	86.19
447.571	81.19
447.792	75.19
448.013	85.19
448.234	99.19
448.455	96.19
448.675	116.19
448.896	123.19
449.117	99.19
449.338	104.19
449.559	104.19
449.779	111.19
450	77.19
450.221	85.19
450.442	75.19
450.662	101.19
450.883	86.19
451.104	97.19
451.324	88.19
451.545	87.19
451.766	88.19
451.986	97.19
452.207	87.19
452.428	85.19
452.648	87.19
452.869	104.19
453.089	91.19
453.31	109.19
453.53	97.19
453.751	85.19
453.971	83.19
454.192	92.19
454.412	82.19
454.633	68.19
454.853	87.19
455.073	84.19
455.294	86.19
455.514	86.19
455.734	87.19
455.955	86.19
456.175	81.19
456.395	89.19
456.616	91.19
456.836	78.19
457.056	83.19
457.276	72.19
457.497	65.19
457.717	76.19
457.937	80.19
458.157	82.19
458.377	80.19
458.598	89.19
458.818	143.19
459.038	146.19
459.258	95.19
459.478	79.19
459.698	78.19
459.918	85.19
460.138	92.19
460.358	74.19
460.578	90.19
460.798	98.19
461.018	84.19
461.238	83.19
461.458	71.19
461.678	67.19
461.898	79.19
462.118	83.19
462.338	74.19
462.558	82.19
462.777	78.19
462.997	92.19
463.217	85.19
463.437	87.19
463.657	76.19
463.876	82.19
464.096	101.19
464.316	90.19
464.536	85.19
464.755	103.19
464.975	91.19
465.195	131.19
465.414	139.19
465.634	89.19
465.854	89.19
466.073	111.19
466.293	94.19
466.512	81.19
466.732	84.19
466.951	106.19
467.171	88.19
467.391	67.19
467.61	81.19
467.829	100.19
468.049	90.19
468.268	87.19
468.488	83.19
468.707	83.19
468.927	87.19
469.146	85.19
469.365	84.19
469.585	85.19
469.804	90.19
470.023	83.19
470.243	77.19
470.462	94.19
470.681	96.19
470.901	96.19
471.12	81.19
471.339	78.19
471.558	93.19
471.777	93.19
471.997	74.19
472.216	83.19
472.435	80.19
472.654	87.19
472.873	87.19
473.092	87.19
473.311	72.19
473.53	87.19
473.749	77.19
473.968	102.19
474.187	91.19
474.406	111.19
474.625	89.19
474.844	101.19
475.063	77.19
475.282	91.19
475.501	79.19
475.72	93.19
475.939	81.19
476.158	81.19
476.377	92.19
476.596	87.19
476.814	89.19
477.033	82.19
477.252	83.19
477.471	82.19
477.69	83.19
477.908	87.19
478.127	76.19
478.346	87.19
478.564	83.19
478.783	78.19
479.002	89.19
479.22	87.19
479.439	96.19
479.658	95.19
479.876	84.19
480.095	92.19
480.313	98.19
480.532	79.19
480.751	72.19
480.969	95.19
481.188	112.19
481.406	94.19
481.624	99.19
481.843	92.19
482.061	80.19
482.28	89.19
482.498	87.19
482.717	78.19
482.935	82.19
483.153	80.19
483.372	89.19
483.59	92.19
483.808	96.19
484.027	91.19
484.245	86.19
484.463	90.19
484.681	79.19
484.9	98.19
485.118	93.19
485.336	85.19
485.554	93.19
485.772	98.19
485.99	96.19
486.209	107.19
486.427	95.19
486.645	87.19
486.863	116.19
487.081	107.19
487.299	95.19
487.517	106.19
487.735	110.19
487.953	91.19
488.171	98.19
488.389	77.19
488.607	88.19
488.825	92.19
489.043	88.19
489.261	91.19
489.479	99.19
489.696	85.19
489.914	87.19
490.132	80.19
490.35	84.19
490.568	92.19
490.786	83.19
491.003	86.19
491.221	83.19
491.439	81.19
491.657	100.19
491.874	83.19
492.092	81.19
492.31	92.19
492.527	79.19
492.745	77.19
492.963	88.19
493.18	84.19
493.398	96.19
493.615	99.19
493.833	97.19
494.05	90.19
494.268	82.19
494.485	81.19
494.703	83.19
494.92	76.19
495.138	93.19
495.355	88.19
495.573	78.19
495.79	84.19
496.008	89.19
496.225	89.19
496.442	90.19
496.66	89.19
496.877	93.19
497.094	96.19
497.312	93.19
497.529	97.19
497.746	91.19
497.963	100.19
498.181	92.19
498.398	91.19
498.615	91.19
498.832	103.19
499.049	84.19
499.267	78.19
499.484	92.19
499.701	94.19
499.918	93.19
500.135	82.19
500.352	94.19
500.569	87.19
500.786	72.19
501.003	102.19
501.22	100.19
501.437	94.19
501.654	92.19
501.871	85.19
502.088	80.19
502.305	100.19
502.522	95.19
502.739	89.19
502.956	101.19
503.172	87.19
503.389	98.19
503.606	97.19
503.823	92.19
504.04	97.19
504.256	95.19
504.473	81.19
504.69	64.19
504.907	83.19
505.123	91.19
505.34	84.19
505.557	86.19
505.773	90.19
505.99	85.19
506.207	84.19
506.423	73.19
506.64	94.19
506.856	97.19
507.073	91.19
507.289	89.19
507.506	94.19
507.722	105.19
507.939	108.19
508.155	88.19
508.372	94.19
508.588	91.19
508.805	86.19
509.021	92.19
509.238	99.19
509.454	88.19
509.67	80.19
509.887	107.19
510.103	112.19
510.319	208.19
510.536	636.19
510.752	1937.19
510.968	547.19
511.184	130.19
511.401	98.19
511.617	95.19
511.833	91.19
512.049	78.19
512.265	91.19
512.481	74.19
512.698	101.19
512.914	106.19
513.13	107.19
513.346	95.19
513.562	78.19
513.778	87.19
513.994	104.19
514.21	94.19
514.426	114.19
514.642	124.19
514.858	120.19
515.074	159.19
515.29	375.19
515.506	1156.19
515.721	433.19
515.937	132.19
516.153	108.19
516.369	83.19
516.585	89.19
516.801	81.19
517.016	95.19
517.232	95.19
