Data from Uncirc_1993_H10_HRD10591_00071.txt Node
Date: Wed Jan 03 11:43:06 EST 2024
User: Yrep
Spectrometer: HR+D1059
Trigger mode: 1
Integration Time (sec): 1.000000E-1
Scans to average: 1
Electric dark correction enabled: true
Nonlinearity correction enabled: false
Boxcar width: 0
XAxis mode: Wavelengths
Number of Pixels in Spectrum: 2048
>>>>>Begin Spectral Data<<<<<
223.165	-4.56
223.4	-4.56
223.635	-4.56
223.869	-26.56
224.104	-27.56
224.338	-9.56
224.573	-19.56
224.808	-18.56
225.042	-1.56
225.277	5.44
225.511	0.44
225.746	7.44
225.98	15.44
226.215	2.44
226.449	10.44
226.683	5.44
226.918	25.44
227.152	35.44
227.387	29.44
227.621	37.44
227.856	63.44
228.09	32.44
228.324	42.44
228.559	50.44
228.793	75.44
229.027	69.44
229.262	67.44
229.496	60.44
229.73	76.44
229.964	85.44
230.199	87.44
230.433	83.44
230.667	79.44
230.901	86.44
231.136	74.44
231.37	75.44
231.604	91.44
231.838	73.44
232.072	86.44
232.306	93.44
232.541	88.44
232.775	79.44
233.009	91.44
233.243	77.44
233.477	85.44
233.711	91.44
233.945	81.44
234.179	78.44
234.413	72.44
234.647	70.44
234.881	81.44
235.115	85.44
235.349	79.44
235.583	72.44
235.817	83.44
236.051	77.44
236.285	76.44
236.519	92.44
236.753	83.44
236.987	73.44
237.221	81.44
237.455	88.44
237.689	81.44
237.922	83.44
238.156	87.44
238.39	77.44
238.624	87.44
238.858	82.44
239.091	72.44
239.325	78.44
239.559	91.44
239.793	85.44
240.027	87.44
240.26	84.44
240.494	84.44
240.728	86.44
240.961	82.44
241.195	81.44
241.429	82.44
241.662	61.44
241.896	63.44
242.13	77.44
242.363	69.44
242.597	85.44
242.83	73.44
243.064	97.44
243.298	75.44
243.531	75.44
243.765	88.44
243.998	67.44
244.232	79.44
244.465	74.44
244.699	85.44
244.932	80.44
245.166	66.44
245.399	84.44
245.633	88.44
245.866	84.44
246.099	77.44
246.333	79.44
246.566	62.44
246.8	79.44
247.033	89.44
247.266	81.44
247.5	83.44
247.733	90.44
247.966	88.44
248.2	85.44
248.433	83.44
248.666	93.44
248.899	87.44
249.133	61.44
249.366	99.44
249.599	92.44
249.832	87.44
250.066	88.44
250.299	75.44
250.532	94.44
250.765	89.44
250.998	75.44
251.231	81.44
251.465	81.44
251.698	77.44
251.931	84.44
252.164	79.44
252.397	99.44
252.63	71.44
252.863	84.44
253.096	80.44
253.329	80.44
253.562	76.44
253.795	79.44
254.028	80.44
254.261	79.44
254.494	75.44
254.727	94.44
254.96	88.44
255.193	87.44
255.426	93.44
255.659	72.44
255.892	72.44
256.124	81.44
256.357	71.44
256.59	96.44
256.823	83.44
257.056	85.44
257.289	83.44
257.521	88.44
257.754	84.44
257.987	77.44
258.22	70.44
258.452	95.44
258.685	85.44
258.918	82.44
259.151	82.44
259.383	71.44
259.616	71.44
259.849	87.44
260.081	70.44
260.314	79.44
260.547	88.44
260.779	97.44
261.012	77.44
261.244	96.44
261.477	91.44
261.71	87.44
261.942	111.44
262.175	112.44
262.407	98.44
262.64	84.44
262.872	99.44
263.105	81.44
263.337	95.44
263.57	84.44
263.802	89.44
264.035	93.44
264.267	72.44
264.499	81.44
264.732	88.44
264.964	79.44
265.197	94.44
265.429	95.44
265.661	80.44
265.894	95.44
266.126	78.44
266.358	77.44
266.591	85.44
266.823	104.44
267.055	91.44
267.287	89.44
267.52	88.44
267.752	85.44
267.984	93.44
268.216	84.44
268.448	84.44
268.681	76.44
268.913	87.44
269.145	99.44
269.377	81.44
269.609	99.44
269.841	80.44
270.073	85.44
270.306	85.44
270.538	93.44
270.77	78.44
271.002	71.44
271.234	83.44
271.466	87.44
271.698	84.44
271.93	95.44
272.162	82.44
272.394	88.44
272.626	88.44
272.858	80.44
273.09	73.44
273.322	80.44
273.553	85.44
273.785	85.44
274.017	92.44
274.249	88.44
274.481	77.44
274.713	92.44
274.945	100.44
275.176	101.44
275.408	96.44
275.64	87.44
275.872	79.44
276.104	102.44
276.335	89.44
276.567	100.44
276.799	106.44
277.031	104.44
277.262	93.44
277.494	97.44
277.726	83.44
277.957	100.44
278.189	98.44
278.421	97.44
278.652	99.44
278.884	84.44
279.115	79.44
279.347	91.44
279.579	96.44
279.81	93.44
280.042	87.44
280.273	96.44
280.505	89.44
280.736	90.44
280.968	88.44
281.199	84.44
281.431	92.44
281.662	87.44
281.894	97.44
282.125	97.44
282.356	108.44
282.588	145.44
282.819	106.44
283.051	96.44
283.282	90.44
283.513	96.44
283.745	91.44
283.976	85.44
284.207	89.44
284.439	95.44
284.67	89.44
284.901	68.44
285.132	79.44
285.364	89.44
285.595	97.44
285.826	84.44
286.057	93.44
286.288	92.44
286.52	89.44
286.751	98.44
286.982	99.44
287.213	78.44
287.444	95.44
287.675	97.44
287.906	87.44
288.138	78.44
288.369	97.44
288.6	88.44
288.831	96.44
289.062	100.44
289.293	88.44
289.524	89.44
289.755	94.44
289.986	104.44
290.217	89.44
290.448	100.44
290.679	101.44
290.91	87.44
291.141	82.44
291.371	94.44
291.602	88.44
291.833	91.44
292.064	94.44
292.295	74.44
292.526	87.44
292.757	88.44
292.987	89.44
293.218	89.44
293.449	86.44
293.68	92.44
293.91	88.44
294.141	89.44
294.372	98.44
294.603	94.44
294.833	93.44
295.064	88.44
295.295	85.44
295.525	102.44
295.756	100.44
295.987	111.44
296.217	128.44
296.448	119.44
296.679	95.44
296.909	86.44
297.14	97.44
297.37	88.44
297.601	106.44
297.831	92.44
298.062	95.44
298.292	108.44
298.523	83.44
298.753	78.44
298.984	85.44
299.214	101.44
299.445	89.44
299.675	92.44
299.905	87.44
300.136	91.44
300.366	90.44
300.597	93.44
300.827	87.44
301.057	97.44
301.288	97.44
301.518	97.44
301.748	87.44
301.979	101.44
302.209	91.44
302.439	77.44
302.669	92.44
302.9	92.44
303.13	110.44
303.36	100.44
303.59	115.44
303.82	102.44
304.051	95.44
304.281	96.44
304.511	103.44
304.741	84.44
304.971	94.44
305.201	101.44
305.431	90.44
305.661	95.44
305.891	101.44
306.121	97.44
306.352	112.44
306.582	106.44
306.812	89.44
307.042	102.44
307.272	109.44
307.502	96.44
307.731	103.44
307.961	90.44
308.191	81.44
308.421	88.44
308.651	91.44
308.881	91.44
309.111	103.44
309.341	98.44
309.571	106.44
309.8	95.44
310.03	91.44
310.26	103.44
310.49	99.44
310.72	86.44
310.949	92.44
311.179	100.44
311.409	79.44
311.639	96.44
311.868	100.44
312.098	106.44
312.328	87.44
312.557	100.44
312.787	94.44
313.017	109.44
313.246	107.44
313.476	107.44
313.706	109.44
313.935	96.44
314.165	97.44
314.394	108.44
314.624	91.44
314.853	85.44
315.083	79.44
315.312	104.44
315.542	94.44
315.771	86.44
316.001	92.44
316.23	100.44
316.46	95.44
316.689	89.44
316.919	91.44
317.148	80.44
317.377	105.44
317.607	103.44
317.836	99.44
318.065	91.44
318.295	92.44
318.524	92.44
318.753	97.44
318.983	95.44
319.212	100.44
319.441	116.44
319.67	105.44
319.9	93.44
320.129	97.44
320.358	98.44
320.587	87.44
320.816	99.44
321.046	102.44
321.275	111.44
321.504	104.44
321.733	79.44
321.962	88.44
322.191	106.44
322.42	85.44
322.649	110.44
322.878	104.44
323.108	116.44
323.337	117.44
323.566	119.44
323.795	152.44
324.024	188.44
324.253	333.44
324.482	701.44
324.71	1378.44
324.939	1799.44
325.168	679.44
325.397	220.44
325.626	143.44
325.855	111.44
326.084	121.44
326.313	132.44
326.542	151.44
326.77	206.44
326.999	385.44
327.228	763.44
327.457	1369.44
327.686	1105.44
327.914	323.44
328.143	183.44
328.372	133.44
328.6	113.44
328.829	109.44
329.058	114.44
329.287	120.44
329.515	114.44
329.744	107.44
329.972	92.44
330.201	82.44
330.43	113.44
330.658	124.44
330.887	134.44
331.115	123.44
331.344	117.44
331.572	120.44
331.801	116.44
332.03	104.44
332.258	106.44
332.486	105.44
332.715	93.44
332.943	90.44
333.172	87.44
333.4	95.44
333.629	110.44
333.857	126.44
334.085	110.44
334.314	96.44
334.542	102.44
334.771	107.44
334.999	91.44
335.227	89.44
335.455	98.44
335.684	98.44
335.912	102.44
336.14	96.44
336.369	93.44
336.597	103.44
336.825	94.44
337.053	100.44
337.281	102.44
337.51	88.44
337.738	95.44
337.966	98.44
338.194	90.44
338.422	109.44
338.65	101.44
338.878	89.44
339.106	87.44
339.334	95.44
339.562	93.44
339.79	95.44
340.018	98.44
340.246	86.44
340.474	97.44
340.702	98.44
340.93	95.44
341.158	91.44
341.386	111.44
341.614	99.44
341.842	100.44
342.07	95.44
342.298	98.44
342.526	104.44
342.754	97.44
342.981	80.44
343.209	91.44
343.437	119.44
343.665	81.44
343.893	90.44
344.12	92.44
344.348	83.44
344.576	100.44
344.804	96.44
345.031	97.44
345.259	99.44
345.487	99.44
345.714	88.44
345.942	92.44
346.17	100.44
346.397	91.44
346.625	102.44
346.853	89.44
347.08	95.44
347.308	93.44
347.535	100.44
347.763	105.44
347.99	100.44
348.218	109.44
348.445	89.44
348.673	98.44
348.9	88.44
349.128	88.44
349.355	91.44
349.583	110.44
349.81	97.44
350.037	98.44
350.265	105.44
350.492	105.44
350.72	98.44
350.947	103.44
351.174	104.44
351.402	100.44
351.629	99.44
351.856	104.44
352.083	100.44
352.311	118.44
352.538	101.44
352.765	107.44
352.992	119.44
353.22	120.44
353.447	114.44
353.674	115.44
353.901	105.44
354.128	93.44
354.355	95.44
354.583	97.44
354.81	98.44
355.037	98.44
355.264	97.44
355.491	103.44
355.718	90.44
355.945	98.44
356.172	98.44
356.399	95.44
356.626	97.44
356.853	97.44
357.08	103.44
357.307	91.44
357.534	101.44
357.761	103.44
357.988	95.44
358.215	102.44
358.441	90.44
358.668	97.44
358.895	97.44
359.122	83.44
359.349	92.44
359.576	92.44
359.802	101.44
360.029	110.44
360.256	122.44
360.483	111.44
360.709	89.44
360.936	97.44
361.163	83.44
361.39	96.44
361.616	95.44
361.843	87.44
362.07	114.44
362.296	88.44
362.523	101.44
362.749	107.44
362.976	105.44
363.203	102.44
363.429	94.44
363.656	103.44
363.882	85.44
364.109	98.44
364.335	98.44
364.562	96.44
364.788	87.44
365.015	96.44
365.241	96.44
365.468	117.44
365.694	102.44
365.92	103.44
366.147	91.44
366.373	86.44
366.599	105.44
366.826	94.44
367.052	79.44
367.278	108.44
367.505	96.44
367.731	87.44
367.957	91.44
368.184	95.44
368.41	88.44
368.636	96.44
368.862	118.44
369.089	101.44
369.315	95.44
369.541	101.44
369.767	90.44
369.993	99.44
370.219	116.44
370.445	93.44
370.672	73.44
370.898	88.44
371.124	97.44
371.35	102.44
371.576	103.44
371.802	88.44
372.028	97.44
372.254	102.44
372.48	99.44
372.706	79.44
372.932	95.44
373.158	82.44
373.384	92.44
373.61	108.44
373.835	85.44
374.061	102.44
374.287	95.44
374.513	89.44
374.739	93.44
374.965	92.44
375.191	88.44
375.416	92.44
375.642	95.44
375.868	96.44
376.094	85.44
376.319	88.44
376.545	100.44
376.771	73.44
376.997	94.44
377.222	90.44
377.448	82.44
377.674	78.44
377.899	94.44
378.125	104.44
378.35	88.44
378.576	94.44
378.802	85.44
379.027	105.44
379.253	86.44
379.478	99.44
379.704	91.44
379.929	96.44
380.155	98.44
380.38	89.44
380.606	86.44
380.831	89.44
381.057	98.44
381.282	95.44
381.507	86.44
381.733	94.44
381.958	103.44
382.184	105.44
382.409	101.44
382.634	108.44
382.86	104.44
383.085	102.44
383.31	94.44
383.535	108.44
383.761	96.44
383.986	103.44
384.211	94.44
384.436	108.44
384.662	105.44
384.887	105.44
385.112	97.44
385.337	104.44
385.562	110.44
385.787	113.44
386.013	116.44
386.238	101.44
386.463	91.44
386.688	114.44
386.913	94.44
387.138	101.44
387.363	101.44
387.588	100.44
387.813	110.44
388.038	109.44
388.263	95.44
388.488	105.44
388.713	106.44
388.938	100.44
389.163	89.44
389.387	97.44
389.612	98.44
389.837	88.44
390.062	96.44
390.287	92.44
390.512	94.44
390.736	92.44
390.961	99.44
391.186	103.44
391.411	114.44
391.636	101.44
391.86	87.44
392.085	88.44
392.31	76.44
392.534	80.44
392.759	84.44
392.984	79.44
393.208	92.44
393.433	79.44
393.658	81.44
393.882	72.44
394.107	74.44
394.331	89.44
394.556	88.44
394.78	85.44
395.005	91.44
395.229	91.44
395.454	88.44
395.678	93.44
395.903	95.44
396.127	84.44
396.352	91.44
396.576	87.44
396.801	98.44
397.025	72.44
397.249	83.44
397.474	111.44
397.698	93.44
397.922	94.44
398.147	91.44
398.371	87.44
398.595	91.44
398.82	89.44
399.044	79.44
399.268	89.44
399.492	76.44
399.717	79.44
399.941	91.44
400.165	95.44
400.389	95.44
400.613	99.44
400.837	95.44
401.062	75.44
401.286	89.44
401.51	79.44
401.734	81.44
401.958	84.44
402.182	112.44
402.406	156.44
402.63	100.44
402.854	99.44
403.078	89.44
403.302	109.44
403.526	94.44
403.75	109.44
403.974	99.44
404.198	88.44
404.422	90.44
404.645	107.44
404.869	104.44
405.093	109.44
405.317	104.44
405.541	99.44
405.765	104.44
405.988	112.44
406.212	151.44
406.436	215.44
406.66	141.44
406.883	108.44
407.107	79.44
407.331	105.44
407.555	102.44
407.778	100.44
408.002	89.44
408.226	84.44
408.449	99.44
408.673	87.44
408.896	93.44
409.12	85.44
409.344	81.44
409.567	101.44
409.791	95.44
410.014	103.44
410.238	78.44
410.461	108.44
410.685	99.44
410.908	103.44
411.132	116.44
411.355	99.44
411.578	80.44
411.802	98.44
412.025	99.44
412.249	80.44
412.472	90.44
412.695	87.44
412.919	91.44
413.142	92.44
413.365	97.44
413.589	88.44
413.812	96.44
414.035	105.44
414.258	91.44
414.482	89.44
414.705	79.44
414.928	96.44
415.151	92.44
415.374	89.44
415.597	87.44
415.821	86.44
416.044	100.44
416.267	73.44
416.49	102.44
416.713	94.44
416.936	87.44
417.159	72.44
417.382	104.44
417.605	102.44
417.828	111.44
418.051	93.44
418.274	103.44
418.497	69.44
418.72	95.44
418.943	102.44
419.166	89.44
419.389	90.44
419.611	81.44
419.834	78.44
420.057	79.44
420.28	94.44
420.503	81.44
420.726	93.44
420.948	87.44
421.171	103.44
421.394	104.44
421.617	88.44
421.839	106.44
422.062	97.44
422.285	111.44
422.507	87.44
422.73	112.44
422.953	97.44
423.175	103.44
423.398	81.44
423.621	82.44
423.843	78.44
424.066	101.44
424.288	100.44
424.511	92.44
424.733	90.44
424.956	109.44
425.178	111.44
425.401	100.44
425.623	99.44
425.846	79.44
426.068	94.44
426.291	101.44
426.513	96.44
426.735	95.44
426.958	101.44
427.18	92.44
427.402	123.44
427.625	164.44
427.847	113.44
428.069	98.44
428.292	83.44
428.514	103.44
428.736	87.44
428.958	84.44
429.181	90.44
429.403	87.44
429.625	81.44
429.847	100.44
430.069	85.44
430.292	89.44
430.514	91.44
430.736	95.44
430.958	97.44
431.18	92.44
431.402	84.44
431.624	94.44
431.846	87.44
432.068	92.44
432.29	81.44
432.512	94.44
432.734	91.44
432.956	99.44
433.178	91.44
433.4	98.44
433.622	94.44
433.844	99.44
434.066	100.44
434.287	91.44
434.509	93.44
434.731	96.44
434.953	96.44
435.175	93.44
435.397	105.44
435.618	96.44
435.84	102.44
436.062	121.44
436.284	121.44
436.505	108.44
436.727	116.44
436.949	110.44
437.17	99.44
437.392	85.44
437.614	91.44
437.835	101.44
438.057	111.44
438.278	113.44
438.5	104.44
438.721	118.44
438.943	96.44
439.165	97.44
439.386	86.44
439.608	93.44
439.829	89.44
440.05	121.44
440.272	146.44
440.493	101.44
440.715	92.44
440.936	93.44
441.158	111.44
441.379	93.44
441.6	97.44
441.822	111.44
442.043	104.44
442.264	101.44
442.486	94.44
442.707	99.44
442.928	105.44
443.149	128.44
443.371	126.44
443.592	111.44
443.813	94.44
444.034	100.44
444.255	103.44
444.476	106.44
444.698	95.44
444.919	96.44
445.14	128.44
445.361	113.44
445.582	105.44
445.803	133.44
446.024	120.44
446.245	121.44
446.466	109.44
446.687	105.44
446.908	97.44
447.129	108.44
447.35	97.44
447.571	99.44
447.792	97.44
448.013	105.44
448.234	90.44
448.455	105.44
448.675	105.44
448.896	105.44
449.117	103.44
449.338	111.44
449.559	142.44
449.779	115.44
450	96.44
450.221	95.44
450.442	104.44
450.662	106.44
450.883	107.44
451.104	97.44
451.324	103.44
451.545	81.44
451.766	90.44
451.986	86.44
452.207	103.44
452.428	105.44
452.648	95.44
452.869	104.44
453.089	116.44
453.31	115.44
453.53	85.44
453.751	108.44
453.971	133.44
454.192	110.44
454.412	104.44
454.633	104.44
454.853	91.44
455.073	82.44
455.294	97.44
455.514	111.44
455.734	95.44
455.955	100.44
456.175	87.44
456.395	96.44
456.616	94.44
456.836	84.44
457.056	81.44
457.276	91.44
457.497	95.44
457.717	79.44
457.937	83.44
458.157	82.44
458.377	81.44
458.598	110.44
458.818	117.44
459.038	151.44
459.258	87.44
459.478	89.44
459.698	92.44
459.918	88.44
460.138	90.44
460.358	84.44
460.578	88.44
460.798	87.44
461.018	104.44
461.238	81.44
461.458	80.44
461.678	85.44
461.898	85.44
462.118	86.44
462.338	83.44
462.558	89.44
462.777	87.44
462.997	89.44
463.217	93.44
463.437	97.44
463.657	103.44
463.876	80.44
464.096	86.44
464.316	100.44
464.536	101.44
464.755	86.44
464.975	95.44
465.195	164.44
465.414	143.44
465.634	97.44
465.854	84.44
466.073	85.44
466.293	85.44
466.512	97.44
466.732	102.44
466.951	75.44
467.171	99.44
467.391	104.44
467.61	91.44
467.829	105.44
468.049	92.44
468.268	92.44
468.488	98.44
468.707	91.44
468.927	95.44
469.146	86.44
469.365	88.44
469.585	100.44
469.804	95.44
470.023	94.44
470.243	78.44
470.462	98.44
470.681	108.44
470.901	89.44
471.12	99.44
471.339	91.44
471.558	87.44
471.777	84.44
471.997	79.44
472.216	90.44
472.435	98.44
472.654	79.44
472.873	105.44
473.092	105.44
473.311	93.44
473.53	92.44
473.749	91.44
473.968	101.44
474.187	107.44
474.406	116.44
474.625	100.44
474.844	83.44
475.063	70.44
475.282	80.44
475.501	81.44
475.72	87.44
475.939	89.44
476.158	84.44
476.377	92.44
476.596	102.44
476.814	96.44
477.033	90.44
477.252	88.44
477.471	90.44
477.69	77.44
477.908	88.44
478.127	99.44
478.346	77.44
478.564	100.44
478.783	90.44
479.002	113.44
479.22	94.44
479.439	100.44
479.658	92.44
479.876	102.44
480.095	85.44
480.313	95.44
480.532	99.44
480.751	101.44
480.969	108.44
481.188	105.44
481.406	104.44
481.624	104.44
481.843	93.44
482.061	86.44
482.28	99.44
482.498	87.44
482.717	104.44
482.935	78.44
483.153	93.44
483.372	95.44
483.59	84.44
483.808	92.44
484.027	95.44
484.245	90.44
484.463	102.44
484.681	95.44
484.9	109.44
485.118	102.44
485.336	103.44
485.554	88.44
485.772	101.44
485.99	108.44
486.209	100.44
486.427	108.44
486.645	115.44
486.863	110.44
487.081	115.44
487.299	89.44
487.517	112.44
487.735	89.44
487.953	106.44
488.171	101.44
488.389	107.44
488.607	113.44
488.825	84.44
489.043	100.44
489.261	96.44
489.479	76.44
489.696	92.44
489.914	87.44
490.132	87.44
490.35	95.44
490.568	108.44
490.786	90.44
491.003	87.44
491.221	97.44
491.439	90.44
491.657	102.44
491.874	110.44
492.092	87.44
492.31	99.44
492.527	93.44
492.745	94.44
492.963	95.44
493.18	97.44
493.398	96.44
493.615	101.44
493.833	100.44
494.05	97.44
494.268	86.44
494.485	88.44
494.703	101.44
494.92	92.44
495.138	86.44
495.355	90.44
495.573	77.44
495.79	88.44
496.008	85.44
496.225	102.44
496.442	89.44
496.66	93.44
496.877	90.44
497.094	84.44
497.312	90.44
497.529	100.44
497.746	88.44
497.963	94.44
498.181	114.44
498.398	104.44
498.615	116.44
498.832	104.44
499.049	94.44
499.267	102.44
499.484	84.44
499.701	111.44
499.918	97.44
500.135	103.44
500.352	103.44
500.569	91.44
500.786	77.44
501.003	92.44
501.22	104.44
501.437	95.44
501.654	94.44
501.871	115.44
502.088	86.44
502.305	97.44
502.522	98.44
502.739	97.44
502.956	106.44
503.172	97.44
503.389	93.44
503.606	113.44
503.823	104.44
504.04	88.44
504.256	89.44
504.473	90.44
504.69	93.44
504.907	89.44
505.123	96.44
505.34	83.44
505.557	98.44
505.773	83.44
505.99	96.44
506.207	94.44
506.423	99.44
506.64	97.44
506.856	106.44
507.073	109.44
507.289	97.44
507.506	102.44
507.722	117.44
507.939	94.44
508.155	102.44
508.372	100.44
508.588	98.44
508.805	101.44
509.021	96.44
509.238	100.44
509.454	113.44
509.67	102.44
509.887	117.44
510.103	123.44
510.319	209.44
510.536	700.44
510.752	2257.44
510.968	597.44
511.184	157.44
511.401	118.44
511.617	100.44
511.833	87.44
512.049	100.44
512.265	82.44
512.481	89.44
512.698	89.44
512.914	77.44
513.13	102.44
513.346	104.44
513.562	101.44
513.778	100.44
513.994	96.44
514.21	93.44
514.426	108.44
