Data from Uncirc_1993_H10_HRD10591_00015.txt Node
Date: Wed Jan 03 11:42:55 EST 2024
User: Yrep
Spectrometer: HR+D1059
Trigger mode: 1
Integration Time (sec): 1.000000E-1
Scans to average: 1
Electric dark correction enabled: true
Nonlinearity correction enabled: false
Boxcar width: 0
XAxis mode: Wavelengths
Number of Pixels in Spectrum: 2048
>>>>>Begin Spectral Data<<<<<
223.165	-14.06
223.4	-14.06
223.635	-14.06
223.869	-19.06
224.104	-18.06
224.338	-14.06
224.573	-16.06
224.808	-4.06
225.042	-7.06
225.277	2.94
225.511	-10.06
225.746	9.94
225.98	27.94
226.215	9.94
226.449	5.94
226.683	11.94
226.918	16.94
227.152	16.94
227.387	39.94
227.621	45.94
227.856	54.94
228.09	35.94
228.324	41.94
228.559	49.94
228.793	63.94
229.027	69.94
229.262	74.94
229.496	62.94
229.73	76.94
229.964	77.94
230.199	59.94
230.433	70.94
230.667	64.94
230.901	71.94
231.136	63.94
231.37	61.94
231.604	73.94
231.838	95.94
232.072	93.94
232.306	80.94
232.541	92.94
232.775	87.94
233.009	72.94
233.243	77.94
233.477	78.94
233.711	73.94
233.945	69.94
234.179	75.94
234.413	91.94
234.647	67.94
234.881	69.94
235.115	65.94
235.349	75.94
235.583	70.94
235.817	81.94
236.051	69.94
236.285	85.94
236.519	98.94
236.753	62.94
236.987	75.94
237.221	90.94
237.455	73.94
237.689	70.94
237.922	87.94
238.156	65.94
238.39	82.94
238.624	62.94
238.858	74.94
239.091	71.94
239.325	56.94
239.559	86.94
239.793	85.94
240.027	69.94
240.26	66.94
240.494	63.94
240.728	76.94
240.961	50.94
241.195	79.94
241.429	63.94
241.662	70.94
241.896	77.94
242.13	69.94
242.363	71.94
242.597	73.94
242.83	73.94
243.064	72.94
243.298	72.94
243.531	78.94
243.765	78.94
243.998	82.94
244.232	73.94
244.465	81.94
244.699	72.94
244.932	61.94
245.166	62.94
245.399	59.94
245.633	83.94
245.866	69.94
246.099	94.94
246.333	71.94
246.566	64.94
246.8	81.94
247.033	81.94
247.266	64.94
247.5	76.94
247.733	74.94
247.966	79.94
248.2	75.94
248.433	78.94
248.666	80.94
248.899	84.94
249.133	76.94
249.366	96.94
249.599	89.94
249.832	71.94
250.066	90.94
250.299	88.94
250.532	83.94
250.765	79.94
250.998	82.94
251.231	69.94
251.465	69.94
251.698	77.94
251.931	79.94
252.164	77.94
252.397	77.94
252.63	95.94
252.863	75.94
253.096	74.94
253.329	71.94
253.562	72.94
253.795	78.94
254.028	86.94
254.261	83.94
254.494	78.94
254.727	86.94
254.96	86.94
255.193	53.94
255.426	82.94
255.659	68.94
255.892	86.94
256.124	76.94
256.357	66.94
256.59	62.94
256.823	83.94
257.056	83.94
257.289	66.94
257.521	77.94
257.754	74.94
257.987	73.94
258.22	78.94
258.452	75.94
258.685	74.94
258.918	71.94
259.151	87.94
259.383	68.94
259.616	79.94
259.849	69.94
260.081	79.94
260.314	67.94
260.547	82.94
260.779	74.94
261.012	88.94
261.244	77.94
261.477	102.94
261.71	85.94
261.942	90.94
262.175	98.94
262.407	73.94
262.64	73.94
262.872	64.94
263.105	73.94
263.337	81.94
263.57	82.94
263.802	82.94
264.035	69.94
264.267	77.94
264.499	87.94
264.732	74.94
264.964	78.94
265.197	86.94
265.429	72.94
265.661	82.94
265.894	80.94
266.126	80.94
266.358	78.94
266.591	59.94
266.823	80.94
267.055	79.94
267.287	79.94
267.52	81.94
267.752	91.94
267.984	93.94
268.216	79.94
268.448	91.94
268.681	73.94
268.913	98.94
269.145	86.94
269.377	79.94
269.609	86.94
269.841	72.94
270.073	71.94
270.306	89.94
270.538	88.94
270.77	84.94
271.002	93.94
271.234	87.94
271.466	86.94
271.698	90.94
271.93	82.94
272.162	83.94
272.394	92.94
272.626	102.94
272.858	84.94
273.09	92.94
273.322	94.94
273.553	63.94
273.785	76.94
274.017	85.94
274.249	74.94
274.481	72.94
274.713	73.94
274.945	78.94
275.176	91.94
275.408	83.94
275.64	89.94
275.872	80.94
276.104	91.94
276.335	85.94
276.567	105.94
276.799	93.94
277.031	87.94
277.262	79.94
277.494	74.94
277.726	78.94
277.957	85.94
278.189	101.94
278.421	81.94
278.652	90.94
278.884	83.94
279.115	96.94
279.347	79.94
279.579	97.94
279.81	83.94
280.042	84.94
280.273	86.94
280.505	78.94
280.736	74.94
280.968	76.94
281.199	78.94
281.431	76.94
281.662	82.94
281.894	80.94
282.125	95.94
282.356	112.94
282.588	111.94
282.819	102.94
283.051	86.94
283.282	87.94
283.513	85.94
283.745	85.94
283.976	68.94
284.207	73.94
284.439	78.94
284.67	83.94
284.901	81.94
285.132	73.94
285.364	80.94
285.595	62.94
285.826	73.94
286.057	91.94
286.288	73.94
286.52	82.94
286.751	91.94
286.982	77.94
287.213	83.94
287.444	81.94
287.675	82.94
287.906	80.94
288.138	98.94
288.369	75.94
288.6	91.94
288.831	72.94
289.062	82.94
289.293	89.94
289.524	88.94
289.755	80.94
289.986	85.94
290.217	80.94
290.448	89.94
290.679	103.94
290.91	96.94
291.141	73.94
291.371	83.94
291.602	81.94
291.833	75.94
292.064	82.94
292.295	82.94
292.526	79.94
292.757	93.94
292.987	87.94
293.218	80.94
293.449	86.94
293.68	87.94
293.91	86.94
294.141	90.94
294.372	89.94
294.603	86.94
294.833	78.94
295.064	89.94
295.295	93.94
295.525	97.94
295.756	95.94
295.987	87.94
296.217	117.94
296.448	105.94
296.679	90.94
296.909	80.94
297.14	81.94
297.37	87.94
297.601	73.94
297.831	83.94
298.062	84.94
298.292	78.94
298.523	71.94
298.753	91.94
298.984	85.94
299.214	95.94
299.445	101.94
299.675	87.94
299.905	88.94
300.136	80.94
300.366	88.94
300.597	84.94
300.827	92.94
301.057	100.94
301.288	92.94
301.518	73.94
301.748	84.94
301.979	93.94
302.209	79.94
302.439	78.94
302.669	86.94
302.9	76.94
303.13	107.94
303.36	93.94
303.59	87.94
303.82	96.94
304.051	106.94
304.281	62.94
304.511	87.94
304.741	89.94
304.971	89.94
305.201	94.94
305.431	92.94
305.661	80.94
305.891	75.94
306.121	94.94
306.352	98.94
306.582	92.94
306.812	95.94
307.042	91.94
307.272	87.94
307.502	99.94
307.731	78.94
307.961	79.94
308.191	88.94
308.421	95.94
308.651	84.94
308.881	97.94
309.111	102.94
309.341	92.94
309.571	94.94
309.8	87.94
310.03	88.94
310.26	84.94
310.49	94.94
310.72	95.94
310.949	99.94
311.179	92.94
311.409	87.94
311.639	79.94
311.868	80.94
312.098	90.94
312.328	73.94
312.557	83.94
312.787	94.94
313.017	86.94
313.246	89.94
313.476	84.94
313.706	77.94
313.935	73.94
314.165	94.94
314.394	89.94
314.624	96.94
314.853	91.94
315.083	88.94
315.312	84.94
315.542	92.94
315.771	78.94
316.001	83.94
316.23	91.94
316.46	83.94
316.689	84.94
316.919	82.94
317.148	93.94
317.377	92.94
317.607	83.94
317.836	102.94
318.065	78.94
318.295	88.94
318.524	82.94
318.753	88.94
318.983	93.94
319.212	93.94
319.441	88.94
319.67	116.94
319.9	88.94
320.129	107.94
320.358	80.94
320.587	92.94
320.816	97.94
321.046	99.94
321.275	97.94
321.504	95.94
321.733	96.94
321.962	96.94
322.191	91.94
322.42	90.94
322.649	107.94
322.878	101.94
323.108	97.94
323.337	103.94
323.566	98.94
323.795	133.94
324.024	163.94
324.253	306.94
324.482	633.94
324.71	1250.94
324.939	1639.94
325.168	617.94
325.397	208.94
325.626	136.94
325.855	104.94
326.084	107.94
326.313	127.94
326.542	137.94
326.77	193.94
326.999	373.94
327.228	725.94
327.457	1261.94
327.686	1014.94
327.914	272.94
328.143	154.94
328.372	135.94
328.6	109.94
328.829	106.94
329.058	101.94
329.287	116.94
329.515	109.94
329.744	93.94
329.972	93.94
330.201	92.94
330.43	94.94
330.658	105.94
330.887	133.94
331.115	102.94
331.344	93.94
331.572	85.94
331.801	83.94
332.03	103.94
332.258	83.94
332.486	83.94
332.715	100.94
332.943	95.94
333.172	88.94
333.4	96.94
333.629	105.94
333.857	93.94
334.085	103.94
334.314	92.94
334.542	96.94
334.771	96.94
334.999	80.94
335.227	90.94
335.455	93.94
335.684	98.94
335.912	86.94
336.14	91.94
336.369	101.94
336.597	86.94
336.825	90.94
337.053	99.94
337.281	91.94
337.51	85.94
337.738	104.94
337.966	88.94
338.194	88.94
338.422	91.94
338.65	89.94
338.878	78.94
339.106	87.94
339.334	87.94
339.562	93.94
339.79	90.94
340.018	89.94
340.246	95.94
340.474	86.94
340.702	80.94
340.93	79.94
341.158	90.94
341.386	81.94
341.614	92.94
341.842	86.94
342.07	90.94
342.298	91.94
342.526	81.94
342.754	91.94
342.981	79.94
343.209	78.94
343.437	99.94
343.665	91.94
343.893	80.94
344.12	98.94
344.348	75.94
344.576	97.94
344.804	93.94
345.031	94.94
345.259	110.94
345.487	87.94
345.714	78.94
345.942	94.94
346.17	99.94
346.397	87.94
346.625	100.94
346.853	88.94
347.08	101.94
347.308	107.94
347.535	101.94
347.763	93.94
347.99	83.94
348.218	99.94
348.445	106.94
348.673	83.94
348.9	98.94
349.128	98.94
349.355	89.94
349.583	90.94
349.81	95.94
350.037	91.94
350.265	108.94
350.492	96.94
350.72	101.94
350.947	82.94
351.174	99.94
351.402	99.94
351.629	97.94
351.856	91.94
352.083	98.94
352.311	98.94
352.538	104.94
352.765	108.94
352.992	114.94
353.22	101.94
353.447	112.94
353.674	97.94
353.901	87.94
354.128	80.94
354.355	90.94
354.583	89.94
354.81	112.94
355.037	98.94
355.264	94.94
355.491	107.94
355.718	92.94
355.945	94.94
356.172	83.94
356.399	82.94
356.626	114.94
356.853	85.94
357.08	75.94
357.307	82.94
357.534	85.94
357.761	111.94
357.988	98.94
358.215	94.94
358.441	91.94
358.668	78.94
358.895	75.94
359.122	85.94
359.349	84.94
359.576	89.94
359.802	87.94
360.029	95.94
360.256	87.94
360.483	94.94
360.709	73.94
360.936	91.94
361.163	81.94
361.39	104.94
361.616	81.94
361.843	94.94
362.07	91.94
362.296	94.94
362.523	92.94
362.749	86.94
362.976	79.94
363.203	101.94
363.429	85.94
363.656	67.94
363.882	94.94
364.109	93.94
364.335	92.94
364.562	74.94
364.788	97.94
365.015	85.94
365.241	91.94
365.468	102.94
365.694	95.94
365.92	93.94
366.147	92.94
366.373	84.94
366.599	83.94
366.826	72.94
367.052	87.94
367.278	96.94
367.505	77.94
367.731	74.94
367.957	100.94
368.184	87.94
368.41	80.94
368.636	96.94
368.862	113.94
369.089	99.94
369.315	91.94
369.541	79.94
369.767	91.94
369.993	85.94
370.219	98.94
370.445	85.94
370.672	103.94
370.898	79.94
371.124	57.94
371.35	95.94
371.576	93.94
371.802	83.94
372.028	70.94
372.254	92.94
372.48	93.94
372.706	90.94
372.932	92.94
373.158	76.94
373.384	79.94
373.61	64.94
373.835	81.94
374.061	82.94
374.287	90.94
374.513	76.94
374.739	85.94
374.965	88.94
375.191	76.94
375.416	79.94
375.642	89.94
375.868	79.94
376.094	82.94
376.319	100.94
376.545	97.94
376.771	73.94
376.997	82.94
377.222	90.94
377.448	92.94
377.674	75.94
377.899	78.94
378.125	72.94
378.35	80.94
378.576	82.94
378.802	83.94
379.027	80.94
379.253	66.94
379.478	86.94
379.704	94.94
379.929	88.94
380.155	86.94
380.38	87.94
380.606	81.94
380.831	87.94
381.057	109.94
381.282	86.94
381.507	87.94
381.733	101.94
381.958	97.94
382.184	91.94
382.409	100.94
382.634	102.94
382.86	79.94
383.085	107.94
383.31	112.94
383.535	119.94
383.761	86.94
383.986	96.94
384.211	83.94
384.436	89.94
384.662	82.94
384.887	105.94
385.112	99.94
385.337	96.94
385.562	96.94
385.787	91.94
386.013	97.94
386.238	117.94
386.463	105.94
386.688	96.94
386.913	104.94
387.138	106.94
387.363	91.94
387.588	107.94
387.813	93.94
388.038	91.94
388.263	97.94
388.488	92.94
388.713	98.94
388.938	87.94
389.163	87.94
389.387	92.94
389.612	74.94
389.837	87.94
390.062	87.94
390.287	93.94
390.512	77.94
390.736	85.94
390.961	81.94
391.186	74.94
391.411	92.94
391.636	94.94
391.86	85.94
392.085	87.94
392.31	83.94
392.534	83.94
392.759	76.94
392.984	79.94
393.208	82.94
393.433	85.94
393.658	83.94
393.882	75.94
394.107	95.94
394.331	86.94
394.556	59.94
394.78	82.94
395.005	90.94
395.229	75.94
395.454	88.94
395.678	81.94
395.903	74.94
396.127	87.94
396.352	97.94
396.576	79.94
396.801	89.94
397.025	79.94
397.249	74.94
397.474	92.94
397.698	83.94
397.922	75.94
398.147	87.94
398.371	82.94
398.595	91.94
398.82	89.94
399.044	71.94
399.268	84.94
399.492	86.94
399.717	80.94
399.941	83.94
400.165	91.94
400.389	88.94
400.613	74.94
400.837	89.94
401.062	78.94
401.286	97.94
401.51	81.94
401.734	80.94
401.958	87.94
402.182	115.94
402.406	150.94
402.63	105.94
402.854	88.94
403.078	89.94
403.302	86.94
403.526	74.94
403.75	55.94
403.974	80.94
404.198	79.94
404.422	77.94
404.645	82.94
404.869	77.94
405.093	84.94
405.317	82.94
405.541	101.94
405.765	83.94
405.988	95.94
406.212	153.94
406.436	202.94
406.66	132.94
406.883	95.94
407.107	97.94
407.331	94.94
407.555	94.94
407.778	83.94
408.002	91.94
408.226	99.94
408.449	76.94
408.673	84.94
408.896	85.94
409.12	85.94
409.344	77.94
409.567	86.94
409.791	86.94
410.014	94.94
410.238	88.94
410.461	82.94
410.685	110.94
410.908	90.94
411.132	99.94
411.355	107.94
411.578	90.94
411.802	78.94
412.025	79.94
412.249	87.94
412.472	82.94
412.695	69.94
412.919	76.94
413.142	97.94
413.365	84.94
413.589	82.94
413.812	94.94
414.035	101.94
414.258	83.94
414.482	89.94
414.705	91.94
414.928	77.94
415.151	85.94
415.374	102.94
415.597	95.94
415.821	76.94
416.044	82.94
416.267	78.94
416.49	96.94
416.713	70.94
416.936	83.94
417.159	87.94
417.382	77.94
417.605	80.94
417.828	92.94
418.051	90.94
418.274	98.94
418.497	86.94
418.72	97.94
418.943	74.94
419.166	83.94
419.389	78.94
419.611	81.94
419.834	79.94
420.057	93.94
420.28	80.94
420.503	83.94
420.726	91.94
420.948	96.94
421.171	89.94
421.394	94.94
421.617	91.94
421.839	91.94
422.062	88.94
422.285	90.94
422.507	110.94
422.73	94.94
422.953	83.94
423.175	66.94
423.398	78.94
423.621	97.94
423.843	77.94
424.066	91.94
424.288	79.94
424.511	78.94
424.733	95.94
424.956	93.94
425.178	86.94
425.401	87.94
425.623	109.94
425.846	70.94
426.068	89.94
426.291	78.94
426.513	92.94
426.735	85.94
426.958	87.94
427.18	88.94
427.402	110.94
427.625	123.94
427.847	105.94
428.069	97.94
428.292	78.94
428.514	70.94
428.736	79.94
428.958	89.94
429.181	80.94
429.403	87.94
429.625	79.94
429.847	77.94
430.069	86.94
430.292	79.94
430.514	96.94
430.736	71.94
430.958	82.94
431.18	74.94
431.402	74.94
431.624	87.94
431.846	79.94
432.068	91.94
432.29	68.94
432.512	73.94
432.734	91.94
432.956	84.94
433.178	97.94
433.4	95.94
433.622	95.94
433.844	87.94
434.066	86.94
434.287	85.94
434.509	80.94
434.731	100.94
434.953	79.94
435.175	81.94
435.397	82.94
435.618	94.94
435.84	93.94
436.062	117.94
436.284	93.94
436.505	89.94
436.727	97.94
436.949	89.94
437.17	85.94
437.392	90.94
437.614	90.94
437.835	86.94
438.057	99.94
438.278	96.94
438.5	95.94
438.721	105.94
438.943	83.94
439.165	89.94
439.386	77.94
439.608	99.94
439.829	98.94
440.05	100.94
440.272	122.94
440.493	72.94
440.715	82.94
440.936	85.94
441.158	89.94
441.379	84.94
441.6	86.94
441.822	88.94
442.043	98.94
442.264	91.94
442.486	87.94
442.707	96.94
442.928	91.94
443.149	106.94
443.371	106.94
443.592	101.94
443.813	105.94
444.034	87.94
444.255	108.94
444.476	87.94
444.698	84.94
444.919	89.94
445.14	123.94
445.361	116.94
445.582	106.94
445.803	113.94
446.024	111.94
446.245	119.94
446.466	105.94
446.687	97.94
446.908	82.94
447.129	82.94
447.35	96.94
447.571	89.94
447.792	83.94
448.013	91.94
448.234	98.94
448.455	92.94
448.675	118.94
448.896	121.94
449.117	95.94
449.338	102.94
449.559	116.94
449.779	128.94
450	89.94
450.221	82.94
450.442	85.94
450.662	87.94
450.883	102.94
451.104	96.94
451.324	98.94
451.545	85.94
451.766	72.94
451.986	85.94
452.207	103.94
452.428	90.94
452.648	75.94
452.869	109.94
453.089	104.94
453.31	103.94
453.53	83.94
453.751	87.94
453.971	91.94
454.192	104.94
454.412	85.94
454.633	79.94
454.853	73.94
455.073	79.94
455.294	80.94
455.514	96.94
455.734	70.94
455.955	77.94
456.175	70.94
456.395	86.94
456.616	82.94
456.836	75.94
457.056	85.94
457.276	71.94
457.497	76.94
457.717	82.94
457.937	64.94
458.157	85.94
458.377	83.94
458.598	99.94
458.818	129.94
459.038	136.94
459.258	89.94
459.478	90.94
459.698	72.94
459.918	72.94
460.138	86.94
460.358	72.94
460.578	78.94
460.798	85.94
461.018	93.94
461.238	94.94
461.458	89.94
461.678	73.94
461.898	77.94
462.118	92.94
462.338	71.94
462.558	92.94
462.777	95.94
462.997	78.94
463.217	66.94
463.437	69.94
463.657	75.94
463.876	80.94
464.096	84.94
464.316	92.94
464.536	78.94
464.755	93.94
464.975	101.94
465.195	145.94
465.414	128.94
465.634	66.94
465.854	96.94
466.073	87.94
466.293	90.94
466.512	90.94
466.732	75.94
466.951	89.94
467.171	82.94
467.391	91.94
467.61	91.94
467.829	80.94
468.049	93.94
468.268	79.94
468.488	71.94
468.707	89.94
468.927	88.94
469.146	74.94
469.365	74.94
469.585	83.94
469.804	88.94
470.023	93.94
470.243	71.94
470.462	88.94
470.681	105.94
470.901	87.94
471.12	82.94
471.339	84.94
471.558	85.94
471.777	75.94
471.997	82.94
472.216	104.94
472.435	103.94
472.654	79.94
472.873	78.94
473.092	82.94
473.311	86.94
473.53	75.94
473.749	90.94
473.968	90.94
474.187	91.94
474.406	89.94
474.625	86.94
474.844	87.94
475.063	88.94
475.282	75.94
475.501	90.94
475.72	93.94
475.939	97.94
476.158	83.94
476.377	91.94
476.596	83.94
476.814	95.94
477.033	78.94
477.252	87.94
477.471	88.94
477.69	89.94
477.908	83.94
478.127	85.94
478.346	94.94
478.564	85.94
478.783	87.94
479.002	73.94
479.22	80.94
479.439	101.94
479.658	95.94
479.876	86.94
480.095	96.94
480.313	95.94
480.532	66.94
480.751	86.94
480.969	87.94
481.188	106.94
481.406	88.94
481.624	91.94
481.843	94.94
482.061	91.94
482.28	79.94
482.498	81.94
482.717	87.94
482.935	93.94
483.153	79.94
483.372	93.94
483.59	82.94
483.808	85.94
484.027	85.94
484.245	94.94
484.463	73.94
484.681	79.94
484.9	91.94
485.118	94.94
485.336	108.94
485.554	86.94
485.772	84.94
485.99	102.94
486.209	102.94
486.427	101.94
486.645	107.94
486.863	103.94
487.081	94.94
487.299	88.94
487.517	97.94
487.735	95.94
487.953	75.94
488.171	93.94
488.389	91.94
488.607	88.94
488.825	89.94
489.043	78.94
489.261	86.94
489.479	89.94
489.696	99.94
489.914	100.94
490.132	88.94
490.35	86.94
490.568	86.94
490.786	76.94
491.003	64.94
491.221	74.94
491.439	82.94
491.657	90.94
491.874	98.94
492.092	81.94
492.31	92.94
492.527	77.94
492.745	98.94
492.963	87.94
493.18	107.94
493.398	90.94
493.615	96.94
493.833	80.94
494.05	90.94
494.268	85.94
494.485	90.94
494.703	83.94
494.92	96.94
495.138	87.94
495.355	90.94
495.573	73.94
495.79	78.94
496.008	75.94
496.225	87.94
496.442	97.94
496.66	86.94
496.877	97.94
497.094	81.94
497.312	83.94
497.529	88.94
497.746	92.94
497.963	98.94
498.181	95.94
498.398	86.94
498.615	91.94
498.832	99.94
499.049	89.94
499.267	103.94
499.484	85.94
499.701	88.94
499.918	96.94
500.135	79.94
500.352	82.94
500.569	88.94
500.786	77.94
501.003	86.94
501.22	88.94
501.437	93.94
501.654	92.94
501.871	85.94
502.088	96.94
502.305	81.94
502.522	87.94
502.739	75.94
502.956	83.94
503.172	83.94
503.389	88.94
503.606	110.94
503.823	95.94
504.04	109.94
504.256	82.94
504.473	75.94
504.69	95.94
504.907	75.94
505.123	76.94
505.34	75.94
505.557	88.94
505.773	63.94
505.99	88.94
506.207	75.94
506.423	96.94
506.64	95.94
506.856	92.94
507.073	83.94
507.289	90.94
507.506	93.94
507.722	109.94
507.939	104.94
508.155	80.94
508.372	88.94
508.588	80.94
508.805	101.94
509.021	88.94
509.238	91.94
509.454	96.94
509.67	77.94
509.887	101.94
510.103	113.94
510.319	198.94
510.536	685.94
510.752	1952.94
510.968	553.94
511.184	155.94
511.401	103.94
511.617	82.94
511.833	80.94
512.049	81.94
512.265	80.94
512.481	85.94
512.698	89.94
512.914	97.94
513.13	93.94
513.346	73.94
513.562	86.94
513.778	87.94
513.994	90.94
514.21	90.94
514.426	88.94
514.642	128.94
514.858	118.94
515.074	154.94
515.29	362.94
515.506	1162.94
515.721	425.94
515.937	137.94
516.153	96.94
516.369	97.94
516.585	89.94
516.801	91.94
517.016	85.94
517.232	97.94
517.448	98.94
517.664	94.94
