Data from Uncirc_1985_H10_HRD10591_00025.txt Node
Date: Wed Jan 03 12:18:22 EST 2024
User: Yrep
Spectrometer: HR+D1059
Trigger mode: 1
Integration Time (sec): 1.000000E-1
Scans to average: 1
Electric dark correction enabled: true
Nonlinearity correction enabled: false
Boxcar width: 0
XAxis mode: Wavelengths
Number of Pixels in Spectrum: 2048
>>>>>Begin Spectral Data<<<<<
223.165	-30.62
223.4	-30.62
223.635	-30.62
223.869	-17.62
224.104	-12.62
224.338	-6.62
224.573	-7.62
224.808	-6.62
225.042	-12.62
225.277	-1.62
225.511	-6.62
225.746	12.38
225.98	-0.62
226.215	4.38
226.449	12.38
226.683	19.38
226.918	26.38
227.152	28.38
227.387	35.38
227.621	47.38
227.856	49.38
228.09	49.38
228.324	51.38
228.559	54.38
228.793	54.38
229.027	70.38
229.262	74.38
229.496	68.38
229.73	84.38
229.964	73.38
230.199	71.38
230.433	43.38
230.667	70.38
230.901	84.38
231.136	86.38
231.37	79.38
231.604	71.38
231.838	66.38
232.072	71.38
232.306	89.38
232.541	77.38
232.775	75.38
233.009	94.38
233.243	94.38
233.477	77.38
233.711	81.38
233.945	91.38
234.179	89.38
234.413	84.38
234.647	70.38
234.881	78.38
235.115	83.38
235.349	84.38
235.583	87.38
235.817	89.38
236.051	77.38
236.285	65.38
236.519	88.38
236.753	74.38
236.987	85.38
237.221	71.38
237.455	85.38
237.689	84.38
237.922	73.38
238.156	86.38
238.39	79.38
238.624	76.38
238.858	85.38
239.091	74.38
239.325	86.38
239.559	82.38
239.793	77.38
240.027	89.38
240.26	77.38
240.494	78.38
240.728	102.38
240.961	81.38
241.195	85.38
241.429	91.38
241.662	67.38
241.896	71.38
242.13	83.38
242.363	89.38
242.597	79.38
242.83	73.38
243.064	77.38
243.298	69.38
243.531	84.38
243.765	83.38
243.998	83.38
244.232	88.38
244.465	82.38
244.699	75.38
244.932	92.38
245.166	85.38
245.399	90.38
245.633	81.38
245.866	87.38
246.099	78.38
246.333	77.38
246.566	84.38
246.8	78.38
247.033	78.38
247.266	73.38
247.5	86.38
247.733	94.38
247.966	82.38
248.2	71.38
248.433	70.38
248.666	80.38
248.899	84.38
249.133	98.38
249.366	100.38
249.599	98.38
249.832	85.38
250.066	85.38
250.299	72.38
250.532	83.38
250.765	78.38
250.998	76.38
251.231	81.38
251.465	77.38
251.698	76.38
251.931	81.38
252.164	84.38
252.397	79.38
252.63	97.38
252.863	88.38
253.096	69.38
253.329	85.38
253.562	78.38
253.795	89.38
254.028	84.38
254.261	88.38
254.494	89.38
254.727	90.38
254.96	81.38
255.193	78.38
255.426	74.38
255.659	92.38
255.892	84.38
256.124	82.38
256.357	79.38
256.59	82.38
256.823	79.38
257.056	81.38
257.289	90.38
257.521	89.38
257.754	81.38
257.987	85.38
258.22	91.38
258.452	77.38
258.685	89.38
258.918	81.38
259.151	83.38
259.383	77.38
259.616	88.38
259.849	87.38
260.081	91.38
260.314	97.38
260.547	84.38
260.779	90.38
261.012	76.38
261.244	87.38
261.477	104.38
261.71	92.38
261.942	106.38
262.175	92.38
262.407	98.38
262.64	74.38
262.872	78.38
263.105	86.38
263.337	93.38
263.57	90.38
263.802	101.38
264.035	97.38
264.267	89.38
264.499	82.38
264.732	93.38
264.964	82.38
265.197	75.38
265.429	77.38
265.661	63.38
265.894	84.38
266.126	86.38
266.358	93.38
266.591	89.38
266.823	86.38
267.055	71.38
267.287	76.38
267.52	93.38
267.752	75.38
267.984	76.38
268.216	78.38
268.448	95.38
268.681	93.38
268.913	94.38
269.145	89.38
269.377	87.38
269.609	81.38
269.841	86.38
270.073	69.38
270.306	95.38
270.538	84.38
270.77	81.38
271.002	99.38
271.234	85.38
271.466	93.38
271.698	80.38
271.93	76.38
272.162	93.38
272.394	86.38
272.626	84.38
272.858	77.38
273.09	69.38
273.322	85.38
273.553	83.38
273.785	83.38
274.017	95.38
274.249	81.38
274.481	92.38
274.713	95.38
274.945	95.38
275.176	88.38
275.408	89.38
275.64	68.38
275.872	89.38
276.104	97.38
276.335	94.38
276.567	89.38
276.799	108.38
277.031	101.38
277.262	90.38
277.494	93.38
277.726	84.38
277.957	82.38
278.189	100.38
278.421	90.38
278.652	91.38
278.884	99.38
279.115	99.38
279.347	85.38
279.579	85.38
279.81	92.38
280.042	84.38
280.273	93.38
280.505	96.38
280.736	102.38
280.968	101.38
281.199	94.38
281.431	85.38
281.662	85.38
281.894	87.38
282.125	77.38
282.356	120.38
282.588	130.38
282.819	109.38
283.051	101.38
283.282	101.38
283.513	89.38
283.745	96.38
283.976	83.38
284.207	83.38
284.439	92.38
284.67	86.38
284.901	91.38
285.132	98.38
285.364	91.38
285.595	81.38
285.826	79.38
286.057	81.38
286.288	91.38
286.52	86.38
286.751	97.38
286.982	79.38
287.213	81.38
287.444	78.38
287.675	77.38
287.906	89.38
288.138	88.38
288.369	91.38
288.6	86.38
288.831	95.38
289.062	94.38
289.293	93.38
289.524	89.38
289.755	79.38
289.986	87.38
290.217	86.38
290.448	105.38
290.679	104.38
290.91	82.38
291.141	92.38
291.371	85.38
291.602	98.38
291.833	91.38
292.064	97.38
292.295	79.38
292.526	85.38
292.757	99.38
292.987	93.38
293.218	89.38
293.449	91.38
293.68	98.38
293.91	88.38
294.141	90.38
294.372	83.38
294.603	78.38
294.833	93.38
295.064	100.38
295.295	96.38
295.525	85.38
295.756	108.38
295.987	105.38
296.217	148.38
296.448	117.38
296.679	86.38
296.909	94.38
297.14	92.38
297.37	95.38
297.601	94.38
297.831	97.38
298.062	84.38
298.292	90.38
298.523	92.38
298.753	85.38
298.984	83.38
299.214	83.38
299.445	101.38
299.675	90.38
299.905	106.38
300.136	92.38
300.366	87.38
300.597	89.38
300.827	90.38
301.057	97.38
301.288	107.38
301.518	93.38
301.748	93.38
301.979	119.38
302.209	98.38
302.439	81.38
302.669	91.38
302.9	94.38
303.13	88.38
303.36	100.38
303.59	95.38
303.82	110.38
304.051	98.38
304.281	94.38
304.511	98.38
304.741	107.38
304.971	89.38
305.201	97.38
305.431	93.38
305.661	87.38
305.891	89.38
306.121	112.38
306.352	108.38
306.582	115.38
306.812	79.38
307.042	94.38
307.272	110.38
307.502	87.38
307.731	98.38
307.961	85.38
308.191	87.38
308.421	99.38
308.651	77.38
308.881	91.38
309.111	98.38
309.341	91.38
309.571	99.38
309.8	104.38
310.03	99.38
310.26	100.38
310.49	94.38
310.72	97.38
310.949	114.38
311.179	114.38
311.409	93.38
311.639	100.38
311.868	87.38
312.098	93.38
312.328	96.38
312.557	94.38
312.787	102.38
313.017	116.38
313.246	91.38
313.476	110.38
313.706	98.38
313.935	91.38
314.165	87.38
314.394	99.38
314.624	99.38
314.853	94.38
315.083	104.38
315.312	107.38
315.542	93.38
315.771	93.38
316.001	102.38
316.23	98.38
316.46	86.38
316.689	77.38
316.919	89.38
317.148	91.38
317.377	110.38
317.607	89.38
317.836	88.38
318.065	91.38
318.295	83.38
318.524	92.38
318.753	92.38
318.983	95.38
319.212	111.38
319.441	98.38
319.67	106.38
319.9	99.38
320.129	83.38
320.358	95.38
320.587	96.38
320.816	111.38
321.046	99.38
321.275	103.38
321.504	80.38
321.733	93.38
321.962	93.38
322.191	83.38
322.42	98.38
322.649	102.38
322.878	124.38
323.108	106.38
323.337	114.38
323.566	122.38
323.795	142.38
324.024	189.38
324.253	355.38
324.482	729.38
324.71	1409.38
324.939	1913.38
325.168	692.38
325.397	215.38
325.626	138.38
325.855	136.38
326.084	124.38
326.313	135.38
326.542	145.38
326.77	205.38
326.999	435.38
327.228	824.38
327.457	1550.38
327.686	1174.38
327.914	329.38
328.143	187.38
328.372	121.38
328.6	110.38
328.829	126.38
329.058	115.38
329.287	116.38
329.515	102.38
329.744	107.38
329.972	102.38
330.201	104.38
330.43	113.38
330.658	120.38
330.887	121.38
331.115	113.38
331.344	96.38
331.572	97.38
331.801	106.38
332.03	109.38
332.258	92.38
332.486	92.38
332.715	102.38
332.943	77.38
333.172	88.38
333.4	103.38
333.629	116.38
333.857	94.38
334.085	116.38
334.314	102.38
334.542	116.38
334.771	109.38
334.999	106.38
335.227	82.38
335.455	90.38
335.684	95.38
335.912	106.38
336.14	101.38
336.369	90.38
336.597	104.38
336.825	106.38
337.053	99.38
337.281	103.38
337.51	110.38
337.738	89.38
337.966	106.38
338.194	93.38
338.422	102.38
338.65	101.38
338.878	95.38
339.106	94.38
339.334	90.38
339.562	105.38
339.79	93.38
340.018	91.38
340.246	94.38
340.474	97.38
340.702	85.38
340.93	82.38
341.158	99.38
341.386	92.38
341.614	99.38
341.842	87.38
342.07	106.38
342.298	107.38
342.526	72.38
342.754	106.38
342.981	94.38
343.209	115.38
343.437	101.38
343.665	97.38
343.893	93.38
344.12	93.38
344.348	88.38
344.576	97.38
344.804	89.38
345.031	104.38
345.259	98.38
345.487	107.38
345.714	89.38
345.942	97.38
346.17	94.38
346.397	91.38
346.625	86.38
346.853	94.38
347.08	92.38
347.308	105.38
347.535	88.38
347.763	103.38
347.99	99.38
348.218	104.38
348.445	94.38
348.673	93.38
348.9	106.38
349.128	94.38
349.355	82.38
349.583	108.38
349.81	109.38
350.037	101.38
350.265	97.38
350.492	106.38
350.72	102.38
350.947	109.38
351.174	102.38
351.402	91.38
351.629	102.38
351.856	99.38
352.083	94.38
352.311	97.38
352.538	122.38
352.765	121.38
352.992	107.38
353.22	112.38
353.447	101.38
353.674	91.38
353.901	96.38
354.128	102.38
354.355	99.38
354.583	108.38
354.81	111.38
355.037	96.38
355.264	98.38
355.491	100.38
355.718	102.38
355.945	107.38
356.172	98.38
356.399	103.38
356.626	109.38
356.853	91.38
357.08	103.38
357.307	99.38
357.534	102.38
357.761	98.38
357.988	97.38
358.215	104.38
358.441	93.38
358.668	107.38
358.895	97.38
359.122	99.38
359.349	88.38
359.576	97.38
359.802	84.38
360.029	109.38
360.256	100.38
360.483	107.38
360.709	102.38
360.936	89.38
361.163	98.38
361.39	108.38
361.616	94.38
361.843	102.38
362.07	105.38
362.296	115.38
362.523	111.38
362.749	96.38
362.976	105.38
363.203	94.38
363.429	104.38
363.656	107.38
363.882	102.38
364.109	95.38
364.335	108.38
364.562	102.38
364.788	97.38
365.015	90.38
365.241	104.38
365.468	115.38
365.694	110.38
365.92	91.38
366.147	84.38
366.373	80.38
366.599	89.38
366.826	103.38
367.052	115.38
367.278	102.38
367.505	81.38
367.731	93.38
367.957	93.38
368.184	95.38
368.41	98.38
368.636	111.38
368.862	106.38
369.089	104.38
369.315	103.38
369.541	98.38
369.767	101.38
369.993	88.38
370.219	85.38
370.445	90.38
370.672	84.38
370.898	90.38
371.124	75.38
371.35	100.38
371.576	78.38
371.802	96.38
372.028	94.38
372.254	87.38
372.48	94.38
372.706	98.38
372.932	88.38
373.158	80.38
373.384	107.38
373.61	90.38
373.835	103.38
374.061	94.38
374.287	101.38
374.513	85.38
374.739	92.38
374.965	81.38
375.191	89.38
375.416	90.38
375.642	97.38
375.868	93.38
376.094	92.38
376.319	93.38
376.545	90.38
376.771	90.38
376.997	91.38
377.222	99.38
377.448	92.38
377.674	101.38
377.899	93.38
378.125	94.38
378.35	107.38
378.576	98.38
378.802	97.38
379.027	84.38
379.253	87.38
379.478	103.38
379.704	89.38
379.929	101.38
380.155	100.38
380.38	101.38
380.606	97.38
380.831	88.38
381.057	88.38
381.282	102.38
381.507	91.38
381.733	101.38
381.958	99.38
382.184	100.38
382.409	110.38
382.634	88.38
382.86	101.38
383.085	111.38
383.31	92.38
383.535	117.38
383.761	99.38
383.986	108.38
384.211	87.38
384.436	103.38
384.662	106.38
384.887	99.38
385.112	113.38
385.337	108.38
385.562	89.38
385.787	119.38
386.013	94.38
386.238	109.38
386.463	104.38
386.688	110.38
386.913	103.38
387.138	106.38
387.363	119.38
387.588	113.38
387.813	103.38
388.038	99.38
388.263	121.38
388.488	92.38
388.713	107.38
388.938	88.38
389.163	95.38
389.387	94.38
389.612	104.38
389.837	98.38
390.062	79.38
390.287	90.38
390.512	92.38
390.736	102.38
390.961	85.38
391.186	104.38
391.411	115.38
391.636	81.38
391.86	86.38
392.085	108.38
392.31	94.38
392.534	100.38
392.759	93.38
392.984	90.38
393.208	100.38
393.433	96.38
393.658	82.38
393.882	89.38
394.107	88.38
394.331	88.38
394.556	85.38
394.78	93.38
395.005	90.38
395.229	88.38
395.454	91.38
395.678	97.38
395.903	99.38
396.127	87.38
396.352	94.38
396.576	81.38
396.801	107.38
397.025	94.38
397.249	93.38
397.474	97.38
397.698	95.38
397.922	95.38
398.147	105.38
398.371	99.38
398.595	89.38
398.82	96.38
399.044	82.38
399.268	83.38
399.492	109.38
399.717	101.38
399.941	83.38
400.165	96.38
400.389	99.38
400.613	98.38
400.837	94.38
401.062	99.38
401.286	94.38
401.51	106.38
401.734	101.38
401.958	95.38
402.182	107.38
402.406	123.38
402.63	112.38
402.854	83.38
403.078	87.38
403.302	106.38
403.526	78.38
403.75	96.38
403.974	78.38
404.198	85.38
404.422	89.38
404.645	99.38
404.869	88.38
405.093	91.38
405.317	93.38
405.541	105.38
405.765	103.38
405.988	107.38
406.212	155.38
406.436	187.38
406.66	121.38
406.883	87.38
407.107	106.38
407.331	83.38
407.555	96.38
407.778	97.38
408.002	91.38
408.226	101.38
408.449	73.38
408.673	76.38
408.896	94.38
409.12	83.38
409.344	98.38
409.567	86.38
409.791	92.38
410.014	107.38
410.238	109.38
410.461	93.38
410.685	96.38
410.908	92.38
411.132	95.38
411.355	100.38
411.578	92.38
411.802	78.38
412.025	87.38
412.249	77.38
412.472	93.38
412.695	102.38
412.919	108.38
413.142	96.38
413.365	93.38
413.589	94.38
413.812	82.38
414.035	96.38
414.258	91.38
414.482	95.38
414.705	103.38
414.928	90.38
415.151	101.38
415.374	91.38
415.597	97.38
415.821	83.38
416.044	97.38
416.267	88.38
416.49	93.38
416.713	92.38
416.936	103.38
417.159	91.38
417.382	90.38
417.605	97.38
417.828	101.38
418.051	92.38
418.274	90.38
418.497	96.38
418.72	90.38
418.943	91.38
419.166	91.38
419.389	88.38
419.611	73.38
419.834	94.38
420.057	105.38
420.28	101.38
420.503	103.38
420.726	98.38
420.948	92.38
421.171	89.38
421.394	100.38
421.617	87.38
421.839	80.38
422.062	97.38
422.285	89.38
422.507	98.38
422.73	93.38
422.953	89.38
423.175	97.38
423.398	97.38
423.621	80.38
423.843	93.38
424.066	87.38
424.288	79.38
424.511	85.38
424.733	110.38
424.956	102.38
425.178	90.38
425.401	82.38
425.623	92.38
425.846	102.38
426.068	98.38
426.291	109.38
426.513	101.38
426.735	84.38
426.958	95.38
427.18	95.38
427.402	131.38
427.625	150.38
427.847	121.38
428.069	118.38
428.292	90.38
428.514	102.38
428.736	83.38
428.958	99.38
429.181	101.38
429.403	90.38
429.625	91.38
429.847	87.38
430.069	101.38
430.292	101.38
430.514	91.38
430.736	91.38
430.958	98.38
431.18	72.38
431.402	95.38
431.624	87.38
431.846	94.38
432.068	98.38
432.29	88.38
432.512	105.38
432.734	96.38
432.956	91.38
433.178	109.38
433.4	98.38
433.622	101.38
433.844	75.38
434.066	102.38
434.287	97.38
434.509	92.38
434.731	94.38
434.953	85.38
435.175	91.38
435.397	101.38
435.618	96.38
435.84	100.38
436.062	126.38
436.284	110.38
436.505	107.38
436.727	109.38
436.949	94.38
437.17	87.38
437.392	101.38
437.614	97.38
437.835	105.38
438.057	115.38
438.278	103.38
438.5	103.38
438.721	116.38
438.943	102.38
439.165	90.38
439.386	93.38
439.608	95.38
439.829	89.38
440.05	113.38
440.272	122.38
440.493	87.38
440.715	98.38
440.936	93.38
441.158	103.38
441.379	111.38
441.6	92.38
441.822	93.38
442.043	102.38
442.264	108.38
442.486	97.38
442.707	99.38
442.928	95.38
443.149	121.38
443.371	123.38
443.592	106.38
443.813	95.38
444.034	99.38
444.255	69.38
444.476	74.38
444.698	70.38
444.919	86.38
445.14	147.38
445.361	107.38
445.582	118.38
445.803	119.38
446.024	110.38
446.245	132.38
446.466	111.38
446.687	88.38
446.908	101.38
447.129	87.38
447.35	89.38
447.571	89.38
447.792	98.38
448.013	107.38
448.234	96.38
448.455	97.38
448.675	90.38
448.896	111.38
449.117	97.38
449.338	102.38
449.559	121.38
449.779	122.38
450	93.38
450.221	89.38
450.442	97.38
450.662	98.38
450.883	115.38
451.104	109.38
451.324	79.38
451.545	83.38
451.766	83.38
451.986	85.38
452.207	88.38
452.428	100.38
452.648	84.38
452.869	106.38
453.089	109.38
453.31	99.38
453.53	104.38
453.751	89.38
453.971	90.38
454.192	104.38
454.412	84.38
454.633	87.38
454.853	84.38
455.073	93.38
455.294	75.38
455.514	100.38
455.734	97.38
455.955	94.38
456.175	86.38
456.395	88.38
456.616	91.38
456.836	92.38
457.056	84.38
457.276	86.38
457.497	98.38
457.717	90.38
457.937	77.38
458.157	85.38
458.377	95.38
458.598	90.38
458.818	138.38
459.038	153.38
459.258	114.38
459.478	86.38
459.698	78.38
459.918	97.38
460.138	94.38
460.358	90.38
460.578	87.38
460.798	94.38
461.018	89.38
461.238	93.38
461.458	81.38
461.678	93.38
461.898	93.38
462.118	107.38
462.338	87.38
462.558	95.38
462.777	92.38
462.997	92.38
463.217	87.38
463.437	84.38
463.657	90.38
463.876	89.38
464.096	96.38
464.316	96.38
464.536	86.38
464.755	97.38
464.975	97.38
465.195	148.38
465.414	146.38
465.634	91.38
465.854	102.38
466.073	74.38
466.293	88.38
466.512	77.38
466.732	87.38
466.951	94.38
467.171	99.38
467.391	94.38
467.61	106.38
467.829	84.38
468.049	85.38
468.268	101.38
468.488	88.38
468.707	81.38
468.927	70.38
469.146	81.38
469.365	86.38
469.585	100.38
469.804	77.38
470.023	80.38
470.243	104.38
470.462	109.38
470.681	117.38
470.901	96.38
471.12	97.38
471.339	90.38
471.558	95.38
471.777	92.38
471.997	106.38
472.216	102.38
472.435	111.38
472.654	81.38
472.873	85.38
473.092	74.38
473.311	81.38
473.53	88.38
473.749	105.38
473.968	95.38
474.187	114.38
474.406	94.38
474.625	89.38
474.844	75.38
475.063	91.38
475.282	72.38
475.501	83.38
475.72	78.38
475.939	94.38
476.158	97.38
476.377	87.38
476.596	72.38
476.814	93.38
477.033	90.38
477.252	70.38
477.471	97.38
477.69	94.38
477.908	95.38
478.127	84.38
478.346	98.38
478.564	91.38
478.783	96.38
479.002	95.38
479.22	87.38
479.439	103.38
479.658	110.38
479.876	102.38
480.095	98.38
480.313	98.38
480.532	94.38
480.751	93.38
480.969	99.38
481.188	137.38
481.406	115.38
481.624	98.38
481.843	85.38
482.061	91.38
482.28	98.38
482.498	93.38
482.717	93.38
482.935	96.38
483.153	90.38
483.372	88.38
483.59	105.38
483.808	92.38
484.027	95.38
484.245	93.38
484.463	87.38
484.681	86.38
484.9	99.38
485.118	89.38
485.336	92.38
485.554	86.38
485.772	107.38
485.99	89.38
486.209	95.38
486.427	101.38
486.645	104.38
486.863	81.38
487.081	92.38
487.299	84.38
487.517	94.38
487.735	86.38
487.953	88.38
488.171	105.38
488.389	101.38
488.607	88.38
488.825	90.38
489.043	93.38
489.261	86.38
489.479	83.38
489.696	86.38
489.914	86.38
490.132	97.38
490.35	95.38
490.568	85.38
490.786	103.38
491.003	95.38
491.221	98.38
491.439	91.38
491.657	86.38
491.874	86.38
492.092	94.38
492.31	102.38
492.527	84.38
492.745	90.38
492.963	95.38
493.18	108.38
493.398	87.38
493.615	93.38
493.833	98.38
494.05	100.38
494.268	97.38
494.485	95.38
494.703	70.38
494.92	89.38
495.138	84.38
495.355	73.38
495.573	89.38
495.79	95.38
496.008	107.38
496.225	96.38
496.442	87.38
496.66	91.38
496.877	89.38
497.094	96.38
497.312	93.38
497.529	106.38
497.746	81.38
497.963	78.38
498.181	99.38
498.398	90.38
498.615	106.38
498.832	95.38
499.049	99.38
499.267	109.38
499.484	97.38
499.701	84.38
499.918	107.38
500.135	87.38
500.352	99.38
500.569	93.38
500.786	103.38
501.003	86.38
501.22	93.38
501.437	83.38
501.654	87.38
501.871	92.38
502.088	109.38
502.305	93.38
502.522	83.38
502.739	85.38
502.956	97.38
503.172	102.38
503.389	97.38
503.606	86.38
503.823	95.38
504.04	96.38
504.256	100.38
504.473	94.38
504.69	94.38
504.907	98.38
505.123	89.38
505.34	83.38
505.557	82.38
505.773	95.38
505.99	95.38
506.207	85.38
506.423	93.38
506.64	92.38
506.856	89.38
507.073	73.38
507.289	103.38
507.506	103.38
507.722	109.38
507.939	113.38
508.155	95.38
508.372	103.38
508.588	101.38
508.805	104.38
509.021	88.38
509.238	99.38
509.454	107.38
509.67	109.38
509.887	101.38
510.103	133.38
510.319	192.38
510.536	619.38
510.752	1842.38
510.968	547.38
511.184	137.38
511.401	100.38
511.617	102.38
511.833	104.38
512.049	114.38
512.265	92.38
512.481	97.38
512.698	87.38
512.914	89.38
513.13	97.38
513.346	95.38
513.562	85.38
513.778	93.38
513.994	106.38
514.21	104.38
514.426	125.38
514.642	111.38
514.858	111.38
