Data from Uncirc_1985_H10_HRD10591_00074.txt Node
Date: Wed Jan 03 12:18:32 EST 2024
User: Yrep
Spectrometer: HR+D1059
Trigger mode: 1
Integration Time (sec): 1.000000E-1
Scans to average: 1
Electric dark correction enabled: true
Nonlinearity correction enabled: false
Boxcar width: 0
XAxis mode: Wavelengths
Number of Pixels in Spectrum: 2048
>>>>>Begin Spectral Data<<<<<
223.165	-15.62
223.4	-15.62
223.635	-15.62
223.869	-18.62
224.104	-8.62
224.338	-24.62
224.573	-13.62
224.808	-3.62
225.042	1.38
225.277	-10.62
225.511	3.38
225.746	-8.62
225.98	3.38
226.215	18.38
226.449	13.38
226.683	8.38
226.918	29.38
227.152	26.38
227.387	37.38
227.621	53.38
227.856	50.38
228.09	48.38
228.324	43.38
228.559	69.38
228.793	50.38
229.027	51.38
229.262	58.38
229.496	74.38
229.73	82.38
229.964	95.38
230.199	77.38
230.433	61.38
230.667	71.38
230.901	65.38
231.136	85.38
231.37	81.38
231.604	70.38
231.838	85.38
232.072	75.38
232.306	80.38
232.541	74.38
232.775	87.38
233.009	75.38
233.243	79.38
233.477	84.38
233.711	82.38
233.945	74.38
234.179	87.38
234.413	88.38
234.647	80.38
234.881	95.38
235.115	83.38
235.349	78.38
235.583	78.38
235.817	81.38
236.051	82.38
236.285	66.38
236.519	69.38
236.753	79.38
236.987	69.38
237.221	81.38
237.455	79.38
237.689	66.38
237.922	77.38
238.156	56.38
238.39	83.38
238.624	72.38
238.858	61.38
239.091	65.38
239.325	95.38
239.559	80.38
239.793	79.38
240.027	77.38
240.26	76.38
240.494	65.38
240.728	89.38
240.961	74.38
241.195	77.38
241.429	74.38
241.662	68.38
241.896	75.38
242.13	84.38
242.363	85.38
242.597	81.38
242.83	73.38
243.064	81.38
243.298	79.38
243.531	70.38
243.765	67.38
243.998	70.38
244.232	74.38
244.465	78.38
244.699	83.38
244.932	86.38
245.166	82.38
245.399	85.38
245.633	75.38
245.866	75.38
246.099	65.38
246.333	75.38
246.566	70.38
246.8	74.38
247.033	74.38
247.266	87.38
247.5	74.38
247.733	79.38
247.966	87.38
248.2	81.38
248.433	81.38
248.666	77.38
248.899	77.38
249.133	84.38
249.366	93.38
249.599	78.38
249.832	85.38
250.066	92.38
250.299	83.38
250.532	66.38
250.765	83.38
250.998	64.38
251.231	79.38
251.465	81.38
251.698	83.38
251.931	84.38
252.164	80.38
252.397	59.38
252.63	79.38
252.863	83.38
253.096	84.38
253.329	86.38
253.562	86.38
253.795	89.38
254.028	94.38
254.261	87.38
254.494	72.38
254.727	67.38
254.96	84.38
255.193	72.38
255.426	83.38
255.659	74.38
255.892	89.38
256.124	73.38
256.357	82.38
256.59	65.38
256.823	75.38
257.056	69.38
257.289	74.38
257.521	94.38
257.754	83.38
257.987	79.38
258.22	74.38
258.452	90.38
258.685	73.38
258.918	81.38
259.151	87.38
259.383	75.38
259.616	75.38
259.849	85.38
260.081	82.38
260.314	68.38
260.547	80.38
260.779	74.38
261.012	86.38
261.244	84.38
261.477	89.38
261.71	92.38
261.942	111.38
262.175	103.38
262.407	72.38
262.64	78.38
262.872	90.38
263.105	82.38
263.337	80.38
263.57	83.38
263.802	80.38
264.035	104.38
264.267	74.38
264.499	91.38
264.732	89.38
264.964	67.38
265.197	74.38
265.429	87.38
265.661	85.38
265.894	88.38
266.126	88.38
266.358	90.38
266.591	85.38
266.823	84.38
267.055	75.38
267.287	86.38
267.52	69.38
267.752	77.38
267.984	74.38
268.216	74.38
268.448	84.38
268.681	79.38
268.913	74.38
269.145	69.38
269.377	86.38
269.609	87.38
269.841	80.38
270.073	85.38
270.306	91.38
270.538	89.38
270.77	86.38
271.002	87.38
271.234	74.38
271.466	86.38
271.698	86.38
271.93	81.38
272.162	79.38
272.394	96.38
272.626	94.38
272.858	64.38
273.09	73.38
273.322	81.38
273.553	73.38
273.785	92.38
274.017	87.38
274.249	80.38
274.481	85.38
274.713	92.38
274.945	69.38
275.176	88.38
275.408	94.38
275.64	77.38
275.872	81.38
276.104	83.38
276.335	85.38
276.567	94.38
276.799	111.38
277.031	99.38
277.262	88.38
277.494	91.38
277.726	80.38
277.957	88.38
278.189	90.38
278.421	78.38
278.652	87.38
278.884	92.38
279.115	87.38
279.347	82.38
279.579	88.38
279.81	73.38
280.042	102.38
280.273	103.38
280.505	88.38
280.736	85.38
280.968	75.38
281.199	69.38
281.431	82.38
281.662	79.38
281.894	92.38
282.125	103.38
282.356	111.38
282.588	130.38
282.819	106.38
283.051	93.38
283.282	83.38
283.513	94.38
283.745	90.38
283.976	90.38
284.207	86.38
284.439	93.38
284.67	88.38
284.901	95.38
285.132	74.38
285.364	81.38
285.595	101.38
285.826	98.38
286.057	97.38
286.288	88.38
286.52	89.38
286.751	93.38
286.982	77.38
287.213	80.38
287.444	85.38
287.675	73.38
287.906	95.38
288.138	85.38
288.369	82.38
288.6	91.38
288.831	87.38
289.062	96.38
289.293	94.38
289.524	71.38
289.755	71.38
289.986	70.38
290.217	82.38
290.448	93.38
290.679	91.38
290.91	88.38
291.141	86.38
291.371	86.38
291.602	82.38
291.833	100.38
292.064	79.38
292.295	91.38
292.526	89.38
292.757	79.38
292.987	82.38
293.218	84.38
293.449	94.38
293.68	70.38
293.91	81.38
294.141	97.38
294.372	87.38
294.603	81.38
294.833	92.38
295.064	95.38
295.295	91.38
295.525	88.38
295.756	86.38
295.987	120.38
296.217	134.38
296.448	114.38
296.679	98.38
296.909	102.38
297.14	85.38
297.37	86.38
297.601	81.38
297.831	85.38
298.062	84.38
298.292	91.38
298.523	85.38
298.753	87.38
298.984	89.38
299.214	81.38
299.445	84.38
299.675	97.38
299.905	93.38
300.136	97.38
300.366	83.38
300.597	95.38
300.827	94.38
301.057	85.38
301.288	91.38
301.518	96.38
301.748	76.38
301.979	95.38
302.209	87.38
302.439	85.38
302.669	94.38
302.9	84.38
303.13	90.38
303.36	93.38
303.59	95.38
303.82	106.38
304.051	82.38
304.281	87.38
304.511	93.38
304.741	83.38
304.971	90.38
305.201	104.38
305.431	85.38
305.661	78.38
305.891	102.38
306.121	96.38
306.352	97.38
306.582	99.38
306.812	95.38
307.042	93.38
307.272	89.38
307.502	99.38
307.731	78.38
307.961	88.38
308.191	90.38
308.421	88.38
308.651	81.38
308.881	93.38
309.111	89.38
309.341	100.38
309.571	97.38
309.8	88.38
310.03	97.38
310.26	100.38
310.49	101.38
310.72	82.38
310.949	100.38
311.179	85.38
311.409	83.38
311.639	92.38
311.868	92.38
312.098	93.38
312.328	91.38
312.557	100.38
312.787	117.38
313.017	106.38
313.246	73.38
313.476	100.38
313.706	98.38
313.935	88.38
314.165	90.38
314.394	96.38
314.624	86.38
314.853	104.38
315.083	81.38
315.312	74.38
315.542	93.38
315.771	90.38
316.001	87.38
316.23	83.38
316.46	91.38
316.689	94.38
316.919	87.38
317.148	89.38
317.377	105.38
317.607	120.38
317.836	98.38
318.065	85.38
318.295	95.38
318.524	94.38
318.753	112.38
318.983	104.38
319.212	99.38
319.441	125.38
319.67	98.38
319.9	84.38
320.129	83.38
320.358	96.38
320.587	85.38
320.816	92.38
321.046	91.38
321.275	90.38
321.504	86.38
321.733	95.38
321.962	103.38
322.191	100.38
322.42	98.38
322.649	107.38
322.878	99.38
323.108	113.38
323.337	125.38
323.566	127.38
323.795	131.38
324.024	184.38
324.253	365.38
324.482	775.38
324.71	1559.38
324.939	2089.38
325.168	774.38
325.397	235.38
325.626	161.38
325.855	121.38
326.084	105.38
326.313	121.38
326.542	151.38
326.77	206.38
326.999	414.38
327.228	857.38
327.457	1590.38
327.686	1293.38
327.914	353.38
328.143	203.38
328.372	164.38
328.6	120.38
328.829	104.38
329.058	118.38
329.287	127.38
329.515	104.38
329.744	99.38
329.972	110.38
330.201	130.38
330.43	165.38
330.658	138.38
330.887	111.38
331.115	114.38
331.344	101.38
331.572	97.38
331.801	99.38
332.03	91.38
332.258	97.38
332.486	87.38
332.715	98.38
332.943	98.38
333.172	82.38
333.4	97.38
333.629	99.38
333.857	114.38
334.085	120.38
334.314	132.38
334.542	153.38
334.771	152.38
334.999	98.38
335.227	104.38
335.455	96.38
335.684	86.38
335.912	90.38
336.14	81.38
336.369	102.38
336.597	101.38
336.825	96.38
337.053	103.38
337.281	93.38
337.51	83.38
337.738	90.38
337.966	90.38
338.194	101.38
338.422	77.38
338.65	90.38
338.878	93.38
339.106	87.38
339.334	97.38
339.562	81.38
339.79	90.38
340.018	99.38
340.246	87.38
340.474	92.38
340.702	96.38
340.93	88.38
341.158	106.38
341.386	112.38
341.614	106.38
341.842	81.38
342.07	93.38
342.298	101.38
342.526	91.38
342.754	96.38
342.981	102.38
343.209	87.38
343.437	96.38
343.665	89.38
343.893	105.38
344.12	83.38
344.348	88.38
344.576	91.38
344.804	98.38
345.031	94.38
345.259	95.38
345.487	85.38
345.714	96.38
345.942	85.38
346.17	102.38
346.397	95.38
346.625	86.38
346.853	100.38
347.08	83.38
347.308	87.38
347.535	99.38
347.763	95.38
347.99	102.38
348.218	93.38
348.445	90.38
348.673	96.38
348.9	87.38
349.128	88.38
349.355	88.38
349.583	94.38
349.81	87.38
350.037	81.38
350.265	91.38
350.492	102.38
350.72	98.38
350.947	86.38
351.174	100.38
351.402	101.38
351.629	104.38
351.856	87.38
352.083	107.38
352.311	108.38
352.538	109.38
352.765	104.38
352.992	107.38
353.22	102.38
353.447	104.38
353.674	86.38
353.901	90.38
354.128	102.38
354.355	94.38
354.583	90.38
354.81	88.38
355.037	85.38
355.264	84.38
355.491	96.38
355.718	99.38
355.945	109.38
356.172	84.38
356.399	99.38
356.626	98.38
356.853	91.38
357.08	94.38
357.307	84.38
357.534	97.38
357.761	104.38
357.988	91.38
358.215	84.38
358.441	90.38
358.668	100.38
358.895	81.38
359.122	88.38
359.349	76.38
359.576	90.38
359.802	99.38
360.029	113.38
360.256	108.38
360.483	108.38
360.709	106.38
360.936	85.38
361.163	91.38
361.39	89.38
361.616	90.38
361.843	88.38
362.07	101.38
362.296	103.38
362.523	90.38
362.749	92.38
362.976	93.38
363.203	90.38
363.429	89.38
363.656	74.38
363.882	80.38
364.109	103.38
364.335	94.38
364.562	96.38
364.788	78.38
365.015	84.38
365.241	89.38
365.468	122.38
365.694	94.38
365.92	95.38
366.147	89.38
366.373	87.38
366.599	85.38
366.826	104.38
367.052	93.38
367.278	98.38
367.505	105.38
367.731	95.38
367.957	96.38
368.184	103.38
368.41	100.38
368.636	112.38
368.862	106.38
369.089	105.38
369.315	89.38
369.541	89.38
369.767	95.38
369.993	74.38
370.219	83.38
370.445	93.38
370.672	70.38
370.898	81.38
371.124	87.38
371.35	89.38
371.576	82.38
371.802	95.38
372.028	69.38
372.254	94.38
372.48	98.38
372.706	82.38
372.932	81.38
373.158	69.38
373.384	86.38
373.61	95.38
373.835	78.38
374.061	87.38
374.287	103.38
374.513	80.38
374.739	83.38
374.965	78.38
375.191	82.38
375.416	80.38
375.642	88.38
375.868	92.38
376.094	87.38
376.319	84.38
376.545	77.38
376.771	78.38
376.997	93.38
377.222	91.38
377.448	97.38
377.674	82.38
377.899	80.38
378.125	76.38
378.35	90.38
378.576	88.38
378.802	79.38
379.027	86.38
379.253	90.38
379.478	89.38
379.704	89.38
379.929	88.38
380.155	89.38
380.38	97.38
380.606	88.38
380.831	92.38
381.057	87.38
381.282	96.38
381.507	95.38
381.733	84.38
381.958	88.38
382.184	94.38
382.409	87.38
382.634	108.38
382.86	88.38
383.085	85.38
383.31	85.38
383.535	91.38
383.761	94.38
383.986	88.38
384.211	103.38
384.436	85.38
384.662	93.38
384.887	94.38
385.112	97.38
385.337	97.38
385.562	93.38
385.787	80.38
386.013	101.38
386.238	104.38
386.463	89.38
386.688	102.38
386.913	102.38
387.138	104.38
387.363	99.38
387.588	98.38
387.813	98.38
388.038	99.38
388.263	107.38
388.488	93.38
388.713	100.38
388.938	89.38
389.163	75.38
389.387	94.38
389.612	90.38
389.837	83.38
390.062	78.38
390.287	74.38
390.512	95.38
390.736	81.38
390.961	81.38
391.186	84.38
391.411	83.38
391.636	93.38
391.86	69.38
392.085	73.38
392.31	78.38
392.534	82.38
392.759	72.38
392.984	83.38
393.208	93.38
393.433	83.38
393.658	82.38
393.882	85.38
394.107	87.38
394.331	84.38
394.556	85.38
394.78	95.38
395.005	91.38
395.229	86.38
395.454	83.38
395.678	83.38
395.903	96.38
396.127	79.38
396.352	83.38
396.576	82.38
396.801	82.38
397.025	89.38
397.249	75.38
397.474	85.38
397.698	74.38
397.922	85.38
398.147	89.38
398.371	87.38
398.595	85.38
398.82	88.38
399.044	81.38
399.268	71.38
399.492	69.38
399.717	81.38
399.941	71.38
400.165	88.38
400.389	89.38
400.613	94.38
400.837	90.38
401.062	100.38
401.286	73.38
401.51	93.38
401.734	95.38
401.958	96.38
402.182	114.38
402.406	169.38
402.63	100.38
402.854	90.38
403.078	88.38
403.302	82.38
403.526	92.38
403.75	86.38
403.974	87.38
404.198	95.38
404.422	79.38
404.645	85.38
404.869	90.38
405.093	100.38
405.317	85.38
405.541	90.38
405.765	99.38
405.988	114.38
406.212	155.38
406.436	198.38
406.66	136.38
406.883	95.38
407.107	93.38
407.331	95.38
407.555	96.38
407.778	66.38
408.002	78.38
408.226	99.38
408.449	101.38
408.673	77.38
408.896	92.38
409.12	82.38
409.344	99.38
409.567	85.38
409.791	75.38
410.014	86.38
410.238	92.38
410.461	94.38
410.685	94.38
410.908	89.38
411.132	98.38
411.355	90.38
411.578	90.38
411.802	68.38
412.025	85.38
412.249	97.38
412.472	91.38
412.695	96.38
412.919	82.38
413.142	88.38
413.365	80.38
413.589	98.38
413.812	77.38
414.035	81.38
414.258	92.38
414.482	81.38
414.705	86.38
414.928	93.38
415.151	82.38
415.374	93.38
415.597	88.38
415.821	94.38
416.044	80.38
416.267	97.38
416.49	86.38
416.713	79.38
416.936	94.38
417.159	88.38
417.382	94.38
417.605	84.38
417.828	85.38
418.051	89.38
418.274	82.38
418.497	82.38
418.72	88.38
418.943	83.38
419.166	85.38
419.389	80.38
419.611	71.38
419.834	89.38
420.057	93.38
420.28	77.38
420.503	97.38
420.726	105.38
420.948	82.38
421.171	90.38
421.394	97.38
421.617	85.38
421.839	88.38
422.062	85.38
422.285	87.38
422.507	94.38
422.73	95.38
422.953	99.38
423.175	82.38
423.398	90.38
423.621	71.38
423.843	79.38
424.066	99.38
424.288	90.38
424.511	107.38
424.733	122.38
424.956	102.38
425.178	84.38
425.401	90.38
425.623	107.38
425.846	98.38
426.068	88.38
426.291	85.38
426.513	92.38
426.735	71.38
426.958	84.38
427.18	96.38
427.402	134.38
427.625	149.38
427.847	136.38
428.069	128.38
428.292	89.38
428.514	81.38
428.736	86.38
428.958	90.38
429.181	71.38
429.403	81.38
429.625	74.38
429.847	96.38
430.069	111.38
430.292	104.38
430.514	87.38
430.736	104.38
430.958	95.38
431.18	89.38
431.402	104.38
431.624	93.38
431.846	81.38
432.068	84.38
432.29	86.38
432.512	74.38
432.734	81.38
432.956	100.38
433.178	88.38
433.4	91.38
433.622	90.38
433.844	87.38
434.066	82.38
434.287	91.38
434.509	86.38
434.731	87.38
434.953	89.38
435.175	75.38
435.397	79.38
435.618	93.38
435.84	96.38
436.062	109.38
436.284	113.38
436.505	100.38
436.727	98.38
436.949	100.38
437.17	78.38
437.392	67.38
437.614	81.38
437.835	114.38
438.057	111.38
438.278	103.38
438.5	92.38
438.721	117.38
438.943	97.38
439.165	99.38
439.386	101.38
439.608	83.38
439.829	95.38
440.05	104.38
440.272	130.38
440.493	101.38
440.715	93.38
440.936	88.38
441.158	93.38
441.379	70.38
441.6	77.38
441.822	87.38
442.043	103.38
442.264	105.38
442.486	100.38
442.707	71.38
442.928	103.38
443.149	128.38
443.371	120.38
443.592	118.38
443.813	94.38
444.034	96.38
444.255	98.38
444.476	90.38
444.698	90.38
444.919	73.38
445.14	132.38
445.361	123.38
445.582	109.38
445.803	120.38
446.024	130.38
446.245	131.38
446.466	107.38
446.687	62.38
446.908	95.38
447.129	87.38
447.35	87.38
447.571	89.38
447.792	94.38
448.013	100.38
448.234	97.38
448.455	90.38
448.675	98.38
448.896	112.38
449.117	94.38
449.338	117.38
449.559	120.38
449.779	124.38
450	100.38
450.221	100.38
450.442	91.38
450.662	84.38
450.883	106.38
451.104	115.38
451.324	105.38
451.545	80.38
451.766	97.38
451.986	81.38
452.207	95.38
452.428	74.38
452.648	101.38
452.869	109.38
453.089	121.38
453.31	122.38
453.53	78.38
453.751	93.38
453.971	107.38
454.192	115.38
454.412	91.38
454.633	80.38
454.853	88.38
455.073	83.38
455.294	86.38
455.514	111.38
455.734	75.38
455.955	85.38
456.175	81.38
456.395	77.38
456.616	74.38
456.836	82.38
457.056	85.38
457.276	78.38
457.497	79.38
457.717	93.38
457.937	81.38
458.157	66.38
458.377	93.38
458.598	95.38
458.818	126.38
459.038	132.38
459.258	102.38
459.478	91.38
459.698	87.38
459.918	79.38
460.138	89.38
460.358	86.38
460.578	94.38
460.798	94.38
461.018	104.38
461.238	68.38
461.458	78.38
461.678	83.38
461.898	96.38
462.118	88.38
462.338	82.38
462.558	77.38
462.777	85.38
462.997	82.38
463.217	82.38
463.437	86.38
463.657	88.38
463.876	85.38
464.096	79.38
464.316	99.38
464.536	83.38
464.755	95.38
464.975	110.38
465.195	145.38
465.414	132.38
465.634	97.38
465.854	87.38
466.073	93.38
466.293	93.38
466.512	84.38
466.732	73.38
466.951	93.38
467.171	105.38
467.391	89.38
467.61	94.38
467.829	95.38
468.049	113.38
468.268	109.38
468.488	84.38
468.707	81.38
468.927	97.38
469.146	86.38
469.365	81.38
469.585	86.38
469.804	102.38
470.023	95.38
470.243	81.38
470.462	87.38
470.681	96.38
470.901	97.38
471.12	95.38
471.339	88.38
471.558	95.38
471.777	91.38
471.997	91.38
472.216	132.38
472.435	177.38
472.654	109.38
472.873	93.38
473.092	93.38
473.311	77.38
473.53	78.38
473.749	91.38
473.968	91.38
474.187	93.38
474.406	81.38
474.625	88.38
474.844	68.38
475.063	78.38
475.282	82.38
475.501	81.38
475.72	93.38
475.939	62.38
476.158	81.38
476.377	84.38
476.596	85.38
476.814	97.38
477.033	91.38
477.252	98.38
477.471	92.38
477.69	103.38
477.908	87.38
478.127	97.38
478.346	82.38
478.564	93.38
478.783	87.38
479.002	83.38
479.22	84.38
479.439	96.38
479.658	88.38
479.876	71.38
480.095	88.38
480.313	79.38
480.532	94.38
480.751	102.38
480.969	133.38
481.188	269.38
481.406	195.38
481.624	99.38
481.843	83.38
482.061	86.38
482.28	96.38
482.498	85.38
482.717	79.38
482.935	94.38
483.153	82.38
483.372	75.38
483.59	86.38
483.808	90.38
484.027	87.38
484.245	83.38
484.463	89.38
484.681	82.38
484.9	96.38
485.118	108.38
485.336	91.38
485.554	97.38
485.772	100.38
485.99	98.38
486.209	98.38
486.427	93.38
486.645	90.38
486.863	110.38
487.081	94.38
487.299	87.38
487.517	91.38
487.735	88.38
487.953	92.38
488.171	98.38
488.389	96.38
488.607	83.38
488.825	73.38
489.043	77.38
489.261	89.38
489.479	93.38
489.696	82.38
489.914	84.38
490.132	93.38
490.35	90.38
490.568	85.38
490.786	79.38
491.003	99.38
491.221	92.38
491.439	78.38
491.657	75.38
491.874	85.38
492.092	86.38
492.31	86.38
492.527	74.38
492.745	91.38
492.963	92.38
493.18	79.38
493.398	78.38
493.615	88.38
493.833	98.38
494.05	98.38
494.268	88.38
494.485	95.38
494.703	83.38
494.92	78.38
495.138	93.38
495.355	74.38
495.573	97.38
495.79	93.38
496.008	83.38
496.225	81.38
496.442	90.38
496.66	88.38
496.877	86.38
497.094	78.38
497.312	78.38
497.529	83.38
497.746	93.38
497.963	89.38
498.181	83.38
498.398	99.38
498.615	88.38
498.832	85.38
499.049	82.38
499.267	87.38
499.484	86.38
499.701	89.38
499.918	93.38
500.135	85.38
500.352	95.38
500.569	91.38
500.786	97.38
501.003	77.38
501.22	81.38
501.437	104.38
501.654	89.38
501.871	92.38
502.088	94.38
502.305	85.38
502.522	77.38
502.739	89.38
502.956	79.38
503.172	77.38
503.389	103.38
503.606	92.38
503.823	90.38
504.04	92.38
504.256	93.38
504.473	90.38
504.69	84.38
504.907	113.38
505.123	98.38
505.34	79.38
505.557	74.38
505.773	94.38
505.99	84.38
506.207	76.38
506.423	95.38
506.64	92.38
506.856	79.38
507.073	81.38
507.289	86.38
507.506	99.38
507.722	95.38
507.939	107.38
508.155	88.38
508.372	94.38
508.588	104.38
508.805	93.38
509.021	97.38
509.238	101.38
509.454	88.38
509.67	94.38
509.887	123.38
510.103	119.38
510.319	211.38
510.536	721.38
510.752	2250.38
510.968	609.38
511.184	153.38
511.401	103.38
511.617	95.38
511.833	96.38
512.049	84.38
512.265	89.38
512.481	88.38
512.698	85.38
512.914	82.38
513.13	104.38
513.346	80.38
513.562	103.38
513.778	99.38
513.994	90.38
514.21	102.38
514.426	99.38
514.642	119.38
514.858	104.38
515.074	166.38
515.29	435.38
515.506	1357.38
515.721	493.38
515.937	142.38
516.153	92.38
516.369	99.38
516.585	81.38
