Data from Uncirc_1985_H10_HRD10591_00044.txt Node
Date: Wed Jan 03 12:18:26 EST 2024
User: Yrep
Spectrometer: HR+D1059
Trigger mode: 1
Integration Time (sec): 1.000000E-1
Scans to average: 1
Electric dark correction enabled: true
Nonlinearity correction enabled: false
Boxcar width: 0
XAxis mode: Wavelengths
Number of Pixels in Spectrum: 2048
>>>>>Begin Spectral Data<<<<<
223.165	-34.12
223.4	-34.12
223.635	-34.12
223.869	-10.12
224.104	-11.12
224.338	-28.12
224.573	-1.12
224.808	-3.12
225.042	-17.12
225.277	-11.12
225.511	-4.12
225.746	2.88
225.98	3.88
226.215	8.88
226.449	15.88
226.683	40.88
226.918	19.88
227.152	27.88
227.387	39.88
227.621	39.88
227.856	54.88
228.09	46.88
228.324	56.88
228.559	60.88
228.793	39.88
229.027	63.88
229.262	54.88
229.496	64.88
229.73	76.88
229.964	68.88
230.199	69.88
230.433	72.88
230.667	69.88
230.901	76.88
231.136	80.88
231.37	73.88
231.604	90.88
231.838	65.88
232.072	68.88
232.306	77.88
232.541	78.88
232.775	72.88
233.009	82.88
233.243	69.88
233.477	83.88
233.711	68.88
233.945	82.88
234.179	73.88
234.413	82.88
234.647	80.88
234.881	95.88
235.115	71.88
235.349	59.88
235.583	77.88
235.817	80.88
236.051	70.88
236.285	77.88
236.519	85.88
236.753	74.88
236.987	77.88
237.221	79.88
237.455	105.88
237.689	70.88
237.922	72.88
238.156	76.88
238.39	79.88
238.624	80.88
238.858	82.88
239.091	87.88
239.325	76.88
239.559	67.88
239.793	75.88
240.027	94.88
240.26	85.88
240.494	79.88
240.728	72.88
240.961	67.88
241.195	83.88
241.429	71.88
241.662	70.88
241.896	83.88
242.13	77.88
242.363	81.88
242.597	71.88
242.83	66.88
243.064	80.88
243.298	71.88
243.531	86.88
243.765	68.88
243.998	70.88
244.232	80.88
244.465	85.88
244.699	94.88
244.932	69.88
245.166	83.88
245.399	91.88
245.633	85.88
245.866	89.88
246.099	77.88
246.333	79.88
246.566	77.88
246.8	74.88
247.033	76.88
247.266	93.88
247.5	87.88
247.733	81.88
247.966	87.88
248.2	78.88
248.433	75.88
248.666	82.88
248.899	73.88
249.133	67.88
249.366	85.88
249.599	75.88
249.832	91.88
250.066	67.88
250.299	81.88
250.532	75.88
250.765	68.88
250.998	67.88
251.231	61.88
251.465	70.88
251.698	85.88
251.931	64.88
252.164	81.88
252.397	75.88
252.63	89.88
252.863	75.88
253.096	69.88
253.329	75.88
253.562	86.88
253.795	77.88
254.028	64.88
254.261	64.88
254.494	72.88
254.727	78.88
254.96	82.88
255.193	80.88
255.426	82.88
255.659	89.88
255.892	64.88
256.124	70.88
256.357	76.88
256.59	75.88
256.823	76.88
257.056	87.88
257.289	81.88
257.521	80.88
257.754	88.88
257.987	86.88
258.22	77.88
258.452	79.88
258.685	77.88
258.918	76.88
259.151	77.88
259.383	78.88
259.616	70.88
259.849	72.88
260.081	87.88
260.314	74.88
260.547	80.88
260.779	68.88
261.012	77.88
261.244	72.88
261.477	83.88
261.71	72.88
261.942	96.88
262.175	111.88
262.407	75.88
262.64	83.88
262.872	79.88
263.105	75.88
263.337	86.88
263.57	96.88
263.802	73.88
264.035	78.88
264.267	93.88
264.499	85.88
264.732	83.88
264.964	86.88
265.197	76.88
265.429	79.88
265.661	95.88
265.894	91.88
266.126	66.88
266.358	81.88
266.591	72.88
266.823	81.88
267.055	71.88
267.287	88.88
267.52	71.88
267.752	71.88
267.984	89.88
268.216	71.88
268.448	68.88
268.681	81.88
268.913	67.88
269.145	73.88
269.377	77.88
269.609	82.88
269.841	86.88
270.073	77.88
270.306	70.88
270.538	75.88
270.77	81.88
271.002	85.88
271.234	80.88
271.466	89.88
271.698	83.88
271.93	93.88
272.162	88.88
272.394	91.88
272.626	81.88
272.858	95.88
273.09	84.88
273.322	80.88
273.553	87.88
273.785	81.88
274.017	80.88
274.249	77.88
274.481	70.88
274.713	93.88
274.945	77.88
275.176	83.88
275.408	78.88
275.64	73.88
275.872	78.88
276.104	94.88
276.335	101.88
276.567	91.88
276.799	93.88
277.031	90.88
277.262	84.88
277.494	82.88
277.726	76.88
277.957	83.88
278.189	87.88
278.421	79.88
278.652	79.88
278.884	78.88
279.115	75.88
279.347	84.88
279.579	93.88
279.81	75.88
280.042	69.88
280.273	81.88
280.505	75.88
280.736	83.88
280.968	67.88
281.199	64.88
281.431	87.88
281.662	83.88
281.894	78.88
282.125	79.88
282.356	97.88
282.588	124.88
282.819	105.88
283.051	90.88
283.282	81.88
283.513	92.88
283.745	79.88
283.976	83.88
284.207	79.88
284.439	73.88
284.67	93.88
284.901	93.88
285.132	87.88
285.364	106.88
285.595	87.88
285.826	72.88
286.057	100.88
286.288	84.88
286.52	87.88
286.751	86.88
286.982	96.88
287.213	80.88
287.444	87.88
287.675	86.88
287.906	99.88
288.138	81.88
288.369	84.88
288.6	96.88
288.831	94.88
289.062	86.88
289.293	83.88
289.524	92.88
289.755	93.88
289.986	78.88
290.217	93.88
290.448	83.88
290.679	85.88
290.91	86.88
291.141	77.88
291.371	83.88
291.602	106.88
291.833	80.88
292.064	93.88
292.295	85.88
292.526	72.88
292.757	71.88
292.987	85.88
293.218	86.88
293.449	91.88
293.68	93.88
293.91	93.88
294.141	79.88
294.372	92.88
294.603	96.88
294.833	79.88
295.064	79.88
295.295	101.88
295.525	98.88
295.756	96.88
295.987	107.88
296.217	128.88
296.448	117.88
296.679	100.88
296.909	77.88
297.14	79.88
297.37	75.88
297.601	87.88
297.831	94.88
298.062	97.88
298.292	90.88
298.523	104.88
298.753	87.88
298.984	79.88
299.214	83.88
299.445	84.88
299.675	95.88
299.905	97.88
300.136	80.88
300.366	95.88
300.597	77.88
300.827	86.88
301.057	81.88
301.288	96.88
301.518	95.88
301.748	89.88
301.979	102.88
302.209	88.88
302.439	87.88
302.669	70.88
302.9	100.88
303.13	63.88
303.36	93.88
303.59	91.88
303.82	101.88
304.051	92.88
304.281	92.88
304.511	89.88
304.741	72.88
304.971	82.88
305.201	79.88
305.431	94.88
305.661	100.88
305.891	90.88
306.121	95.88
306.352	91.88
306.582	107.88
306.812	83.88
307.042	89.88
307.272	83.88
307.502	89.88
307.731	92.88
307.961	84.88
308.191	75.88
308.421	93.88
308.651	110.88
308.881	94.88
309.111	87.88
309.341	89.88
309.571	81.88
309.8	91.88
310.03	102.88
310.26	100.88
310.49	95.88
310.72	106.88
310.949	104.88
311.179	100.88
311.409	87.88
311.639	83.88
311.868	102.88
312.098	95.88
312.328	85.88
312.557	99.88
312.787	108.88
313.017	97.88
313.246	100.88
313.476	94.88
313.706	100.88
313.935	91.88
314.165	102.88
314.394	87.88
314.624	78.88
314.853	103.88
315.083	84.88
315.312	86.88
315.542	80.88
315.771	87.88
316.001	93.88
316.23	97.88
316.46	91.88
316.689	92.88
316.919	86.88
317.148	94.88
317.377	96.88
317.607	111.88
317.836	92.88
318.065	95.88
318.295	92.88
318.524	84.88
318.753	85.88
318.983	95.88
319.212	93.88
319.441	100.88
319.67	100.88
319.9	86.88
320.129	88.88
320.358	95.88
320.587	87.88
320.816	86.88
321.046	85.88
321.275	96.88
321.504	93.88
321.733	81.88
321.962	98.88
322.191	94.88
322.42	109.88
322.649	110.88
322.878	106.88
323.108	100.88
323.337	110.88
323.566	116.88
323.795	126.88
324.024	196.88
324.253	357.88
324.482	741.88
324.71	1547.88
324.939	2047.88
325.168	751.88
325.397	233.88
325.626	140.88
325.855	127.88
326.084	115.88
326.313	118.88
326.542	137.88
326.77	213.88
326.999	425.88
327.228	891.88
327.457	1623.88
327.686	1279.88
327.914	359.88
328.143	169.88
328.372	139.88
328.6	125.88
328.829	85.88
329.058	112.88
329.287	116.88
329.515	94.88
329.744	93.88
329.972	92.88
330.201	97.88
330.43	120.88
330.658	109.88
330.887	130.88
331.115	109.88
331.344	87.88
331.572	107.88
331.801	93.88
332.03	101.88
332.258	93.88
332.486	89.88
332.715	85.88
332.943	92.88
333.172	82.88
333.4	91.88
333.629	100.88
333.857	98.88
334.085	112.88
334.314	104.88
334.542	120.88
334.771	127.88
334.999	84.88
335.227	98.88
335.455	97.88
335.684	85.88
335.912	86.88
336.14	101.88
336.369	88.88
336.597	112.88
336.825	97.88
337.053	91.88
337.281	89.88
337.51	90.88
337.738	80.88
337.966	100.88
338.194	97.88
338.422	91.88
338.65	91.88
338.878	80.88
339.106	88.88
339.334	92.88
339.562	101.88
339.79	79.88
340.018	92.88
340.246	93.88
340.474	97.88
340.702	76.88
340.93	84.88
341.158	90.88
341.386	86.88
341.614	81.88
341.842	93.88
342.07	88.88
342.298	70.88
342.526	83.88
342.754	83.88
342.981	85.88
343.209	76.88
343.437	104.88
343.665	86.88
343.893	93.88
344.12	95.88
344.348	76.88
344.576	91.88
344.804	93.88
345.031	94.88
345.259	88.88
345.487	98.88
345.714	77.88
345.942	90.88
346.17	92.88
346.397	94.88
346.625	103.88
346.853	93.88
347.08	93.88
347.308	94.88
347.535	85.88
347.763	79.88
347.99	98.88
348.218	103.88
348.445	105.88
348.673	107.88
348.9	93.88
349.128	78.88
349.355	91.88
349.583	89.88
349.81	81.88
350.037	83.88
350.265	86.88
350.492	96.88
350.72	84.88
350.947	83.88
351.174	103.88
351.402	112.88
351.629	108.88
351.856	96.88
352.083	96.88
352.311	104.88
352.538	105.88
352.765	99.88
352.992	117.88
353.22	104.88
353.447	108.88
353.674	92.88
353.901	98.88
354.128	95.88
354.355	96.88
354.583	95.88
354.81	100.88
355.037	89.88
355.264	91.88
355.491	95.88
355.718	91.88
355.945	84.88
356.172	91.88
356.399	68.88
356.626	89.88
356.853	105.88
357.08	97.88
357.307	96.88
357.534	104.88
357.761	103.88
357.988	93.88
358.215	90.88
358.441	79.88
358.668	85.88
358.895	87.88
359.122	95.88
359.349	84.88
359.576	102.88
359.802	95.88
360.029	96.88
360.256	100.88
360.483	88.88
360.709	81.88
360.936	98.88
361.163	95.88
361.39	85.88
361.616	92.88
361.843	84.88
362.07	70.88
362.296	100.88
362.523	99.88
362.749	85.88
362.976	80.88
363.203	90.88
363.429	88.88
363.656	85.88
363.882	90.88
364.109	94.88
364.335	74.88
364.562	84.88
364.788	91.88
365.015	95.88
365.241	87.88
365.468	103.88
365.694	103.88
365.92	96.88
366.147	83.88
366.373	74.88
366.599	72.88
366.826	83.88
367.052	83.88
367.278	86.88
367.505	96.88
367.731	96.88
367.957	82.88
368.184	94.88
368.41	102.88
368.636	120.88
368.862	116.88
369.089	86.88
369.315	83.88
369.541	77.88
369.767	85.88
369.993	86.88
370.219	87.88
370.445	89.88
370.672	88.88
370.898	84.88
371.124	80.88
371.35	92.88
371.576	88.88
371.802	91.88
372.028	92.88
372.254	91.88
372.48	87.88
372.706	88.88
372.932	83.88
373.158	87.88
373.384	92.88
373.61	87.88
373.835	78.88
374.061	78.88
374.287	93.88
374.513	85.88
374.739	86.88
374.965	97.88
375.191	77.88
375.416	91.88
375.642	83.88
375.868	86.88
376.094	95.88
376.319	84.88
376.545	69.88
376.771	98.88
376.997	76.88
377.222	57.88
377.448	84.88
377.674	92.88
377.899	91.88
378.125	91.88
378.35	99.88
378.576	87.88
378.802	83.88
379.027	78.88
379.253	86.88
379.478	92.88
379.704	85.88
379.929	78.88
380.155	96.88
380.38	86.88
380.606	79.88
380.831	89.88
381.057	91.88
381.282	83.88
381.507	88.88
381.733	88.88
381.958	90.88
382.184	87.88
382.409	109.88
382.634	106.88
382.86	91.88
383.085	96.88
383.31	87.88
383.535	91.88
383.761	101.88
383.986	87.88
384.211	78.88
384.436	89.88
384.662	91.88
384.887	107.88
385.112	107.88
385.337	88.88
385.562	91.88
385.787	94.88
386.013	92.88
386.238	105.88
386.463	107.88
386.688	104.88
386.913	95.88
387.138	109.88
387.363	96.88
387.588	77.88
387.813	93.88
388.038	103.88
388.263	97.88
388.488	100.88
388.713	93.88
388.938	81.88
389.163	101.88
389.387	93.88
389.612	90.88
389.837	98.88
390.062	98.88
390.287	98.88
390.512	76.88
390.736	83.88
390.961	85.88
391.186	79.88
391.411	81.88
391.636	81.88
391.86	91.88
392.085	80.88
392.31	72.88
392.534	77.88
392.759	86.88
392.984	82.88
393.208	78.88
393.433	88.88
393.658	81.88
393.882	85.88
394.107	87.88
394.331	99.88
394.556	89.88
394.78	80.88
395.005	81.88
395.229	87.88
395.454	80.88
395.678	86.88
395.903	79.88
396.127	96.88
396.352	83.88
396.576	94.88
396.801	87.88
397.025	82.88
397.249	87.88
397.474	85.88
397.698	79.88
397.922	69.88
398.147	83.88
398.371	80.88
398.595	89.88
398.82	89.88
399.044	71.88
399.268	83.88
399.492	104.88
399.717	84.88
399.941	93.88
400.165	94.88
400.389	82.88
400.613	86.88
400.837	74.88
401.062	94.88
401.286	95.88
401.51	79.88
401.734	85.88
401.958	96.88
402.182	113.88
402.406	133.88
402.63	109.88
402.854	94.88
403.078	69.88
403.302	95.88
403.526	84.88
403.75	87.88
403.974	91.88
404.198	88.88
404.422	94.88
404.645	96.88
404.869	87.88
405.093	89.88
405.317	95.88
405.541	100.88
405.765	83.88
405.988	100.88
406.212	154.88
406.436	194.88
406.66	124.88
406.883	92.88
407.107	69.88
407.331	87.88
407.555	93.88
407.778	89.88
408.002	92.88
408.226	89.88
408.449	87.88
408.673	72.88
408.896	93.88
409.12	98.88
409.344	78.88
409.567	81.88
409.791	91.88
410.014	80.88
410.238	86.88
410.461	82.88
410.685	72.88
410.908	90.88
411.132	108.88
411.355	96.88
411.578	98.88
411.802	91.88
412.025	87.88
412.249	84.88
412.472	83.88
412.695	95.88
412.919	83.88
413.142	81.88
413.365	90.88
413.589	77.88
413.812	82.88
414.035	89.88
414.258	87.88
414.482	89.88
414.705	95.88
414.928	90.88
415.151	84.88
415.374	92.88
415.597	93.88
415.821	86.88
416.044	83.88
416.267	88.88
416.49	84.88
416.713	84.88
416.936	76.88
417.159	84.88
417.382	85.88
417.605	86.88
417.828	79.88
418.051	78.88
418.274	95.88
418.497	97.88
418.72	88.88
418.943	87.88
419.166	91.88
419.389	89.88
419.611	92.88
419.834	97.88
420.057	87.88
420.28	82.88
420.503	84.88
420.726	87.88
420.948	69.88
421.171	92.88
421.394	86.88
421.617	84.88
421.839	89.88
422.062	87.88
422.285	78.88
422.507	100.88
422.73	96.88
422.953	102.88
423.175	81.88
423.398	77.88
423.621	88.88
423.843	86.88
424.066	92.88
424.288	92.88
424.511	76.88
424.733	95.88
424.956	88.88
425.178	85.88
425.401	90.88
425.623	94.88
425.846	77.88
426.068	87.88
426.291	89.88
426.513	78.88
426.735	73.88
426.958	88.88
427.18	103.88
427.402	123.88
427.625	144.88
427.847	124.88
428.069	107.88
428.292	75.88
428.514	71.88
428.736	77.88
428.958	69.88
429.181	83.88
429.403	86.88
429.625	86.88
429.847	99.88
430.069	85.88
430.292	92.88
430.514	89.88
430.736	83.88
430.958	78.88
431.18	83.88
431.402	83.88
431.624	71.88
431.846	93.88
432.068	86.88
432.29	87.88
432.512	86.88
432.734	79.88
432.956	94.88
433.178	87.88
433.4	102.88
433.622	76.88
433.844	99.88
434.066	93.88
434.287	96.88
434.509	77.88
434.731	89.88
434.953	89.88
435.175	95.88
435.397	77.88
435.618	78.88
435.84	99.88
436.062	116.88
436.284	104.88
436.505	100.88
436.727	87.88
436.949	93.88
437.17	73.88
437.392	79.88
437.614	83.88
437.835	106.88
438.057	101.88
438.278	105.88
438.5	101.88
438.721	110.88
438.943	98.88
439.165	95.88
439.386	84.88
439.608	87.88
439.829	97.88
440.05	113.88
440.272	128.88
440.493	102.88
440.715	82.88
440.936	79.88
441.158	86.88
441.379	81.88
441.6	86.88
441.822	77.88
442.043	87.88
442.264	116.88
442.486	110.88
442.707	88.88
442.928	101.88
443.149	105.88
443.371	113.88
443.592	92.88
443.813	99.88
444.034	97.88
444.255	88.88
444.476	99.88
444.698	85.88
444.919	87.88
445.14	126.88
445.361	115.88
445.582	110.88
445.803	127.88
446.024	109.88
446.245	113.88
446.466	88.88
446.687	92.88
446.908	81.88
447.129	72.88
447.35	76.88
447.571	81.88
447.792	87.88
448.013	81.88
448.234	102.88
448.455	97.88
448.675	111.88
448.896	102.88
449.117	86.88
449.338	99.88
449.559	124.88
449.779	127.88
450	80.88
450.221	87.88
450.442	85.88
450.662	99.88
450.883	101.88
451.104	103.88
451.324	90.88
451.545	76.88
451.766	76.88
451.986	68.88
452.207	92.88
452.428	88.88
452.648	97.88
452.869	96.88
453.089	101.88
453.31	94.88
453.53	88.88
453.751	78.88
453.971	93.88
454.192	115.88
454.412	96.88
454.633	73.88
454.853	97.88
455.073	72.88
455.294	89.88
455.514	99.88
455.734	76.88
455.955	67.88
456.175	77.88
456.395	71.88
456.616	79.88
456.836	95.88
457.056	81.88
457.276	80.88
457.497	96.88
457.717	71.88
457.937	77.88
458.157	86.88
458.377	94.88
458.598	108.88
458.818	126.88
459.038	149.88
459.258	100.88
459.478	94.88
459.698	69.88
459.918	83.88
460.138	85.88
460.358	82.88
460.578	73.88
460.798	81.88
461.018	87.88
461.238	88.88
461.458	71.88
461.678	81.88
461.898	86.88
462.118	75.88
462.338	84.88
462.558	79.88
462.777	73.88
462.997	82.88
463.217	89.88
463.437	72.88
463.657	71.88
463.876	83.88
464.096	79.88
464.316	92.88
464.536	83.88
464.755	73.88
464.975	91.88
465.195	148.88
465.414	132.88
465.634	92.88
465.854	75.88
466.073	83.88
466.293	84.88
466.512	85.88
466.732	80.88
466.951	87.88
467.171	92.88
467.391	95.88
467.61	79.88
467.829	80.88
468.049	82.88
468.268	101.88
468.488	95.88
468.707	92.88
468.927	80.88
469.146	85.88
469.365	92.88
469.585	81.88
469.804	81.88
470.023	102.88
470.243	99.88
470.462	94.88
470.681	117.88
470.901	92.88
471.12	79.88
471.339	76.88
471.558	88.88
471.777	78.88
471.997	62.88
472.216	98.88
472.435	125.88
472.654	86.88
472.873	83.88
473.092	84.88
473.311	83.88
473.53	84.88
473.749	84.88
473.968	101.88
474.187	92.88
474.406	79.88
474.625	89.88
474.844	86.88
475.063	93.88
475.282	83.88
475.501	76.88
475.72	71.88
475.939	87.88
476.158	88.88
476.377	89.88
476.596	76.88
476.814	72.88
477.033	78.88
477.252	85.88
477.471	82.88
477.69	83.88
477.908	100.88
478.127	88.88
478.346	81.88
478.564	95.88
478.783	100.88
479.002	97.88
479.22	91.88
479.439	83.88
479.658	96.88
479.876	88.88
480.095	71.88
480.313	86.88
480.532	76.88
480.751	94.88
480.969	104.88
481.188	165.88
481.406	128.88
481.624	107.88
481.843	82.88
482.061	93.88
482.28	89.88
482.498	93.88
482.717	81.88
482.935	84.88
483.153	87.88
483.372	94.88
483.59	93.88
483.808	87.88
484.027	94.88
484.245	97.88
484.463	80.88
484.681	87.88
484.9	81.88
485.118	93.88
485.336	85.88
485.554	79.88
485.772	101.88
485.99	99.88
486.209	90.88
486.427	85.88
486.645	109.88
486.863	104.88
487.081	84.88
487.299	95.88
487.517	88.88
487.735	83.88
487.953	89.88
488.171	98.88
488.389	87.88
488.607	91.88
488.825	83.88
489.043	94.88
489.261	99.88
489.479	81.88
489.696	81.88
489.914	92.88
490.132	79.88
490.35	86.88
490.568	77.88
490.786	80.88
491.003	79.88
491.221	88.88
491.439	87.88
491.657	71.88
491.874	94.88
492.092	94.88
492.31	84.88
492.527	93.88
492.745	87.88
492.963	89.88
493.18	82.88
493.398	90.88
493.615	92.88
493.833	93.88
494.05	75.88
494.268	73.88
494.485	71.88
494.703	91.88
494.92	81.88
495.138	98.88
495.355	101.88
495.573	87.88
495.79	93.88
496.008	91.88
496.225	73.88
496.442	80.88
496.66	93.88
496.877	81.88
497.094	94.88
497.312	86.88
497.529	97.88
497.746	96.88
497.963	93.88
498.181	82.88
498.398	94.88
498.615	112.88
498.832	101.88
499.049	78.88
499.267	79.88
499.484	89.88
499.701	87.88
499.918	83.88
500.135	78.88
500.352	92.88
500.569	92.88
500.786	89.88
501.003	86.88
501.22	81.88
501.437	101.88
501.654	93.88
501.871	104.88
502.088	77.88
502.305	88.88
502.522	85.88
502.739	88.88
502.956	89.88
503.172	91.88
503.389	88.88
503.606	107.88
503.823	92.88
504.04	70.88
504.256	88.88
504.473	86.88
504.69	77.88
504.907	94.88
505.123	82.88
505.34	79.88
505.557	87.88
505.773	83.88
505.99	84.88
506.207	85.88
506.423	101.88
506.64	97.88
506.856	106.88
507.073	88.88
507.289	92.88
507.506	92.88
507.722	113.88
507.939	103.88
508.155	88.88
508.372	93.88
508.588	97.88
508.805	94.88
509.021	94.88
509.238	91.88
509.454	107.88
509.67	103.88
509.887	93.88
510.103	123.88
510.319	187.88
510.536	658.88
510.752	2075.88
510.968	554.88
511.184	142.88
511.401	93.88
511.617	93.88
511.833	89.88
512.049	95.88
512.265	86.88
512.481	76.88
512.698	80.88
512.914	70.88
513.13	87.88
513.346	89.88
513.562	93.88
513.778	97.88
513.994	100.88
514.21	108.88
514.426	96.88
514.642	120.88
514.858	118.88
515.074	150.88
515.29	392.88
515.506	1221.88
515.721	446.88
515.937	148.88
516.153	101.88
516.369	95.88
516.585	112.88
516.801	83.88
517.016	86.88
