Data from Uncirc_1985_H10_HRD10591_00034.txt Node
Date: Wed Jan 03 12:18:24 EST 2024
User: Yrep
Spectrometer: HR+D1059
Trigger mode: 1
Integration Time (sec): 1.000000E-1
Scans to average: 1
Electric dark correction enabled: true
Nonlinearity correction enabled: false
Boxcar width: 0
XAxis mode: Wavelengths
Number of Pixels in Spectrum: 2048
>>>>>Begin Spectral Data<<<<<
223.165	-21.19
223.4	-21.19
223.635	-21.19
223.869	-37.19
224.104	-12.19
224.338	-23.19
224.573	-10.19
224.808	-0.19
225.042	-7.19
225.277	-4.19
225.511	-3.19
225.746	6.81
225.98	15.81
226.215	3.81
226.449	19.81
226.683	9.81
226.918	30.81
227.152	31.81
227.387	44.81
227.621	41.81
227.856	46.81
228.09	27.81
228.324	58.81
228.559	63.81
228.793	52.81
229.027	58.81
229.262	52.81
229.496	64.81
229.73	61.81
229.964	94.81
230.199	74.81
230.433	79.81
230.667	83.81
230.901	79.81
231.136	75.81
231.37	81.81
231.604	79.81
231.838	72.81
232.072	82.81
232.306	77.81
232.541	79.81
232.775	85.81
233.009	84.81
233.243	80.81
233.477	86.81
233.711	73.81
233.945	81.81
234.179	81.81
234.413	67.81
234.647	79.81
234.881	81.81
235.115	71.81
235.349	70.81
235.583	95.81
235.817	83.81
236.051	76.81
236.285	94.81
236.519	93.81
236.753	79.81
236.987	72.81
237.221	91.81
237.455	80.81
237.689	64.81
237.922	81.81
238.156	84.81
238.39	84.81
238.624	90.81
238.858	80.81
239.091	70.81
239.325	81.81
239.559	87.81
239.793	79.81
240.027	89.81
240.26	73.81
240.494	73.81
240.728	82.81
240.961	72.81
241.195	89.81
241.429	77.81
241.662	68.81
241.896	81.81
242.13	65.81
242.363	84.81
242.597	75.81
242.83	73.81
243.064	74.81
243.298	84.81
243.531	75.81
243.765	82.81
243.998	81.81
244.232	71.81
244.465	71.81
244.699	89.81
244.932	78.81
245.166	68.81
245.399	85.81
245.633	80.81
245.866	72.81
246.099	68.81
246.333	72.81
246.566	64.81
246.8	80.81
247.033	89.81
247.266	71.81
247.5	79.81
247.733	68.81
247.966	75.81
248.2	75.81
248.433	77.81
248.666	84.81
248.899	81.81
249.133	85.81
249.366	80.81
249.599	81.81
249.832	94.81
250.066	89.81
250.299	80.81
250.532	83.81
250.765	63.81
250.998	83.81
251.231	83.81
251.465	74.81
251.698	75.81
251.931	79.81
252.164	69.81
252.397	81.81
252.63	81.81
252.863	73.81
253.096	87.81
253.329	90.81
253.562	72.81
253.795	81.81
254.028	75.81
254.261	72.81
254.494	74.81
254.727	100.81
254.96	87.81
255.193	83.81
255.426	76.81
255.659	81.81
255.892	88.81
256.124	82.81
256.357	85.81
256.59	83.81
256.823	86.81
257.056	72.81
257.289	87.81
257.521	71.81
257.754	89.81
257.987	75.81
258.22	81.81
258.452	72.81
258.685	77.81
258.918	70.81
259.151	83.81
259.383	73.81
259.616	76.81
259.849	61.81
260.081	80.81
260.314	80.81
260.547	88.81
260.779	81.81
261.012	99.81
261.244	71.81
261.477	94.81
261.71	97.81
261.942	115.81
262.175	117.81
262.407	105.81
262.64	72.81
262.872	86.81
263.105	86.81
263.337	90.81
263.57	91.81
263.802	85.81
264.035	67.81
264.267	75.81
264.499	73.81
264.732	90.81
264.964	79.81
265.197	92.81
265.429	86.81
265.661	88.81
265.894	77.81
266.126	84.81
266.358	72.81
266.591	82.81
266.823	81.81
267.055	79.81
267.287	87.81
267.52	81.81
267.752	83.81
267.984	88.81
268.216	92.81
268.448	90.81
268.681	80.81
268.913	83.81
269.145	68.81
269.377	65.81
269.609	87.81
269.841	91.81
270.073	81.81
270.306	79.81
270.538	82.81
270.77	74.81
271.002	74.81
271.234	96.81
271.466	83.81
271.698	83.81
271.93	93.81
272.162	80.81
272.394	92.81
272.626	81.81
272.858	77.81
273.09	79.81
273.322	69.81
273.553	89.81
273.785	85.81
274.017	85.81
274.249	85.81
274.481	75.81
274.713	75.81
274.945	81.81
275.176	86.81
275.408	95.81
275.64	84.81
275.872	81.81
276.104	73.81
276.335	90.81
276.567	103.81
276.799	105.81
277.031	86.81
277.262	91.81
277.494	86.81
277.726	65.81
277.957	97.81
278.189	84.81
278.421	78.81
278.652	87.81
278.884	91.81
279.115	82.81
279.347	86.81
279.579	71.81
279.81	87.81
280.042	76.81
280.273	73.81
280.505	72.81
280.736	99.81
280.968	87.81
281.199	80.81
281.431	87.81
281.662	91.81
281.894	99.81
282.125	95.81
282.356	130.81
282.588	127.81
282.819	106.81
283.051	93.81
283.282	88.81
283.513	93.81
283.745	88.81
283.976	83.81
284.207	87.81
284.439	86.81
284.67	85.81
284.901	96.81
285.132	86.81
285.364	84.81
285.595	95.81
285.826	79.81
286.057	87.81
286.288	73.81
286.52	83.81
286.751	85.81
286.982	90.81
287.213	84.81
287.444	81.81
287.675	85.81
287.906	81.81
288.138	81.81
288.369	97.81
288.6	95.81
288.831	74.81
289.062	100.81
289.293	96.81
289.524	79.81
289.755	87.81
289.986	76.81
290.217	85.81
290.448	80.81
290.679	75.81
290.91	68.81
291.141	88.81
291.371	74.81
291.602	67.81
291.833	85.81
292.064	91.81
292.295	83.81
292.526	82.81
292.757	88.81
292.987	93.81
293.218	81.81
293.449	84.81
293.68	97.81
293.91	90.81
294.141	89.81
294.372	82.81
294.603	89.81
294.833	96.81
295.064	107.81
295.295	102.81
295.525	98.81
295.756	105.81
295.987	120.81
296.217	137.81
296.448	120.81
296.679	84.81
296.909	90.81
297.14	85.81
297.37	101.81
297.601	99.81
297.831	101.81
298.062	84.81
298.292	86.81
298.523	91.81
298.753	86.81
298.984	86.81
299.214	87.81
299.445	88.81
299.675	102.81
299.905	108.81
300.136	103.81
300.366	76.81
300.597	85.81
300.827	83.81
301.057	109.81
301.288	111.81
301.518	85.81
301.748	91.81
301.979	110.81
302.209	83.81
302.439	84.81
302.669	107.81
302.9	98.81
303.13	87.81
303.36	115.81
303.59	112.81
303.82	94.81
304.051	86.81
304.281	84.81
304.511	95.81
304.741	86.81
304.971	95.81
305.201	93.81
305.431	81.81
305.661	88.81
305.891	81.81
306.121	85.81
306.352	82.81
306.582	88.81
306.812	91.81
307.042	96.81
307.272	97.81
307.502	86.81
307.731	97.81
307.961	98.81
308.191	91.81
308.421	91.81
308.651	95.81
308.881	87.81
309.111	87.81
309.341	86.81
309.571	100.81
309.8	86.81
310.03	92.81
310.26	92.81
310.49	86.81
310.72	103.81
310.949	88.81
311.179	106.81
311.409	92.81
311.639	89.81
311.868	88.81
312.098	94.81
312.328	112.81
312.557	103.81
312.787	104.81
313.017	98.81
313.246	109.81
313.476	87.81
313.706	91.81
313.935	94.81
314.165	116.81
314.394	95.81
314.624	88.81
314.853	100.81
315.083	105.81
315.312	99.81
315.542	94.81
315.771	84.81
316.001	83.81
316.23	88.81
316.46	81.81
316.689	94.81
316.919	95.81
317.148	88.81
317.377	99.81
317.607	85.81
317.836	104.81
318.065	104.81
318.295	83.81
318.524	85.81
318.753	102.81
318.983	93.81
319.212	100.81
319.441	109.81
319.67	93.81
319.9	98.81
320.129	104.81
320.358	105.81
320.587	99.81
320.816	96.81
321.046	102.81
321.275	99.81
321.504	82.81
321.733	82.81
321.962	85.81
322.191	96.81
322.42	113.81
322.649	96.81
322.878	102.81
323.108	115.81
323.337	120.81
323.566	127.81
323.795	143.81
324.024	188.81
324.253	369.81
324.482	769.81
324.71	1595.81
324.939	2116.81
325.168	755.81
325.397	239.81
325.626	151.81
325.855	132.81
326.084	114.81
326.313	131.81
326.542	160.81
326.77	225.81
326.999	413.81
327.228	892.81
327.457	1598.81
327.686	1306.81
327.914	354.81
328.143	181.81
328.372	135.81
328.6	128.81
328.829	117.81
329.058	105.81
329.287	119.81
329.515	104.81
329.744	108.81
329.972	105.81
330.201	105.81
330.43	98.81
330.658	116.81
330.887	148.81
331.115	116.81
331.344	102.81
331.572	96.81
331.801	113.81
332.03	85.81
332.258	97.81
332.486	101.81
332.715	87.81
332.943	96.81
333.172	108.81
333.4	89.81
333.629	109.81
333.857	115.81
334.085	107.81
334.314	100.81
334.542	113.81
334.771	95.81
334.999	107.81
335.227	99.81
335.455	95.81
335.684	100.81
335.912	100.81
336.14	92.81
336.369	76.81
336.597	106.81
336.825	104.81
337.053	98.81
337.281	85.81
337.51	92.81
337.738	91.81
337.966	89.81
338.194	85.81
338.422	98.81
338.65	101.81
338.878	95.81
339.106	86.81
339.334	75.81
339.562	83.81
339.79	96.81
340.018	91.81
340.246	102.81
340.474	101.81
340.702	97.81
340.93	90.81
341.158	99.81
341.386	101.81
341.614	91.81
341.842	84.81
342.07	89.81
342.298	94.81
342.526	89.81
342.754	87.81
342.981	85.81
343.209	85.81
343.437	85.81
343.665	90.81
343.893	87.81
344.12	83.81
344.348	88.81
344.576	92.81
344.804	75.81
345.031	90.81
345.259	95.81
345.487	96.81
345.714	78.81
345.942	87.81
346.17	93.81
346.397	82.81
346.625	80.81
346.853	102.81
347.08	94.81
347.308	100.81
347.535	93.81
347.763	105.81
347.99	92.81
348.218	109.81
348.445	86.81
348.673	100.81
348.9	100.81
349.128	82.81
349.355	99.81
349.583	91.81
349.81	95.81
350.037	95.81
350.265	94.81
350.492	95.81
350.72	112.81
350.947	102.81
351.174	103.81
351.402	106.81
351.629	92.81
351.856	85.81
352.083	95.81
352.311	104.81
352.538	109.81
352.765	106.81
352.992	119.81
353.22	116.81
353.447	92.81
353.674	108.81
353.901	104.81
354.128	97.81
354.355	92.81
354.583	96.81
354.81	103.81
355.037	103.81
355.264	112.81
355.491	92.81
355.718	92.81
355.945	100.81
356.172	99.81
356.399	86.81
356.626	104.81
356.853	99.81
357.08	85.81
357.307	98.81
357.534	83.81
357.761	99.81
357.988	95.81
358.215	97.81
358.441	112.81
358.668	93.81
358.895	96.81
359.122	90.81
359.349	105.81
359.576	82.81
359.802	95.81
360.029	96.81
360.256	106.81
360.483	101.81
360.709	90.81
360.936	84.81
361.163	90.81
361.39	98.81
361.616	88.81
361.843	81.81
362.07	99.81
362.296	85.81
362.523	88.81
362.749	89.81
362.976	102.81
363.203	97.81
363.429	88.81
363.656	85.81
363.882	90.81
364.109	99.81
364.335	84.81
364.562	94.81
364.788	95.81
365.015	89.81
365.241	96.81
365.468	102.81
365.694	94.81
365.92	95.81
366.147	105.81
366.373	95.81
366.599	95.81
366.826	88.81
367.052	101.81
367.278	76.81
367.505	95.81
367.731	94.81
367.957	91.81
368.184	92.81
368.41	88.81
368.636	112.81
368.862	118.81
369.089	109.81
369.315	96.81
369.541	117.81
369.767	109.81
369.993	97.81
370.219	88.81
370.445	86.81
370.672	84.81
370.898	99.81
371.124	92.81
371.35	93.81
371.576	92.81
371.802	83.81
372.028	84.81
372.254	99.81
372.48	78.81
372.706	92.81
372.932	90.81
373.158	99.81
373.384	92.81
373.61	93.81
373.835	99.81
374.061	88.81
374.287	85.81
374.513	99.81
374.739	92.81
374.965	85.81
375.191	89.81
375.416	85.81
375.642	95.81
375.868	97.81
376.094	85.81
376.319	83.81
376.545	76.81
376.771	89.81
376.997	90.81
377.222	87.81
377.448	104.81
377.674	99.81
377.899	100.81
378.125	91.81
378.35	79.81
378.576	82.81
378.802	90.81
379.027	106.81
379.253	85.81
379.478	89.81
379.704	95.81
379.929	91.81
380.155	90.81
380.38	83.81
380.606	100.81
380.831	108.81
381.057	88.81
381.282	96.81
381.507	91.81
381.733	97.81
381.958	93.81
382.184	91.81
382.409	101.81
382.634	110.81
382.86	91.81
383.085	86.81
383.31	111.81
383.535	89.81
383.761	91.81
383.986	89.81
384.211	87.81
384.436	86.81
384.662	108.81
384.887	94.81
385.112	89.81
385.337	99.81
385.562	106.81
385.787	106.81
386.013	93.81
386.238	98.81
386.463	98.81
386.688	101.81
386.913	106.81
387.138	106.81
387.363	91.81
387.588	100.81
387.813	87.81
388.038	100.81
388.263	113.81
388.488	102.81
388.713	99.81
388.938	96.81
389.163	97.81
389.387	97.81
389.612	92.81
389.837	98.81
390.062	90.81
390.287	88.81
390.512	102.81
390.736	106.81
390.961	89.81
391.186	94.81
391.411	101.81
391.636	80.81
391.86	83.81
392.085	91.81
392.31	86.81
392.534	96.81
392.759	93.81
392.984	85.81
393.208	107.81
393.433	87.81
393.658	105.81
393.882	95.81
394.107	85.81
394.331	88.81
394.556	93.81
394.78	86.81
395.005	84.81
395.229	81.81
395.454	84.81
395.678	86.81
395.903	98.81
396.127	73.81
396.352	93.81
396.576	85.81
396.801	98.81
397.025	89.81
397.249	89.81
397.474	88.81
397.698	83.81
397.922	73.81
398.147	87.81
398.371	87.81
398.595	92.81
398.82	84.81
399.044	91.81
399.268	80.81
399.492	88.81
399.717	89.81
399.941	85.81
400.165	96.81
400.389	87.81
400.613	88.81
400.837	80.81
401.062	89.81
401.286	85.81
401.51	98.81
401.734	95.81
401.958	88.81
402.182	123.81
402.406	128.81
402.63	109.81
402.854	84.81
403.078	97.81
403.302	91.81
403.526	87.81
403.75	79.81
403.974	73.81
404.198	85.81
404.422	84.81
404.645	90.81
404.869	97.81
405.093	94.81
405.317	102.81
405.541	99.81
405.765	99.81
405.988	119.81
406.212	146.81
406.436	202.81
406.66	140.81
406.883	104.81
407.107	87.81
407.331	85.81
407.555	82.81
407.778	102.81
408.002	89.81
408.226	97.81
408.449	86.81
408.673	81.81
408.896	97.81
409.12	109.81
409.344	80.81
409.567	101.81
409.791	77.81
410.014	95.81
410.238	93.81
410.461	76.81
410.685	81.81
410.908	102.81
411.132	108.81
411.355	103.81
411.578	88.81
411.802	82.81
412.025	96.81
412.249	92.81
412.472	100.81
412.695	107.81
412.919	75.81
413.142	85.81
413.365	82.81
413.589	90.81
413.812	81.81
414.035	98.81
414.258	95.81
414.482	94.81
414.705	77.81
414.928	87.81
415.151	87.81
415.374	91.81
415.597	85.81
415.821	80.81
416.044	84.81
416.267	93.81
416.49	89.81
416.713	79.81
416.936	77.81
417.159	82.81
417.382	83.81
417.605	91.81
417.828	90.81
418.051	85.81
418.274	80.81
418.497	89.81
418.72	81.81
418.943	91.81
419.166	90.81
419.389	87.81
419.611	74.81
419.834	89.81
420.057	79.81
420.28	83.81
420.503	91.81
420.726	88.81
420.948	92.81
421.171	97.81
421.394	96.81
421.617	87.81
421.839	88.81
422.062	71.81
422.285	84.81
422.507	92.81
422.73	92.81
422.953	92.81
423.175	104.81
423.398	69.81
423.621	91.81
423.843	92.81
424.066	98.81
424.288	80.81
424.511	79.81
424.733	98.81
424.956	97.81
425.178	99.81
425.401	114.81
425.623	102.81
425.846	91.81
426.068	101.81
426.291	106.81
426.513	92.81
426.735	85.81
426.958	88.81
427.18	96.81
427.402	135.81
427.625	164.81
427.847	118.81
428.069	100.81
428.292	89.81
428.514	105.81
428.736	95.81
428.958	89.81
429.181	87.81
429.403	91.81
429.625	92.81
429.847	107.81
430.069	85.81
430.292	101.81
430.514	95.81
430.736	86.81
430.958	92.81
431.18	86.81
431.402	84.81
431.624	90.81
431.846	103.81
432.068	84.81
432.29	102.81
432.512	108.81
432.734	91.81
432.956	86.81
433.178	96.81
433.4	92.81
433.622	78.81
433.844	87.81
434.066	93.81
434.287	105.81
434.509	87.81
434.731	94.81
434.953	109.81
435.175	80.81
435.397	95.81
435.618	77.81
435.84	97.81
436.062	119.81
436.284	121.81
436.505	120.81
436.727	95.81
436.949	85.81
437.17	98.81
437.392	88.81
437.614	77.81
437.835	99.81
438.057	102.81
438.278	114.81
438.5	91.81
438.721	96.81
438.943	92.81
439.165	79.81
439.386	81.81
439.608	81.81
439.829	92.81
440.05	114.81
440.272	138.81
440.493	102.81
440.715	93.81
440.936	83.81
441.158	72.81
441.379	90.81
441.6	102.81
441.822	92.81
442.043	77.81
442.264	107.81
442.486	91.81
442.707	101.81
442.928	102.81
443.149	120.81
443.371	126.81
443.592	114.81
443.813	114.81
444.034	101.81
444.255	101.81
444.476	97.81
444.698	86.81
444.919	85.81
445.14	135.81
445.361	117.81
445.582	112.81
445.803	135.81
446.024	111.81
446.245	135.81
446.466	109.81
446.687	97.81
446.908	83.81
447.129	81.81
447.35	93.81
447.571	101.81
447.792	95.81
448.013	99.81
448.234	98.81
448.455	102.81
448.675	114.81
448.896	102.81
449.117	100.81
449.338	103.81
449.559	108.81
449.779	122.81
450	97.81
450.221	93.81
450.442	86.81
450.662	96.81
450.883	111.81
451.104	108.81
451.324	83.81
451.545	77.81
451.766	81.81
451.986	88.81
452.207	111.81
452.428	94.81
452.648	93.81
452.869	113.81
453.089	102.81
453.31	112.81
453.53	97.81
453.751	105.81
453.971	98.81
454.192	101.81
454.412	94.81
454.633	89.81
454.853	71.81
455.073	79.81
455.294	84.81
455.514	89.81
455.734	77.81
455.955	79.81
456.175	96.81
456.395	85.81
456.616	86.81
456.836	95.81
457.056	91.81
457.276	89.81
457.497	77.81
457.717	92.81
457.937	87.81
458.157	76.81
458.377	94.81
458.598	101.81
458.818	150.81
459.038	140.81
459.258	115.81
459.478	80.81
459.698	82.81
459.918	90.81
460.138	98.81
460.358	98.81
460.578	89.81
460.798	90.81
461.018	86.81
461.238	96.81
461.458	96.81
461.678	92.81
461.898	89.81
462.118	69.81
462.338	77.81
462.558	87.81
462.777	83.81
462.997	83.81
463.217	81.81
463.437	105.81
463.657	85.81
463.876	85.81
464.096	107.81
464.316	94.81
464.536	102.81
464.755	105.81
464.975	109.81
465.195	147.81
465.414	153.81
465.634	93.81
465.854	85.81
466.073	90.81
466.293	79.81
466.512	87.81
466.732	76.81
466.951	87.81
467.171	95.81
467.391	97.81
467.61	104.81
467.829	94.81
468.049	85.81
468.268	97.81
468.488	101.81
468.707	92.81
468.927	95.81
469.146	81.81
469.365	84.81
469.585	82.81
469.804	95.81
470.023	89.81
470.243	92.81
470.462	92.81
470.681	107.81
470.901	90.81
471.12	72.81
471.339	89.81
471.558	84.81
471.777	89.81
471.997	79.81
472.216	92.81
472.435	114.81
472.654	93.81
472.873	77.81
473.092	99.81
473.311	81.81
473.53	85.81
473.749	84.81
473.968	91.81
474.187	95.81
474.406	95.81
474.625	81.81
474.844	91.81
475.063	73.81
475.282	89.81
475.501	71.81
475.72	89.81
475.939	91.81
476.158	72.81
476.377	72.81
476.596	80.81
476.814	104.81
477.033	88.81
477.252	87.81
477.471	99.81
477.69	98.81
477.908	100.81
478.127	91.81
478.346	92.81
478.564	103.81
478.783	108.81
479.002	97.81
479.22	100.81
479.439	96.81
479.658	97.81
479.876	91.81
480.095	88.81
480.313	86.81
480.532	88.81
480.751	94.81
480.969	103.81
481.188	147.81
481.406	129.81
481.624	86.81
481.843	76.81
482.061	78.81
482.28	81.81
482.498	85.81
482.717	96.81
482.935	74.81
483.153	93.81
483.372	99.81
483.59	95.81
483.808	80.81
484.027	91.81
484.245	88.81
484.463	90.81
484.681	94.81
484.9	104.81
485.118	97.81
485.336	102.81
485.554	96.81
485.772	103.81
485.99	102.81
486.209	112.81
486.427	112.81
486.645	109.81
486.863	110.81
487.081	101.81
487.299	94.81
487.517	87.81
487.735	98.81
487.953	106.81
488.171	80.81
488.389	90.81
488.607	97.81
488.825	85.81
489.043	93.81
489.261	85.81
489.479	96.81
489.696	82.81
489.914	82.81
490.132	92.81
490.35	82.81
490.568	96.81
490.786	92.81
491.003	87.81
491.221	90.81
491.439	100.81
491.657	82.81
491.874	103.81
492.092	87.81
492.31	101.81
492.527	92.81
492.745	95.81
492.963	108.81
493.18	92.81
493.398	93.81
493.615	91.81
493.833	94.81
494.05	89.81
494.268	86.81
494.485	80.81
494.703	88.81
494.92	86.81
495.138	83.81
495.355	88.81
495.573	100.81
495.79	91.81
496.008	102.81
496.225	114.81
496.442	103.81
496.66	96.81
496.877	98.81
497.094	84.81
497.312	74.81
497.529	99.81
497.746	85.81
497.963	81.81
498.181	95.81
498.398	86.81
498.615	107.81
498.832	101.81
499.049	97.81
499.267	83.81
499.484	91.81
499.701	87.81
499.918	88.81
500.135	96.81
500.352	97.81
500.569	92.81
500.786	89.81
501.003	74.81
501.22	87.81
501.437	90.81
501.654	88.81
501.871	108.81
502.088	90.81
502.305	100.81
502.522	93.81
502.739	87.81
502.956	75.81
503.172	87.81
503.389	93.81
503.606	87.81
503.823	80.81
504.04	83.81
504.256	99.81
504.473	83.81
504.69	96.81
504.907	91.81
505.123	92.81
505.34	91.81
505.557	89.81
505.773	92.81
505.99	94.81
506.207	97.81
506.423	83.81
506.64	100.81
506.856	100.81
507.073	88.81
507.289	84.81
507.506	91.81
507.722	106.81
507.939	113.81
508.155	92.81
508.372	107.81
508.588	95.81
508.805	92.81
509.021	92.81
509.238	88.81
509.454	103.81
509.67	103.81
509.887	125.81
510.103	120.81
510.319	185.81
510.536	708.81
510.752	2267.81
510.968	614.81
511.184	152.81
511.401	120.81
511.617	95.81
511.833	82.81
512.049	92.81
512.265	95.81
512.481	94.81
512.698	83.81
512.914	90.81
513.13	105.81
513.346	103.81
513.562	92.81
513.778	88.81
513.994	93.81
514.21	94.81
514.426	116.81
514.642	128.81
514.858	124.81
515.074	154.81
515.29	428.81
515.506	1323.81
515.721	482.81
