Data from Uncirc_1985_H10_HRD10591_00097.txt Node
Date: Wed Jan 03 12:18:36 EST 2024
User: Yrep
Spectrometer: HR+D1059
Trigger mode: 1
Integration Time (sec): 1.000000E-1
Scans to average: 1
Electric dark correction enabled: true
Nonlinearity correction enabled: false
Boxcar width: 0
XAxis mode: Wavelengths
Number of Pixels in Spectrum: 2048
>>>>>Begin Spectral Data<<<<<
223.165	-9.19
223.4	-9.19
223.635	-9.19
223.869	-19.19
224.104	-20.19
224.338	-19.19
224.573	-16.19
224.808	-16.19
225.042	-9.19
225.277	-5.19
225.511	8.81
225.746	0.81
225.98	12.81
226.215	8.81
226.449	15.81
226.683	24.81
226.918	22.81
227.152	19.81
227.387	42.81
227.621	46.81
227.856	58.81
228.09	38.81
228.324	51.81
228.559	45.81
228.793	53.81
229.027	61.81
229.262	63.81
229.496	71.81
229.73	90.81
229.964	78.81
230.199	71.81
230.433	78.81
230.667	86.81
230.901	85.81
231.136	83.81
231.37	90.81
231.604	73.81
231.838	79.81
232.072	95.81
232.306	83.81
232.541	64.81
232.775	78.81
233.009	81.81
233.243	78.81
233.477	85.81
233.711	80.81
233.945	68.81
234.179	72.81
234.413	89.81
234.647	73.81
234.881	88.81
235.115	79.81
235.349	86.81
235.583	68.81
235.817	77.81
236.051	75.81
236.285	73.81
236.519	70.81
236.753	78.81
236.987	91.81
237.221	86.81
237.455	83.81
237.689	74.81
237.922	82.81
238.156	84.81
238.39	82.81
238.624	58.81
238.858	67.81
239.091	71.81
239.325	80.81
239.559	80.81
239.793	84.81
240.027	83.81
240.26	69.81
240.494	85.81
240.728	71.81
240.961	70.81
241.195	72.81
241.429	70.81
241.662	71.81
241.896	76.81
242.13	78.81
242.363	69.81
242.597	64.81
242.83	84.81
243.064	78.81
243.298	70.81
243.531	81.81
243.765	75.81
243.998	83.81
244.232	79.81
244.465	88.81
244.699	81.81
244.932	82.81
245.166	66.81
245.399	68.81
245.633	83.81
245.866	82.81
246.099	79.81
246.333	67.81
246.566	81.81
246.8	81.81
247.033	74.81
247.266	88.81
247.5	63.81
247.733	72.81
247.966	60.81
248.2	81.81
248.433	95.81
248.666	86.81
248.899	82.81
249.133	89.81
249.366	106.81
249.599	87.81
249.832	92.81
250.066	84.81
250.299	70.81
250.532	81.81
250.765	88.81
250.998	69.81
251.231	71.81
251.465	91.81
251.698	82.81
251.931	82.81
252.164	76.81
252.397	66.81
252.63	75.81
252.863	82.81
253.096	93.81
253.329	88.81
253.562	78.81
253.795	79.81
254.028	94.81
254.261	83.81
254.494	78.81
254.727	75.81
254.96	92.81
255.193	78.81
255.426	100.81
255.659	87.81
255.892	94.81
256.124	78.81
256.357	72.81
256.59	79.81
256.823	90.81
257.056	75.81
257.289	86.81
257.521	83.81
257.754	72.81
257.987	66.81
258.22	81.81
258.452	91.81
258.685	83.81
258.918	71.81
259.151	72.81
259.383	86.81
259.616	84.81
259.849	73.81
260.081	90.81
260.314	82.81
260.547	88.81
260.779	78.81
261.012	88.81
261.244	72.81
261.477	98.81
261.71	85.81
261.942	99.81
262.175	108.81
262.407	97.81
262.64	96.81
262.872	78.81
263.105	73.81
263.337	86.81
263.57	100.81
263.802	95.81
264.035	86.81
264.267	88.81
264.499	87.81
264.732	82.81
264.964	84.81
265.197	83.81
265.429	90.81
265.661	76.81
265.894	78.81
266.126	80.81
266.358	97.81
266.591	81.81
266.823	92.81
267.055	79.81
267.287	70.81
267.52	88.81
267.752	73.81
267.984	88.81
268.216	91.81
268.448	80.81
268.681	72.81
268.913	86.81
269.145	74.81
269.377	91.81
269.609	87.81
269.841	82.81
270.073	75.81
270.306	86.81
270.538	78.81
270.77	91.81
271.002	81.81
271.234	91.81
271.466	86.81
271.698	88.81
271.93	94.81
272.162	95.81
272.394	88.81
272.626	84.81
272.858	81.81
273.09	83.81
273.322	95.81
273.553	85.81
273.785	69.81
274.017	73.81
274.249	97.81
274.481	90.81
274.713	94.81
274.945	82.81
275.176	75.81
275.408	76.81
275.64	92.81
275.872	96.81
276.104	98.81
276.335	80.81
276.567	100.81
276.799	115.81
277.031	105.81
277.262	97.81
277.494	93.81
277.726	96.81
277.957	93.81
278.189	89.81
278.421	83.81
278.652	76.81
278.884	85.81
279.115	99.81
279.347	82.81
279.579	81.81
279.81	76.81
280.042	96.81
280.273	102.81
280.505	82.81
280.736	93.81
280.968	86.81
281.199	88.81
281.431	96.81
281.662	91.81
281.894	80.81
282.125	107.81
282.356	115.81
282.588	151.81
282.819	117.81
283.051	95.81
283.282	84.81
283.513	95.81
283.745	84.81
283.976	85.81
284.207	94.81
284.439	80.81
284.67	90.81
284.901	88.81
285.132	86.81
285.364	71.81
285.595	83.81
285.826	82.81
286.057	94.81
286.288	86.81
286.52	87.81
286.751	103.81
286.982	72.81
287.213	87.81
287.444	87.81
287.675	86.81
287.906	89.81
288.138	84.81
288.369	80.81
288.6	87.81
288.831	93.81
289.062	92.81
289.293	102.81
289.524	82.81
289.755	89.81
289.986	81.81
290.217	73.81
290.448	79.81
290.679	82.81
290.91	78.81
291.141	88.81
291.371	88.81
291.602	97.81
291.833	102.81
292.064	86.81
292.295	90.81
292.526	83.81
292.757	81.81
292.987	93.81
293.218	90.81
293.449	82.81
293.68	82.81
293.91	85.81
294.141	75.81
294.372	96.81
294.603	94.81
294.833	95.81
295.064	103.81
295.295	88.81
295.525	89.81
295.756	79.81
295.987	112.81
296.217	148.81
296.448	132.81
296.679	82.81
296.909	94.81
297.14	82.81
297.37	93.81
297.601	97.81
297.831	84.81
298.062	97.81
298.292	91.81
298.523	104.81
298.753	92.81
298.984	94.81
299.214	95.81
299.445	101.81
299.675	95.81
299.905	100.81
300.136	90.81
300.366	94.81
300.597	99.81
300.827	99.81
301.057	101.81
301.288	109.81
301.518	81.81
301.748	84.81
301.979	104.81
302.209	91.81
302.439	94.81
302.669	82.81
302.9	86.81
303.13	96.81
303.36	109.81
303.59	103.81
303.82	111.81
304.051	96.81
304.281	87.81
304.511	95.81
304.741	100.81
304.971	94.81
305.201	78.81
305.431	92.81
305.661	75.81
305.891	97.81
306.121	92.81
306.352	103.81
306.582	98.81
306.812	84.81
307.042	90.81
307.272	102.81
307.502	100.81
307.731	85.81
307.961	90.81
308.191	100.81
308.421	79.81
308.651	95.81
308.881	111.81
309.111	88.81
309.341	94.81
309.571	95.81
309.8	95.81
310.03	90.81
310.26	97.81
310.49	103.81
310.72	101.81
310.949	87.81
311.179	101.81
311.409	84.81
311.639	89.81
311.868	90.81
312.098	102.81
312.328	85.81
312.557	103.81
312.787	94.81
313.017	104.81
313.246	99.81
313.476	90.81
313.706	94.81
313.935	101.81
314.165	92.81
314.394	88.81
314.624	100.81
314.853	86.81
315.083	88.81
315.312	91.81
315.542	92.81
315.771	98.81
316.001	87.81
316.23	87.81
316.46	80.81
316.689	82.81
316.919	95.81
317.148	99.81
317.377	99.81
317.607	99.81
317.836	92.81
318.065	98.81
318.295	89.81
318.524	102.81
318.753	98.81
318.983	104.81
319.212	113.81
319.441	102.81
319.67	117.81
319.9	86.81
320.129	95.81
320.358	105.81
320.587	93.81
320.816	92.81
321.046	109.81
321.275	104.81
321.504	100.81
321.733	84.81
321.962	88.81
322.191	108.81
322.42	103.81
322.649	113.81
322.878	106.81
323.108	121.81
323.337	118.81
323.566	125.81
323.795	126.81
324.024	203.81
324.253	388.81
324.482	836.81
324.71	1742.81
324.939	2382.81
325.168	844.81
325.397	243.81
325.626	162.81
325.855	130.81
326.084	122.81
326.313	139.81
326.542	146.81
326.77	236.81
326.999	464.81
327.228	937.81
327.457	1771.81
327.686	1410.81
327.914	394.81
328.143	182.81
328.372	166.81
328.6	127.81
328.829	103.81
329.058	118.81
329.287	127.81
329.515	116.81
329.744	113.81
329.972	108.81
330.201	144.81
330.43	181.81
330.658	137.81
330.887	135.81
331.115	115.81
331.344	100.81
331.572	100.81
331.801	111.81
332.03	83.81
332.258	104.81
332.486	97.81
332.715	87.81
332.943	89.81
333.172	105.81
333.4	91.81
333.629	104.81
333.857	102.81
334.085	123.81
334.314	137.81
334.542	193.81
334.771	194.81
334.999	113.81
335.227	95.81
335.455	95.81
335.684	92.81
335.912	89.81
336.14	105.81
336.369	92.81
336.597	102.81
336.825	94.81
337.053	97.81
337.281	94.81
337.51	95.81
337.738	93.81
337.966	105.81
338.194	106.81
338.422	99.81
338.65	97.81
338.878	89.81
339.106	85.81
339.334	92.81
339.562	95.81
339.79	91.81
340.018	78.81
340.246	87.81
340.474	70.81
340.702	99.81
340.93	92.81
341.158	100.81
341.386	100.81
341.614	104.81
341.842	90.81
342.07	94.81
342.298	96.81
342.526	83.81
342.754	87.81
342.981	84.81
343.209	96.81
343.437	88.81
343.665	82.81
343.893	84.81
344.12	102.81
344.348	94.81
344.576	95.81
344.804	104.81
345.031	97.81
345.259	108.81
345.487	97.81
345.714	94.81
345.942	95.81
346.17	90.81
346.397	69.81
346.625	105.81
346.853	90.81
347.08	106.81
347.308	85.81
347.535	98.81
347.763	94.81
347.99	100.81
348.218	98.81
348.445	100.81
348.673	96.81
348.9	102.81
349.128	98.81
349.355	98.81
349.583	92.81
349.81	86.81
350.037	81.81
350.265	87.81
350.492	95.81
350.72	106.81
350.947	112.81
351.174	97.81
351.402	103.81
351.629	103.81
351.856	110.81
352.083	107.81
352.311	95.81
352.538	107.81
352.765	100.81
352.992	102.81
353.22	114.81
353.447	106.81
353.674	109.81
353.901	97.81
354.128	108.81
354.355	100.81
354.583	103.81
354.81	82.81
355.037	90.81
355.264	97.81
355.491	97.81
355.718	103.81
355.945	104.81
356.172	88.81
356.399	89.81
356.626	105.81
356.853	87.81
357.08	90.81
357.307	84.81
357.534	100.81
357.761	94.81
357.988	91.81
358.215	78.81
358.441	87.81
358.668	90.81
358.895	85.81
359.122	92.81
359.349	87.81
359.576	93.81
359.802	101.81
360.029	94.81
360.256	103.81
360.483	99.81
360.709	88.81
360.936	90.81
361.163	105.81
361.39	98.81
361.616	95.81
361.843	97.81
362.07	80.81
362.296	97.81
362.523	90.81
362.749	96.81
362.976	83.81
363.203	99.81
363.429	87.81
363.656	94.81
363.882	86.81
364.109	99.81
364.335	88.81
364.562	87.81
364.788	94.81
365.015	81.81
365.241	89.81
365.468	106.81
365.694	103.81
365.92	85.81
366.147	83.81
366.373	92.81
366.599	95.81
366.826	98.81
367.052	91.81
367.278	106.81
367.505	84.81
367.731	94.81
367.957	83.81
368.184	94.81
368.41	88.81
368.636	105.81
368.862	123.81
369.089	103.81
369.315	78.81
369.541	78.81
369.767	97.81
369.993	94.81
370.219	96.81
370.445	86.81
370.672	90.81
370.898	84.81
371.124	89.81
371.35	91.81
371.576	99.81
371.802	84.81
372.028	78.81
372.254	78.81
372.48	106.81
372.706	98.81
372.932	81.81
373.158	99.81
373.384	92.81
373.61	78.81
373.835	77.81
374.061	88.81
374.287	94.81
374.513	97.81
374.739	94.81
374.965	94.81
375.191	83.81
375.416	92.81
375.642	75.81
375.868	90.81
376.094	101.81
376.319	84.81
376.545	90.81
376.771	88.81
376.997	92.81
377.222	82.81
377.448	86.81
377.674	79.81
377.899	91.81
378.125	95.81
378.35	79.81
378.576	94.81
378.802	90.81
379.027	94.81
379.253	78.81
379.478	83.81
379.704	88.81
379.929	87.81
380.155	88.81
380.38	95.81
380.606	95.81
380.831	100.81
381.057	97.81
381.282	96.81
381.507	98.81
381.733	96.81
381.958	90.81
382.184	100.81
382.409	95.81
382.634	101.81
382.86	95.81
383.085	95.81
383.31	92.81
383.535	100.81
383.761	86.81
383.986	112.81
384.211	92.81
384.436	90.81
384.662	84.81
384.887	95.81
385.112	100.81
385.337	98.81
385.562	100.81
385.787	99.81
386.013	105.81
386.238	102.81
386.463	94.81
386.688	99.81
386.913	103.81
387.138	86.81
387.363	86.81
387.588	95.81
387.813	105.81
388.038	98.81
388.263	110.81
388.488	97.81
388.713	88.81
388.938	82.81
389.163	99.81
389.387	92.81
389.612	97.81
389.837	88.81
390.062	87.81
390.287	87.81
390.512	79.81
390.736	88.81
390.961	93.81
391.186	82.81
391.411	109.81
391.636	94.81
391.86	84.81
392.085	85.81
392.31	95.81
392.534	82.81
392.759	91.81
392.984	76.81
393.208	87.81
393.433	91.81
393.658	95.81
393.882	78.81
394.107	74.81
394.331	89.81
394.556	84.81
394.78	80.81
395.005	108.81
395.229	72.81
395.454	88.81
395.678	83.81
395.903	81.81
396.127	100.81
396.352	72.81
396.576	90.81
396.801	63.81
397.025	82.81
397.249	82.81
397.474	87.81
397.698	102.81
397.922	95.81
398.147	82.81
398.371	82.81
398.595	86.81
398.82	102.81
399.044	91.81
399.268	90.81
399.492	83.81
399.717	98.81
399.941	98.81
400.165	89.81
400.389	104.81
400.613	89.81
400.837	86.81
401.062	90.81
401.286	69.81
401.51	88.81
401.734	99.81
401.958	96.81
402.182	117.81
402.406	143.81
402.63	112.81
402.854	88.81
403.078	85.81
403.302	83.81
403.526	83.81
403.75	79.81
403.974	89.81
404.198	86.81
404.422	95.81
404.645	90.81
404.869	90.81
405.093	95.81
405.317	91.81
405.541	81.81
405.765	98.81
405.988	112.81
406.212	164.81
406.436	210.81
406.66	132.81
406.883	104.81
407.107	93.81
407.331	96.81
407.555	103.81
407.778	87.81
408.002	90.81
408.226	103.81
408.449	86.81
408.673	75.81
408.896	80.81
409.12	97.81
409.344	92.81
409.567	74.81
409.791	104.81
410.014	82.81
410.238	96.81
410.461	102.81
410.685	99.81
410.908	81.81
411.132	101.81
411.355	97.81
411.578	97.81
411.802	86.81
412.025	71.81
412.249	76.81
412.472	108.81
412.695	96.81
412.919	84.81
413.142	87.81
413.365	85.81
413.589	80.81
413.812	72.81
414.035	87.81
414.258	90.81
414.482	94.81
414.705	87.81
414.928	86.81
415.151	94.81
415.374	90.81
415.597	74.81
415.821	102.81
416.044	78.81
416.267	88.81
416.49	89.81
416.713	95.81
416.936	84.81
417.159	89.81
417.382	91.81
417.605	100.81
417.828	90.81
418.051	94.81
418.274	86.81
418.497	92.81
418.72	92.81
418.943	101.81
419.166	105.81
419.389	73.81
419.611	73.81
419.834	87.81
420.057	88.81
420.28	102.81
420.503	88.81
420.726	98.81
420.948	91.81
421.171	95.81
421.394	105.81
421.617	72.81
421.839	86.81
422.062	100.81
422.285	105.81
422.507	90.81
422.73	98.81
422.953	99.81
423.175	92.81
423.398	86.81
423.621	86.81
423.843	90.81
424.066	86.81
424.288	83.81
424.511	97.81
424.733	106.81
424.956	104.81
425.178	97.81
425.401	97.81
425.623	85.81
425.846	91.81
426.068	86.81
426.291	94.81
426.513	92.81
426.735	98.81
426.958	96.81
427.18	100.81
427.402	146.81
427.625	169.81
427.847	138.81
428.069	130.81
428.292	87.81
428.514	88.81
428.736	96.81
428.958	88.81
429.181	85.81
429.403	92.81
429.625	88.81
429.847	84.81
430.069	95.81
430.292	96.81
430.514	76.81
430.736	86.81
430.958	90.81
431.18	83.81
431.402	94.81
431.624	99.81
431.846	88.81
432.068	75.81
432.29	80.81
432.512	94.81
432.734	86.81
432.956	85.81
433.178	87.81
433.4	97.81
433.622	99.81
433.844	95.81
434.066	84.81
434.287	98.81
434.509	88.81
434.731	86.81
434.953	91.81
435.175	86.81
435.397	86.81
435.618	101.81
435.84	91.81
436.062	121.81
436.284	109.81
436.505	120.81
436.727	93.81
436.949	86.81
437.17	98.81
437.392	78.81
437.614	92.81
437.835	101.81
438.057	101.81
438.278	105.81
438.5	89.81
438.721	114.81
438.943	97.81
439.165	86.81
439.386	79.81
439.608	103.81
439.829	98.81
440.05	111.81
440.272	130.81
440.493	110.81
440.715	94.81
440.936	81.81
441.158	81.81
441.379	90.81
441.6	69.81
441.822	84.81
442.043	98.81
442.264	106.81
442.486	99.81
442.707	93.81
442.928	107.81
443.149	124.81
443.371	118.81
443.592	120.81
443.813	102.81
444.034	101.81
444.255	95.81
444.476	95.81
444.698	81.81
444.919	98.81
445.14	142.81
445.361	120.81
445.582	124.81
445.803	107.81
446.024	123.81
446.245	137.81
446.466	107.81
446.687	89.81
446.908	79.81
447.129	95.81
447.35	98.81
447.571	91.81
447.792	87.81
448.013	97.81
448.234	102.81
448.455	104.81
448.675	94.81
448.896	117.81
449.117	92.81
449.338	95.81
449.559	133.81
449.779	132.81
450	101.81
450.221	88.81
450.442	94.81
450.662	91.81
450.883	113.81
451.104	118.81
451.324	84.81
451.545	89.81
451.766	98.81
451.986	73.81
452.207	84.81
452.428	98.81
452.648	99.81
452.869	109.81
453.089	122.81
453.31	114.81
453.53	107.81
453.751	97.81
453.971	94.81
454.192	108.81
454.412	91.81
454.633	85.81
454.853	83.81
455.073	86.81
455.294	89.81
455.514	96.81
455.734	90.81
455.955	90.81
456.175	89.81
456.395	85.81
456.616	84.81
456.836	100.81
457.056	88.81
457.276	82.81
457.497	87.81
457.717	86.81
457.937	72.81
458.157	68.81
458.377	74.81
458.598	107.81
458.818	155.81
459.038	162.81
459.258	115.81
459.478	94.81
459.698	87.81
459.918	86.81
460.138	92.81
460.358	95.81
460.578	88.81
460.798	92.81
461.018	97.81
461.238	80.81
461.458	80.81
461.678	73.81
461.898	93.81
462.118	83.81
462.338	76.81
462.558	79.81
462.777	91.81
462.997	78.81
463.217	96.81
463.437	84.81
463.657	103.81
463.876	68.81
464.096	89.81
464.316	85.81
464.536	98.81
464.755	102.81
464.975	110.81
465.195	163.81
465.414	158.81
465.634	104.81
465.854	94.81
466.073	96.81
466.293	94.81
466.512	69.81
466.732	85.81
466.951	79.81
467.171	103.81
467.391	94.81
467.61	106.81
467.829	106.81
468.049	106.81
468.268	137.81
468.488	85.81
468.707	99.81
468.927	94.81
469.146	96.81
469.365	98.81
469.585	89.81
469.804	101.81
470.023	92.81
470.243	93.81
470.462	90.81
470.681	95.81
470.901	95.81
471.12	95.81
471.339	92.81
471.558	94.81
471.777	90.81
471.997	96.81
472.216	144.81
472.435	228.81
472.654	108.81
472.873	100.81
473.092	94.81
473.311	88.81
473.53	83.81
473.749	80.81
473.968	90.81
474.187	96.81
474.406	91.81
474.625	84.81
474.844	96.81
475.063	82.81
475.282	91.81
475.501	94.81
475.72	81.81
475.939	66.81
476.158	85.81
476.377	82.81
476.596	86.81
476.814	82.81
477.033	85.81
477.252	90.81
477.471	89.81
477.69	82.81
477.908	96.81
478.127	94.81
478.346	80.81
478.564	96.81
478.783	89.81
479.002	99.81
479.22	93.81
479.439	95.81
479.658	100.81
479.876	94.81
480.095	93.81
480.313	90.81
480.532	101.81
480.751	109.81
480.969	143.81
481.188	349.81
481.406	251.81
481.624	116.81
481.843	89.81
482.061	92.81
482.28	79.81
482.498	97.81
482.717	82.81
482.935	96.81
483.153	91.81
483.372	101.81
483.59	85.81
483.808	99.81
484.027	78.81
484.245	92.81
484.463	93.81
484.681	98.81
484.9	79.81
485.118	97.81
485.336	94.81
485.554	98.81
485.772	87.81
485.99	113.81
486.209	105.81
486.427	117.81
486.645	111.81
486.863	103.81
487.081	93.81
487.299	79.81
487.517	91.81
487.735	88.81
487.953	98.81
488.171	87.81
488.389	92.81
488.607	101.81
488.825	94.81
489.043	89.81
489.261	88.81
489.479	94.81
489.696	100.81
489.914	83.81
490.132	78.81
490.35	97.81
490.568	88.81
490.786	92.81
491.003	102.81
491.221	98.81
491.439	89.81
491.657	100.81
491.874	97.81
492.092	100.81
492.31	85.81
492.527	98.81
492.745	74.81
492.963	88.81
493.18	91.81
493.398	101.81
493.615	85.81
493.833	90.81
494.05	97.81
494.268	89.81
494.485	88.81
494.703	83.81
494.92	89.81
495.138	91.81
495.355	83.81
495.573	104.81
495.79	92.81
496.008	90.81
496.225	89.81
496.442	84.81
496.66	78.81
496.877	79.81
497.094	83.81
497.312	88.81
497.529	84.81
497.746	87.81
497.963	87.81
498.181	95.81
498.398	85.81
498.615	108.81
498.832	96.81
499.049	94.81
499.267	84.81
499.484	92.81
499.701	94.81
499.918	91.81
500.135	100.81
500.352	77.81
500.569	81.81
500.786	86.81
501.003	92.81
501.22	89.81
501.437	86.81
501.654	88.81
501.871	100.81
502.088	90.81
502.305	98.81
502.522	94.81
502.739	79.81
502.956	84.81
503.172	94.81
503.389	86.81
503.606	108.81
503.823	88.81
504.04	84.81
504.256	87.81
504.473	92.81
504.69	84.81
504.907	89.81
505.123	94.81
505.34	87.81
505.557	85.81
505.773	96.81
505.99	102.81
506.207	100.81
506.423	100.81
506.64	90.81
506.856	89.81
507.073	89.81
507.289	94.81
507.506	105.81
507.722	106.81
507.939	105.81
508.155	95.81
508.372	98.81
508.588	103.81
508.805	98.81
509.021	88.81
509.238	88.81
509.454	98.81
509.67	109.81
509.887	113.81
510.103	136.81
510.319	227.81
510.536	767.81
510.752	2454.81
510.968	662.81
511.184	157.81
511.401	112.81
511.617	104.81
511.833	110.81
512.049	103.81
512.265	97.81
512.481	89.81
512.698	100.81
512.914	81.81
513.13	107.81
513.346	99.81
513.562	98.81
513.778	96.81
513.994	103.81
514.21	93.81
514.426	95.81
514.642	129.81
514.858	123.81
515.074	168.81
515.29	425.81
515.506	1474.81
515.721	525.81
