Data from Uncirc_1985_H10_HRD10591_00011.txt Node
Date: Wed Jan 03 12:18:19 EST 2024
User: Yrep
Spectrometer: HR+D1059
Trigger mode: 1
Integration Time (sec): 1.000000E-1
Scans to average: 1
Electric dark correction enabled: true
Nonlinearity correction enabled: false
Boxcar width: 0
XAxis mode: Wavelengths
Number of Pixels in Spectrum: 2048
>>>>>Begin Spectral Data<<<<<
223.165	-27.25
223.4	-27.25
223.635	-27.25
223.869	-11.25
224.104	-25.25
224.338	-27.25
224.573	-8.25
224.808	-8.25
225.042	-3.25
225.277	-9.25
225.511	11.75
225.746	15.75
225.98	3.75
226.215	21.75
226.449	-0.25
226.683	22.75
226.918	18.75
227.152	25.75
227.387	33.75
227.621	42.75
227.856	44.75
228.09	47.75
228.324	33.75
228.559	57.75
228.793	46.75
229.027	56.75
229.262	66.75
229.496	88.75
229.73	73.75
229.964	95.75
230.199	75.75
230.433	64.75
230.667	69.75
230.901	83.75
231.136	86.75
231.37	86.75
231.604	95.75
231.838	82.75
232.072	77.75
232.306	72.75
232.541	81.75
232.775	77.75
233.009	80.75
233.243	79.75
233.477	76.75
233.711	91.75
233.945	83.75
234.179	82.75
234.413	90.75
234.647	80.75
234.881	77.75
235.115	81.75
235.349	86.75
235.583	83.75
235.817	79.75
236.051	77.75
236.285	74.75
236.519	66.75
236.753	71.75
236.987	73.75
237.221	68.75
237.455	76.75
237.689	87.75
237.922	77.75
238.156	76.75
238.39	76.75
238.624	64.75
238.858	78.75
239.091	69.75
239.325	91.75
239.559	83.75
239.793	83.75
240.027	70.75
240.26	71.75
240.494	70.75
240.728	61.75
240.961	77.75
241.195	79.75
241.429	64.75
241.662	75.75
241.896	61.75
242.13	79.75
242.363	79.75
242.597	82.75
242.83	73.75
243.064	79.75
243.298	80.75
243.531	71.75
243.765	66.75
243.998	88.75
244.232	88.75
244.465	81.75
244.699	84.75
244.932	72.75
245.166	80.75
245.399	55.75
245.633	75.75
245.866	82.75
246.099	71.75
246.333	80.75
246.566	68.75
246.8	67.75
247.033	81.75
247.266	72.75
247.5	79.75
247.733	81.75
247.966	75.75
248.2	75.75
248.433	75.75
248.666	82.75
248.899	75.75
249.133	86.75
249.366	80.75
249.599	79.75
249.832	87.75
250.066	76.75
250.299	69.75
250.532	62.75
250.765	72.75
250.998	84.75
251.231	81.75
251.465	68.75
251.698	75.75
251.931	84.75
252.164	70.75
252.397	83.75
252.63	83.75
252.863	68.75
253.096	67.75
253.329	75.75
253.562	69.75
253.795	78.75
254.028	83.75
254.261	79.75
254.494	75.75
254.727	82.75
254.96	70.75
255.193	91.75
255.426	94.75
255.659	75.75
255.892	89.75
256.124	73.75
256.357	72.75
256.59	77.75
256.823	79.75
257.056	82.75
257.289	84.75
257.521	85.75
257.754	81.75
257.987	83.75
258.22	75.75
258.452	76.75
258.685	61.75
258.918	78.75
259.151	75.75
259.383	72.75
259.616	75.75
259.849	83.75
260.081	77.75
260.314	78.75
260.547	65.75
260.779	68.75
261.012	87.75
261.244	81.75
261.477	92.75
261.71	80.75
261.942	95.75
262.175	100.75
262.407	86.75
262.64	79.75
262.872	71.75
263.105	87.75
263.337	81.75
263.57	80.75
263.802	78.75
264.035	66.75
264.267	80.75
264.499	77.75
264.732	74.75
264.964	87.75
265.197	79.75
265.429	76.75
265.661	87.75
265.894	82.75
266.126	62.75
266.358	73.75
266.591	89.75
266.823	95.75
267.055	68.75
267.287	78.75
267.52	91.75
267.752	84.75
267.984	91.75
268.216	85.75
268.448	95.75
268.681	81.75
268.913	93.75
269.145	81.75
269.377	85.75
269.609	77.75
269.841	88.75
270.073	72.75
270.306	83.75
270.538	75.75
270.77	77.75
271.002	81.75
271.234	79.75
271.466	96.75
271.698	67.75
271.93	74.75
272.162	79.75
272.394	79.75
272.626	83.75
272.858	90.75
273.09	99.75
273.322	95.75
273.553	81.75
273.785	94.75
274.017	88.75
274.249	82.75
274.481	78.75
274.713	84.75
274.945	71.75
275.176	84.75
275.408	83.75
275.64	95.75
275.872	91.75
276.104	77.75
276.335	97.75
276.567	88.75
276.799	107.75
277.031	94.75
277.262	83.75
277.494	79.75
277.726	79.75
277.957	74.75
278.189	87.75
278.421	84.75
278.652	81.75
278.884	89.75
279.115	80.75
279.347	77.75
279.579	93.75
279.81	92.75
280.042	81.75
280.273	79.75
280.505	91.75
280.736	88.75
280.968	88.75
281.199	92.75
281.431	84.75
281.662	89.75
281.894	85.75
282.125	94.75
282.356	117.75
282.588	124.75
282.819	107.75
283.051	82.75
283.282	80.75
283.513	87.75
283.745	75.75
283.976	72.75
284.207	81.75
284.439	84.75
284.67	83.75
284.901	81.75
285.132	91.75
285.364	78.75
285.595	77.75
285.826	85.75
286.057	93.75
286.288	80.75
286.52	85.75
286.751	81.75
286.982	96.75
287.213	77.75
287.444	79.75
287.675	79.75
287.906	88.75
288.138	77.75
288.369	83.75
288.6	84.75
288.831	96.75
289.062	75.75
289.293	81.75
289.524	78.75
289.755	70.75
289.986	85.75
290.217	97.75
290.448	88.75
290.679	84.75
290.91	95.75
291.141	91.75
291.371	89.75
291.602	87.75
291.833	89.75
292.064	84.75
292.295	85.75
292.526	96.75
292.757	83.75
292.987	79.75
293.218	79.75
293.449	93.75
293.68	82.75
293.91	84.75
294.141	94.75
294.372	85.75
294.603	78.75
294.833	87.75
295.064	85.75
295.295	70.75
295.525	87.75
295.756	98.75
295.987	112.75
296.217	121.75
296.448	115.75
296.679	98.75
296.909	95.75
297.14	81.75
297.37	91.75
297.601	68.75
297.831	85.75
298.062	84.75
298.292	87.75
298.523	93.75
298.753	104.75
298.984	85.75
299.214	82.75
299.445	99.75
299.675	86.75
299.905	90.75
300.136	99.75
300.366	84.75
300.597	86.75
300.827	89.75
301.057	87.75
301.288	85.75
301.518	80.75
301.748	81.75
301.979	87.75
302.209	102.75
302.439	96.75
302.669	86.75
302.9	87.75
303.13	91.75
303.36	97.75
303.59	103.75
303.82	85.75
304.051	77.75
304.281	73.75
304.511	88.75
304.741	85.75
304.971	88.75
305.201	93.75
305.431	89.75
305.661	70.75
305.891	79.75
306.121	89.75
306.352	98.75
306.582	100.75
306.812	95.75
307.042	96.75
307.272	105.75
307.502	84.75
307.731	88.75
307.961	89.75
308.191	87.75
308.421	80.75
308.651	81.75
308.881	70.75
309.111	87.75
309.341	98.75
309.571	91.75
309.8	92.75
310.03	99.75
310.26	96.75
310.49	92.75
310.72	81.75
310.949	83.75
311.179	81.75
311.409	90.75
311.639	93.75
311.868	83.75
312.098	91.75
312.328	98.75
312.557	102.75
312.787	91.75
313.017	103.75
313.246	93.75
313.476	87.75
313.706	90.75
313.935	93.75
314.165	83.75
314.394	93.75
314.624	84.75
314.853	96.75
315.083	94.75
315.312	86.75
315.542	84.75
315.771	99.75
316.001	71.75
316.23	87.75
316.46	94.75
316.689	71.75
316.919	82.75
317.148	96.75
317.377	83.75
317.607	97.75
317.836	94.75
318.065	96.75
318.295	87.75
318.524	85.75
318.753	94.75
318.983	84.75
319.212	95.75
319.441	81.75
319.67	98.75
319.9	83.75
320.129	94.75
320.358	84.75
320.587	96.75
320.816	95.75
321.046	100.75
321.275	93.75
321.504	103.75
321.733	95.75
321.962	103.75
322.191	85.75
322.42	81.75
322.649	100.75
322.878	101.75
323.108	112.75
323.337	120.75
323.566	121.75
323.795	131.75
324.024	181.75
324.253	343.75
324.482	741.75
324.71	1489.75
324.939	1999.75
325.168	735.75
325.397	216.75
325.626	141.75
325.855	113.75
326.084	116.75
326.313	128.75
326.542	157.75
326.77	219.75
326.999	399.75
327.228	815.75
327.457	1564.75
327.686	1207.75
327.914	326.75
328.143	170.75
328.372	139.75
328.6	104.75
328.829	108.75
329.058	119.75
329.287	115.75
329.515	105.75
329.744	91.75
329.972	89.75
330.201	99.75
330.43	109.75
330.658	110.75
330.887	105.75
331.115	108.75
331.344	86.75
331.572	102.75
331.801	99.75
332.03	103.75
332.258	97.75
332.486	77.75
332.715	87.75
332.943	94.75
333.172	92.75
333.4	89.75
333.629	91.75
333.857	106.75
334.085	103.75
334.314	103.75
334.542	105.75
334.771	109.75
334.999	92.75
335.227	86.75
335.455	93.75
335.684	99.75
335.912	88.75
336.14	89.75
336.369	78.75
336.597	93.75
336.825	99.75
337.053	95.75
337.281	89.75
337.51	87.75
337.738	75.75
337.966	99.75
338.194	98.75
338.422	91.75
338.65	86.75
338.878	96.75
339.106	92.75
339.334	96.75
339.562	99.75
339.79	96.75
340.018	82.75
340.246	84.75
340.474	88.75
340.702	88.75
340.93	91.75
341.158	95.75
341.386	105.75
341.614	81.75
341.842	82.75
342.07	87.75
342.298	102.75
342.526	89.75
342.754	93.75
342.981	77.75
343.209	98.75
343.437	94.75
343.665	92.75
343.893	98.75
344.12	95.75
344.348	84.75
344.576	79.75
344.804	79.75
345.031	97.75
345.259	79.75
345.487	85.75
345.714	91.75
345.942	90.75
346.17	88.75
346.397	103.75
346.625	76.75
346.853	89.75
347.08	83.75
347.308	88.75
347.535	92.75
347.763	100.75
347.99	91.75
348.218	110.75
348.445	95.75
348.673	94.75
348.9	97.75
349.128	97.75
349.355	91.75
349.583	97.75
349.81	83.75
350.037	103.75
350.265	89.75
350.492	96.75
350.72	84.75
350.947	109.75
351.174	100.75
351.402	107.75
351.629	111.75
351.856	101.75
352.083	104.75
352.311	110.75
352.538	103.75
352.765	95.75
352.992	101.75
353.22	109.75
353.447	101.75
353.674	87.75
353.901	82.75
354.128	85.75
354.355	90.75
354.583	101.75
354.81	104.75
355.037	97.75
355.264	83.75
355.491	91.75
355.718	94.75
355.945	91.75
356.172	91.75
356.399	91.75
356.626	92.75
356.853	96.75
357.08	80.75
357.307	100.75
357.534	92.75
357.761	97.75
357.988	96.75
358.215	96.75
358.441	96.75
358.668	86.75
358.895	89.75
359.122	96.75
359.349	99.75
359.576	88.75
359.802	91.75
360.029	110.75
360.256	102.75
360.483	85.75
360.709	79.75
360.936	67.75
361.163	88.75
361.39	96.75
361.616	111.75
361.843	89.75
362.07	91.75
362.296	84.75
362.523	64.75
362.749	94.75
362.976	94.75
363.203	92.75
363.429	86.75
363.656	89.75
363.882	87.75
364.109	89.75
364.335	79.75
364.562	97.75
364.788	83.75
365.015	68.75
365.241	97.75
365.468	89.75
365.694	101.75
365.92	85.75
366.147	77.75
366.373	66.75
366.599	83.75
366.826	101.75
367.052	82.75
367.278	95.75
367.505	87.75
367.731	84.75
367.957	84.75
368.184	87.75
368.41	81.75
368.636	113.75
368.862	107.75
369.089	96.75
369.315	96.75
369.541	72.75
369.767	81.75
369.993	99.75
370.219	91.75
370.445	77.75
370.672	80.75
370.898	84.75
371.124	99.75
371.35	86.75
371.576	89.75
371.802	85.75
372.028	88.75
372.254	92.75
372.48	79.75
372.706	77.75
372.932	66.75
373.158	76.75
373.384	89.75
373.61	75.75
373.835	90.75
374.061	86.75
374.287	92.75
374.513	81.75
374.739	81.75
374.965	76.75
375.191	82.75
375.416	69.75
375.642	81.75
375.868	92.75
376.094	84.75
376.319	85.75
376.545	89.75
376.771	72.75
376.997	81.75
377.222	87.75
377.448	92.75
377.674	81.75
377.899	82.75
378.125	72.75
378.35	95.75
378.576	97.75
378.802	81.75
379.027	83.75
379.253	92.75
379.478	93.75
379.704	92.75
379.929	88.75
380.155	77.75
380.38	95.75
380.606	72.75
380.831	88.75
381.057	100.75
381.282	90.75
381.507	88.75
381.733	84.75
381.958	94.75
382.184	100.75
382.409	106.75
382.634	96.75
382.86	77.75
383.085	104.75
383.31	85.75
383.535	104.75
383.761	89.75
383.986	92.75
384.211	85.75
384.436	87.75
384.662	86.75
384.887	75.75
385.112	88.75
385.337	103.75
385.562	83.75
385.787	106.75
386.013	94.75
386.238	99.75
386.463	109.75
386.688	107.75
386.913	93.75
387.138	91.75
387.363	86.75
387.588	95.75
387.813	96.75
388.038	95.75
388.263	99.75
388.488	97.75
388.713	95.75
388.938	80.75
389.163	91.75
389.387	83.75
389.612	82.75
389.837	88.75
390.062	76.75
390.287	93.75
390.512	88.75
390.736	80.75
390.961	83.75
391.186	86.75
391.411	87.75
391.636	97.75
391.86	78.75
392.085	88.75
392.31	84.75
392.534	78.75
392.759	84.75
392.984	101.75
393.208	84.75
393.433	87.75
393.658	79.75
393.882	74.75
394.107	83.75
394.331	79.75
394.556	62.75
394.78	78.75
395.005	90.75
395.229	92.75
395.454	70.75
395.678	70.75
395.903	94.75
396.127	79.75
396.352	73.75
396.576	95.75
396.801	85.75
397.025	85.75
397.249	88.75
397.474	93.75
397.698	86.75
397.922	78.75
398.147	85.75
398.371	78.75
398.595	71.75
398.82	89.75
399.044	91.75
399.268	85.75
399.492	78.75
399.717	81.75
399.941	81.75
400.165	94.75
400.389	96.75
400.613	67.75
400.837	87.75
401.062	85.75
401.286	86.75
401.51	75.75
401.734	77.75
401.958	92.75
402.182	132.75
402.406	132.75
402.63	105.75
402.854	95.75
403.078	84.75
403.302	92.75
403.526	92.75
403.75	88.75
403.974	77.75
404.198	77.75
404.422	84.75
404.645	88.75
404.869	81.75
405.093	94.75
405.317	72.75
405.541	88.75
405.765	110.75
405.988	91.75
406.212	169.75
406.436	209.75
406.66	133.75
406.883	99.75
407.107	72.75
407.331	81.75
407.555	89.75
407.778	92.75
408.002	83.75
408.226	93.75
408.449	83.75
408.673	76.75
408.896	88.75
409.12	92.75
409.344	89.75
409.567	91.75
409.791	69.75
410.014	87.75
410.238	79.75
410.461	99.75
410.685	99.75
410.908	104.75
411.132	97.75
411.355	108.75
411.578	96.75
411.802	77.75
412.025	80.75
412.249	80.75
412.472	77.75
412.695	81.75
412.919	92.75
413.142	99.75
413.365	107.75
413.589	86.75
413.812	77.75
414.035	85.75
414.258	86.75
414.482	81.75
414.705	91.75
414.928	88.75
415.151	88.75
415.374	88.75
415.597	87.75
415.821	95.75
416.044	73.75
416.267	86.75
416.49	91.75
416.713	87.75
416.936	84.75
417.159	88.75
417.382	77.75
417.605	96.75
417.828	96.75
418.051	72.75
418.274	79.75
418.497	70.75
418.72	86.75
418.943	92.75
419.166	90.75
419.389	79.75
419.611	83.75
419.834	82.75
420.057	81.75
420.28	94.75
420.503	92.75
420.726	90.75
420.948	82.75
421.171	97.75
421.394	94.75
421.617	87.75
421.839	84.75
422.062	91.75
422.285	83.75
422.507	113.75
422.73	89.75
422.953	95.75
423.175	90.75
423.398	88.75
423.621	76.75
423.843	80.75
424.066	82.75
424.288	84.75
424.511	86.75
424.733	102.75
424.956	90.75
425.178	95.75
425.401	99.75
425.623	91.75
425.846	100.75
426.068	83.75
426.291	81.75
426.513	87.75
426.735	100.75
426.958	98.75
427.18	88.75
427.402	109.75
427.625	126.75
427.847	99.75
428.069	89.75
428.292	80.75
428.514	85.75
428.736	84.75
428.958	73.75
429.181	90.75
429.403	84.75
429.625	85.75
429.847	85.75
430.069	93.75
430.292	85.75
430.514	81.75
430.736	94.75
430.958	80.75
431.18	87.75
431.402	81.75
431.624	77.75
431.846	93.75
432.068	96.75
432.29	91.75
432.512	96.75
432.734	89.75
432.956	87.75
433.178	83.75
433.4	76.75
433.622	78.75
433.844	70.75
434.066	96.75
434.287	87.75
434.509	86.75
434.731	93.75
434.953	88.75
435.175	95.75
435.397	96.75
435.618	94.75
435.84	90.75
436.062	113.75
436.284	100.75
436.505	99.75
436.727	85.75
436.949	83.75
437.17	67.75
437.392	84.75
437.614	91.75
437.835	102.75
438.057	101.75
438.278	110.75
438.5	99.75
438.721	121.75
438.943	106.75
439.165	78.75
439.386	77.75
439.608	88.75
439.829	96.75
440.05	111.75
440.272	116.75
440.493	89.75
440.715	93.75
440.936	77.75
441.158	77.75
441.379	72.75
441.6	87.75
441.822	108.75
442.043	96.75
442.264	97.75
442.486	100.75
442.707	93.75
442.928	102.75
443.149	136.75
443.371	127.75
443.592	108.75
443.813	93.75
444.034	106.75
444.255	91.75
444.476	78.75
444.698	88.75
444.919	73.75
445.14	130.75
445.361	111.75
445.582	114.75
445.803	118.75
446.024	126.75
446.245	123.75
446.466	106.75
446.687	81.75
446.908	96.75
447.129	77.75
447.35	93.75
447.571	95.75
447.792	77.75
448.013	87.75
448.234	104.75
448.455	84.75
448.675	113.75
448.896	108.75
449.117	81.75
449.338	86.75
449.559	120.75
449.779	123.75
450	91.75
450.221	80.75
450.442	82.75
450.662	92.75
450.883	80.75
451.104	91.75
451.324	88.75
451.545	84.75
451.766	79.75
451.986	83.75
452.207	93.75
452.428	87.75
452.648	95.75
452.869	101.75
453.089	86.75
453.31	109.75
453.53	87.75
453.751	87.75
453.971	92.75
454.192	96.75
454.412	83.75
454.633	89.75
454.853	78.75
455.073	78.75
455.294	93.75
455.514	102.75
455.734	95.75
455.955	101.75
456.175	91.75
456.395	79.75
456.616	86.75
456.836	88.75
457.056	79.75
457.276	80.75
457.497	87.75
457.717	101.75
457.937	87.75
458.157	101.75
458.377	83.75
458.598	88.75
458.818	145.75
459.038	149.75
459.258	101.75
459.478	90.75
459.698	79.75
459.918	78.75
460.138	90.75
460.358	82.75
460.578	79.75
460.798	89.75
461.018	82.75
461.238	91.75
461.458	90.75
461.678	88.75
461.898	83.75
462.118	94.75
462.338	78.75
462.558	77.75
462.777	76.75
462.997	81.75
463.217	77.75
463.437	91.75
463.657	91.75
463.876	83.75
464.096	96.75
464.316	81.75
464.536	79.75
464.755	84.75
464.975	97.75
465.195	136.75
465.414	135.75
465.634	97.75
465.854	71.75
466.073	87.75
466.293	64.75
466.512	86.75
466.732	69.75
466.951	83.75
467.171	88.75
467.391	83.75
467.61	77.75
467.829	79.75
468.049	91.75
468.268	82.75
468.488	87.75
468.707	78.75
468.927	77.75
469.146	71.75
469.365	88.75
469.585	94.75
469.804	93.75
470.023	89.75
470.243	90.75
470.462	63.75
470.681	99.75
470.901	85.75
471.12	88.75
471.339	88.75
471.558	88.75
471.777	85.75
471.997	93.75
472.216	89.75
472.435	79.75
472.654	87.75
472.873	87.75
473.092	77.75
473.311	86.75
473.53	88.75
473.749	84.75
473.968	96.75
474.187	92.75
474.406	85.75
474.625	82.75
474.844	78.75
475.063	77.75
475.282	84.75
475.501	77.75
475.72	83.75
475.939	79.75
476.158	88.75
476.377	79.75
476.596	77.75
476.814	88.75
477.033	84.75
477.252	87.75
477.471	84.75
477.69	91.75
477.908	91.75
478.127	81.75
478.346	89.75
478.564	77.75
478.783	88.75
479.002	77.75
479.22	90.75
479.439	103.75
479.658	86.75
479.876	89.75
480.095	84.75
480.313	86.75
480.532	91.75
480.751	71.75
480.969	80.75
481.188	105.75
481.406	97.75
481.624	85.75
481.843	88.75
482.061	81.75
482.28	85.75
482.498	91.75
482.717	88.75
482.935	88.75
483.153	73.75
483.372	85.75
483.59	99.75
483.808	79.75
484.027	79.75
484.245	94.75
484.463	84.75
484.681	87.75
484.9	87.75
485.118	80.75
485.336	91.75
485.554	84.75
485.772	84.75
485.99	92.75
486.209	97.75
486.427	105.75
486.645	104.75
486.863	105.75
487.081	91.75
487.299	110.75
487.517	83.75
487.735	90.75
487.953	83.75
488.171	75.75
488.389	87.75
488.607	101.75
488.825	94.75
489.043	99.75
489.261	72.75
489.479	82.75
489.696	85.75
489.914	89.75
490.132	91.75
490.35	94.75
490.568	72.75
490.786	84.75
491.003	91.75
491.221	87.75
491.439	91.75
491.657	82.75
491.874	82.75
492.092	72.75
492.31	79.75
492.527	96.75
492.745	85.75
492.963	79.75
493.18	87.75
493.398	89.75
493.615	88.75
493.833	85.75
494.05	92.75
494.268	84.75
494.485	93.75
494.703	89.75
494.92	98.75
495.138	89.75
495.355	75.75
495.573	91.75
495.79	96.75
496.008	89.75
496.225	91.75
496.442	96.75
496.66	86.75
496.877	89.75
497.094	87.75
497.312	80.75
497.529	92.75
497.746	83.75
497.963	81.75
498.181	83.75
498.398	80.75
498.615	99.75
498.832	92.75
499.049	95.75
499.267	95.75
499.484	84.75
499.701	96.75
499.918	82.75
500.135	83.75
500.352	80.75
500.569	89.75
500.786	74.75
501.003	78.75
501.22	75.75
501.437	83.75
501.654	94.75
501.871	114.75
502.088	89.75
502.305	85.75
502.522	97.75
502.739	94.75
502.956	83.75
503.172	87.75
503.389	86.75
503.606	89.75
503.823	95.75
504.04	85.75
504.256	84.75
504.473	85.75
504.69	79.75
504.907	91.75
505.123	92.75
505.34	76.75
505.557	86.75
505.773	89.75
505.99	85.75
506.207	70.75
506.423	85.75
506.64	79.75
506.856	89.75
507.073	93.75
507.289	85.75
507.506	80.75
507.722	105.75
507.939	102.75
508.155	88.75
508.372	93.75
508.588	97.75
508.805	94.75
509.021	89.75
509.238	93.75
509.454	79.75
509.67	104.75
509.887	85.75
510.103	112.75
510.319	194.75
510.536	709.75
510.752	2036.75
510.968	589.75
511.184	145.75
511.401	97.75
511.617	93.75
511.833	85.75
512.049	79.75
512.265	94.75
512.481	83.75
512.698	77.75
512.914	84.75
513.13	82.75
513.346	95.75
513.562	98.75
513.778	82.75
513.994	103.75
514.21	94.75
514.426	103.75
514.642	113.75
514.858	117.75
515.074	150.75
515.29	376.75
515.506	1191.75
515.721	462.75
515.937	149.75
516.153	96.75
516.369	87.75
516.585	91.75
516.801	85.75
517.016	79.75
517.232	77.75
517.448	92.75
