Data from Uncirc_1985_H10_HRD10591_00071.txt Node
Date: Wed Jan 03 12:18:31 EST 2024
User: Yrep
Spectrometer: HR+D1059
Trigger mode: 1
Integration Time (sec): 1.000000E-1
Scans to average: 1
Electric dark correction enabled: true
Nonlinearity correction enabled: false
Boxcar width: 0
XAxis mode: Wavelengths
Number of Pixels in Spectrum: 2048
>>>>>Begin Spectral Data<<<<<
223.165	-8.19
223.4	-8.19
223.635	-8.19
223.869	-17.19
224.104	-32.19
224.338	-9.19
224.573	-25.19
224.808	-3.19
225.042	-5.19
225.277	-7.19
225.511	-1.19
225.746	-1.19
225.98	7.81
226.215	12.81
226.449	19.81
226.683	30.81
226.918	15.81
227.152	22.81
227.387	19.81
227.621	30.81
227.856	50.81
228.09	55.81
228.324	59.81
228.559	57.81
228.793	64.81
229.027	43.81
229.262	57.81
229.496	62.81
229.73	72.81
229.964	80.81
230.199	69.81
230.433	86.81
230.667	76.81
230.901	68.81
231.136	77.81
231.37	61.81
231.604	70.81
231.838	72.81
232.072	76.81
232.306	81.81
232.541	70.81
232.775	86.81
233.009	85.81
233.243	85.81
233.477	83.81
233.711	84.81
233.945	73.81
234.179	81.81
234.413	73.81
234.647	89.81
234.881	82.81
235.115	88.81
235.349	62.81
235.583	71.81
235.817	86.81
236.051	69.81
236.285	68.81
236.519	80.81
236.753	81.81
236.987	75.81
237.221	84.81
237.455	90.81
237.689	76.81
237.922	73.81
238.156	74.81
238.39	66.81
238.624	72.81
238.858	73.81
239.091	68.81
239.325	68.81
239.559	76.81
239.793	82.81
240.027	80.81
240.26	74.81
240.494	89.81
240.728	82.81
240.961	75.81
241.195	81.81
241.429	74.81
241.662	73.81
241.896	78.81
242.13	82.81
242.363	81.81
242.597	75.81
242.83	72.81
243.064	80.81
243.298	80.81
243.531	64.81
243.765	70.81
243.998	75.81
244.232	75.81
244.465	88.81
244.699	66.81
244.932	87.81
245.166	70.81
245.399	84.81
245.633	75.81
245.866	71.81
246.099	89.81
246.333	72.81
246.566	64.81
246.8	73.81
247.033	88.81
247.266	84.81
247.5	74.81
247.733	85.81
247.966	75.81
248.2	78.81
248.433	64.81
248.666	66.81
248.899	86.81
249.133	100.81
249.366	83.81
249.599	91.81
249.832	80.81
250.066	90.81
250.299	81.81
250.532	68.81
250.765	73.81
250.998	82.81
251.231	73.81
251.465	78.81
251.698	86.81
251.931	87.81
252.164	74.81
252.397	70.81
252.63	75.81
252.863	81.81
253.096	74.81
253.329	75.81
253.562	71.81
253.795	89.81
254.028	71.81
254.261	66.81
254.494	76.81
254.727	83.81
254.96	90.81
255.193	76.81
255.426	86.81
255.659	88.81
255.892	83.81
256.124	81.81
256.357	86.81
256.59	75.81
256.823	82.81
257.056	80.81
257.289	81.81
257.521	89.81
257.754	62.81
257.987	56.81
258.22	74.81
258.452	84.81
258.685	88.81
258.918	86.81
259.151	81.81
259.383	81.81
259.616	79.81
259.849	79.81
260.081	71.81
260.314	74.81
260.547	82.81
260.779	82.81
261.012	91.81
261.244	93.81
261.477	94.81
261.71	98.81
261.942	98.81
262.175	92.81
262.407	90.81
262.64	70.81
262.872	96.81
263.105	92.81
263.337	72.81
263.57	70.81
263.802	79.81
264.035	73.81
264.267	75.81
264.499	88.81
264.732	90.81
264.964	87.81
265.197	76.81
265.429	88.81
265.661	79.81
265.894	98.81
266.126	89.81
266.358	90.81
266.591	86.81
266.823	87.81
267.055	83.81
267.287	83.81
267.52	71.81
267.752	85.81
267.984	90.81
268.216	71.81
268.448	74.81
268.681	73.81
268.913	81.81
269.145	84.81
269.377	89.81
269.609	75.81
269.841	78.81
270.073	82.81
270.306	84.81
270.538	84.81
270.77	88.81
271.002	85.81
271.234	93.81
271.466	83.81
271.698	81.81
271.93	89.81
272.162	71.81
272.394	83.81
272.626	88.81
272.858	87.81
273.09	82.81
273.322	93.81
273.553	80.81
273.785	80.81
274.017	75.81
274.249	76.81
274.481	79.81
274.713	60.81
274.945	77.81
275.176	96.81
275.408	82.81
275.64	81.81
275.872	87.81
276.104	75.81
276.335	79.81
276.567	96.81
276.799	109.81
277.031	96.81
277.262	98.81
277.494	87.81
277.726	74.81
277.957	107.81
278.189	86.81
278.421	93.81
278.652	97.81
278.884	83.81
279.115	89.81
279.347	89.81
279.579	91.81
279.81	82.81
280.042	92.81
280.273	84.81
280.505	80.81
280.736	85.81
280.968	89.81
281.199	87.81
281.431	95.81
281.662	81.81
281.894	90.81
282.125	97.81
282.356	118.81
282.588	137.81
282.819	106.81
283.051	95.81
283.282	72.81
283.513	86.81
283.745	92.81
283.976	94.81
284.207	81.81
284.439	86.81
284.67	70.81
284.901	73.81
285.132	90.81
285.364	88.81
285.595	92.81
285.826	96.81
286.057	106.81
286.288	73.81
286.52	83.81
286.751	71.81
286.982	93.81
287.213	78.81
287.444	71.81
287.675	78.81
287.906	98.81
288.138	82.81
288.369	88.81
288.6	94.81
288.831	83.81
289.062	83.81
289.293	75.81
289.524	86.81
289.755	82.81
289.986	79.81
290.217	78.81
290.448	68.81
290.679	91.81
290.91	88.81
291.141	104.81
291.371	91.81
291.602	98.81
291.833	77.81
292.064	82.81
292.295	95.81
292.526	83.81
292.757	92.81
292.987	86.81
293.218	83.81
293.449	77.81
293.68	86.81
293.91	88.81
294.141	89.81
294.372	82.81
294.603	92.81
294.833	95.81
295.064	84.81
295.295	92.81
295.525	89.81
295.756	109.81
295.987	105.81
296.217	143.81
296.448	112.81
296.679	67.81
296.909	86.81
297.14	92.81
297.37	93.81
297.601	100.81
297.831	90.81
298.062	86.81
298.292	89.81
298.523	76.81
298.753	89.81
298.984	78.81
299.214	92.81
299.445	87.81
299.675	100.81
299.905	84.81
300.136	78.81
300.366	89.81
300.597	90.81
300.827	85.81
301.057	92.81
301.288	104.81
301.518	86.81
301.748	86.81
301.979	96.81
302.209	81.81
302.439	80.81
302.669	106.81
302.9	64.81
303.13	91.81
303.36	103.81
303.59	96.81
303.82	115.81
304.051	85.81
304.281	86.81
304.511	81.81
304.741	87.81
304.971	75.81
305.201	79.81
305.431	83.81
305.661	83.81
305.891	87.81
306.121	92.81
306.352	106.81
306.582	94.81
306.812	99.81
307.042	88.81
307.272	97.81
307.502	104.81
307.731	86.81
307.961	91.81
308.191	83.81
308.421	91.81
308.651	96.81
308.881	90.81
309.111	74.81
309.341	88.81
309.571	106.81
309.8	91.81
310.03	89.81
310.26	97.81
310.49	92.81
310.72	106.81
310.949	107.81
311.179	101.81
311.409	91.81
311.639	104.81
311.868	89.81
312.098	100.81
312.328	81.81
312.557	96.81
312.787	94.81
313.017	96.81
313.246	91.81
313.476	91.81
313.706	97.81
313.935	79.81
314.165	88.81
314.394	98.81
314.624	88.81
314.853	86.81
315.083	87.81
315.312	84.81
315.542	82.81
315.771	99.81
316.001	97.81
316.23	77.81
316.46	90.81
316.689	87.81
316.919	97.81
317.148	92.81
317.377	94.81
317.607	97.81
317.836	88.81
318.065	69.81
318.295	81.81
318.524	95.81
318.753	100.81
318.983	86.81
319.212	102.81
319.441	101.81
319.67	114.81
319.9	97.81
320.129	91.81
320.358	100.81
320.587	72.81
320.816	91.81
321.046	113.81
321.275	102.81
321.504	91.81
321.733	87.81
321.962	98.81
322.191	101.81
322.42	111.81
322.649	108.81
322.878	104.81
323.108	115.81
323.337	123.81
323.566	139.81
323.795	149.81
324.024	218.81
324.253	399.81
324.482	812.81
324.71	1718.81
324.939	2275.81
325.168	810.81
325.397	229.81
325.626	140.81
325.855	106.81
326.084	132.81
326.313	127.81
326.542	135.81
326.77	239.81
326.999	462.81
327.228	937.81
327.457	1770.81
327.686	1377.81
327.914	370.81
328.143	192.81
328.372	149.81
328.6	133.81
328.829	119.81
329.058	128.81
329.287	118.81
329.515	102.81
329.744	99.81
329.972	108.81
330.201	133.81
330.43	162.81
330.658	120.81
330.887	140.81
331.115	120.81
331.344	98.81
331.572	103.81
331.801	110.81
332.03	119.81
332.258	106.81
332.486	80.81
332.715	92.81
332.943	83.81
333.172	103.81
333.4	101.81
333.629	86.81
333.857	114.81
334.085	120.81
334.314	141.81
334.542	158.81
334.771	166.81
334.999	109.81
335.227	90.81
335.455	98.81
335.684	98.81
335.912	110.81
336.14	95.81
336.369	86.81
336.597	105.81
336.825	94.81
337.053	86.81
337.281	87.81
337.51	80.81
337.738	102.81
337.966	99.81
338.194	96.81
338.422	95.81
338.65	94.81
338.878	102.81
339.106	73.81
339.334	86.81
339.562	82.81
339.79	111.81
340.018	86.81
340.246	88.81
340.474	103.81
340.702	107.81
340.93	102.81
341.158	88.81
341.386	94.81
341.614	92.81
341.842	88.81
342.07	89.81
342.298	96.81
342.526	87.81
342.754	83.81
342.981	89.81
343.209	88.81
343.437	91.81
343.665	86.81
343.893	75.81
344.12	95.81
344.348	96.81
344.576	106.81
344.804	95.81
345.031	107.81
345.259	99.81
345.487	90.81
345.714	104.81
345.942	78.81
346.17	92.81
346.397	86.81
346.625	83.81
346.853	103.81
347.08	93.81
347.308	88.81
347.535	84.81
347.763	110.81
347.99	96.81
348.218	96.81
348.445	106.81
348.673	96.81
348.9	103.81
349.128	96.81
349.355	83.81
349.583	75.81
349.81	94.81
350.037	96.81
350.265	82.81
350.492	95.81
350.72	90.81
350.947	90.81
351.174	95.81
351.402	106.81
351.629	92.81
351.856	98.81
352.083	89.81
352.311	113.81
352.538	106.81
352.765	114.81
352.992	88.81
353.22	115.81
353.447	94.81
353.674	94.81
353.901	90.81
354.128	88.81
354.355	100.81
354.583	99.81
354.81	95.81
355.037	87.81
355.264	98.81
355.491	87.81
355.718	86.81
355.945	102.81
356.172	98.81
356.399	104.81
356.626	85.81
356.853	85.81
357.08	92.81
357.307	92.81
357.534	86.81
357.761	97.81
357.988	88.81
358.215	86.81
358.441	107.81
358.668	93.81
358.895	89.81
359.122	89.81
359.349	91.81
359.576	105.81
359.802	88.81
360.029	99.81
360.256	99.81
360.483	101.81
360.709	82.81
360.936	94.81
361.163	87.81
361.39	87.81
361.616	104.81
361.843	95.81
362.07	94.81
362.296	84.81
362.523	88.81
362.749	76.81
362.976	84.81
363.203	94.81
363.429	90.81
363.656	88.81
363.882	98.81
364.109	92.81
364.335	96.81
364.562	89.81
364.788	78.81
365.015	90.81
365.241	93.81
365.468	96.81
365.694	107.81
365.92	92.81
366.147	86.81
366.373	87.81
366.599	83.81
366.826	95.81
367.052	95.81
367.278	100.81
367.505	85.81
367.731	82.81
367.957	94.81
368.184	94.81
368.41	87.81
368.636	119.81
368.862	112.81
369.089	109.81
369.315	86.81
369.541	83.81
369.767	103.81
369.993	100.81
370.219	91.81
370.445	82.81
370.672	95.81
370.898	96.81
371.124	92.81
371.35	95.81
371.576	82.81
371.802	84.81
372.028	99.81
372.254	81.81
372.48	72.81
372.706	101.81
372.932	86.81
373.158	80.81
373.384	87.81
373.61	92.81
373.835	93.81
374.061	90.81
374.287	87.81
374.513	102.81
374.739	88.81
374.965	92.81
375.191	99.81
375.416	92.81
375.642	90.81
375.868	96.81
376.094	92.81
376.319	96.81
376.545	86.81
376.771	82.81
376.997	93.81
377.222	95.81
377.448	84.81
377.674	79.81
377.899	86.81
378.125	79.81
378.35	82.81
378.576	95.81
378.802	102.81
379.027	91.81
379.253	98.81
379.478	93.81
379.704	93.81
379.929	94.81
380.155	85.81
380.38	84.81
380.606	95.81
380.831	103.81
381.057	103.81
381.282	98.81
381.507	90.81
381.733	94.81
381.958	94.81
382.184	105.81
382.409	101.81
382.634	104.81
382.86	108.81
383.085	101.81
383.31	105.81
383.535	92.81
383.761	85.81
383.986	74.81
384.211	98.81
384.436	100.81
384.662	106.81
384.887	101.81
385.112	95.81
385.337	105.81
385.562	99.81
385.787	98.81
386.013	98.81
386.238	101.81
386.463	107.81
386.688	109.81
386.913	87.81
387.138	105.81
387.363	86.81
387.588	102.81
387.813	103.81
388.038	92.81
388.263	98.81
388.488	102.81
388.713	85.81
388.938	103.81
389.163	90.81
389.387	100.81
389.612	94.81
389.837	94.81
390.062	103.81
390.287	98.81
390.512	83.81
390.736	80.81
390.961	93.81
391.186	95.81
391.411	94.81
391.636	91.81
391.86	92.81
392.085	83.81
392.31	82.81
392.534	87.81
392.759	87.81
392.984	90.81
393.208	81.81
393.433	85.81
393.658	107.81
393.882	89.81
394.107	73.81
394.331	81.81
394.556	94.81
394.78	96.81
395.005	79.81
395.229	91.81
395.454	88.81
395.678	94.81
395.903	94.81
396.127	103.81
396.352	90.81
396.576	83.81
396.801	97.81
397.025	86.81
397.249	79.81
397.474	79.81
397.698	88.81
397.922	90.81
398.147	75.81
398.371	83.81
398.595	93.81
398.82	83.81
399.044	87.81
399.268	82.81
399.492	88.81
399.717	80.81
399.941	81.81
400.165	103.81
400.389	97.81
400.613	94.81
400.837	67.81
401.062	100.81
401.286	99.81
401.51	88.81
401.734	98.81
401.958	92.81
402.182	123.81
402.406	150.81
402.63	113.81
402.854	78.81
403.078	85.81
403.302	90.81
403.526	82.81
403.75	95.81
403.974	88.81
404.198	87.81
404.422	102.81
404.645	81.81
404.869	88.81
405.093	95.81
405.317	82.81
405.541	103.81
405.765	97.81
405.988	107.81
406.212	169.81
406.436	231.81
406.66	138.81
406.883	117.81
407.107	90.81
407.331	94.81
407.555	106.81
407.778	99.81
408.002	84.81
408.226	98.81
408.449	81.81
408.673	97.81
408.896	92.81
409.12	96.81
409.344	91.81
409.567	88.81
409.791	88.81
410.014	109.81
410.238	85.81
410.461	85.81
410.685	92.81
410.908	101.81
411.132	108.81
411.355	98.81
411.578	85.81
411.802	79.81
412.025	94.81
412.249	95.81
412.472	101.81
412.695	92.81
412.919	75.81
413.142	82.81
413.365	90.81
413.589	91.81
413.812	91.81
414.035	98.81
414.258	83.81
414.482	77.81
414.705	99.81
414.928	92.81
415.151	93.81
415.374	95.81
415.597	87.81
415.821	95.81
416.044	89.81
416.267	82.81
416.49	87.81
416.713	89.81
416.936	83.81
417.159	86.81
417.382	78.81
417.605	85.81
417.828	95.81
418.051	87.81
418.274	97.81
418.497	97.81
418.72	91.81
418.943	81.81
419.166	95.81
419.389	85.81
419.611	91.81
419.834	79.81
420.057	95.81
420.28	86.81
420.503	89.81
420.726	80.81
420.948	94.81
421.171	85.81
421.394	91.81
421.617	81.81
421.839	96.81
422.062	97.81
422.285	92.81
422.507	105.81
422.73	102.81
422.953	97.81
423.175	114.81
423.398	87.81
423.621	87.81
423.843	96.81
424.066	95.81
424.288	94.81
424.511	89.81
424.733	98.81
424.956	94.81
425.178	99.81
425.401	113.81
425.623	102.81
425.846	87.81
426.068	88.81
426.291	100.81
426.513	82.81
426.735	94.81
426.958	85.81
427.18	106.81
427.402	145.81
427.625	166.81
427.847	142.81
428.069	116.81
428.292	107.81
428.514	84.81
428.736	87.81
428.958	67.81
429.181	75.81
429.403	86.81
429.625	79.81
429.847	79.81
430.069	100.81
430.292	91.81
430.514	90.81
430.736	88.81
430.958	84.81
431.18	73.81
431.402	91.81
431.624	87.81
431.846	90.81
432.068	98.81
432.29	80.81
432.512	98.81
432.734	96.81
432.956	96.81
433.178	98.81
433.4	92.81
433.622	98.81
433.844	82.81
434.066	96.81
434.287	89.81
434.509	91.81
434.731	97.81
434.953	80.81
435.175	85.81
435.397	97.81
435.618	85.81
435.84	95.81
436.062	120.81
436.284	113.81
436.505	100.81
436.727	96.81
436.949	79.81
437.17	89.81
437.392	78.81
437.614	94.81
437.835	118.81
438.057	110.81
438.278	114.81
438.5	90.81
438.721	124.81
438.943	96.81
439.165	73.81
439.386	95.81
439.608	94.81
439.829	102.81
440.05	130.81
440.272	118.81
440.493	105.81
440.715	88.81
440.936	90.81
441.158	88.81
441.379	95.81
441.6	89.81
441.822	90.81
442.043	88.81
442.264	113.81
442.486	95.81
442.707	95.81
442.928	104.81
443.149	138.81
443.371	123.81
443.592	99.81
443.813	116.81
444.034	103.81
444.255	107.81
444.476	90.81
444.698	88.81
444.919	90.81
445.14	129.81
445.361	121.81
445.582	107.81
445.803	142.81
446.024	126.81
446.245	130.81
446.466	110.81
446.687	96.81
446.908	94.81
447.129	87.81
447.35	80.81
447.571	84.81
447.792	100.81
448.013	99.81
448.234	113.81
448.455	93.81
448.675	115.81
448.896	102.81
449.117	104.81
449.338	110.81
449.559	117.81
449.779	132.81
450	87.81
450.221	96.81
450.442	78.81
450.662	91.81
450.883	107.81
451.104	113.81
451.324	107.81
451.545	88.81
451.766	79.81
451.986	78.81
452.207	89.81
452.428	93.81
452.648	96.81
452.869	122.81
453.089	124.81
453.31	123.81
453.53	96.81
453.751	84.81
453.971	104.81
454.192	100.81
454.412	87.81
454.633	80.81
454.853	84.81
455.073	98.81
455.294	95.81
455.514	108.81
455.734	88.81
455.955	90.81
456.175	90.81
456.395	85.81
456.616	100.81
456.836	85.81
457.056	78.81
457.276	84.81
457.497	84.81
457.717	86.81
457.937	88.81
458.157	89.81
458.377	91.81
458.598	91.81
458.818	143.81
459.038	171.81
459.258	108.81
459.478	82.81
459.698	90.81
459.918	101.81
460.138	89.81
460.358	78.81
460.578	101.81
460.798	94.81
461.018	105.81
461.238	82.81
461.458	78.81
461.678	83.81
461.898	84.81
462.118	84.81
462.338	74.81
462.558	81.81
462.777	90.81
462.997	70.81
463.217	90.81
463.437	76.81
463.657	93.81
463.876	97.81
464.096	98.81
464.316	94.81
464.536	92.81
464.755	86.81
464.975	98.81
465.195	151.81
465.414	153.81
465.634	82.81
465.854	86.81
466.073	83.81
466.293	100.81
466.512	88.81
466.732	89.81
466.951	100.81
467.171	90.81
467.391	88.81
467.61	105.81
467.829	89.81
468.049	97.81
468.268	112.81
468.488	92.81
468.707	89.81
468.927	89.81
469.146	87.81
469.365	87.81
469.585	92.81
469.804	105.81
470.023	99.81
470.243	93.81
470.462	107.81
470.681	101.81
470.901	88.81
471.12	90.81
471.339	96.81
471.558	104.81
471.777	98.81
471.997	102.81
472.216	128.81
472.435	198.81
472.654	81.81
472.873	99.81
473.092	83.81
473.311	88.81
473.53	96.81
473.749	90.81
473.968	83.81
474.187	100.81
474.406	88.81
474.625	90.81
474.844	91.81
475.063	95.81
475.282	91.81
475.501	75.81
475.72	102.81
475.939	72.81
476.158	78.81
476.377	94.81
476.596	91.81
476.814	104.81
477.033	84.81
477.252	72.81
477.471	100.81
477.69	75.81
477.908	87.81
478.127	93.81
478.346	71.81
478.564	88.81
478.783	94.81
479.002	96.81
479.22	72.81
479.439	87.81
479.658	88.81
479.876	105.81
480.095	93.81
480.313	93.81
480.532	91.81
480.751	96.81
480.969	128.81
481.188	262.81
481.406	195.81
481.624	98.81
481.843	98.81
482.061	81.81
482.28	106.81
482.498	92.81
482.717	84.81
482.935	81.81
483.153	90.81
483.372	91.81
483.59	88.81
483.808	95.81
484.027	98.81
484.245	98.81
484.463	83.81
484.681	89.81
484.9	100.81
485.118	82.81
485.336	86.81
485.554	95.81
485.772	105.81
485.99	88.81
486.209	97.81
486.427	99.81
486.645	103.81
486.863	111.81
487.081	84.81
487.299	92.81
487.517	96.81
487.735	90.81
487.953	83.81
488.171	94.81
488.389	92.81
488.607	96.81
488.825	94.81
489.043	98.81
489.261	103.81
489.479	71.81
489.696	80.81
489.914	91.81
490.132	86.81
490.35	87.81
490.568	94.81
490.786	79.81
491.003	84.81
491.221	90.81
491.439	96.81
491.657	87.81
491.874	94.81
492.092	89.81
492.31	102.81
492.527	85.81
492.745	95.81
492.963	84.81
493.18	91.81
493.398	103.81
493.615	87.81
493.833	98.81
494.05	90.81
494.268	85.81
494.485	82.81
494.703	90.81
494.92	88.81
495.138	88.81
495.355	91.81
495.573	77.81
495.79	84.81
496.008	86.81
496.225	92.81
496.442	106.81
496.66	99.81
496.877	95.81
497.094	95.81
497.312	79.81
497.529	81.81
497.746	91.81
497.963	76.81
498.181	86.81
498.398	75.81
498.615	108.81
498.832	83.81
499.049	95.81
499.267	95.81
499.484	112.81
499.701	78.81
499.918	84.81
500.135	95.81
500.352	82.81
500.569	88.81
500.786	100.81
501.003	84.81
501.22	99.81
501.437	97.81
501.654	105.81
501.871	104.81
502.088	87.81
502.305	87.81
502.522	89.81
502.739	89.81
502.956	84.81
503.172	85.81
503.389	101.81
503.606	110.81
503.823	94.81
504.04	95.81
504.256	87.81
504.473	81.81
504.69	94.81
504.907	92.81
505.123	92.81
505.34	94.81
505.557	98.81
505.773	88.81
505.99	83.81
506.207	76.81
506.423	91.81
506.64	89.81
506.856	74.81
507.073	90.81
507.289	93.81
507.506	94.81
507.722	89.81
507.939	103.81
508.155	103.81
508.372	86.81
508.588	100.81
508.805	92.81
509.021	105.81
509.238	93.81
509.454	107.81
509.67	98.81
509.887	106.81
510.103	133.81
510.319	212.81
510.536	814.81
510.752	2462.81
510.968	651.81
511.184	155.81
511.401	110.81
511.617	99.81
511.833	105.81
512.049	79.81
512.265	95.81
512.481	91.81
512.698	97.81
512.914	74.81
513.13	87.81
513.346	82.81
513.562	83.81
513.778	103.81
513.994	95.81
514.21	102.81
514.426	121.81
514.642	137.81
514.858	128.81
515.074	158.81
515.29	450.81
515.506	1470.81
515.721	524.81
515.937	154.81
