Data from Uncirc_1985_H10_HRD10591_00081.txt Node
Date: Wed Jan 03 12:18:33 EST 2024
User: Yrep
Spectrometer: HR+D1059
Trigger mode: 1
Integration Time (sec): 1.000000E-1
Scans to average: 1
Electric dark correction enabled: true
Nonlinearity correction enabled: false
Boxcar width: 0
XAxis mode: Wavelengths
Number of Pixels in Spectrum: 2048
>>>>>Begin Spectral Data<<<<<
223.165	-28.5
223.4	-28.5
223.635	-28.5
223.869	-12.5
224.104	-11.5
224.338	-16.5
224.573	-8.5
224.808	-4.5
225.042	-3.5
225.277	-3.5
225.511	-27.5
225.746	3.5
225.98	10.5
226.215	18.5
226.449	11.5
226.683	26.5
226.918	29.5
227.152	16.5
227.387	49.5
227.621	30.5
227.856	36.5
228.09	33.5
228.324	46.5
228.559	50.5
228.793	53.5
229.027	66.5
229.262	72.5
229.496	70.5
229.73	81.5
229.964	80.5
230.199	74.5
230.433	78.5
230.667	89.5
230.901	70.5
231.136	89.5
231.37	69.5
231.604	70.5
231.838	87.5
232.072	80.5
232.306	71.5
232.541	72.5
232.775	79.5
233.009	84.5
233.243	95.5
233.477	70.5
233.711	68.5
233.945	76.5
234.179	85.5
234.413	93.5
234.647	74.5
234.881	78.5
235.115	67.5
235.349	84.5
235.583	71.5
235.817	67.5
236.051	85.5
236.285	78.5
236.519	70.5
236.753	83.5
236.987	81.5
237.221	72.5
237.455	84.5
237.689	90.5
237.922	97.5
238.156	76.5
238.39	85.5
238.624	81.5
238.858	68.5
239.091	71.5
239.325	80.5
239.559	89.5
239.793	70.5
240.027	82.5
240.26	84.5
240.494	90.5
240.728	73.5
240.961	80.5
241.195	89.5
241.429	76.5
241.662	68.5
241.896	71.5
242.13	78.5
242.363	82.5
242.597	59.5
242.83	80.5
243.064	66.5
243.298	82.5
243.531	63.5
243.765	89.5
243.998	88.5
244.232	70.5
244.465	99.5
244.699	86.5
244.932	89.5
245.166	80.5
245.399	81.5
245.633	88.5
245.866	82.5
246.099	86.5
246.333	71.5
246.566	99.5
246.8	102.5
247.033	81.5
247.266	85.5
247.5	84.5
247.733	76.5
247.966	80.5
248.2	74.5
248.433	64.5
248.666	70.5
248.899	80.5
249.133	82.5
249.366	90.5
249.599	101.5
249.832	75.5
250.066	91.5
250.299	82.5
250.532	77.5
250.765	74.5
250.998	74.5
251.231	80.5
251.465	76.5
251.698	74.5
251.931	67.5
252.164	71.5
252.397	78.5
252.63	80.5
252.863	76.5
253.096	87.5
253.329	62.5
253.562	75.5
253.795	75.5
254.028	83.5
254.261	75.5
254.494	82.5
254.727	84.5
254.96	81.5
255.193	75.5
255.426	56.5
255.659	80.5
255.892	71.5
256.124	65.5
256.357	95.5
256.59	72.5
256.823	83.5
257.056	73.5
257.289	73.5
257.521	67.5
257.754	73.5
257.987	83.5
258.22	94.5
258.452	82.5
258.685	80.5
258.918	84.5
259.151	81.5
259.383	81.5
259.616	75.5
259.849	78.5
260.081	92.5
260.314	84.5
260.547	91.5
260.779	78.5
261.012	77.5
261.244	71.5
261.477	80.5
261.71	87.5
261.942	107.5
262.175	109.5
262.407	75.5
262.64	92.5
262.872	70.5
263.105	59.5
263.337	74.5
263.57	75.5
263.802	80.5
264.035	75.5
264.267	71.5
264.499	87.5
264.732	70.5
264.964	69.5
265.197	95.5
265.429	75.5
265.661	62.5
265.894	79.5
266.126	90.5
266.358	84.5
266.591	87.5
266.823	83.5
267.055	68.5
267.287	80.5
267.52	84.5
267.752	74.5
267.984	71.5
268.216	80.5
268.448	91.5
268.681	91.5
268.913	81.5
269.145	94.5
269.377	76.5
269.609	83.5
269.841	75.5
270.073	80.5
270.306	84.5
270.538	88.5
270.77	79.5
271.002	84.5
271.234	93.5
271.466	88.5
271.698	93.5
271.93	81.5
272.162	88.5
272.394	78.5
272.626	89.5
272.858	75.5
273.09	81.5
273.322	91.5
273.553	91.5
273.785	76.5
274.017	85.5
274.249	89.5
274.481	82.5
274.713	87.5
274.945	87.5
275.176	75.5
275.408	84.5
275.64	97.5
275.872	93.5
276.104	93.5
276.335	81.5
276.567	97.5
276.799	99.5
277.031	93.5
277.262	79.5
277.494	92.5
277.726	83.5
277.957	61.5
278.189	82.5
278.421	85.5
278.652	87.5
278.884	82.5
279.115	84.5
279.347	71.5
279.579	86.5
279.81	101.5
280.042	101.5
280.273	102.5
280.505	87.5
280.736	90.5
280.968	80.5
281.199	90.5
281.431	90.5
281.662	91.5
281.894	90.5
282.125	84.5
282.356	120.5
282.588	129.5
282.819	103.5
283.051	89.5
283.282	90.5
283.513	79.5
283.745	80.5
283.976	87.5
284.207	90.5
284.439	100.5
284.67	95.5
284.901	77.5
285.132	89.5
285.364	101.5
285.595	82.5
285.826	89.5
286.057	74.5
286.288	68.5
286.52	83.5
286.751	73.5
286.982	82.5
287.213	85.5
287.444	86.5
287.675	98.5
287.906	86.5
288.138	87.5
288.369	86.5
288.6	97.5
288.831	95.5
289.062	87.5
289.293	82.5
289.524	95.5
289.755	80.5
289.986	80.5
290.217	81.5
290.448	80.5
290.679	75.5
290.91	86.5
291.141	82.5
291.371	99.5
291.602	86.5
291.833	75.5
292.064	84.5
292.295	75.5
292.526	81.5
292.757	90.5
292.987	86.5
293.218	92.5
293.449	90.5
293.68	90.5
293.91	65.5
294.141	75.5
294.372	89.5
294.603	97.5
294.833	89.5
295.064	90.5
295.295	93.5
295.525	82.5
295.756	91.5
295.987	106.5
296.217	121.5
296.448	111.5
296.679	82.5
296.909	96.5
297.14	88.5
297.37	102.5
297.601	84.5
297.831	89.5
298.062	96.5
298.292	91.5
298.523	95.5
298.753	89.5
298.984	77.5
299.214	94.5
299.445	106.5
299.675	101.5
299.905	87.5
300.136	86.5
300.366	91.5
300.597	102.5
300.827	97.5
301.057	110.5
301.288	105.5
301.518	96.5
301.748	96.5
301.979	99.5
302.209	75.5
302.439	87.5
302.669	97.5
302.9	90.5
303.13	90.5
303.36	78.5
303.59	98.5
303.82	86.5
304.051	94.5
304.281	87.5
304.511	82.5
304.741	88.5
304.971	89.5
305.201	84.5
305.431	79.5
305.661	88.5
305.891	108.5
306.121	98.5
306.352	97.5
306.582	94.5
306.812	98.5
307.042	103.5
307.272	83.5
307.502	94.5
307.731	96.5
307.961	98.5
308.191	86.5
308.421	83.5
308.651	68.5
308.881	92.5
309.111	97.5
309.341	95.5
309.571	111.5
309.8	108.5
310.03	105.5
310.26	98.5
310.49	85.5
310.72	101.5
310.949	96.5
311.179	103.5
311.409	98.5
311.639	88.5
311.868	102.5
312.098	107.5
312.328	95.5
312.557	99.5
312.787	100.5
313.017	103.5
313.246	112.5
313.476	89.5
313.706	91.5
313.935	80.5
314.165	107.5
314.394	89.5
314.624	81.5
314.853	88.5
315.083	85.5
315.312	79.5
315.542	83.5
315.771	77.5
316.001	92.5
316.23	98.5
316.46	82.5
316.689	97.5
316.919	74.5
317.148	97.5
317.377	95.5
317.607	101.5
317.836	92.5
318.065	86.5
318.295	89.5
318.524	87.5
318.753	99.5
318.983	93.5
319.212	98.5
319.441	100.5
319.67	107.5
319.9	94.5
320.129	94.5
320.358	87.5
320.587	98.5
320.816	105.5
321.046	98.5
321.275	96.5
321.504	89.5
321.733	94.5
321.962	99.5
322.191	94.5
322.42	92.5
322.649	96.5
322.878	111.5
323.108	119.5
323.337	112.5
323.566	128.5
323.795	159.5
324.024	205.5
324.253	374.5
324.482	773.5
324.71	1601.5
324.939	2130.5
325.168	782.5
325.397	224.5
325.626	135.5
325.855	130.5
326.084	110.5
326.313	130.5
326.542	158.5
326.77	228.5
326.999	450.5
327.228	897.5
327.457	1654.5
327.686	1316.5
327.914	363.5
328.143	193.5
328.372	166.5
328.6	129.5
328.829	117.5
329.058	111.5
329.287	118.5
329.515	87.5
329.744	95.5
329.972	115.5
330.201	133.5
330.43	159.5
330.658	135.5
330.887	130.5
331.115	108.5
331.344	96.5
331.572	104.5
331.801	110.5
332.03	98.5
332.258	105.5
332.486	97.5
332.715	86.5
332.943	94.5
333.172	103.5
333.4	107.5
333.629	107.5
333.857	119.5
334.085	138.5
334.314	135.5
334.542	180.5
334.771	171.5
334.999	110.5
335.227	93.5
335.455	94.5
335.684	103.5
335.912	102.5
336.14	84.5
336.369	96.5
336.597	101.5
336.825	90.5
337.053	87.5
337.281	98.5
337.51	96.5
337.738	90.5
337.966	89.5
338.194	113.5
338.422	98.5
338.65	84.5
338.878	96.5
339.106	89.5
339.334	90.5
339.562	86.5
339.79	94.5
340.018	93.5
340.246	98.5
340.474	100.5
340.702	89.5
340.93	88.5
341.158	99.5
341.386	93.5
341.614	104.5
341.842	94.5
342.07	94.5
342.298	95.5
342.526	104.5
342.754	89.5
342.981	101.5
343.209	99.5
343.437	98.5
343.665	75.5
343.893	85.5
344.12	85.5
344.348	83.5
344.576	98.5
344.804	83.5
345.031	87.5
345.259	109.5
345.487	90.5
345.714	86.5
345.942	97.5
346.17	81.5
346.397	87.5
346.625	89.5
346.853	80.5
347.08	102.5
347.308	96.5
347.535	103.5
347.763	104.5
347.99	94.5
348.218	107.5
348.445	104.5
348.673	98.5
348.9	102.5
349.128	112.5
349.355	101.5
349.583	103.5
349.81	96.5
350.037	94.5
350.265	80.5
350.492	78.5
350.72	94.5
350.947	98.5
351.174	119.5
351.402	113.5
351.629	100.5
351.856	96.5
352.083	99.5
352.311	102.5
352.538	105.5
352.765	114.5
352.992	100.5
353.22	112.5
353.447	105.5
353.674	111.5
353.901	112.5
354.128	91.5
354.355	92.5
354.583	98.5
354.81	104.5
355.037	96.5
355.264	95.5
355.491	81.5
355.718	91.5
355.945	71.5
356.172	116.5
356.399	99.5
356.626	98.5
356.853	113.5
357.08	89.5
357.307	76.5
357.534	86.5
357.761	78.5
357.988	87.5
358.215	106.5
358.441	75.5
358.668	85.5
358.895	95.5
359.122	83.5
359.349	91.5
359.576	88.5
359.802	92.5
360.029	112.5
360.256	114.5
360.483	91.5
360.709	73.5
360.936	90.5
361.163	97.5
361.39	88.5
361.616	91.5
361.843	87.5
362.07	87.5
362.296	100.5
362.523	93.5
362.749	91.5
362.976	93.5
363.203	90.5
363.429	90.5
363.656	95.5
363.882	90.5
364.109	107.5
364.335	83.5
364.562	96.5
364.788	76.5
365.015	103.5
365.241	81.5
365.468	120.5
365.694	99.5
365.92	85.5
366.147	100.5
366.373	82.5
366.599	92.5
366.826	83.5
367.052	77.5
367.278	89.5
367.505	84.5
367.731	94.5
367.957	108.5
368.184	93.5
368.41	99.5
368.636	113.5
368.862	122.5
369.089	121.5
369.315	93.5
369.541	90.5
369.767	84.5
369.993	81.5
370.219	97.5
370.445	97.5
370.672	79.5
370.898	92.5
371.124	89.5
371.35	83.5
371.576	81.5
371.802	82.5
372.028	85.5
372.254	86.5
372.48	92.5
372.706	82.5
372.932	95.5
373.158	82.5
373.384	91.5
373.61	87.5
373.835	74.5
374.061	63.5
374.287	96.5
374.513	102.5
374.739	93.5
374.965	83.5
375.191	89.5
375.416	95.5
375.642	72.5
375.868	88.5
376.094	81.5
376.319	98.5
376.545	90.5
376.771	87.5
376.997	88.5
377.222	92.5
377.448	93.5
377.674	91.5
377.899	91.5
378.125	86.5
378.35	97.5
378.576	99.5
378.802	84.5
379.027	94.5
379.253	92.5
379.478	100.5
379.704	92.5
379.929	98.5
380.155	81.5
380.38	91.5
380.606	105.5
380.831	99.5
381.057	100.5
381.282	86.5
381.507	92.5
381.733	98.5
381.958	96.5
382.184	98.5
382.409	93.5
382.634	102.5
382.86	80.5
383.085	98.5
383.31	102.5
383.535	106.5
383.761	99.5
383.986	98.5
384.211	95.5
384.436	87.5
384.662	101.5
384.887	85.5
385.112	105.5
385.337	89.5
385.562	91.5
385.787	100.5
386.013	108.5
386.238	101.5
386.463	108.5
386.688	110.5
386.913	104.5
387.138	112.5
387.363	101.5
387.588	102.5
387.813	113.5
388.038	99.5
388.263	111.5
388.488	98.5
388.713	82.5
388.938	99.5
389.163	96.5
389.387	96.5
389.612	93.5
389.837	102.5
390.062	97.5
390.287	85.5
390.512	87.5
390.736	79.5
390.961	94.5
391.186	108.5
391.411	91.5
391.636	89.5
391.86	108.5
392.085	94.5
392.31	82.5
392.534	86.5
392.759	91.5
392.984	81.5
393.208	75.5
393.433	85.5
393.658	92.5
393.882	88.5
394.107	80.5
394.331	81.5
394.556	93.5
394.78	70.5
395.005	92.5
395.229	97.5
395.454	81.5
395.678	76.5
395.903	93.5
396.127	96.5
396.352	89.5
396.576	89.5
396.801	92.5
397.025	79.5
397.249	90.5
397.474	89.5
397.698	93.5
397.922	96.5
398.147	92.5
398.371	83.5
398.595	92.5
398.82	78.5
399.044	60.5
399.268	84.5
399.492	78.5
399.717	71.5
399.941	87.5
400.165	87.5
400.389	90.5
400.613	90.5
400.837	84.5
401.062	87.5
401.286	96.5
401.51	86.5
401.734	89.5
401.958	108.5
402.182	124.5
402.406	162.5
402.63	119.5
402.854	84.5
403.078	82.5
403.302	93.5
403.526	96.5
403.75	84.5
403.974	98.5
404.198	91.5
404.422	92.5
404.645	89.5
404.869	89.5
405.093	93.5
405.317	90.5
405.541	97.5
405.765	99.5
405.988	108.5
406.212	158.5
406.436	213.5
406.66	134.5
406.883	90.5
407.107	83.5
407.331	96.5
407.555	107.5
407.778	90.5
408.002	90.5
408.226	83.5
408.449	73.5
408.673	82.5
408.896	94.5
409.12	94.5
409.344	82.5
409.567	82.5
409.791	98.5
410.014	95.5
410.238	90.5
410.461	83.5
410.685	104.5
410.908	88.5
411.132	105.5
411.355	92.5
411.578	81.5
411.802	84.5
412.025	81.5
412.249	90.5
412.472	104.5
412.695	94.5
412.919	79.5
413.142	96.5
413.365	83.5
413.589	101.5
413.812	84.5
414.035	78.5
414.258	87.5
414.482	82.5
414.705	86.5
414.928	82.5
415.151	104.5
415.374	103.5
415.597	83.5
415.821	75.5
416.044	86.5
416.267	88.5
416.49	83.5
416.713	89.5
416.936	92.5
417.159	98.5
417.382	95.5
417.605	98.5
417.828	95.5
418.051	94.5
418.274	91.5
418.497	86.5
418.72	88.5
418.943	94.5
419.166	93.5
419.389	85.5
419.611	82.5
419.834	82.5
420.057	76.5
420.28	87.5
420.503	93.5
420.726	74.5
420.948	91.5
421.171	90.5
421.394	89.5
421.617	89.5
421.839	91.5
422.062	96.5
422.285	108.5
422.507	108.5
422.73	96.5
422.953	88.5
423.175	82.5
423.398	95.5
423.621	103.5
423.843	96.5
424.066	71.5
424.288	90.5
424.511	88.5
424.733	92.5
424.956	95.5
425.178	86.5
425.401	97.5
425.623	87.5
425.846	100.5
426.068	91.5
426.291	96.5
426.513	94.5
426.735	83.5
426.958	83.5
427.18	98.5
427.402	127.5
427.625	186.5
427.847	134.5
428.069	120.5
428.292	91.5
428.514	90.5
428.736	78.5
428.958	81.5
429.181	100.5
429.403	96.5
429.625	95.5
429.847	95.5
430.069	104.5
430.292	86.5
430.514	91.5
430.736	95.5
430.958	84.5
431.18	95.5
431.402	95.5
431.624	98.5
431.846	89.5
432.068	86.5
432.29	95.5
432.512	78.5
432.734	82.5
432.956	92.5
433.178	99.5
433.4	83.5
433.622	89.5
433.844	85.5
434.066	84.5
434.287	88.5
434.509	94.5
434.731	88.5
434.953	75.5
435.175	95.5
435.397	89.5
435.618	92.5
435.84	105.5
436.062	95.5
436.284	105.5
436.505	87.5
436.727	84.5
436.949	95.5
437.17	88.5
437.392	92.5
437.614	94.5
437.835	103.5
438.057	119.5
438.278	107.5
438.5	92.5
438.721	96.5
438.943	101.5
439.165	88.5
439.386	69.5
439.608	92.5
439.829	100.5
440.05	119.5
440.272	118.5
440.493	106.5
440.715	99.5
440.936	101.5
441.158	97.5
441.379	82.5
441.6	71.5
441.822	89.5
442.043	82.5
442.264	102.5
442.486	92.5
442.707	90.5
442.928	91.5
443.149	119.5
443.371	121.5
443.592	95.5
443.813	91.5
444.034	98.5
444.255	88.5
444.476	91.5
444.698	82.5
444.919	91.5
445.14	153.5
445.361	127.5
445.582	112.5
445.803	113.5
446.024	116.5
446.245	126.5
446.466	107.5
446.687	85.5
446.908	87.5
447.129	88.5
447.35	79.5
447.571	82.5
447.792	94.5
448.013	95.5
448.234	91.5
448.455	90.5
448.675	112.5
448.896	107.5
449.117	97.5
449.338	102.5
449.559	122.5
449.779	112.5
450	105.5
450.221	84.5
450.442	86.5
450.662	80.5
450.883	94.5
451.104	100.5
451.324	101.5
451.545	89.5
451.766	86.5
451.986	89.5
452.207	92.5
452.428	89.5
452.648	98.5
452.869	95.5
453.089	102.5
453.31	108.5
453.53	84.5
453.751	89.5
453.971	90.5
454.192	107.5
454.412	89.5
454.633	70.5
454.853	78.5
455.073	89.5
455.294	103.5
455.514	97.5
455.734	83.5
455.955	86.5
456.175	80.5
456.395	71.5
456.616	87.5
456.836	92.5
457.056	92.5
457.276	106.5
457.497	78.5
457.717	78.5
457.937	84.5
458.157	91.5
458.377	86.5
458.598	96.5
458.818	128.5
459.038	147.5
459.258	101.5
459.478	82.5
459.698	83.5
459.918	79.5
460.138	88.5
460.358	85.5
460.578	97.5
460.798	84.5
461.018	91.5
461.238	96.5
461.458	81.5
461.678	78.5
461.898	84.5
462.118	85.5
462.338	83.5
462.558	95.5
462.777	87.5
462.997	94.5
463.217	89.5
463.437	82.5
463.657	84.5
463.876	83.5
464.096	96.5
464.316	91.5
464.536	91.5
464.755	100.5
464.975	100.5
465.195	153.5
465.414	147.5
465.634	100.5
465.854	91.5
466.073	87.5
466.293	89.5
466.512	97.5
466.732	74.5
466.951	92.5
467.171	87.5
467.391	78.5
467.61	97.5
467.829	110.5
468.049	101.5
468.268	120.5
468.488	84.5
468.707	69.5
468.927	84.5
469.146	83.5
469.365	85.5
469.585	92.5
469.804	90.5
470.023	84.5
470.243	100.5
470.462	98.5
470.681	105.5
470.901	88.5
471.12	88.5
471.339	91.5
471.558	91.5
471.777	94.5
471.997	97.5
472.216	142.5
472.435	194.5
472.654	95.5
472.873	96.5
473.092	84.5
473.311	87.5
473.53	82.5
473.749	88.5
473.968	101.5
474.187	105.5
474.406	88.5
474.625	96.5
474.844	79.5
475.063	92.5
475.282	81.5
475.501	91.5
475.72	88.5
475.939	98.5
476.158	85.5
476.377	95.5
476.596	100.5
476.814	91.5
477.033	92.5
477.252	89.5
477.471	76.5
477.69	75.5
477.908	89.5
478.127	95.5
478.346	76.5
478.564	93.5
478.783	96.5
479.002	84.5
479.22	96.5
479.439	104.5
479.658	104.5
479.876	91.5
480.095	79.5
480.313	96.5
480.532	98.5
480.751	102.5
480.969	136.5
481.188	280.5
481.406	196.5
481.624	99.5
481.843	83.5
482.061	88.5
482.28	82.5
482.498	91.5
482.717	75.5
482.935	87.5
483.153	90.5
483.372	85.5
483.59	91.5
483.808	100.5
484.027	86.5
484.245	82.5
484.463	83.5
484.681	100.5
484.9	97.5
485.118	94.5
485.336	89.5
485.554	104.5
485.772	102.5
485.99	107.5
486.209	110.5
486.427	96.5
486.645	111.5
486.863	95.5
487.081	110.5
487.299	89.5
487.517	75.5
487.735	97.5
487.953	96.5
488.171	80.5
488.389	99.5
488.607	96.5
488.825	98.5
489.043	89.5
489.261	94.5
489.479	90.5
489.696	83.5
489.914	103.5
490.132	95.5
490.35	79.5
490.568	88.5
490.786	92.5
491.003	85.5
491.221	85.5
491.439	90.5
491.657	102.5
491.874	88.5
492.092	89.5
492.31	88.5
492.527	86.5
492.745	72.5
492.963	93.5
493.18	87.5
493.398	89.5
493.615	94.5
493.833	92.5
494.05	88.5
494.268	90.5
494.485	86.5
494.703	73.5
494.92	88.5
495.138	82.5
495.355	94.5
495.573	87.5
495.79	92.5
496.008	94.5
496.225	94.5
496.442	89.5
496.66	100.5
496.877	94.5
497.094	79.5
497.312	87.5
497.529	91.5
497.746	89.5
497.963	95.5
498.181	86.5
498.398	90.5
498.615	100.5
498.832	106.5
499.049	105.5
499.267	86.5
499.484	96.5
499.701	89.5
499.918	74.5
500.135	88.5
500.352	90.5
500.569	94.5
500.786	92.5
501.003	81.5
501.22	89.5
501.437	91.5
501.654	81.5
501.871	107.5
502.088	97.5
502.305	78.5
502.522	87.5
502.739	80.5
502.956	81.5
503.172	87.5
503.389	95.5
503.606	90.5
503.823	88.5
504.04	88.5
504.256	86.5
504.473	81.5
504.69	83.5
504.907	89.5
505.123	82.5
505.34	74.5
505.557	90.5
505.773	78.5
505.99	85.5
506.207	90.5
506.423	86.5
506.64	89.5
506.856	94.5
507.073	91.5
507.289	87.5
507.506	85.5
507.722	103.5
507.939	108.5
508.155	99.5
508.372	97.5
508.588	92.5
508.805	108.5
509.021	94.5
509.238	81.5
509.454	95.5
509.67	96.5
509.887	108.5
510.103	134.5
510.319	215.5
510.536	730.5
510.752	2308.5
510.968	641.5
511.184	146.5
511.401	108.5
511.617	104.5
511.833	97.5
512.049	100.5
512.265	83.5
512.481	96.5
512.698	97.5
512.914	94.5
513.13	86.5
513.346	100.5
513.562	70.5
513.778	91.5
513.994	94.5
514.21	89.5
514.426	121.5
514.642	124.5
514.858	130.5
515.074	161.5
515.29	439.5
515.506	1380.5
515.721	500.5
515.937	166.5
516.153	116.5
516.369	89.5
516.585	86.5
516.801	94.5
517.016	104.5
517.232	94.5
517.448	94.5
517.664	93.5
517.879	98.5
518.095	83.5
518.311	105.5
518.527	104.5
518.742	95.5
518.958	95.5
519.173	100.5
519.389	88.5
519.605	95.5
519.82	85.5
520.036	96.5
520.251	107.5
520.467	108.5
520.682	115.5
520.898	101.5
521.113	107.5
521.329	117.5
521.544	205.5
521.76	533.5
521.975	2325.5
522.19	1389.5
522.406	298.5
522.621	114.5
522.836	105.5
523.052	97.5
523.267	99.5
523.482	104.5
523.698	94.5
523.913	134.5
524.128	106.5
524.343	98.5
524.559	96.5
524.774	91.5
524.989	105.5
525.204	103.5
525.419	89.5
525.634	80.5
525.849	90.5
526.064	82.5
526.28	98.5
526.495	90.5
526.71	89.5
526.925	83.5
527.14	89.5
527.355	80.5
527.57	64.5
527.785	81.5
527.999	90.5
528.214	79.5
528.429	98.5
528.644	103.5
528.859	98.5
529.074	96.5
529.289	102.5
529.503	169.5
529.718	100.5
529.933	84.5
530.148	103.5
530.363	87.5
530.577	90.5
530.792	83.5
531.007	91.5
531.221	98.5
531.436	100.5
531.651	81.5
531.865	104.5
532.08	82.5
532.295	90.5
532.509	96.5
532.724	100.5
532.938	97.5
533.153	90.5
533.367	96.5
533.582	92.5
533.796	94.5
534.011	90.5
534.225	88.5
534.44	87.5
534.654	88.5
534.868	97.5
535.083	88.5
535.297	92.5
535.511	104.5
535.726	101.5
