Data from Uncirc_1985_H10_HRD10591_00084.txt Node
Date: Wed Jan 03 12:18:34 EST 2024
User: Yrep
Spectrometer: HR+D1059
Trigger mode: 1
Integration Time (sec): 1.000000E-1
Scans to average: 1
Electric dark correction enabled: true
Nonlinearity correction enabled: false
Boxcar width: 0
XAxis mode: Wavelengths
Number of Pixels in Spectrum: 2048
>>>>>Begin Spectral Data<<<<<
223.165	-21.38
223.4	-21.38
223.635	-21.38
223.869	-18.38
224.104	-30.38
224.338	-14.38
224.573	-12.38
224.808	-9.38
225.042	3.62
225.277	-3.38
225.511	-14.38
225.746	9.62
225.98	5.62
226.215	6.62
226.449	29.62
226.683	14.62
226.918	19.62
227.152	34.62
227.387	20.62
227.621	43.62
227.856	42.62
228.09	42.62
228.324	38.62
228.559	48.62
228.793	63.62
229.027	58.62
229.262	58.62
229.496	74.62
229.73	78.62
229.964	91.62
230.199	67.62
230.433	83.62
230.667	74.62
230.901	68.62
231.136	72.62
231.37	81.62
231.604	84.62
231.838	76.62
232.072	83.62
232.306	89.62
232.541	88.62
232.775	84.62
233.009	69.62
233.243	77.62
233.477	84.62
233.711	87.62
233.945	67.62
234.179	75.62
234.413	85.62
234.647	77.62
234.881	81.62
235.115	78.62
235.349	68.62
235.583	79.62
235.817	79.62
236.051	61.62
236.285	87.62
236.519	70.62
236.753	78.62
236.987	83.62
237.221	92.62
237.455	86.62
237.689	64.62
237.922	74.62
238.156	78.62
238.39	63.62
238.624	86.62
238.858	83.62
239.091	88.62
239.325	78.62
239.559	85.62
239.793	74.62
240.027	88.62
240.26	74.62
240.494	71.62
240.728	83.62
240.961	74.62
241.195	68.62
241.429	70.62
241.662	68.62
241.896	83.62
242.13	77.62
242.363	69.62
242.597	92.62
242.83	83.62
243.064	85.62
243.298	79.62
243.531	92.62
243.765	72.62
243.998	67.62
244.232	69.62
244.465	89.62
244.699	74.62
244.932	68.62
245.166	71.62
245.399	72.62
245.633	74.62
245.866	84.62
246.099	79.62
246.333	88.62
246.566	72.62
246.8	75.62
247.033	69.62
247.266	70.62
247.5	82.62
247.733	84.62
247.966	74.62
248.2	70.62
248.433	77.62
248.666	60.62
248.899	85.62
249.133	82.62
249.366	100.62
249.599	97.62
249.832	98.62
250.066	100.62
250.299	72.62
250.532	79.62
250.765	85.62
250.998	73.62
251.231	90.62
251.465	77.62
251.698	78.62
251.931	79.62
252.164	93.62
252.397	68.62
252.63	71.62
252.863	78.62
253.096	78.62
253.329	74.62
253.562	61.62
253.795	80.62
254.028	89.62
254.261	90.62
254.494	78.62
254.727	69.62
254.96	74.62
255.193	81.62
255.426	79.62
255.659	86.62
255.892	89.62
256.124	77.62
256.357	86.62
256.59	79.62
256.823	89.62
257.056	83.62
257.289	93.62
257.521	93.62
257.754	90.62
257.987	83.62
258.22	83.62
258.452	78.62
258.685	73.62
258.918	82.62
259.151	81.62
259.383	84.62
259.616	83.62
259.849	79.62
260.081	71.62
260.314	87.62
260.547	83.62
260.779	81.62
261.012	82.62
261.244	80.62
261.477	90.62
261.71	86.62
261.942	121.62
262.175	107.62
262.407	87.62
262.64	81.62
262.872	84.62
263.105	86.62
263.337	87.62
263.57	85.62
263.802	75.62
264.035	83.62
264.267	92.62
264.499	98.62
264.732	88.62
264.964	94.62
265.197	79.62
265.429	93.62
265.661	84.62
265.894	88.62
266.126	105.62
266.358	90.62
266.591	67.62
266.823	97.62
267.055	74.62
267.287	98.62
267.52	86.62
267.752	84.62
267.984	87.62
268.216	85.62
268.448	85.62
268.681	81.62
268.913	89.62
269.145	94.62
269.377	95.62
269.609	90.62
269.841	99.62
270.073	77.62
270.306	86.62
270.538	84.62
270.77	73.62
271.002	85.62
271.234	90.62
271.466	93.62
271.698	81.62
271.93	82.62
272.162	93.62
272.394	94.62
272.626	83.62
272.858	72.62
273.09	89.62
273.322	75.62
273.553	64.62
273.785	93.62
274.017	79.62
274.249	83.62
274.481	90.62
274.713	91.62
274.945	77.62
275.176	85.62
275.408	96.62
275.64	87.62
275.872	102.62
276.104	98.62
276.335	97.62
276.567	111.62
276.799	104.62
277.031	103.62
277.262	86.62
277.494	74.62
277.726	81.62
277.957	91.62
278.189	84.62
278.421	78.62
278.652	76.62
278.884	87.62
279.115	87.62
279.347	87.62
279.579	90.62
279.81	91.62
280.042	94.62
280.273	101.62
280.505	90.62
280.736	96.62
280.968	86.62
281.199	89.62
281.431	82.62
281.662	82.62
281.894	98.62
282.125	101.62
282.356	125.62
282.588	139.62
282.819	111.62
283.051	99.62
283.282	74.62
283.513	70.62
283.745	98.62
283.976	79.62
284.207	75.62
284.439	89.62
284.67	87.62
284.901	92.62
285.132	88.62
285.364	101.62
285.595	97.62
285.826	89.62
286.057	71.62
286.288	95.62
286.52	81.62
286.751	77.62
286.982	73.62
287.213	102.62
287.444	105.62
287.675	99.62
287.906	101.62
288.138	67.62
288.369	86.62
288.6	90.62
288.831	88.62
289.062	89.62
289.293	94.62
289.524	86.62
289.755	85.62
289.986	73.62
290.217	98.62
290.448	95.62
290.679	90.62
290.91	94.62
291.141	83.62
291.371	85.62
291.602	88.62
291.833	74.62
292.064	84.62
292.295	81.62
292.526	85.62
292.757	89.62
292.987	95.62
293.218	79.62
293.449	97.62
293.68	77.62
293.91	75.62
294.141	83.62
294.372	97.62
294.603	86.62
294.833	83.62
295.064	88.62
295.295	91.62
295.525	98.62
295.756	93.62
295.987	122.62
296.217	154.62
296.448	125.62
296.679	83.62
296.909	91.62
297.14	92.62
297.37	93.62
297.601	98.62
297.831	96.62
298.062	84.62
298.292	94.62
298.523	84.62
298.753	88.62
298.984	89.62
299.214	87.62
299.445	102.62
299.675	93.62
299.905	93.62
300.136	88.62
300.366	86.62
300.597	96.62
300.827	99.62
301.057	102.62
301.288	104.62
301.518	98.62
301.748	82.62
301.979	109.62
302.209	71.62
302.439	85.62
302.669	89.62
302.9	90.62
303.13	83.62
303.36	95.62
303.59	80.62
303.82	109.62
304.051	95.62
304.281	86.62
304.511	100.62
304.741	86.62
304.971	97.62
305.201	94.62
305.431	97.62
305.661	93.62
305.891	91.62
306.121	96.62
306.352	105.62
306.582	113.62
306.812	106.62
307.042	89.62
307.272	79.62
307.502	86.62
307.731	92.62
307.961	88.62
308.191	86.62
308.421	100.62
308.651	89.62
308.881	90.62
309.111	101.62
309.341	82.62
309.571	85.62
309.8	93.62
310.03	94.62
310.26	87.62
310.49	95.62
310.72	115.62
310.949	110.62
311.179	107.62
311.409	72.62
311.639	98.62
311.868	88.62
312.098	85.62
312.328	102.62
312.557	110.62
312.787	116.62
313.017	95.62
313.246	98.62
313.476	81.62
313.706	86.62
313.935	95.62
314.165	102.62
314.394	100.62
314.624	108.62
314.853	103.62
315.083	93.62
315.312	96.62
315.542	79.62
315.771	83.62
316.001	82.62
316.23	98.62
316.46	85.62
316.689	88.62
316.919	91.62
317.148	100.62
317.377	85.62
317.607	89.62
317.836	81.62
318.065	97.62
318.295	81.62
318.524	96.62
318.753	88.62
318.983	93.62
319.212	99.62
319.441	95.62
319.67	102.62
319.9	98.62
320.129	103.62
320.358	87.62
320.587	98.62
320.816	104.62
321.046	102.62
321.275	103.62
321.504	106.62
321.733	87.62
321.962	110.62
322.191	89.62
322.42	99.62
322.649	109.62
322.878	116.62
323.108	107.62
323.337	119.62
323.566	133.62
323.795	144.62
324.024	203.62
324.253	401.62
324.482	845.62
324.71	1713.62
324.939	2271.62
325.168	817.62
325.397	255.62
325.626	145.62
325.855	138.62
326.084	123.62
326.313	133.62
326.542	157.62
326.77	239.62
326.999	439.62
327.228	901.62
327.457	1653.62
327.686	1369.62
327.914	389.62
328.143	208.62
328.372	150.62
328.6	127.62
328.829	111.62
329.058	130.62
329.287	123.62
329.515	112.62
329.744	109.62
329.972	111.62
330.201	137.62
330.43	159.62
330.658	130.62
330.887	133.62
331.115	119.62
331.344	89.62
331.572	111.62
331.801	94.62
332.03	112.62
332.258	91.62
332.486	91.62
332.715	98.62
332.943	89.62
333.172	104.62
333.4	86.62
333.629	85.62
333.857	122.62
334.085	120.62
334.314	138.62
334.542	170.62
334.771	181.62
334.999	103.62
335.227	93.62
335.455	93.62
335.684	90.62
335.912	103.62
336.14	94.62
336.369	85.62
336.597	100.62
336.825	97.62
337.053	99.62
337.281	86.62
337.51	91.62
337.738	96.62
337.966	96.62
338.194	87.62
338.422	83.62
338.65	95.62
338.878	94.62
339.106	80.62
339.334	98.62
339.562	82.62
339.79	79.62
340.018	91.62
340.246	95.62
340.474	74.62
340.702	89.62
340.93	87.62
341.158	80.62
341.386	86.62
341.614	98.62
341.842	96.62
342.07	84.62
342.298	86.62
342.526	89.62
342.754	87.62
342.981	93.62
343.209	85.62
343.437	96.62
343.665	87.62
343.893	89.62
344.12	93.62
344.348	104.62
344.576	90.62
344.804	93.62
345.031	88.62
345.259	101.62
345.487	95.62
345.714	96.62
345.942	97.62
346.17	103.62
346.397	95.62
346.625	106.62
346.853	105.62
347.08	99.62
347.308	89.62
347.535	103.62
347.763	100.62
347.99	78.62
348.218	94.62
348.445	106.62
348.673	95.62
348.9	89.62
349.128	95.62
349.355	96.62
349.583	98.62
349.81	92.62
350.037	104.62
350.265	95.62
350.492	96.62
350.72	94.62
350.947	85.62
351.174	97.62
351.402	105.62
351.629	94.62
351.856	111.62
352.083	97.62
352.311	97.62
352.538	104.62
352.765	93.62
352.992	106.62
353.22	119.62
353.447	98.62
353.674	84.62
353.901	99.62
354.128	89.62
354.355	87.62
354.583	84.62
354.81	105.62
355.037	91.62
355.264	85.62
355.491	96.62
355.718	81.62
355.945	85.62
356.172	86.62
356.399	112.62
356.626	94.62
356.853	86.62
357.08	91.62
357.307	95.62
357.534	90.62
357.761	81.62
357.988	82.62
358.215	89.62
358.441	85.62
358.668	86.62
358.895	87.62
359.122	84.62
359.349	78.62
359.576	81.62
359.802	83.62
360.029	108.62
360.256	107.62
360.483	93.62
360.709	97.62
360.936	80.62
361.163	80.62
361.39	83.62
361.616	93.62
361.843	86.62
362.07	96.62
362.296	96.62
362.523	94.62
362.749	90.62
362.976	86.62
363.203	99.62
363.429	93.62
363.656	94.62
363.882	78.62
364.109	86.62
364.335	93.62
364.562	93.62
364.788	93.62
365.015	103.62
365.241	104.62
365.468	104.62
365.694	100.62
365.92	104.62
366.147	82.62
366.373	90.62
366.599	96.62
366.826	68.62
367.052	81.62
367.278	85.62
367.505	80.62
367.731	95.62
367.957	90.62
368.184	88.62
368.41	109.62
368.636	100.62
368.862	116.62
369.089	113.62
369.315	80.62
369.541	80.62
369.767	86.62
369.993	96.62
370.219	100.62
370.445	94.62
370.672	82.62
370.898	87.62
371.124	91.62
371.35	74.62
371.576	82.62
371.802	83.62
372.028	79.62
372.254	77.62
372.48	93.62
372.706	82.62
372.932	87.62
373.158	89.62
373.384	86.62
373.61	69.62
373.835	94.62
374.061	79.62
374.287	82.62
374.513	91.62
374.739	85.62
374.965	88.62
375.191	87.62
375.416	93.62
375.642	97.62
375.868	90.62
376.094	83.62
376.319	92.62
376.545	97.62
376.771	89.62
376.997	83.62
377.222	88.62
377.448	97.62
377.674	82.62
377.899	83.62
378.125	106.62
378.35	77.62
378.576	88.62
378.802	90.62
379.027	94.62
379.253	77.62
379.478	84.62
379.704	85.62
379.929	84.62
380.155	101.62
380.38	96.62
380.606	94.62
380.831	87.62
381.057	89.62
381.282	89.62
381.507	85.62
381.733	94.62
381.958	98.62
382.184	85.62
382.409	74.62
382.634	88.62
382.86	111.62
383.085	91.62
383.31	85.62
383.535	85.62
383.761	83.62
383.986	92.62
384.211	97.62
384.436	95.62
384.662	90.62
384.887	99.62
385.112	85.62
385.337	103.62
385.562	99.62
385.787	97.62
386.013	93.62
386.238	104.62
386.463	91.62
386.688	101.62
386.913	105.62
387.138	90.62
387.363	99.62
387.588	83.62
387.813	73.62
388.038	111.62
388.263	95.62
388.488	102.62
388.713	84.62
388.938	89.62
389.163	78.62
389.387	101.62
389.612	99.62
389.837	101.62
390.062	85.62
390.287	83.62
390.512	95.62
390.736	93.62
390.961	85.62
391.186	88.62
391.411	99.62
391.636	85.62
391.86	86.62
392.085	84.62
392.31	90.62
392.534	87.62
392.759	87.62
392.984	87.62
393.208	81.62
393.433	69.62
393.658	69.62
393.882	85.62
394.107	87.62
394.331	97.62
394.556	93.62
394.78	78.62
395.005	81.62
395.229	87.62
395.454	71.62
395.678	82.62
395.903	81.62
396.127	97.62
396.352	86.62
396.576	79.62
396.801	84.62
397.025	80.62
397.249	91.62
397.474	83.62
397.698	81.62
397.922	90.62
398.147	90.62
398.371	98.62
398.595	90.62
398.82	79.62
399.044	85.62
399.268	66.62
399.492	91.62
399.717	86.62
399.941	98.62
400.165	84.62
400.389	90.62
400.613	84.62
400.837	81.62
401.062	90.62
401.286	91.62
401.51	82.62
401.734	87.62
401.958	78.62
402.182	125.62
402.406	157.62
402.63	112.62
402.854	93.62
403.078	71.62
403.302	94.62
403.526	81.62
403.75	77.62
403.974	83.62
404.198	77.62
404.422	76.62
404.645	81.62
404.869	85.62
405.093	90.62
405.317	92.62
405.541	100.62
405.765	105.62
405.988	117.62
406.212	174.62
406.436	228.62
406.66	148.62
406.883	100.62
407.107	92.62
407.331	103.62
407.555	84.62
407.778	87.62
408.002	79.62
408.226	81.62
408.449	94.62
408.673	87.62
408.896	90.62
409.12	88.62
409.344	97.62
409.567	82.62
409.791	88.62
410.014	92.62
410.238	86.62
410.461	91.62
410.685	87.62
410.908	100.62
411.132	101.62
411.355	94.62
411.578	97.62
411.802	89.62
412.025	86.62
412.249	86.62
412.472	91.62
412.695	97.62
412.919	86.62
413.142	89.62
413.365	90.62
413.589	86.62
413.812	78.62
414.035	81.62
414.258	89.62
414.482	89.62
414.705	86.62
414.928	87.62
415.151	70.62
415.374	79.62
415.597	90.62
415.821	86.62
416.044	87.62
416.267	84.62
416.49	80.62
416.713	93.62
416.936	84.62
417.159	88.62
417.382	77.62
417.605	87.62
417.828	88.62
418.051	98.62
418.274	81.62
418.497	94.62
418.72	98.62
418.943	97.62
419.166	84.62
419.389	96.62
419.611	89.62
419.834	84.62
420.057	86.62
420.28	91.62
420.503	79.62
420.726	88.62
420.948	91.62
421.171	58.62
421.394	89.62
421.617	79.62
421.839	103.62
422.062	87.62
422.285	92.62
422.507	107.62
422.73	95.62
422.953	87.62
423.175	85.62
423.398	81.62
423.621	95.62
423.843	95.62
424.066	82.62
424.288	78.62
424.511	83.62
424.733	89.62
424.956	90.62
425.178	96.62
425.401	97.62
425.623	88.62
425.846	82.62
426.068	93.62
426.291	89.62
426.513	87.62
426.735	80.62
426.958	84.62
427.18	111.62
427.402	124.62
427.625	171.62
427.847	143.62
428.069	130.62
428.292	91.62
428.514	80.62
428.736	82.62
428.958	79.62
429.181	81.62
429.403	77.62
429.625	84.62
429.847	96.62
430.069	98.62
430.292	92.62
430.514	94.62
430.736	72.62
430.958	96.62
431.18	73.62
431.402	83.62
431.624	73.62
431.846	80.62
432.068	87.62
432.29	97.62
432.512	87.62
432.734	90.62
432.956	89.62
433.178	91.62
433.4	86.62
433.622	98.62
433.844	87.62
434.066	83.62
434.287	58.62
434.509	96.62
434.731	74.62
434.953	102.62
435.175	87.62
435.397	98.62
435.618	85.62
435.84	99.62
436.062	111.62
436.284	128.62
436.505	89.62
436.727	101.62
436.949	82.62
437.17	89.62
437.392	88.62
437.614	91.62
437.835	94.62
438.057	102.62
438.278	96.62
438.5	101.62
438.721	100.62
438.943	91.62
439.165	66.62
439.386	85.62
439.608	91.62
439.829	89.62
440.05	108.62
440.272	133.62
440.493	90.62
440.715	88.62
440.936	81.62
441.158	85.62
441.379	93.62
441.6	97.62
441.822	99.62
442.043	103.62
442.264	88.62
442.486	93.62
442.707	79.62
442.928	103.62
443.149	131.62
443.371	130.62
443.592	104.62
443.813	120.62
444.034	102.62
444.255	100.62
444.476	84.62
444.698	82.62
444.919	84.62
445.14	135.62
445.361	116.62
445.582	90.62
445.803	134.62
446.024	120.62
446.245	116.62
446.466	109.62
446.687	74.62
446.908	94.62
447.129	89.62
447.35	80.62
447.571	89.62
447.792	85.62
448.013	97.62
448.234	105.62
448.455	95.62
448.675	99.62
448.896	111.62
449.117	101.62
449.338	105.62
449.559	121.62
449.779	119.62
450	94.62
450.221	91.62
450.442	94.62
450.662	93.62
450.883	96.62
451.104	106.62
451.324	93.62
451.545	84.62
451.766	84.62
451.986	89.62
452.207	81.62
452.428	82.62
452.648	97.62
452.869	105.62
453.089	122.62
453.31	102.62
453.53	77.62
453.751	82.62
453.971	90.62
454.192	95.62
454.412	100.62
454.633	89.62
454.853	82.62
455.073	80.62
455.294	86.62
455.514	99.62
455.734	72.62
455.955	91.62
456.175	68.62
456.395	73.62
456.616	89.62
456.836	93.62
457.056	76.62
457.276	82.62
457.497	71.62
457.717	79.62
457.937	75.62
458.157	77.62
458.377	87.62
458.598	114.62
458.818	138.62
459.038	160.62
459.258	114.62
459.478	78.62
459.698	77.62
459.918	92.62
460.138	91.62
460.358	81.62
460.578	96.62
460.798	72.62
461.018	93.62
461.238	83.62
461.458	89.62
461.678	74.62
461.898	86.62
462.118	75.62
462.338	91.62
462.558	77.62
462.777	96.62
462.997	77.62
463.217	81.62
463.437	67.62
463.657	77.62
463.876	84.62
464.096	78.62
464.316	72.62
464.536	80.62
464.755	98.62
464.975	111.62
465.195	156.62
465.414	130.62
465.634	79.62
465.854	91.62
466.073	88.62
466.293	88.62
466.512	83.62
466.732	93.62
466.951	86.62
467.171	90.62
467.391	98.62
467.61	101.62
467.829	98.62
468.049	104.62
468.268	104.62
468.488	70.62
468.707	92.62
468.927	74.62
469.146	67.62
469.365	79.62
469.585	83.62
469.804	95.62
470.023	96.62
470.243	79.62
470.462	97.62
470.681	97.62
470.901	73.62
471.12	81.62
471.339	86.62
471.558	87.62
471.777	90.62
471.997	88.62
472.216	133.62
472.435	222.62
472.654	105.62
472.873	87.62
473.092	95.62
473.311	77.62
473.53	81.62
473.749	80.62
473.968	94.62
474.187	102.62
474.406	99.62
474.625	101.62
474.844	75.62
475.063	83.62
475.282	81.62
475.501	98.62
475.72	108.62
475.939	81.62
476.158	94.62
476.377	82.62
476.596	89.62
476.814	101.62
477.033	85.62
477.252	74.62
477.471	73.62
477.69	94.62
477.908	94.62
478.127	90.62
478.346	83.62
478.564	87.62
478.783	98.62
479.002	98.62
479.22	77.62
479.439	111.62
479.658	104.62
479.876	87.62
480.095	97.62
480.313	82.62
480.532	99.62
480.751	104.62
480.969	142.62
481.188	318.62
481.406	202.62
481.624	98.62
481.843	86.62
482.061	97.62
482.28	92.62
482.498	96.62
482.717	80.62
482.935	72.62
483.153	98.62
483.372	89.62
483.59	93.62
483.808	76.62
484.027	86.62
484.245	85.62
484.463	85.62
484.681	95.62
484.9	86.62
485.118	91.62
485.336	88.62
485.554	104.62
485.772	101.62
485.99	95.62
486.209	106.62
486.427	94.62
486.645	107.62
486.863	118.62
487.081	106.62
487.299	101.62
487.517	78.62
487.735	93.62
487.953	84.62
488.171	97.62
488.389	109.62
488.607	87.62
488.825	70.62
489.043	77.62
489.261	89.62
489.479	94.62
489.696	87.62
489.914	74.62
490.132	96.62
490.35	102.62
490.568	67.62
490.786	93.62
491.003	95.62
491.221	78.62
491.439	82.62
491.657	89.62
491.874	74.62
492.092	88.62
492.31	87.62
492.527	90.62
492.745	87.62
492.963	74.62
493.18	81.62
493.398	72.62
493.615	87.62
493.833	99.62
494.05	96.62
494.268	89.62
494.485	93.62
494.703	100.62
494.92	83.62
495.138	67.62
495.355	80.62
495.573	93.62
495.79	88.62
496.008	84.62
496.225	85.62
496.442	92.62
496.66	83.62
496.877	93.62
497.094	93.62
497.312	79.62
497.529	84.62
497.746	95.62
497.963	79.62
498.181	97.62
498.398	85.62
498.615	104.62
498.832	88.62
499.049	78.62
499.267	90.62
499.484	105.62
499.701	101.62
499.918	93.62
500.135	97.62
500.352	83.62
500.569	87.62
500.786	104.62
501.003	103.62
501.22	104.62
501.437	85.62
501.654	98.62
501.871	107.62
502.088	88.62
502.305	81.62
502.522	74.62
502.739	81.62
502.956	74.62
503.172	93.62
503.389	96.62
503.606	86.62
503.823	97.62
504.04	95.62
504.256	86.62
504.473	90.62
504.69	90.62
504.907	100.62
505.123	91.62
505.34	89.62
505.557	81.62
505.773	93.62
505.99	88.62
506.207	81.62
506.423	84.62
506.64	89.62
506.856	98.62
507.073	103.62
507.289	101.62
507.506	108.62
507.722	102.62
507.939	88.62
508.155	90.62
508.372	91.62
508.588	96.62
508.805	91.62
509.021	97.62
509.238	84.62
509.454	85.62
509.67	94.62
509.887	102.62
510.103	129.62
510.319	238.62
510.536	781.62
510.752	2573.62
510.968	661.62
511.184	142.62
511.401	101.62
511.617	102.62
511.833	102.62
512.049	95.62
512.265	91.62
512.481	99.62
512.698	87.62
512.914	87.62
513.13	91.62
513.346	84.62
513.562	94.62
513.778	91.62
513.994	96.62
514.21	95.62
514.426	115.62
514.642	125.62
514.858	134.62
515.074	184.62
515.29	486.62
515.506	1530.62
515.721	530.62
515.937	153.62
516.153	93.62
516.369	102.62
