Data from Uncirc_1985_H10_HRD10591_00012.txt Node
Date: Wed Jan 03 12:18:19 EST 2024
User: Yrep
Spectrometer: HR+D1059
Trigger mode: 1
Integration Time (sec): 1.000000E-1
Scans to average: 1
Electric dark correction enabled: true
Nonlinearity correction enabled: false
Boxcar width: 0
XAxis mode: Wavelengths
Number of Pixels in Spectrum: 2048
>>>>>Begin Spectral Data<<<<<
223.165	-21.88
223.4	-21.88
223.635	-21.88
223.869	-8.88
224.104	-20.88
224.338	-3.88
224.573	-12.88
224.808	-5.88
225.042	-6.88
225.277	-9.88
225.511	-3.88
225.746	2.12
225.98	14.12
226.215	5.12
226.449	15.12
226.683	15.12
226.918	21.12
227.152	22.12
227.387	27.12
227.621	34.12
227.856	54.12
228.09	43.12
228.324	48.12
228.559	55.12
228.793	59.12
229.027	72.12
229.262	62.12
229.496	57.12
229.73	58.12
229.964	71.12
230.199	64.12
230.433	77.12
230.667	73.12
230.901	80.12
231.136	73.12
231.37	74.12
231.604	89.12
231.838	76.12
232.072	76.12
232.306	91.12
232.541	82.12
232.775	63.12
233.009	70.12
233.243	82.12
233.477	84.12
233.711	87.12
233.945	82.12
234.179	86.12
234.413	71.12
234.647	88.12
234.881	81.12
235.115	90.12
235.349	79.12
235.583	84.12
235.817	84.12
236.051	67.12
236.285	66.12
236.519	86.12
236.753	72.12
236.987	85.12
237.221	88.12
237.455	80.12
237.689	71.12
237.922	65.12
238.156	78.12
238.39	65.12
238.624	75.12
238.858	77.12
239.091	78.12
239.325	84.12
239.559	82.12
239.793	82.12
240.027	92.12
240.26	82.12
240.494	79.12
240.728	71.12
240.961	74.12
241.195	73.12
241.429	86.12
241.662	69.12
241.896	75.12
242.13	80.12
242.363	77.12
242.597	78.12
242.83	86.12
243.064	65.12
243.298	69.12
243.531	91.12
243.765	66.12
243.998	56.12
244.232	84.12
244.465	78.12
244.699	67.12
244.932	84.12
245.166	87.12
245.399	75.12
245.633	71.12
245.866	78.12
246.099	79.12
246.333	74.12
246.566	87.12
246.8	70.12
247.033	82.12
247.266	79.12
247.5	86.12
247.733	89.12
247.966	86.12
248.2	74.12
248.433	68.12
248.666	83.12
248.899	88.12
249.133	79.12
249.366	88.12
249.599	88.12
249.832	75.12
250.066	82.12
250.299	71.12
250.532	79.12
250.765	85.12
250.998	72.12
251.231	88.12
251.465	85.12
251.698	80.12
251.931	68.12
252.164	74.12
252.397	84.12
252.63	63.12
252.863	69.12
253.096	82.12
253.329	86.12
253.562	80.12
253.795	90.12
254.028	89.12
254.261	72.12
254.494	85.12
254.727	81.12
254.96	91.12
255.193	80.12
255.426	81.12
255.659	80.12
255.892	89.12
256.124	69.12
256.357	86.12
256.59	79.12
256.823	88.12
257.056	74.12
257.289	79.12
257.521	74.12
257.754	82.12
257.987	82.12
258.22	76.12
258.452	68.12
258.685	80.12
258.918	80.12
259.151	89.12
259.383	88.12
259.616	79.12
259.849	92.12
260.081	79.12
260.314	87.12
260.547	84.12
260.779	82.12
261.012	85.12
261.244	82.12
261.477	90.12
261.71	102.12
261.942	108.12
262.175	96.12
262.407	88.12
262.64	86.12
262.872	70.12
263.105	69.12
263.337	86.12
263.57	101.12
263.802	86.12
264.035	86.12
264.267	83.12
264.499	85.12
264.732	99.12
264.964	83.12
265.197	77.12
265.429	81.12
265.661	81.12
265.894	68.12
266.126	71.12
266.358	82.12
266.591	105.12
266.823	61.12
267.055	92.12
267.287	79.12
267.52	77.12
267.752	81.12
267.984	89.12
268.216	82.12
268.448	79.12
268.681	85.12
268.913	64.12
269.145	83.12
269.377	84.12
269.609	80.12
269.841	97.12
270.073	91.12
270.306	81.12
270.538	85.12
270.77	82.12
271.002	99.12
271.234	85.12
271.466	93.12
271.698	89.12
271.93	86.12
272.162	90.12
272.394	91.12
272.626	90.12
272.858	77.12
273.09	87.12
273.322	89.12
273.553	72.12
273.785	74.12
274.017	90.12
274.249	84.12
274.481	70.12
274.713	89.12
274.945	69.12
275.176	92.12
275.408	84.12
275.64	87.12
275.872	83.12
276.104	82.12
276.335	94.12
276.567	90.12
276.799	83.12
277.031	105.12
277.262	74.12
277.494	85.12
277.726	86.12
277.957	76.12
278.189	90.12
278.421	73.12
278.652	99.12
278.884	82.12
279.115	77.12
279.347	90.12
279.579	73.12
279.81	77.12
280.042	95.12
280.273	98.12
280.505	84.12
280.736	91.12
280.968	82.12
281.199	90.12
281.431	87.12
281.662	78.12
281.894	93.12
282.125	101.12
282.356	112.12
282.588	134.12
282.819	101.12
283.051	88.12
283.282	88.12
283.513	82.12
283.745	77.12
283.976	95.12
284.207	86.12
284.439	86.12
284.67	79.12
284.901	85.12
285.132	80.12
285.364	80.12
285.595	77.12
285.826	88.12
286.057	83.12
286.288	72.12
286.52	85.12
286.751	79.12
286.982	87.12
287.213	87.12
287.444	95.12
287.675	79.12
287.906	84.12
288.138	88.12
288.369	99.12
288.6	95.12
288.831	77.12
289.062	81.12
289.293	91.12
289.524	82.12
289.755	87.12
289.986	88.12
290.217	87.12
290.448	67.12
290.679	85.12
290.91	91.12
291.141	90.12
291.371	83.12
291.602	92.12
291.833	84.12
292.064	96.12
292.295	83.12
292.526	96.12
292.757	88.12
292.987	88.12
293.218	72.12
293.449	84.12
293.68	85.12
293.91	74.12
294.141	81.12
294.372	81.12
294.603	89.12
294.833	83.12
295.064	88.12
295.295	82.12
295.525	95.12
295.756	92.12
295.987	111.12
296.217	122.12
296.448	118.12
296.679	95.12
296.909	79.12
297.14	91.12
297.37	77.12
297.601	80.12
297.831	89.12
298.062	102.12
298.292	102.12
298.523	82.12
298.753	93.12
298.984	89.12
299.214	90.12
299.445	86.12
299.675	89.12
299.905	101.12
300.136	95.12
300.366	90.12
300.597	86.12
300.827	78.12
301.057	82.12
301.288	84.12
301.518	93.12
301.748	87.12
301.979	88.12
302.209	87.12
302.439	96.12
302.669	93.12
302.9	86.12
303.13	87.12
303.36	92.12
303.59	90.12
303.82	105.12
304.051	91.12
304.281	79.12
304.511	82.12
304.741	84.12
304.971	82.12
305.201	85.12
305.431	85.12
305.661	92.12
305.891	89.12
306.121	99.12
306.352	88.12
306.582	107.12
306.812	90.12
307.042	89.12
307.272	93.12
307.502	102.12
307.731	88.12
307.961	82.12
308.191	95.12
308.421	87.12
308.651	83.12
308.881	107.12
309.111	89.12
309.341	102.12
309.571	107.12
309.8	90.12
310.03	99.12
310.26	92.12
310.49	112.12
310.72	95.12
310.949	108.12
311.179	91.12
311.409	107.12
311.639	99.12
311.868	105.12
312.098	98.12
312.328	101.12
312.557	99.12
312.787	98.12
313.017	98.12
313.246	91.12
313.476	84.12
313.706	97.12
313.935	97.12
314.165	95.12
314.394	90.12
314.624	100.12
314.853	91.12
315.083	87.12
315.312	89.12
315.542	70.12
315.771	86.12
316.001	65.12
316.23	81.12
316.46	88.12
316.689	82.12
316.919	98.12
317.148	78.12
317.377	97.12
317.607	91.12
317.836	98.12
318.065	105.12
318.295	90.12
318.524	82.12
318.753	89.12
318.983	87.12
319.212	101.12
319.441	104.12
319.67	89.12
319.9	89.12
320.129	90.12
320.358	98.12
320.587	92.12
320.816	101.12
321.046	96.12
321.275	88.12
321.504	96.12
321.733	94.12
321.962	95.12
322.191	99.12
322.42	110.12
322.649	102.12
322.878	103.12
323.108	105.12
323.337	108.12
323.566	119.12
323.795	136.12
324.024	179.12
324.253	344.12
324.482	703.12
324.71	1445.12
324.939	1921.12
325.168	708.12
325.397	195.12
325.626	146.12
325.855	122.12
326.084	107.12
326.313	117.12
326.542	150.12
326.77	221.12
326.999	423.12
327.228	820.12
327.457	1503.12
327.686	1184.12
327.914	325.12
328.143	159.12
328.372	141.12
328.6	111.12
328.829	120.12
329.058	127.12
329.287	109.12
329.515	96.12
329.744	82.12
329.972	86.12
330.201	95.12
330.43	103.12
330.658	113.12
330.887	115.12
331.115	103.12
331.344	90.12
331.572	91.12
331.801	103.12
332.03	99.12
332.258	90.12
332.486	90.12
332.715	99.12
332.943	102.12
333.172	98.12
333.4	100.12
333.629	98.12
333.857	104.12
334.085	107.12
334.314	121.12
334.542	105.12
334.771	92.12
334.999	86.12
335.227	81.12
335.455	97.12
335.684	86.12
335.912	94.12
336.14	95.12
336.369	97.12
336.597	92.12
336.825	73.12
337.053	94.12
337.281	93.12
337.51	87.12
337.738	94.12
337.966	97.12
338.194	90.12
338.422	78.12
338.65	95.12
338.878	101.12
339.106	80.12
339.334	93.12
339.562	83.12
339.79	95.12
340.018	94.12
340.246	87.12
340.474	91.12
340.702	95.12
340.93	92.12
341.158	93.12
341.386	88.12
341.614	95.12
341.842	95.12
342.07	90.12
342.298	87.12
342.526	96.12
342.754	93.12
342.981	83.12
343.209	87.12
343.437	100.12
343.665	98.12
343.893	90.12
344.12	90.12
344.348	90.12
344.576	93.12
344.804	94.12
345.031	81.12
345.259	86.12
345.487	91.12
345.714	91.12
345.942	74.12
346.17	90.12
346.397	103.12
346.625	104.12
346.853	97.12
347.08	97.12
347.308	78.12
347.535	96.12
347.763	101.12
347.99	102.12
348.218	99.12
348.445	106.12
348.673	94.12
348.9	80.12
349.128	86.12
349.355	97.12
349.583	84.12
349.81	89.12
350.037	92.12
350.265	84.12
350.492	96.12
350.72	96.12
350.947	85.12
351.174	106.12
351.402	107.12
351.629	113.12
351.856	86.12
352.083	99.12
352.311	93.12
352.538	101.12
352.765	106.12
352.992	101.12
353.22	106.12
353.447	98.12
353.674	98.12
353.901	105.12
354.128	93.12
354.355	82.12
354.583	98.12
354.81	102.12
355.037	95.12
355.264	93.12
355.491	85.12
355.718	70.12
355.945	95.12
356.172	95.12
356.399	89.12
356.626	99.12
356.853	98.12
357.08	82.12
357.307	85.12
357.534	91.12
357.761	83.12
357.988	103.12
358.215	87.12
358.441	82.12
358.668	85.12
358.895	92.12
359.122	80.12
359.349	85.12
359.576	94.12
359.802	86.12
360.029	97.12
360.256	96.12
360.483	99.12
360.709	74.12
360.936	95.12
361.163	91.12
361.39	91.12
361.616	84.12
361.843	84.12
362.07	84.12
362.296	90.12
362.523	84.12
362.749	86.12
362.976	85.12
363.203	85.12
363.429	71.12
363.656	85.12
363.882	83.12
364.109	79.12
364.335	93.12
364.562	76.12
364.788	81.12
365.015	77.12
365.241	88.12
365.468	95.12
365.694	95.12
365.92	87.12
366.147	88.12
366.373	87.12
366.599	82.12
366.826	88.12
367.052	78.12
367.278	87.12
367.505	80.12
367.731	86.12
367.957	87.12
368.184	81.12
368.41	98.12
368.636	96.12
368.862	106.12
369.089	114.12
369.315	90.12
369.541	93.12
369.767	81.12
369.993	93.12
370.219	83.12
370.445	81.12
370.672	78.12
370.898	78.12
371.124	88.12
371.35	81.12
371.576	88.12
371.802	94.12
372.028	99.12
372.254	82.12
372.48	83.12
372.706	98.12
372.932	80.12
373.158	92.12
373.384	96.12
373.61	82.12
373.835	98.12
374.061	83.12
374.287	79.12
374.513	91.12
374.739	88.12
374.965	86.12
375.191	98.12
375.416	93.12
375.642	84.12
375.868	97.12
376.094	95.12
376.319	82.12
376.545	74.12
376.771	90.12
376.997	99.12
377.222	99.12
377.448	86.12
377.674	85.12
377.899	106.12
378.125	82.12
378.35	94.12
378.576	102.12
378.802	105.12
379.027	88.12
379.253	98.12
379.478	70.12
379.704	96.12
379.929	97.12
380.155	104.12
380.38	73.12
380.606	95.12
380.831	101.12
381.057	87.12
381.282	77.12
381.507	99.12
381.733	103.12
381.958	85.12
382.184	93.12
382.409	99.12
382.634	97.12
382.86	83.12
383.085	110.12
383.31	93.12
383.535	108.12
383.761	97.12
383.986	85.12
384.211	88.12
384.436	94.12
384.662	95.12
384.887	99.12
385.112	110.12
385.337	90.12
385.562	105.12
385.787	97.12
386.013	106.12
386.238	106.12
386.463	101.12
386.688	102.12
386.913	106.12
387.138	99.12
387.363	93.12
387.588	92.12
387.813	108.12
388.038	95.12
388.263	107.12
388.488	114.12
388.713	95.12
388.938	99.12
389.163	90.12
389.387	81.12
389.612	84.12
389.837	81.12
390.062	94.12
390.287	107.12
390.512	102.12
390.736	96.12
390.961	99.12
391.186	94.12
391.411	77.12
391.636	86.12
391.86	70.12
392.085	91.12
392.31	84.12
392.534	79.12
392.759	80.12
392.984	97.12
393.208	98.12
393.433	98.12
393.658	89.12
393.882	78.12
394.107	94.12
394.331	89.12
394.556	81.12
394.78	90.12
395.005	83.12
395.229	76.12
395.454	88.12
395.678	84.12
395.903	73.12
396.127	89.12
396.352	78.12
396.576	87.12
396.801	99.12
397.025	99.12
397.249	83.12
397.474	74.12
397.698	79.12
397.922	83.12
398.147	90.12
398.371	99.12
398.595	86.12
398.82	93.12
399.044	97.12
399.268	82.12
399.492	84.12
399.717	75.12
399.941	77.12
400.165	102.12
400.389	87.12
400.613	80.12
400.837	84.12
401.062	85.12
401.286	89.12
401.51	88.12
401.734	88.12
401.958	116.12
402.182	119.12
402.406	126.12
402.63	105.12
402.854	85.12
403.078	93.12
403.302	74.12
403.526	85.12
403.75	93.12
403.974	73.12
404.198	93.12
404.422	84.12
404.645	70.12
404.869	92.12
405.093	88.12
405.317	96.12
405.541	98.12
405.765	82.12
405.988	114.12
406.212	148.12
406.436	173.12
406.66	118.12
406.883	93.12
407.107	88.12
407.331	93.12
407.555	87.12
407.778	90.12
408.002	94.12
408.226	74.12
408.449	81.12
408.673	98.12
408.896	94.12
409.12	97.12
409.344	79.12
409.567	88.12
409.791	86.12
410.014	90.12
410.238	86.12
410.461	77.12
410.685	95.12
410.908	94.12
411.132	101.12
411.355	107.12
411.578	98.12
411.802	98.12
412.025	99.12
412.249	87.12
412.472	83.12
412.695	87.12
412.919	87.12
413.142	88.12
413.365	93.12
413.589	80.12
413.812	72.12
414.035	91.12
414.258	88.12
414.482	81.12
414.705	91.12
414.928	96.12
415.151	85.12
415.374	99.12
415.597	69.12
415.821	78.12
416.044	95.12
416.267	91.12
416.49	94.12
416.713	88.12
416.936	78.12
417.159	75.12
417.382	75.12
417.605	85.12
417.828	85.12
418.051	96.12
418.274	83.12
418.497	79.12
418.72	78.12
418.943	80.12
419.166	95.12
419.389	103.12
419.611	95.12
419.834	89.12
420.057	85.12
420.28	94.12
420.503	86.12
420.726	74.12
420.948	79.12
421.171	91.12
421.394	90.12
421.617	97.12
421.839	83.12
422.062	96.12
422.285	87.12
422.507	89.12
422.73	88.12
422.953	97.12
423.175	94.12
423.398	87.12
423.621	84.12
423.843	79.12
424.066	80.12
424.288	89.12
424.511	88.12
424.733	81.12
424.956	96.12
425.178	96.12
425.401	95.12
425.623	86.12
425.846	87.12
426.068	98.12
426.291	105.12
426.513	96.12
426.735	91.12
426.958	96.12
427.18	98.12
427.402	117.12
427.625	135.12
427.847	117.12
428.069	99.12
428.292	81.12
428.514	92.12
428.736	85.12
428.958	82.12
429.181	89.12
429.403	94.12
429.625	80.12
429.847	95.12
430.069	101.12
430.292	92.12
430.514	90.12
430.736	63.12
430.958	90.12
431.18	77.12
431.402	70.12
431.624	90.12
431.846	74.12
432.068	84.12
432.29	92.12
432.512	81.12
432.734	87.12
432.956	74.12
433.178	93.12
433.4	89.12
433.622	94.12
433.844	88.12
434.066	101.12
434.287	94.12
434.509	82.12
434.731	75.12
434.953	82.12
435.175	87.12
435.397	85.12
435.618	94.12
435.84	108.12
436.062	96.12
436.284	104.12
436.505	104.12
436.727	88.12
436.949	74.12
437.17	88.12
437.392	79.12
437.614	93.12
437.835	98.12
438.057	107.12
438.278	101.12
438.5	101.12
438.721	108.12
438.943	90.12
439.165	87.12
439.386	82.12
439.608	99.12
439.829	97.12
440.05	89.12
440.272	122.12
440.493	91.12
440.715	75.12
440.936	81.12
441.158	97.12
441.379	81.12
441.6	94.12
441.822	95.12
442.043	91.12
442.264	82.12
442.486	96.12
442.707	83.12
442.928	102.12
443.149	120.12
443.371	115.12
443.592	114.12
443.813	110.12
444.034	90.12
444.255	104.12
444.476	84.12
444.698	88.12
444.919	93.12
445.14	136.12
445.361	129.12
445.582	107.12
445.803	110.12
446.024	120.12
446.245	134.12
446.466	97.12
446.687	74.12
446.908	90.12
447.129	81.12
447.35	88.12
447.571	101.12
447.792	75.12
448.013	95.12
448.234	100.12
448.455	96.12
448.675	102.12
448.896	107.12
449.117	99.12
449.338	96.12
449.559	124.12
449.779	122.12
450	92.12
450.221	81.12
450.442	86.12
450.662	92.12
450.883	97.12
451.104	93.12
451.324	96.12
451.545	101.12
451.766	87.12
451.986	83.12
452.207	77.12
452.428	91.12
452.648	84.12
452.869	101.12
453.089	101.12
453.31	109.12
453.53	105.12
453.751	84.12
453.971	87.12
454.192	103.12
454.412	94.12
454.633	93.12
454.853	87.12
455.073	100.12
455.294	90.12
455.514	92.12
455.734	85.12
455.955	70.12
456.175	81.12
456.395	93.12
456.616	93.12
456.836	88.12
457.056	71.12
457.276	84.12
457.497	82.12
457.717	74.12
457.937	86.12
458.157	75.12
458.377	87.12
458.598	100.12
458.818	133.12
459.038	119.12
459.258	112.12
459.478	86.12
459.698	77.12
459.918	81.12
460.138	90.12
460.358	77.12
460.578	64.12
460.798	91.12
461.018	90.12
461.238	98.12
461.458	94.12
461.678	80.12
461.898	88.12
462.118	68.12
462.338	79.12
462.558	84.12
462.777	86.12
462.997	101.12
463.217	86.12
463.437	79.12
463.657	90.12
463.876	81.12
464.096	88.12
464.316	84.12
464.536	100.12
464.755	112.12
464.975	117.12
465.195	137.12
465.414	121.12
465.634	80.12
465.854	71.12
466.073	87.12
466.293	86.12
466.512	86.12
466.732	82.12
466.951	83.12
467.171	86.12
467.391	73.12
467.61	97.12
467.829	85.12
468.049	79.12
468.268	90.12
468.488	100.12
468.707	86.12
468.927	91.12
469.146	92.12
469.365	80.12
469.585	88.12
469.804	75.12
470.023	88.12
470.243	89.12
470.462	84.12
470.681	103.12
470.901	88.12
471.12	80.12
471.339	97.12
471.558	82.12
471.777	94.12
471.997	105.12
472.216	89.12
472.435	95.12
472.654	91.12
472.873	80.12
473.092	96.12
473.311	80.12
473.53	94.12
473.749	89.12
473.968	83.12
474.187	76.12
474.406	95.12
474.625	91.12
474.844	94.12
475.063	94.12
475.282	82.12
475.501	90.12
475.72	94.12
475.939	93.12
476.158	73.12
476.377	81.12
476.596	91.12
476.814	81.12
477.033	100.12
477.252	74.12
477.471	85.12
477.69	86.12
477.908	77.12
478.127	86.12
478.346	84.12
478.564	98.12
478.783	93.12
479.002	81.12
479.22	86.12
479.439	89.12
479.658	110.12
479.876	87.12
480.095	80.12
480.313	85.12
480.532	90.12
480.751	84.12
480.969	104.12
481.188	113.12
481.406	100.12
481.624	81.12
481.843	78.12
482.061	82.12
482.28	80.12
482.498	85.12
482.717	88.12
482.935	93.12
483.153	82.12
483.372	87.12
483.59	93.12
483.808	75.12
484.027	85.12
484.245	93.12
484.463	91.12
484.681	96.12
484.9	94.12
485.118	82.12
485.336	87.12
485.554	86.12
485.772	99.12
485.99	99.12
486.209	113.12
486.427	98.12
486.645	97.12
486.863	114.12
487.081	81.12
487.299	90.12
487.517	97.12
487.735	92.12
487.953	84.12
488.171	93.12
488.389	83.12
488.607	96.12
488.825	87.12
489.043	82.12
489.261	80.12
489.479	86.12
489.696	90.12
489.914	89.12
490.132	96.12
490.35	93.12
490.568	72.12
490.786	90.12
491.003	91.12
491.221	97.12
491.439	90.12
491.657	99.12
491.874	93.12
492.092	87.12
492.31	90.12
492.527	74.12
492.745	84.12
492.963	95.12
493.18	93.12
493.398	74.12
493.615	101.12
493.833	99.12
494.05	102.12
494.268	88.12
494.485	89.12
494.703	104.12
494.92	91.12
495.138	91.12
495.355	85.12
495.573	80.12
495.79	85.12
496.008	93.12
496.225	75.12
496.442	85.12
496.66	90.12
496.877	98.12
497.094	93.12
497.312	97.12
497.529	91.12
497.746	83.12
497.963	89.12
498.181	85.12
498.398	86.12
498.615	94.12
498.832	112.12
499.049	95.12
499.267	97.12
499.484	72.12
499.701	101.12
499.918	93.12
500.135	86.12
500.352	92.12
500.569	95.12
500.786	84.12
501.003	91.12
501.22	81.12
501.437	94.12
501.654	89.12
501.871	110.12
502.088	109.12
502.305	101.12
502.522	89.12
502.739	96.12
502.956	98.12
503.172	85.12
503.389	94.12
503.606	98.12
503.823	86.12
504.04	95.12
504.256	87.12
504.473	94.12
504.69	83.12
504.907	89.12
505.123	94.12
505.34	89.12
505.557	93.12
505.773	86.12
505.99	85.12
506.207	97.12
506.423	83.12
506.64	75.12
506.856	89.12
507.073	85.12
507.289	84.12
507.506	88.12
507.722	111.12
507.939	101.12
508.155	98.12
508.372	90.12
508.588	82.12
508.805	87.12
509.021	105.12
509.238	91.12
509.454	105.12
509.67	98.12
509.887	111.12
510.103	128.12
510.319	203.12
510.536	629.12
510.752	1964.12
510.968	550.12
511.184	155.12
511.401	109.12
511.617	100.12
511.833	92.12
512.049	85.12
512.265	88.12
512.481	93.12
512.698	91.12
512.914	96.12
513.13	89.12
513.346	91.12
513.562	81.12
513.778	87.12
513.994	99.12
514.21	103.12
514.426	97.12
514.642	121.12
514.858	119.12
515.074	143.12
515.29	387.12
515.506	1167.12
515.721	419.12
515.937	140.12
516.153	107.12
516.369	100.12
516.585	85.12
516.801	88.12
517.016	88.12
