Data from Uncirc_1985_H10_HRD10591_00007.txt Node
Date: Wed Jan 03 12:18:18 EST 2024
User: Yrep
Spectrometer: HR+D1059
Trigger mode: 1
Integration Time (sec): 1.000000E-1
Scans to average: 1
Electric dark correction enabled: true
Nonlinearity correction enabled: false
Boxcar width: 0
XAxis mode: Wavelengths
Number of Pixels in Spectrum: 2048
>>>>>Begin Spectral Data<<<<<
223.165	-25.69
223.4	-25.69
223.635	-25.69
223.869	-14.69
224.104	-18.69
224.338	-23.69
224.573	-15.69
224.808	-15.69
225.042	1.31
225.277	-2.69
225.511	-12.69
225.746	20.31
225.98	-0.69
226.215	15.31
226.449	22.31
226.683	11.31
226.918	28.31
227.152	31.31
227.387	34.31
227.621	35.31
227.856	40.31
228.09	62.31
228.324	63.31
228.559	65.31
228.793	60.31
229.027	54.31
229.262	68.31
229.496	66.31
229.73	80.31
229.964	77.31
230.199	73.31
230.433	86.31
230.667	80.31
230.901	69.31
231.136	66.31
231.37	80.31
231.604	86.31
231.838	81.31
232.072	79.31
232.306	72.31
232.541	71.31
232.775	85.31
233.009	76.31
233.243	78.31
233.477	83.31
233.711	77.31
233.945	90.31
234.179	88.31
234.413	73.31
234.647	78.31
234.881	79.31
235.115	77.31
235.349	76.31
235.583	88.31
235.817	68.31
236.051	76.31
236.285	80.31
236.519	72.31
236.753	80.31
236.987	61.31
237.221	97.31
237.455	73.31
237.689	81.31
237.922	62.31
238.156	73.31
238.39	74.31
238.624	76.31
238.858	68.31
239.091	79.31
239.325	63.31
239.559	85.31
239.793	82.31
240.027	68.31
240.26	77.31
240.494	79.31
240.728	76.31
240.961	78.31
241.195	85.31
241.429	73.31
241.662	75.31
241.896	86.31
242.13	85.31
242.363	80.31
242.597	79.31
242.83	63.31
243.064	72.31
243.298	79.31
243.531	75.31
243.765	84.31
243.998	100.31
244.232	96.31
244.465	60.31
244.699	73.31
244.932	80.31
245.166	73.31
245.399	76.31
245.633	74.31
245.866	78.31
246.099	72.31
246.333	66.31
246.566	85.31
246.8	84.31
247.033	90.31
247.266	72.31
247.5	76.31
247.733	95.31
247.966	67.31
248.2	81.31
248.433	73.31
248.666	74.31
248.899	82.31
249.133	87.31
249.366	95.31
249.599	98.31
249.832	86.31
250.066	79.31
250.299	77.31
250.532	75.31
250.765	79.31
250.998	63.31
251.231	94.31
251.465	84.31
251.698	77.31
251.931	89.31
252.164	71.31
252.397	69.31
252.63	90.31
252.863	89.31
253.096	79.31
253.329	88.31
253.562	71.31
253.795	84.31
254.028	89.31
254.261	82.31
254.494	88.31
254.727	86.31
254.96	69.31
255.193	71.31
255.426	79.31
255.659	91.31
255.892	80.31
256.124	79.31
256.357	80.31
256.59	88.31
256.823	73.31
257.056	85.31
257.289	74.31
257.521	79.31
257.754	72.31
257.987	86.31
258.22	89.31
258.452	81.31
258.685	80.31
258.918	84.31
259.151	85.31
259.383	74.31
259.616	84.31
259.849	83.31
260.081	82.31
260.314	88.31
260.547	73.31
260.779	75.31
261.012	85.31
261.244	68.31
261.477	87.31
261.71	82.31
261.942	86.31
262.175	101.31
262.407	89.31
262.64	84.31
262.872	79.31
263.105	103.31
263.337	85.31
263.57	89.31
263.802	86.31
264.035	79.31
264.267	87.31
264.499	90.31
264.732	98.31
264.964	69.31
265.197	98.31
265.429	71.31
265.661	83.31
265.894	99.31
266.126	83.31
266.358	75.31
266.591	78.31
266.823	85.31
267.055	87.31
267.287	76.31
267.52	89.31
267.752	76.31
267.984	91.31
268.216	80.31
268.448	80.31
268.681	90.31
268.913	85.31
269.145	87.31
269.377	83.31
269.609	81.31
269.841	73.31
270.073	85.31
270.306	83.31
270.538	77.31
270.77	61.31
271.002	91.31
271.234	81.31
271.466	80.31
271.698	76.31
271.93	89.31
272.162	89.31
272.394	80.31
272.626	86.31
272.858	83.31
273.09	101.31
273.322	76.31
273.553	83.31
273.785	79.31
274.017	88.31
274.249	86.31
274.481	85.31
274.713	69.31
274.945	90.31
275.176	88.31
275.408	86.31
275.64	76.31
275.872	81.31
276.104	86.31
276.335	100.31
276.567	91.31
276.799	106.31
277.031	97.31
277.262	92.31
277.494	90.31
277.726	86.31
277.957	95.31
278.189	76.31
278.421	84.31
278.652	84.31
278.884	79.31
279.115	83.31
279.347	85.31
279.579	79.31
279.81	81.31
280.042	93.31
280.273	77.31
280.505	89.31
280.736	87.31
280.968	84.31
281.199	83.31
281.431	80.31
281.662	93.31
281.894	88.31
282.125	95.31
282.356	109.31
282.588	123.31
282.819	113.31
283.051	75.31
283.282	83.31
283.513	67.31
283.745	104.31
283.976	97.31
284.207	87.31
284.439	78.31
284.67	91.31
284.901	73.31
285.132	81.31
285.364	91.31
285.595	108.31
285.826	87.31
286.057	81.31
286.288	90.31
286.52	103.31
286.751	91.31
286.982	88.31
287.213	93.31
287.444	105.31
287.675	109.31
287.906	99.31
288.138	85.31
288.369	82.31
288.6	89.31
288.831	83.31
289.062	81.31
289.293	85.31
289.524	69.31
289.755	84.31
289.986	107.31
290.217	85.31
290.448	90.31
290.679	96.31
290.91	94.31
291.141	87.31
291.371	85.31
291.602	99.31
291.833	96.31
292.064	89.31
292.295	83.31
292.526	86.31
292.757	92.31
292.987	80.31
293.218	72.31
293.449	90.31
293.68	91.31
293.91	83.31
294.141	92.31
294.372	90.31
294.603	82.31
294.833	87.31
295.064	84.31
295.295	97.31
295.525	87.31
295.756	84.31
295.987	112.31
296.217	130.31
296.448	109.31
296.679	100.31
296.909	85.31
297.14	83.31
297.37	94.31
297.601	96.31
297.831	87.31
298.062	94.31
298.292	91.31
298.523	85.31
298.753	95.31
298.984	86.31
299.214	79.31
299.445	97.31
299.675	84.31
299.905	94.31
300.136	93.31
300.366	100.31
300.597	89.31
300.827	92.31
301.057	90.31
301.288	92.31
301.518	85.31
301.748	86.31
301.979	84.31
302.209	88.31
302.439	89.31
302.669	90.31
302.9	72.31
303.13	93.31
303.36	77.31
303.59	101.31
303.82	113.31
304.051	90.31
304.281	75.31
304.511	89.31
304.741	93.31
304.971	102.31
305.201	86.31
305.431	94.31
305.661	79.31
305.891	95.31
306.121	99.31
306.352	105.31
306.582	100.31
306.812	94.31
307.042	90.31
307.272	85.31
307.502	92.31
307.731	96.31
307.961	91.31
308.191	95.31
308.421	79.31
308.651	89.31
308.881	91.31
309.111	85.31
309.341	103.31
309.571	99.31
309.8	90.31
310.03	99.31
310.26	90.31
310.49	83.31
310.72	104.31
310.949	99.31
311.179	85.31
311.409	96.31
311.639	95.31
311.868	99.31
312.098	100.31
312.328	92.31
312.557	107.31
312.787	114.31
313.017	103.31
313.246	88.31
313.476	75.31
313.706	94.31
313.935	93.31
314.165	102.31
314.394	99.31
314.624	103.31
314.853	96.31
315.083	98.31
315.312	71.31
315.542	97.31
315.771	82.31
316.001	85.31
316.23	101.31
316.46	91.31
316.689	91.31
316.919	97.31
317.148	95.31
317.377	87.31
317.607	90.31
317.836	95.31
318.065	74.31
318.295	89.31
318.524	83.31
318.753	89.31
318.983	94.31
319.212	97.31
319.441	81.31
319.67	104.31
319.9	100.31
320.129	95.31
320.358	97.31
320.587	99.31
320.816	94.31
321.046	111.31
321.275	98.31
321.504	86.31
321.733	99.31
321.962	105.31
322.191	94.31
322.42	104.31
322.649	109.31
322.878	115.31
323.108	92.31
323.337	120.31
323.566	123.31
323.795	136.31
324.024	189.31
324.253	327.31
324.482	715.31
324.71	1402.31
324.939	1847.31
325.168	675.31
325.397	223.31
325.626	124.31
325.855	117.31
326.084	108.31
326.313	117.31
326.542	135.31
326.77	223.31
326.999	402.31
327.228	826.31
327.457	1472.31
327.686	1185.31
327.914	316.31
328.143	166.31
328.372	125.31
328.6	122.31
328.829	118.31
329.058	109.31
329.287	122.31
329.515	106.31
329.744	98.31
329.972	94.31
330.201	116.31
330.43	124.31
330.658	99.31
330.887	121.31
331.115	111.31
331.344	96.31
331.572	114.31
331.801	112.31
332.03	99.31
332.258	103.31
332.486	105.31
332.715	91.31
332.943	95.31
333.172	107.31
333.4	76.31
333.629	104.31
333.857	108.31
334.085	95.31
334.314	121.31
334.542	98.31
334.771	102.31
334.999	90.31
335.227	81.31
335.455	84.31
335.684	96.31
335.912	100.31
336.14	93.31
336.369	93.31
336.597	86.31
336.825	115.31
337.053	103.31
337.281	90.31
337.51	91.31
337.738	92.31
337.966	95.31
338.194	91.31
338.422	100.31
338.65	91.31
338.878	91.31
339.106	84.31
339.334	91.31
339.562	94.31
339.79	91.31
340.018	95.31
340.246	97.31
340.474	92.31
340.702	97.31
340.93	99.31
341.158	88.31
341.386	108.31
341.614	79.31
341.842	87.31
342.07	94.31
342.298	95.31
342.526	99.31
342.754	87.31
342.981	84.31
343.209	101.31
343.437	94.31
343.665	90.31
343.893	97.31
344.12	87.31
344.348	92.31
344.576	90.31
344.804	102.31
345.031	103.31
345.259	98.31
345.487	97.31
345.714	90.31
345.942	83.31
346.17	92.31
346.397	90.31
346.625	91.31
346.853	105.31
347.08	74.31
347.308	98.31
347.535	109.31
347.763	91.31
347.99	97.31
348.218	100.31
348.445	104.31
348.673	100.31
348.9	95.31
349.128	105.31
349.355	96.31
349.583	98.31
349.81	100.31
350.037	114.31
350.265	99.31
350.492	87.31
350.72	93.31
350.947	107.31
351.174	118.31
351.402	97.31
351.629	100.31
351.856	107.31
352.083	107.31
352.311	116.31
352.538	108.31
352.765	106.31
352.992	119.31
353.22	104.31
353.447	110.31
353.674	105.31
353.901	98.31
354.128	100.31
354.355	95.31
354.583	104.31
354.81	95.31
355.037	111.31
355.264	98.31
355.491	92.31
355.718	87.31
355.945	97.31
356.172	79.31
356.399	83.31
356.626	95.31
356.853	107.31
357.08	102.31
357.307	111.31
357.534	106.31
357.761	99.31
357.988	93.31
358.215	98.31
358.441	99.31
358.668	97.31
358.895	84.31
359.122	86.31
359.349	77.31
359.576	83.31
359.802	114.31
360.029	111.31
360.256	83.31
360.483	99.31
360.709	99.31
360.936	87.31
361.163	95.31
361.39	114.31
361.616	93.31
361.843	88.31
362.07	88.31
362.296	101.31
362.523	114.31
362.749	82.31
362.976	90.31
363.203	100.31
363.429	83.31
363.656	93.31
363.882	98.31
364.109	81.31
364.335	93.31
364.562	87.31
364.788	104.31
365.015	87.31
365.241	88.31
365.468	92.31
365.694	100.31
365.92	111.31
366.147	85.31
366.373	87.31
366.599	88.31
366.826	85.31
367.052	93.31
367.278	97.31
367.505	90.31
367.731	104.31
367.957	85.31
368.184	99.31
368.41	102.31
368.636	100.31
368.862	113.31
369.089	91.31
369.315	90.31
369.541	94.31
369.767	90.31
369.993	98.31
370.219	95.31
370.445	84.31
370.672	71.31
370.898	83.31
371.124	83.31
371.35	98.31
371.576	93.31
371.802	92.31
372.028	82.31
372.254	81.31
372.48	104.31
372.706	98.31
372.932	75.31
373.158	73.31
373.384	96.31
373.61	83.31
373.835	93.31
374.061	82.31
374.287	93.31
374.513	87.31
374.739	81.31
374.965	90.31
375.191	76.31
375.416	90.31
375.642	94.31
375.868	98.31
376.094	91.31
376.319	83.31
376.545	80.31
376.771	97.31
376.997	89.31
377.222	95.31
377.448	92.31
377.674	92.31
377.899	92.31
378.125	98.31
378.35	85.31
378.576	106.31
378.802	91.31
379.027	94.31
379.253	89.31
379.478	87.31
379.704	95.31
379.929	86.31
380.155	79.31
380.38	113.31
380.606	114.31
380.831	83.31
381.057	96.31
381.282	98.31
381.507	91.31
381.733	89.31
381.958	104.31
382.184	96.31
382.409	106.31
382.634	89.31
382.86	102.31
383.085	109.31
383.31	93.31
383.535	110.31
383.761	103.31
383.986	102.31
384.211	105.31
384.436	101.31
384.662	90.31
384.887	96.31
385.112	106.31
385.337	97.31
385.562	91.31
385.787	109.31
386.013	111.31
386.238	108.31
386.463	107.31
386.688	96.31
386.913	104.31
387.138	105.31
387.363	110.31
387.588	84.31
387.813	114.31
388.038	122.31
388.263	115.31
388.488	101.31
388.713	109.31
388.938	98.31
389.163	97.31
389.387	109.31
389.612	98.31
389.837	99.31
390.062	104.31
390.287	90.31
390.512	98.31
390.736	90.31
390.961	94.31
391.186	90.31
391.411	101.31
391.636	90.31
391.86	91.31
392.085	81.31
392.31	81.31
392.534	88.31
392.759	96.31
392.984	89.31
393.208	94.31
393.433	105.31
393.658	92.31
393.882	95.31
394.107	86.31
394.331	101.31
394.556	88.31
394.78	91.31
395.005	88.31
395.229	85.31
395.454	102.31
395.678	75.31
395.903	101.31
396.127	95.31
396.352	87.31
396.576	87.31
396.801	94.31
397.025	100.31
397.249	103.31
397.474	103.31
397.698	88.31
397.922	91.31
398.147	89.31
398.371	95.31
398.595	103.31
398.82	93.31
399.044	84.31
399.268	98.31
399.492	88.31
399.717	84.31
399.941	99.31
400.165	84.31
400.389	99.31
400.613	88.31
400.837	95.31
401.062	87.31
401.286	102.31
401.51	83.31
401.734	87.31
401.958	93.31
402.182	122.31
402.406	134.31
402.63	99.31
402.854	92.31
403.078	87.31
403.302	92.31
403.526	87.31
403.75	99.31
403.974	84.31
404.198	103.31
404.422	90.31
404.645	82.31
404.869	92.31
405.093	93.31
405.317	89.31
405.541	99.31
405.765	99.31
405.988	97.31
406.212	132.31
406.436	179.31
406.66	114.31
406.883	105.31
407.107	103.31
407.331	82.31
407.555	94.31
407.778	87.31
408.002	90.31
408.226	85.31
408.449	95.31
408.673	90.31
408.896	87.31
409.12	98.31
409.344	96.31
409.567	96.31
409.791	88.31
410.014	89.31
410.238	88.31
410.461	96.31
410.685	96.31
410.908	88.31
411.132	90.31
411.355	75.31
411.578	100.31
411.802	90.31
412.025	94.31
412.249	78.31
412.472	80.31
412.695	96.31
412.919	82.31
413.142	81.31
413.365	87.31
413.589	87.31
413.812	77.31
414.035	100.31
414.258	82.31
414.482	98.31
414.705	99.31
414.928	71.31
415.151	93.31
415.374	96.31
415.597	87.31
415.821	92.31
416.044	105.31
416.267	92.31
416.49	77.31
416.713	94.31
416.936	85.31
417.159	89.31
417.382	86.31
417.605	81.31
417.828	79.31
418.051	86.31
418.274	77.31
418.497	89.31
418.72	92.31
418.943	101.31
419.166	96.31
419.389	108.31
419.611	98.31
419.834	89.31
420.057	94.31
420.28	87.31
420.503	96.31
420.726	87.31
420.948	92.31
421.171	101.31
421.394	101.31
421.617	89.31
421.839	93.31
422.062	91.31
422.285	102.31
422.507	97.31
422.73	91.31
422.953	85.31
423.175	91.31
423.398	86.31
423.621	93.31
423.843	80.31
424.066	92.31
424.288	75.31
424.511	91.31
424.733	93.31
424.956	104.31
425.178	106.31
425.401	96.31
425.623	106.31
425.846	89.31
426.068	89.31
426.291	80.31
426.513	89.31
426.735	93.31
426.958	92.31
427.18	106.31
427.402	122.31
427.625	151.31
427.847	121.31
428.069	100.31
428.292	87.31
428.514	87.31
428.736	81.31
428.958	88.31
429.181	85.31
429.403	66.31
429.625	86.31
429.847	83.31
430.069	101.31
430.292	92.31
430.514	89.31
430.736	90.31
430.958	85.31
431.18	89.31
431.402	83.31
431.624	81.31
431.846	76.31
432.068	73.31
432.29	87.31
432.512	89.31
432.734	86.31
432.956	85.31
433.178	92.31
433.4	93.31
433.622	103.31
433.844	91.31
434.066	82.31
434.287	103.31
434.509	88.31
434.731	101.31
434.953	87.31
435.175	92.31
435.397	79.31
435.618	90.31
435.84	97.31
436.062	123.31
436.284	111.31
436.505	98.31
436.727	95.31
436.949	99.31
437.17	102.31
437.392	89.31
437.614	91.31
437.835	111.31
438.057	127.31
438.278	106.31
438.5	110.31
438.721	116.31
438.943	106.31
439.165	92.31
439.386	76.31
439.608	92.31
439.829	94.31
440.05	123.31
440.272	116.31
440.493	100.31
440.715	91.31
440.936	93.31
441.158	75.31
441.379	75.31
441.6	87.31
441.822	103.31
442.043	103.31
442.264	96.31
442.486	96.31
442.707	97.31
442.928	93.31
443.149	123.31
443.371	116.31
443.592	110.31
443.813	98.31
444.034	100.31
444.255	82.31
444.476	86.31
444.698	84.31
444.919	89.31
445.14	140.31
445.361	132.31
445.582	116.31
445.803	134.31
446.024	123.31
446.245	140.31
446.466	103.31
446.687	91.31
446.908	85.31
447.129	94.31
447.35	95.31
447.571	92.31
447.792	96.31
448.013	91.31
448.234	101.31
448.455	95.31
448.675	115.31
448.896	117.31
449.117	95.31
449.338	101.31
449.559	122.31
449.779	117.31
450	102.31
450.221	88.31
450.442	71.31
450.662	92.31
450.883	97.31
451.104	103.31
451.324	98.31
451.545	104.31
451.766	83.31
451.986	99.31
452.207	99.31
452.428	84.31
452.648	102.31
452.869	104.31
453.089	91.31
453.31	95.31
453.53	103.31
453.751	82.31
453.971	81.31
454.192	116.31
454.412	91.31
454.633	85.31
454.853	85.31
455.073	92.31
455.294	93.31
455.514	103.31
455.734	106.31
455.955	97.31
456.175	84.31
456.395	75.31
456.616	81.31
456.836	88.31
457.056	88.31
457.276	85.31
457.497	82.31
457.717	71.31
457.937	91.31
458.157	101.31
458.377	99.31
458.598	100.31
458.818	118.31
459.038	140.31
459.258	113.31
459.478	95.31
459.698	88.31
459.918	92.31
460.138	85.31
460.358	97.31
460.578	91.31
460.798	82.31
461.018	92.31
461.238	83.31
461.458	97.31
461.678	76.31
461.898	85.31
462.118	107.31
462.338	89.31
462.558	96.31
462.777	93.31
462.997	87.31
463.217	89.31
463.437	107.31
463.657	73.31
463.876	84.31
464.096	103.31
464.316	99.31
464.536	82.31
464.755	98.31
464.975	105.31
465.195	159.31
465.414	152.31
465.634	97.31
465.854	93.31
466.073	72.31
466.293	85.31
466.512	93.31
466.732	73.31
466.951	95.31
467.171	98.31
467.391	107.31
467.61	92.31
467.829	88.31
468.049	99.31
468.268	78.31
468.488	83.31
468.707	88.31
468.927	83.31
469.146	99.31
469.365	92.31
469.585	98.31
469.804	91.31
470.023	88.31
470.243	92.31
470.462	111.31
470.681	123.31
470.901	86.31
471.12	81.31
471.339	95.31
471.558	67.31
471.777	86.31
471.997	80.31
472.216	96.31
472.435	106.31
472.654	85.31
472.873	96.31
473.092	91.31
473.311	101.31
473.53	95.31
473.749	85.31
473.968	83.31
474.187	92.31
474.406	74.31
474.625	95.31
474.844	88.31
475.063	74.31
475.282	89.31
475.501	92.31
475.72	87.31
475.939	69.31
476.158	86.31
476.377	83.31
476.596	92.31
476.814	103.31
477.033	78.31
477.252	79.31
477.471	85.31
477.69	101.31
477.908	98.31
478.127	96.31
478.346	102.31
478.564	90.31
478.783	107.31
479.002	92.31
479.22	96.31
479.439	87.31
479.658	87.31
479.876	107.31
480.095	88.31
480.313	97.31
480.532	99.31
480.751	96.31
480.969	91.31
481.188	111.31
481.406	92.31
481.624	86.31
481.843	67.31
482.061	85.31
482.28	92.31
482.498	87.31
482.717	87.31
482.935	86.31
483.153	89.31
483.372	88.31
483.59	84.31
483.808	84.31
484.027	96.31
484.245	95.31
484.463	104.31
484.681	108.31
484.9	91.31
485.118	106.31
485.336	101.31
485.554	100.31
485.772	108.31
485.99	111.31
486.209	105.31
486.427	109.31
486.645	108.31
486.863	103.31
487.081	101.31
487.299	93.31
487.517	101.31
487.735	87.31
487.953	93.31
488.171	103.31
488.389	99.31
488.607	84.31
488.825	92.31
489.043	92.31
489.261	92.31
489.479	88.31
489.696	90.31
489.914	87.31
490.132	99.31
490.35	88.31
490.568	81.31
490.786	84.31
491.003	79.31
491.221	89.31
491.439	108.31
491.657	92.31
491.874	77.31
492.092	87.31
492.31	85.31
492.527	89.31
492.745	91.31
492.963	95.31
493.18	93.31
493.398	97.31
493.615	82.31
493.833	100.31
494.05	96.31
494.268	81.31
494.485	99.31
494.703	98.31
494.92	108.31
495.138	93.31
495.355	95.31
495.573	97.31
495.79	88.31
496.008	103.31
496.225	88.31
496.442	85.31
496.66	93.31
496.877	86.31
497.094	89.31
497.312	95.31
497.529	95.31
497.746	98.31
497.963	82.31
498.181	92.31
498.398	98.31
498.615	114.31
498.832	105.31
499.049	94.31
499.267	95.31
499.484	102.31
499.701	89.31
499.918	86.31
500.135	91.31
500.352	103.31
500.569	77.31
500.786	74.31
501.003	91.31
501.22	83.31
501.437	94.31
501.654	103.31
501.871	98.31
502.088	79.31
502.305	92.31
502.522	95.31
502.739	89.31
502.956	94.31
503.172	106.31
503.389	96.31
503.606	94.31
503.823	99.31
504.04	79.31
504.256	84.31
504.473	86.31
504.69	90.31
504.907	95.31
505.123	113.31
505.34	86.31
505.557	79.31
505.773	89.31
505.99	95.31
506.207	93.31
506.423	98.31
506.64	81.31
506.856	97.31
507.073	92.31
507.289	96.31
507.506	92.31
507.722	100.31
507.939	101.31
508.155	82.31
508.372	100.31
508.588	81.31
508.805	87.31
509.021	79.31
509.238	109.31
509.454	101.31
509.67	92.31
509.887	90.31
510.103	104.31
510.319	189.31
510.536	642.31
510.752	1833.31
510.968	500.31
511.184	131.31
511.401	109.31
511.617	107.31
511.833	90.31
512.049	94.31
512.265	87.31
512.481	96.31
512.698	86.31
512.914	95.31
513.13	91.31
513.346	100.31
513.562	93.31
513.778	97.31
513.994	98.31
514.21	96.31
514.426	111.31
514.642	125.31
514.858	117.31
515.074	147.31
515.29	360.31
515.506	1077.31
515.721	398.31
