Data from Uncirc_1985_H10_HRD10591_00058.txt Node
Date: Wed Jan 03 12:18:29 EST 2024
User: Yrep
Spectrometer: HR+D1059
Trigger mode: 1
Integration Time (sec): 1.000000E-1
Scans to average: 1
Electric dark correction enabled: true
Nonlinearity correction enabled: false
Boxcar width: 0
XAxis mode: Wavelengths
Number of Pixels in Spectrum: 2048
>>>>>Begin Spectral Data<<<<<
223.165	-14.62
223.4	-14.62
223.635	-14.62
223.869	-28.62
224.104	-4.62
224.338	-12.62
224.573	-12.62
224.808	-15.62
225.042	-18.62
225.277	-16.62
225.511	-4.62
225.746	3.38
225.98	11.38
226.215	12.38
226.449	3.38
226.683	15.38
226.918	30.38
227.152	52.38
227.387	38.38
227.621	38.38
227.856	44.38
228.09	45.38
228.324	59.38
228.559	63.38
228.793	58.38
229.027	53.38
229.262	62.38
229.496	82.38
229.73	87.38
229.964	75.38
230.199	68.38
230.433	78.38
230.667	82.38
230.901	80.38
231.136	70.38
231.37	81.38
231.604	75.38
231.838	78.38
232.072	80.38
232.306	85.38
232.541	90.38
232.775	69.38
233.009	80.38
233.243	76.38
233.477	82.38
233.711	80.38
233.945	76.38
234.179	81.38
234.413	84.38
234.647	91.38
234.881	98.38
235.115	67.38
235.349	74.38
235.583	74.38
235.817	90.38
236.051	95.38
236.285	94.38
236.519	79.38
236.753	88.38
236.987	94.38
237.221	74.38
237.455	82.38
237.689	80.38
237.922	95.38
238.156	78.38
238.39	86.38
238.624	89.38
238.858	87.38
239.091	79.38
239.325	78.38
239.559	72.38
239.793	80.38
240.027	72.38
240.26	76.38
240.494	85.38
240.728	90.38
240.961	80.38
241.195	79.38
241.429	79.38
241.662	81.38
241.896	78.38
242.13	68.38
242.363	62.38
242.597	82.38
242.83	75.38
243.064	66.38
243.298	69.38
243.531	70.38
243.765	79.38
243.998	78.38
244.232	68.38
244.465	83.38
244.699	84.38
244.932	80.38
245.166	92.38
245.399	97.38
245.633	56.38
245.866	73.38
246.099	86.38
246.333	74.38
246.566	79.38
246.8	89.38
247.033	66.38
247.266	75.38
247.5	77.38
247.733	79.38
247.966	94.38
248.2	78.38
248.433	81.38
248.666	76.38
248.899	82.38
249.133	94.38
249.366	94.38
249.599	106.38
249.832	76.38
250.066	80.38
250.299	79.38
250.532	102.38
250.765	73.38
250.998	92.38
251.231	82.38
251.465	82.38
251.698	76.38
251.931	82.38
252.164	76.38
252.397	71.38
252.63	74.38
252.863	57.38
253.096	100.38
253.329	94.38
253.562	68.38
253.795	88.38
254.028	88.38
254.261	72.38
254.494	73.38
254.727	87.38
254.96	86.38
255.193	99.38
255.426	90.38
255.659	66.38
255.892	83.38
256.124	66.38
256.357	70.38
256.59	74.38
256.823	84.38
257.056	94.38
257.289	87.38
257.521	82.38
257.754	82.38
257.987	75.38
258.22	86.38
258.452	85.38
258.685	96.38
258.918	90.38
259.151	86.38
259.383	99.38
259.616	76.38
259.849	75.38
260.081	96.38
260.314	63.38
260.547	84.38
260.779	83.38
261.012	96.38
261.244	73.38
261.477	91.38
261.71	105.38
261.942	115.38
262.175	116.38
262.407	101.38
262.64	82.38
262.872	89.38
263.105	84.38
263.337	86.38
263.57	91.38
263.802	83.38
264.035	72.38
264.267	87.38
264.499	78.38
264.732	87.38
264.964	80.38
265.197	84.38
265.429	81.38
265.661	90.38
265.894	78.38
266.126	82.38
266.358	90.38
266.591	74.38
266.823	79.38
267.055	74.38
267.287	76.38
267.52	89.38
267.752	76.38
267.984	81.38
268.216	79.38
268.448	72.38
268.681	80.38
268.913	78.38
269.145	84.38
269.377	79.38
269.609	83.38
269.841	81.38
270.073	82.38
270.306	82.38
270.538	92.38
270.77	81.38
271.002	96.38
271.234	82.38
271.466	81.38
271.698	92.38
271.93	95.38
272.162	94.38
272.394	91.38
272.626	85.38
272.858	91.38
273.09	89.38
273.322	99.38
273.553	82.38
273.785	78.38
274.017	88.38
274.249	86.38
274.481	98.38
274.713	73.38
274.945	92.38
275.176	94.38
275.408	80.38
275.64	97.38
275.872	89.38
276.104	92.38
276.335	104.38
276.567	101.38
276.799	102.38
277.031	108.38
277.262	101.38
277.494	86.38
277.726	86.38
277.957	74.38
278.189	76.38
278.421	88.38
278.652	71.38
278.884	95.38
279.115	96.38
279.347	76.38
279.579	84.38
279.81	98.38
280.042	82.38
280.273	82.38
280.505	96.38
280.736	88.38
280.968	95.38
281.199	98.38
281.431	91.38
281.662	91.38
281.894	102.38
282.125	83.38
282.356	118.38
282.588	153.38
282.819	106.38
283.051	99.38
283.282	98.38
283.513	90.38
283.745	92.38
283.976	74.38
284.207	90.38
284.439	75.38
284.67	107.38
284.901	95.38
285.132	74.38
285.364	72.38
285.595	96.38
285.826	108.38
286.057	87.38
286.288	82.38
286.52	80.38
286.751	84.38
286.982	83.38
287.213	89.38
287.444	84.38
287.675	75.38
287.906	72.38
288.138	91.38
288.369	96.38
288.6	82.38
288.831	95.38
289.062	94.38
289.293	91.38
289.524	83.38
289.755	100.38
289.986	86.38
290.217	86.38
290.448	100.38
290.679	83.38
290.91	95.38
291.141	103.38
291.371	96.38
291.602	86.38
291.833	97.38
292.064	91.38
292.295	99.38
292.526	95.38
292.757	87.38
292.987	89.38
293.218	80.38
293.449	93.38
293.68	94.38
293.91	92.38
294.141	82.38
294.372	86.38
294.603	94.38
294.833	78.38
295.064	94.38
295.295	93.38
295.525	88.38
295.756	90.38
295.987	110.38
296.217	148.38
296.448	146.38
296.679	91.38
296.909	98.38
297.14	96.38
297.37	98.38
297.601	96.38
297.831	91.38
298.062	99.38
298.292	98.38
298.523	81.38
298.753	81.38
298.984	93.38
299.214	96.38
299.445	88.38
299.675	88.38
299.905	93.38
300.136	92.38
300.366	90.38
300.597	98.38
300.827	106.38
301.057	93.38
301.288	111.38
301.518	77.38
301.748	90.38
301.979	84.38
302.209	110.38
302.439	99.38
302.669	96.38
302.9	91.38
303.13	78.38
303.36	96.38
303.59	98.38
303.82	111.38
304.051	82.38
304.281	90.38
304.511	84.38
304.741	89.38
304.971	96.38
305.201	103.38
305.431	92.38
305.661	94.38
305.891	82.38
306.121	92.38
306.352	89.38
306.582	95.38
306.812	90.38
307.042	105.38
307.272	86.38
307.502	102.38
307.731	114.38
307.961	100.38
308.191	96.38
308.421	91.38
308.651	76.38
308.881	97.38
309.111	98.38
309.341	98.38
309.571	98.38
309.8	96.38
310.03	103.38
310.26	108.38
310.49	104.38
310.72	106.38
310.949	95.38
311.179	108.38
311.409	92.38
311.639	96.38
311.868	95.38
312.098	92.38
312.328	97.38
312.557	115.38
312.787	110.38
313.017	90.38
313.246	88.38
313.476	88.38
313.706	102.38
313.935	123.38
314.165	92.38
314.394	105.38
314.624	113.38
314.853	103.38
315.083	90.38
315.312	98.38
315.542	94.38
315.771	99.38
316.001	89.38
316.23	91.38
316.46	89.38
316.689	95.38
316.919	100.38
317.148	98.38
317.377	112.38
317.607	96.38
317.836	88.38
318.065	96.38
318.295	98.38
318.524	89.38
318.753	80.38
318.983	88.38
319.212	105.38
319.441	114.38
319.67	114.38
319.9	88.38
320.129	78.38
320.358	99.38
320.587	107.38
320.816	102.38
321.046	119.38
321.275	106.38
321.504	100.38
321.733	86.38
321.962	94.38
322.191	105.38
322.42	112.38
322.649	107.38
322.878	116.38
323.108	126.38
323.337	118.38
323.566	136.38
323.795	182.38
324.024	234.38
324.253	460.38
324.482	1017.38
324.71	2153.38
324.939	2865.38
325.168	1026.38
325.397	281.38
325.626	162.38
325.855	119.38
326.084	148.38
326.313	138.38
326.542	169.38
326.77	247.38
326.999	551.38
327.228	1167.38
327.457	2184.38
327.686	1744.38
327.914	454.38
328.143	219.38
328.372	179.38
328.6	121.38
328.829	124.38
329.058	134.38
329.287	147.38
329.515	113.38
329.744	111.38
329.972	120.38
330.201	131.38
330.43	147.38
330.658	126.38
330.887	163.38
331.115	120.38
331.344	76.38
331.572	120.38
331.801	122.38
332.03	112.38
332.258	91.38
332.486	88.38
332.715	84.38
332.943	88.38
333.172	96.38
333.4	98.38
333.629	92.38
333.857	115.38
334.085	118.38
334.314	122.38
334.542	145.38
334.771	150.38
334.999	110.38
335.227	82.38
335.455	102.38
335.684	104.38
335.912	109.38
336.14	104.38
336.369	95.38
336.597	103.38
336.825	98.38
337.053	94.38
337.281	93.38
337.51	76.38
337.738	93.38
337.966	104.38
338.194	104.38
338.422	95.38
338.65	103.38
338.878	98.38
339.106	97.38
339.334	94.38
339.562	95.38
339.79	80.38
340.018	95.38
340.246	90.38
340.474	102.38
340.702	97.38
340.93	104.38
341.158	91.38
341.386	84.38
341.614	95.38
341.842	94.38
342.07	91.38
342.298	92.38
342.526	92.38
342.754	96.38
342.981	97.38
343.209	90.38
343.437	93.38
343.665	86.38
343.893	75.38
344.12	98.38
344.348	94.38
344.576	97.38
344.804	96.38
345.031	97.38
345.259	98.38
345.487	79.38
345.714	101.38
345.942	85.38
346.17	98.38
346.397	90.38
346.625	108.38
346.853	90.38
347.08	99.38
347.308	84.38
347.535	98.38
347.763	101.38
347.99	108.38
348.218	100.38
348.445	95.38
348.673	101.38
348.9	85.38
349.128	91.38
349.355	87.38
349.583	102.38
349.81	87.38
350.037	84.38
350.265	94.38
350.492	103.38
350.72	84.38
350.947	101.38
351.174	115.38
351.402	121.38
351.629	103.38
351.856	88.38
352.083	113.38
352.311	110.38
352.538	108.38
352.765	118.38
352.992	108.38
353.22	117.38
353.447	107.38
353.674	105.38
353.901	90.38
354.128	97.38
354.355	88.38
354.583	89.38
354.81	102.38
355.037	96.38
355.264	91.38
355.491	103.38
355.718	87.38
355.945	91.38
356.172	98.38
356.399	86.38
356.626	90.38
356.853	91.38
357.08	92.38
357.307	84.38
357.534	91.38
357.761	89.38
357.988	84.38
358.215	91.38
358.441	92.38
358.668	81.38
358.895	91.38
359.122	76.38
359.349	74.38
359.576	105.38
359.802	112.38
360.029	128.38
360.256	98.38
360.483	111.38
360.709	89.38
360.936	104.38
361.163	101.38
361.39	87.38
361.616	89.38
361.843	89.38
362.07	90.38
362.296	89.38
362.523	83.38
362.749	93.38
362.976	99.38
363.203	91.38
363.429	88.38
363.656	102.38
363.882	97.38
364.109	86.38
364.335	99.38
364.562	99.38
364.788	93.38
365.015	88.38
365.241	102.38
365.468	108.38
365.694	109.38
365.92	88.38
366.147	94.38
366.373	84.38
366.599	90.38
366.826	94.38
367.052	94.38
367.278	83.38
367.505	86.38
367.731	103.38
367.957	88.38
368.184	102.38
368.41	103.38
368.636	115.38
368.862	112.38
369.089	99.38
369.315	92.38
369.541	88.38
369.767	94.38
369.993	100.38
370.219	104.38
370.445	87.38
370.672	78.38
370.898	80.38
371.124	82.38
371.35	90.38
371.576	83.38
371.802	75.38
372.028	87.38
372.254	88.38
372.48	79.38
372.706	90.38
372.932	89.38
373.158	95.38
373.384	103.38
373.61	90.38
373.835	72.38
374.061	94.38
374.287	92.38
374.513	82.38
374.739	96.38
374.965	75.38
375.191	73.38
375.416	96.38
375.642	94.38
375.868	103.38
376.094	82.38
376.319	90.38
376.545	89.38
376.771	83.38
376.997	86.38
377.222	87.38
377.448	88.38
377.674	76.38
377.899	82.38
378.125	90.38
378.35	101.38
378.576	89.38
378.802	88.38
379.027	97.38
379.253	100.38
379.478	103.38
379.704	91.38
379.929	84.38
380.155	92.38
380.38	85.38
380.606	80.38
380.831	98.38
381.057	106.38
381.282	95.38
381.507	101.38
381.733	96.38
381.958	106.38
382.184	107.38
382.409	92.38
382.634	106.38
382.86	89.38
383.085	115.38
383.31	106.38
383.535	91.38
383.761	85.38
383.986	104.38
384.211	82.38
384.436	87.38
384.662	80.38
384.887	110.38
385.112	84.38
385.337	93.38
385.562	94.38
385.787	91.38
386.013	95.38
386.238	103.38
386.463	87.38
386.688	119.38
386.913	86.38
387.138	99.38
387.363	84.38
387.588	95.38
387.813	94.38
388.038	89.38
388.263	101.38
388.488	109.38
388.713	101.38
388.938	100.38
389.163	103.38
389.387	95.38
389.612	92.38
389.837	94.38
390.062	105.38
390.287	95.38
390.512	86.38
390.736	100.38
390.961	86.38
391.186	88.38
391.411	99.38
391.636	84.38
391.86	84.38
392.085	82.38
392.31	72.38
392.534	89.38
392.759	85.38
392.984	89.38
393.208	81.38
393.433	84.38
393.658	94.38
393.882	88.38
394.107	87.38
394.331	72.38
394.556	86.38
394.78	78.38
395.005	77.38
395.229	73.38
395.454	90.38
395.678	80.38
395.903	75.38
396.127	86.38
396.352	87.38
396.576	92.38
396.801	96.38
397.025	89.38
397.249	72.38
397.474	90.38
397.698	88.38
397.922	88.38
398.147	89.38
398.371	92.38
398.595	89.38
398.82	82.38
399.044	86.38
399.268	92.38
399.492	92.38
399.717	87.38
399.941	73.38
400.165	104.38
400.389	95.38
400.613	82.38
400.837	90.38
401.062	76.38
401.286	89.38
401.51	89.38
401.734	91.38
401.958	101.38
402.182	135.38
402.406	178.38
402.63	126.38
402.854	79.38
403.078	86.38
403.302	104.38
403.526	78.38
403.75	88.38
403.974	89.38
404.198	85.38
404.422	99.38
404.645	94.38
404.869	100.38
405.093	95.38
405.317	84.38
405.541	103.38
405.765	104.38
405.988	124.38
406.212	190.38
406.436	258.38
406.66	136.38
406.883	87.38
407.107	108.38
407.331	101.38
407.555	103.38
407.778	114.38
408.002	95.38
408.226	89.38
408.449	78.38
408.673	106.38
408.896	95.38
409.12	107.38
409.344	76.38
409.567	84.38
409.791	101.38
410.014	108.38
410.238	95.38
410.461	97.38
410.685	89.38
410.908	90.38
411.132	84.38
411.355	90.38
411.578	79.38
411.802	102.38
412.025	84.38
412.249	83.38
412.472	91.38
412.695	97.38
412.919	85.38
413.142	88.38
413.365	95.38
413.589	92.38
413.812	86.38
414.035	95.38
414.258	110.38
414.482	87.38
414.705	80.38
414.928	93.38
415.151	88.38
415.374	103.38
415.597	87.38
415.821	93.38
416.044	77.38
416.267	89.38
416.49	92.38
416.713	97.38
416.936	80.38
417.159	82.38
417.382	83.38
417.605	81.38
417.828	100.38
418.051	114.38
418.274	89.38
418.497	84.38
418.72	86.38
418.943	88.38
419.166	85.38
419.389	87.38
419.611	80.38
419.834	95.38
420.057	91.38
420.28	90.38
420.503	98.38
420.726	72.38
420.948	82.38
421.171	94.38
421.394	90.38
421.617	80.38
421.839	103.38
422.062	94.38
422.285	87.38
422.507	81.38
422.73	102.38
422.953	88.38
423.175	93.38
423.398	91.38
423.621	100.38
423.843	98.38
424.066	85.38
424.288	106.38
424.511	99.38
424.733	92.38
424.956	106.38
425.178	117.38
425.401	93.38
425.623	98.38
425.846	79.38
426.068	95.38
426.291	83.38
426.513	95.38
426.735	107.38
426.958	104.38
427.18	95.38
427.402	133.38
427.625	196.38
427.847	148.38
428.069	107.38
428.292	86.38
428.514	105.38
428.736	84.38
428.958	79.38
429.181	73.38
429.403	84.38
429.625	80.38
429.847	88.38
430.069	96.38
430.292	91.38
430.514	80.38
430.736	75.38
430.958	90.38
431.18	90.38
431.402	95.38
431.624	95.38
431.846	99.38
432.068	86.38
432.29	76.38
432.512	78.38
432.734	91.38
432.956	107.38
433.178	91.38
433.4	111.38
433.622	89.38
433.844	82.38
434.066	74.38
434.287	87.38
434.509	88.38
434.731	80.38
434.953	91.38
435.175	95.38
435.397	78.38
435.618	92.38
435.84	97.38
436.062	139.38
436.284	134.38
436.505	104.38
436.727	88.38
436.949	92.38
437.17	95.38
437.392	108.38
437.614	98.38
437.835	99.38
438.057	130.38
438.278	107.38
438.5	110.38
438.721	114.38
438.943	95.38
439.165	98.38
439.386	104.38
439.608	94.38
439.829	113.38
440.05	132.38
440.272	136.38
440.493	105.38
440.715	90.38
440.936	83.38
441.158	100.38
441.379	98.38
441.6	83.38
441.822	86.38
442.043	89.38
442.264	115.38
442.486	107.38
442.707	102.38
442.928	107.38
443.149	161.38
443.371	147.38
443.592	103.38
443.813	114.38
444.034	98.38
444.255	83.38
444.476	82.38
444.698	84.38
444.919	92.38
445.14	126.38
445.361	115.38
445.582	130.38
445.803	144.38
446.024	158.38
446.245	146.38
446.466	115.38
446.687	104.38
446.908	80.38
447.129	94.38
447.35	90.38
447.571	105.38
447.792	84.38
448.013	111.38
448.234	105.38
448.455	90.38
448.675	112.38
448.896	129.38
449.117	91.38
449.338	107.38
449.559	145.38
449.779	131.38
450	105.38
450.221	90.38
450.442	82.38
450.662	88.38
450.883	100.38
451.104	119.38
451.324	102.38
451.545	86.38
451.766	97.38
451.986	94.38
452.207	86.38
452.428	89.38
452.648	85.38
452.869	107.38
453.089	119.38
453.31	116.38
453.53	93.38
453.751	94.38
453.971	117.38
454.192	121.38
454.412	97.38
454.633	96.38
454.853	82.38
455.073	90.38
455.294	104.38
455.514	87.38
455.734	91.38
455.955	85.38
456.175	68.38
456.395	91.38
456.616	87.38
456.836	92.38
457.056	96.38
457.276	97.38
457.497	71.38
457.717	86.38
457.937	90.38
458.157	93.38
458.377	92.38
458.598	113.38
458.818	167.38
459.038	182.38
459.258	122.38
459.478	100.38
459.698	78.38
459.918	89.38
460.138	76.38
460.358	95.38
460.578	86.38
460.798	92.38
461.018	94.38
461.238	77.38
461.458	86.38
461.678	89.38
461.898	90.38
462.118	90.38
462.338	91.38
462.558	76.38
462.777	90.38
462.997	90.38
463.217	86.38
463.437	90.38
463.657	78.38
463.876	87.38
464.096	79.38
464.316	98.38
464.536	111.38
464.755	105.38
464.975	109.38
465.195	186.38
465.414	170.38
465.634	97.38
465.854	90.38
466.073	89.38
466.293	87.38
466.512	96.38
466.732	90.38
466.951	88.38
467.171	95.38
467.391	98.38
467.61	104.38
467.829	100.38
468.049	108.38
468.268	92.38
468.488	88.38
468.707	98.38
468.927	74.38
469.146	91.38
469.365	82.38
469.585	88.38
469.804	98.38
470.023	90.38
470.243	99.38
470.462	90.38
470.681	111.38
470.901	84.38
471.12	83.38
471.339	81.38
471.558	78.38
471.777	81.38
471.997	90.38
472.216	121.38
472.435	162.38
472.654	95.38
472.873	90.38
473.092	93.38
473.311	97.38
473.53	88.38
473.749	80.38
473.968	92.38
474.187	102.38
474.406	93.38
474.625	86.38
474.844	85.38
475.063	75.38
475.282	78.38
475.501	83.38
475.72	95.38
475.939	80.38
476.158	96.38
476.377	79.38
476.596	85.38
476.814	109.38
477.033	87.38
477.252	87.38
477.471	82.38
477.69	84.38
477.908	88.38
478.127	95.38
478.346	97.38
478.564	110.38
478.783	110.38
479.002	96.38
479.22	93.38
479.439	94.38
479.658	102.38
479.876	90.38
480.095	109.38
480.313	89.38
480.532	102.38
480.751	93.38
480.969	109.38
481.188	243.38
481.406	192.38
481.624	98.38
481.843	108.38
482.061	90.38
482.28	85.38
482.498	83.38
482.717	86.38
482.935	88.38
483.153	101.38
483.372	92.38
483.59	88.38
483.808	92.38
484.027	110.38
484.245	89.38
484.463	93.38
484.681	115.38
484.9	100.38
485.118	92.38
485.336	93.38
485.554	84.38
485.772	106.38
485.99	94.38
486.209	104.38
486.427	99.38
486.645	112.38
486.863	101.38
487.081	108.38
487.299	111.38
487.517	102.38
487.735	99.38
487.953	90.38
488.171	98.38
488.389	102.38
488.607	88.38
488.825	88.38
489.043	88.38
489.261	83.38
489.479	82.38
489.696	99.38
489.914	94.38
490.132	98.38
490.35	91.38
490.568	79.38
490.786	80.38
491.003	92.38
491.221	95.38
491.439	95.38
491.657	95.38
491.874	101.38
492.092	83.38
492.31	74.38
492.527	86.38
492.745	93.38
492.963	86.38
493.18	97.38
493.398	94.38
493.615	94.38
493.833	89.38
494.05	91.38
494.268	91.38
494.485	96.38
494.703	74.38
494.92	90.38
495.138	80.38
495.355	94.38
495.573	110.38
495.79	97.38
496.008	87.38
496.225	94.38
496.442	86.38
496.66	92.38
496.877	97.38
497.094	92.38
497.312	94.38
497.529	94.38
497.746	83.38
497.963	82.38
498.181	94.38
498.398	98.38
498.615	99.38
498.832	97.38
499.049	97.38
499.267	95.38
499.484	91.38
499.701	76.38
499.918	105.38
500.135	79.38
500.352	92.38
500.569	98.38
500.786	87.38
501.003	86.38
501.22	95.38
501.437	92.38
501.654	99.38
501.871	129.38
502.088	84.38
502.305	85.38
502.522	98.38
502.739	102.38
502.956	95.38
503.172	90.38
503.389	102.38
503.606	107.38
503.823	79.38
504.04	98.38
504.256	96.38
504.473	100.38
504.69	91.38
504.907	113.38
505.123	88.38
505.34	81.38
505.557	100.38
505.773	88.38
505.99	101.38
506.207	84.38
506.423	90.38
506.64	79.38
506.856	98.38
507.073	96.38
507.289	84.38
507.506	87.38
507.722	112.38
507.939	101.38
508.155	76.38
508.372	102.38
508.588	96.38
508.805	115.38
509.021	104.38
509.238	94.38
509.454	92.38
509.67	110.38
509.887	129.38
510.103	150.38
510.319	244.38
510.536	863.38
510.752	2907.38
510.968	802.38
511.184	164.38
511.401	121.38
511.617	105.38
511.833	97.38
512.049	90.38
512.265	73.38
512.481	99.38
512.698	92.38
512.914	93.38
513.13	96.38
513.346	111.38
513.562	83.38
513.778	109.38
513.994	104.38
514.21	102.38
514.426	120.38
514.642	137.38
514.858	133.38
515.074	202.38
