Data from Uncirc_1985_H10_HRD10591_00010.txt Node
Date: Wed Jan 03 12:18:19 EST 2024
User: Yrep
Spectrometer: HR+D1059
Trigger mode: 1
Integration Time (sec): 1.000000E-1
Scans to average: 1
Electric dark correction enabled: true
Nonlinearity correction enabled: false
Boxcar width: 0
XAxis mode: Wavelengths
Number of Pixels in Spectrum: 2048
>>>>>Begin Spectral Data<<<<<
223.165	-10
223.4	-10
223.635	-10
223.869	-19
224.104	-17
224.338	-13
224.573	-24
224.808	-6
225.042	-27
225.277	2
225.511	-4
225.746	-7
225.98	10
226.215	13
226.449	28
226.683	19
226.918	28
227.152	27
227.387	38
227.621	23
227.856	32
228.09	54
228.324	51
228.559	47
228.793	63
229.027	79
229.262	65
229.496	70
229.73	72
229.964	74
230.199	74
230.433	73
230.667	93
230.901	74
231.136	65
231.37	86
231.604	74
231.838	79
232.072	85
232.306	90
232.541	89
232.775	90
233.009	90
233.243	98
233.477	85
233.711	82
233.945	80
234.179	59
234.413	89
234.647	82
234.881	75
235.115	66
235.349	77
235.583	79
235.817	79
236.051	78
236.285	79
236.519	80
236.753	75
236.987	83
237.221	92
237.455	80
237.689	82
237.922	82
238.156	85
238.39	83
238.624	72
238.858	75
239.091	73
239.325	74
239.559	88
239.793	92
240.027	90
240.26	72
240.494	79
240.728	96
240.961	81
241.195	79
241.429	83
241.662	91
241.896	86
242.13	73
242.363	71
242.597	76
242.83	72
243.064	67
243.298	89
243.531	81
243.765	77
243.998	81
244.232	89
244.465	80
244.699	84
244.932	86
245.166	75
245.399	67
245.633	71
245.866	72
246.099	79
246.333	76
246.566	88
246.8	76
247.033	68
247.266	70
247.5	84
247.733	81
247.966	79
248.2	63
248.433	65
248.666	79
248.899	84
249.133	72
249.366	88
249.599	87
249.832	88
250.066	87
250.299	77
250.532	69
250.765	77
250.998	74
251.231	68
251.465	75
251.698	71
251.931	78
252.164	85
252.397	92
252.63	102
252.863	77
253.096	83
253.329	76
253.562	79
253.795	86
254.028	75
254.261	71
254.494	73
254.727	96
254.96	87
255.193	76
255.426	82
255.659	76
255.892	86
256.124	71
256.357	87
256.59	80
256.823	75
257.056	89
257.289	83
257.521	82
257.754	83
257.987	76
258.22	79
258.452	84
258.685	87
258.918	85
259.151	87
259.383	82
259.616	72
259.849	75
260.081	90
260.314	83
260.547	84
260.779	102
261.012	101
261.244	98
261.477	103
261.71	74
261.942	101
262.175	100
262.407	89
262.64	85
262.872	73
263.105	82
263.337	102
263.57	83
263.802	87
264.035	101
264.267	91
264.499	82
264.732	84
264.964	92
265.197	86
265.429	95
265.661	88
265.894	72
266.126	84
266.358	80
266.591	83
266.823	90
267.055	101
267.287	87
267.52	88
267.752	92
267.984	83
268.216	85
268.448	83
268.681	96
268.913	93
269.145	87
269.377	80
269.609	88
269.841	84
270.073	98
270.306	80
270.538	78
270.77	77
271.002	89
271.234	91
271.466	89
271.698	89
271.93	72
272.162	69
272.394	83
272.626	91
272.858	76
273.09	98
273.322	77
273.553	97
273.785	85
274.017	90
274.249	94
274.481	94
274.713	82
274.945	83
275.176	80
275.408	89
275.64	88
275.872	89
276.104	90
276.335	92
276.567	98
276.799	97
277.031	87
277.262	98
277.494	94
277.726	72
277.957	106
278.189	76
278.421	76
278.652	80
278.884	81
279.115	99
279.347	91
279.579	97
279.81	83
280.042	102
280.273	95
280.505	95
280.736	81
280.968	93
281.199	80
281.431	74
281.662	103
281.894	82
282.125	89
282.356	116
282.588	123
282.819	108
283.051	84
283.282	82
283.513	84
283.745	91
283.976	65
284.207	80
284.439	74
284.67	85
284.901	81
285.132	94
285.364	82
285.595	88
285.826	89
286.057	89
286.288	86
286.52	97
286.751	85
286.982	82
287.213	89
287.444	82
287.675	86
287.906	101
288.138	97
288.369	81
288.6	80
288.831	86
289.062	92
289.293	79
289.524	84
289.755	65
289.986	90
290.217	85
290.448	87
290.679	89
290.91	87
291.141	76
291.371	85
291.602	83
291.833	82
292.064	77
292.295	92
292.526	85
292.757	98
292.987	87
293.218	81
293.449	92
293.68	75
293.91	96
294.141	87
294.372	73
294.603	77
294.833	92
295.064	84
295.295	87
295.525	105
295.756	105
295.987	110
296.217	127
296.448	112
296.679	85
296.909	96
297.14	98
297.37	82
297.601	85
297.831	93
298.062	83
298.292	96
298.523	88
298.753	72
298.984	98
299.214	79
299.445	97
299.675	97
299.905	95
300.136	84
300.366	91
300.597	89
300.827	92
301.057	77
301.288	104
301.518	91
301.748	79
301.979	101
302.209	96
302.439	94
302.669	99
302.9	107
303.13	93
303.36	100
303.59	99
303.82	103
304.051	93
304.281	93
304.511	79
304.741	100
304.971	95
305.201	92
305.431	93
305.661	103
305.891	93
306.121	98
306.352	97
306.582	112
306.812	101
307.042	99
307.272	96
307.502	92
307.731	101
307.961	99
308.191	104
308.421	88
308.651	74
308.881	93
309.111	92
309.341	103
309.571	92
309.8	101
310.03	101
310.26	100
310.49	104
310.72	102
310.949	103
311.179	97
311.409	78
311.639	86
311.868	99
312.098	97
312.328	114
312.557	108
312.787	95
313.017	97
313.246	97
313.476	91
313.706	80
313.935	96
314.165	81
314.394	83
314.624	98
314.853	100
315.083	88
315.312	84
315.542	90
315.771	85
316.001	113
316.23	96
316.46	98
316.689	84
316.919	94
317.148	102
317.377	93
317.607	99
317.836	83
318.065	86
318.295	88
318.524	85
318.753	97
318.983	87
319.212	108
319.441	109
319.67	97
319.9	88
320.129	97
320.358	102
320.587	102
320.816	98
321.046	85
321.275	91
321.504	95
321.733	83
321.962	103
322.191	99
322.42	118
322.649	114
322.878	108
323.108	112
323.337	130
323.566	121
323.795	140
324.024	185
324.253	346
324.482	768
324.71	1475
324.939	1966
325.168	726
325.397	223
325.626	141
325.855	127
326.084	124
326.313	133
326.542	164
326.77	203
326.999	403
327.228	863
327.457	1569
327.686	1223
327.914	339
328.143	171
328.372	131
328.6	131
328.829	115
329.058	108
329.287	117
329.515	93
329.744	109
329.972	92
330.201	102
330.43	107
330.658	113
330.887	120
331.115	114
331.344	95
331.572	99
331.801	109
332.03	104
332.258	101
332.486	108
332.715	96
332.943	94
333.172	95
333.4	97
333.629	112
333.857	109
334.085	99
334.314	125
334.542	105
334.771	103
334.999	85
335.227	101
335.455	92
335.684	99
335.912	95
336.14	98
336.369	103
336.597	92
336.825	89
337.053	89
337.281	83
337.51	101
337.738	84
337.966	97
338.194	100
338.422	95
338.65	92
338.878	98
339.106	88
339.334	94
339.562	97
339.79	75
340.018	85
340.246	87
340.474	81
340.702	94
340.93	97
341.158	93
341.386	103
341.614	100
341.842	83
342.07	96
342.298	90
342.526	84
342.754	79
342.981	91
343.209	84
343.437	100
343.665	83
343.893	89
344.12	91
344.348	100
344.576	97
344.804	99
345.031	92
345.259	117
345.487	103
345.714	78
345.942	105
346.17	91
346.397	100
346.625	92
346.853	88
347.08	89
347.308	91
347.535	102
347.763	95
347.99	95
348.218	105
348.445	103
348.673	101
348.9	106
349.128	104
349.355	84
349.583	99
349.81	100
350.037	95
350.265	101
350.492	97
350.72	103
350.947	105
351.174	108
351.402	108
351.629	106
351.856	104
352.083	108
352.311	97
352.538	106
352.765	109
352.992	106
353.22	117
353.447	100
353.674	91
353.901	109
354.128	106
354.355	84
354.583	100
354.81	105
355.037	117
355.264	103
355.491	83
355.718	97
355.945	93
356.172	105
356.399	104
356.626	97
356.853	97
357.08	108
357.307	103
357.534	100
357.761	104
357.988	91
358.215	100
358.441	96
358.668	88
358.895	85
359.122	103
359.349	96
359.576	76
359.802	106
360.029	92
360.256	98
360.483	100
360.709	88
360.936	95
361.163	95
361.39	98
361.616	106
361.843	92
362.07	99
362.296	98
362.523	84
362.749	94
362.976	93
363.203	101
363.429	87
363.656	87
363.882	88
364.109	96
364.335	79
364.562	98
364.788	76
365.015	85
365.241	111
365.468	110
365.694	96
365.92	101
366.147	106
366.373	97
366.599	98
366.826	95
367.052	85
367.278	77
367.505	101
367.731	92
367.957	93
368.184	84
368.41	95
368.636	101
368.862	118
369.089	92
369.315	94
369.541	92
369.767	101
369.993	86
370.219	72
370.445	100
370.672	86
370.898	74
371.124	95
371.35	97
371.576	96
371.802	91
372.028	96
372.254	90
372.48	105
372.706	81
372.932	95
373.158	107
373.384	100
373.61	104
373.835	91
374.061	92
374.287	108
374.513	76
374.739	77
374.965	77
375.191	88
375.416	79
375.642	93
375.868	91
376.094	93
376.319	92
376.545	84
376.771	97
376.997	87
377.222	93
377.448	98
377.674	95
377.899	99
378.125	98
378.35	86
378.576	93
378.802	83
379.027	88
379.253	89
379.478	96
379.704	86
379.929	75
380.155	93
380.38	99
380.606	98
380.831	102
381.057	109
381.282	103
381.507	91
381.733	93
381.958	80
382.184	109
382.409	105
382.634	97
382.86	101
383.085	90
383.31	91
383.535	95
383.761	104
383.986	98
384.211	94
384.436	103
384.662	100
384.887	112
385.112	99
385.337	107
385.562	114
385.787	114
386.013	118
386.238	103
386.463	105
386.688	102
386.913	97
387.138	94
387.363	103
387.588	95
387.813	101
388.038	109
388.263	106
388.488	113
388.713	95
388.938	105
389.163	90
389.387	74
389.612	99
389.837	99
390.062	108
390.287	100
390.512	85
390.736	87
390.961	88
391.186	85
391.411	103
391.636	110
391.86	92
392.085	92
392.31	95
392.534	72
392.759	82
392.984	85
393.208	84
393.433	101
393.658	92
393.882	85
394.107	90
394.331	80
394.556	98
394.78	88
395.005	82
395.229	91
395.454	72
395.678	77
395.903	97
396.127	88
396.352	83
396.576	90
396.801	87
397.025	101
397.249	88
397.474	93
397.698	86
397.922	83
398.147	66
398.371	67
398.595	93
398.82	86
399.044	88
399.268	81
399.492	94
399.717	98
399.941	103
400.165	100
400.389	98
400.613	88
400.837	80
401.062	86
401.286	96
401.51	97
401.734	100
401.958	96
402.182	104
402.406	137
402.63	100
402.854	86
403.078	92
403.302	91
403.526	84
403.75	88
403.974	103
404.198	86
404.422	86
404.645	87
404.869	93
405.093	93
405.317	96
405.541	93
405.765	96
405.988	104
406.212	127
406.436	187
406.66	128
406.883	93
407.107	97
407.331	97
407.555	115
407.778	114
408.002	93
408.226	94
408.449	88
408.673	83
408.896	88
409.12	89
409.344	70
409.567	90
409.791	91
410.014	96
410.238	98
410.461	97
410.685	79
410.908	82
411.132	112
411.355	96
411.578	91
411.802	89
412.025	80
412.249	76
412.472	88
412.695	103
412.919	89
413.142	84
413.365	87
413.589	86
413.812	90
414.035	104
414.258	99
414.482	91
414.705	97
414.928	96
415.151	96
415.374	109
415.597	104
415.821	98
416.044	98
416.267	88
416.49	73
416.713	99
416.936	98
417.159	85
417.382	90
417.605	96
417.828	99
418.051	95
418.274	90
418.497	81
418.72	83
418.943	80
419.166	97
419.389	91
419.611	88
419.834	80
420.057	88
420.28	84
420.503	81
420.726	82
420.948	93
421.171	97
421.394	91
421.617	91
421.839	81
422.062	88
422.285	92
422.507	89
422.73	102
422.953	85
423.175	86
423.398	89
423.621	89
423.843	99
424.066	68
424.288	86
424.511	86
424.733	94
424.956	107
425.178	100
425.401	95
425.623	85
425.846	87
426.068	91
426.291	92
426.513	102
426.735	90
426.958	104
427.18	102
427.402	124
427.625	147
427.847	108
428.069	116
428.292	85
428.514	101
428.736	89
428.958	77
429.181	98
429.403	90
429.625	99
429.847	93
430.069	91
430.292	85
430.514	104
430.736	81
430.958	84
431.18	89
431.402	96
431.624	95
431.846	91
432.068	84
432.29	97
432.512	83
432.734	80
432.956	102
433.178	87
433.4	94
433.622	99
433.844	93
434.066	86
434.287	90
434.509	85
434.731	96
434.953	104
435.175	81
435.397	84
435.618	81
435.84	103
436.062	137
436.284	116
436.505	100
436.727	84
436.949	87
437.17	83
437.392	76
437.614	82
437.835	96
438.057	102
438.278	109
438.5	102
438.721	109
438.943	108
439.165	76
439.386	83
439.608	85
439.829	113
440.05	109
440.272	132
440.493	91
440.715	93
440.936	86
441.158	85
441.379	94
441.6	93
441.822	105
442.043	93
442.264	97
442.486	103
442.707	85
442.928	104
443.149	136
443.371	113
443.592	92
443.813	100
444.034	97
444.255	91
444.476	73
444.698	87
444.919	98
445.14	128
445.361	126
445.582	113
445.803	115
446.024	112
446.245	135
446.466	116
446.687	93
446.908	91
447.129	76
447.35	84
447.571	85
447.792	83
448.013	93
448.234	107
448.455	85
448.675	95
448.896	102
449.117	95
449.338	107
449.559	112
449.779	112
450	83
450.221	92
450.442	103
450.662	96
450.883	83
451.104	104
451.324	94
451.545	73
451.766	91
451.986	99
452.207	79
452.428	97
452.648	103
452.869	109
453.089	100
453.31	96
453.53	91
453.751	77
453.971	109
454.192	99
454.412	93
454.633	85
454.853	84
455.073	84
455.294	86
455.514	111
455.734	76
455.955	84
456.175	87
456.395	83
456.616	84
456.836	88
457.056	101
457.276	84
457.497	79
457.717	103
457.937	83
458.157	93
458.377	77
458.598	105
458.818	134
459.038	136
459.258	101
459.478	103
459.698	92
459.918	89
460.138	89
460.358	89
460.578	104
460.798	77
461.018	87
461.238	83
461.458	79
461.678	87
461.898	77
462.118	92
462.338	79
462.558	91
462.777	89
462.997	83
463.217	85
463.437	96
463.657	86
463.876	95
464.096	87
464.316	81
464.536	79
464.755	90
464.975	113
465.195	153
465.414	134
465.634	100
465.854	95
466.073	79
466.293	84
466.512	88
466.732	85
466.951	96
467.171	99
467.391	92
467.61	96
467.829	81
468.049	102
468.268	108
468.488	80
468.707	83
468.927	88
469.146	95
469.365	88
469.585	88
469.804	92
470.023	103
470.243	95
470.462	85
470.681	84
470.901	79
471.12	74
471.339	84
471.558	84
471.777	98
471.997	75
472.216	100
472.435	99
472.654	95
472.873	95
473.092	88
473.311	97
473.53	91
473.749	106
473.968	104
474.187	107
474.406	91
474.625	83
474.844	81
475.063	80
475.282	83
475.501	84
475.72	84
475.939	102
476.158	72
476.377	84
476.596	88
476.814	92
477.033	100
477.252	94
477.471	88
477.69	87
477.908	87
478.127	90
478.346	94
478.564	98
478.783	96
479.002	95
479.22	92
479.439	102
479.658	95
479.876	87
480.095	88
480.313	87
480.532	93
480.751	85
480.969	97
481.188	112
481.406	113
481.624	94
481.843	93
482.061	90
482.28	93
482.498	89
482.717	95
482.935	91
483.153	84
483.372	105
483.59	95
483.808	94
484.027	79
484.245	99
484.463	96
484.681	99
484.9	92
485.118	99
485.336	108
485.554	94
485.772	104
485.99	119
486.209	93
486.427	100
486.645	97
486.863	106
487.081	89
487.299	114
487.517	99
487.735	98
487.953	102
488.171	92
488.389	96
488.607	98
488.825	84
489.043	87
489.261	97
489.479	82
489.696	92
489.914	98
490.132	83
490.35	84
490.568	93
490.786	87
491.003	88
491.221	91
491.439	89
491.657	84
491.874	97
492.092	97
492.31	96
492.527	70
492.745	90
492.963	90
493.18	94
493.398	86
493.615	103
493.833	86
494.05	92
494.268	94
494.485	87
494.703	85
494.92	89
495.138	91
495.355	80
495.573	112
495.79	99
496.008	77
496.225	85
496.442	104
496.66	86
496.877	85
497.094	86
497.312	91
497.529	93
497.746	86
497.963	88
498.181	74
498.398	110
498.615	108
498.832	97
499.049	86
499.267	90
499.484	93
499.701	81
499.918	85
500.135	88
500.352	96
500.569	107
500.786	98
501.003	77
501.22	87
501.437	87
501.654	75
501.871	105
502.088	89
502.305	89
502.522	86
502.739	89
502.956	90
503.172	101
503.389	85
503.606	87
503.823	84
504.04	85
504.256	97
504.473	83
504.69	103
504.907	92
505.123	92
505.34	95
505.557	102
505.773	81
505.99	90
506.207	83
506.423	100
506.64	89
506.856	99
507.073	81
507.289	91
507.506	112
507.722	95
507.939	93
508.155	107
508.372	95
508.588	92
508.805	92
509.021	93
509.238	99
509.454	99
509.67	98
509.887	107
510.103	128
510.319	204
510.536	695
510.752	2022
510.968	543
511.184	139
511.401	114
511.617	99
511.833	89
512.049	88
512.265	99
512.481	105
512.698	95
512.914	100
513.13	90
513.346	86
513.562	84
513.778	105
513.994	83
514.21	87
514.426	97
514.642	124
514.858	107
515.074	145
515.29	387
515.506	1189
515.721	451
515.937	138
516.153	113
516.369	93
516.585	102
516.801	89
517.016	91
517.232	83
517.448	85
517.664	91
517.879	96
518.095	85
518.311	79
518.527	83
518.742	95
518.958	87
519.173	94
519.389	101
519.605	87
519.82	95
520.036	100
520.251	111
520.467	101
520.682	108
520.898	90
521.113	113
521.329	124
521.544	188
521.76	480
521.975	1949
522.19	1127
522.406	262
522.621	114
522.836	107
523.052	106
523.267	82
523.482	92
523.698	86
523.913	111
524.128	107
524.343	86
524.559	83
524.774	97
524.989	98
525.204	91
525.419	91
525.634	88
525.849	82
526.064	89
526.28	81
526.495	97
526.71	87
526.925	100
527.14	104
527.355	89
527.57	86
527.785	89
527.999	88
528.214	91
528.429	102
528.644	91
528.859	101
529.074	101
529.289	118
529.503	162
529.718	105
529.933	95
530.148	92
530.363	90
530.577	76
530.792	87
531.007	87
531.221	102
531.436	88
531.651	95
531.865	110
532.08	85
532.295	88
532.509	89
532.724	81
532.938	93
533.153	95
533.367	107
533.582	88
533.796	87
534.011	93
534.225	99
534.44	86
534.654	98
534.868	108
535.083	99
535.297	93
535.511	112
535.726	105
535.94	108
536.154	103
536.369	92
536.583	91
536.797	104
537.011	94
537.225	96
537.44	89
537.654	94
537.868	87
538.082	90
538.296	92
538.51	89
538.724	81
538.938	92
539.153	101
539.367	97
539.581	99
539.795	93
540.009	88
540.222	77
540.436	87
540.65	93
540.864	103
541.078	81
541.292	91
541.506	87
541.72	81
541.934	85
542.147	98
542.361	80
542.575	91
542.789	87
543.002	82
543.216	94
543.43	89
543.644	85
543.857	88
544.071	86
544.285	98
544.498	101
544.712	91
544.925	89
545.139	87
545.352	87
545.566	95
545.779	87
545.993	94
546.206	101
546.42	96
546.633	92
546.847	73
547.06	87
547.274	93
547.487	90
547.7	84
547.914	85
548.127	84
548.34	87
548.554	102
548.767	80
548.98	91
549.193	86
549.407	90
549.62	71
549.833	83
550.046	94
550.259	87
550.473	97
550.686	94
550.899	83
551.112	88
551.325	85
551.538	95
551.751	93
551.964	94
552.177	72
552.39	87
552.603	101
552.816	83
553.029	89
553.242	83
553.455	93
553.667	109
553.88	106
554.093	91
554.306	95
554.519	90
554.732	90
554.944	90
555.157	86
555.37	93
555.583	106
555.795	75
556.008	86
556.221	100
556.433	79
556.646	95
556.859	87
557.071	95
557.284	104
557.496	101
557.709	95
557.921	93
558.134	90
558.346	84
558.559	91
558.771	101
558.984	108
559.196	101
559.409	96
559.621	96
559.833	86
560.046	89
560.258	103
560.47	79
560.683	86
560.895	73
561.107	91
561.32	96
561.532	106
561.744	91
561.956	93
562.168	95
562.381	71
562.593	97
562.805	94
563.017	91
563.229	83
563.441	75
563.653	100
563.865	100
564.077	119
564.289	91
564.501	89
564.713	86
564.925	88
565.137	97
565.349	100
565.561	98
565.773	89
565.985	81
566.197	96
566.408	80
566.62	81
566.832	93
567.044	86
567.255	95
567.467	76
567.679	89
567.891	86
568.102	84
568.314	83
568.526	87
568.737	105
568.949	85
569.161	84
569.372	84
569.584	77
569.795	91
570.007	113
570.218	241
570.43	124
570.641	93
570.853	89
571.064	89
571.276	92
571.487	96
571.698	96
571.91	88
572.121	88
572.333	94
572.544	91
572.755	90
572.966	91
573.178	82
573.389	86
573.6	87
573.811	91
574.023	86
574.234	87
574.445	90
574.656	83
574.867	95
575.078	98
575.289	90
575.501	85
575.712	87
575.923	85
576.134	103
576.345	95
576.556	80
576.767	113
576.978	99
577.188	88
577.399	82
577.61	107
577.821	104
578.032	114
578.243	252
578.454	659
578.665	202
578.875	99
579.086	101
579.297	100
579.508	93
579.718	92
579.929	96
580.14	97
580.35	96
580.561	74
580.772	93
580.982	97
581.193	77
581.403	94
581.614	87
581.825	94
582.035	81
582.246	86
582.456	85
582.667	89
582.877	83
583.087	90
583.298	82
583.508	91
583.719	86
583.929	97
