Data from Uncirc_1985_H10_HRD10591_00070.txt Node
Date: Wed Jan 03 12:18:31 EST 2024
User: Yrep
Spectrometer: HR+D1059
Trigger mode: 1
Integration Time (sec): 1.000000E-1
Scans to average: 1
Electric dark correction enabled: true
Nonlinearity correction enabled: false
Boxcar width: 0
XAxis mode: Wavelengths
Number of Pixels in Spectrum: 2048
>>>>>Begin Spectral Data<<<<<
223.165	-20.38
223.4	-20.38
223.635	-20.38
223.869	-12.38
224.104	-7.38
224.338	-18.38
224.573	-11.38
224.808	-11.38
225.042	-1.38
225.277	-13.38
225.511	-8.38
225.746	0.62
225.98	14.62
226.215	5.62
226.449	11.62
226.683	24.62
226.918	11.62
227.152	35.62
227.387	43.62
227.621	42.62
227.856	43.62
228.09	46.62
228.324	70.62
228.559	49.62
228.793	64.62
229.027	75.62
229.262	71.62
229.496	65.62
229.73	90.62
229.964	82.62
230.199	57.62
230.433	74.62
230.667	69.62
230.901	74.62
231.136	81.62
231.37	80.62
231.604	83.62
231.838	89.62
232.072	69.62
232.306	80.62
232.541	90.62
232.775	88.62
233.009	78.62
233.243	81.62
233.477	77.62
233.711	86.62
233.945	85.62
234.179	77.62
234.413	80.62
234.647	86.62
234.881	71.62
235.115	92.62
235.349	78.62
235.583	84.62
235.817	77.62
236.051	87.62
236.285	84.62
236.519	71.62
236.753	82.62
236.987	77.62
237.221	65.62
237.455	80.62
237.689	92.62
237.922	84.62
238.156	69.62
238.39	72.62
238.624	61.62
238.858	80.62
239.091	77.62
239.325	78.62
239.559	81.62
239.793	60.62
240.027	76.62
240.26	82.62
240.494	88.62
240.728	88.62
240.961	75.62
241.195	91.62
241.429	62.62
241.662	92.62
241.896	76.62
242.13	60.62
242.363	81.62
242.597	76.62
242.83	58.62
243.064	82.62
243.298	67.62
243.531	94.62
243.765	75.62
243.998	76.62
244.232	106.62
244.465	81.62
244.699	80.62
244.932	74.62
245.166	78.62
245.399	78.62
245.633	78.62
245.866	72.62
246.099	83.62
246.333	75.62
246.566	79.62
246.8	77.62
247.033	77.62
247.266	82.62
247.5	84.62
247.733	80.62
247.966	76.62
248.2	81.62
248.433	72.62
248.666	80.62
248.899	97.62
249.133	80.62
249.366	94.62
249.599	89.62
249.832	81.62
250.066	66.62
250.299	100.62
250.532	87.62
250.765	83.62
250.998	84.62
251.231	69.62
251.465	72.62
251.698	86.62
251.931	103.62
252.164	72.62
252.397	84.62
252.63	79.62
252.863	87.62
253.096	91.62
253.329	84.62
253.562	75.62
253.795	96.62
254.028	99.62
254.261	77.62
254.494	89.62
254.727	72.62
254.96	82.62
255.193	85.62
255.426	86.62
255.659	84.62
255.892	78.62
256.124	66.62
256.357	69.62
256.59	91.62
256.823	82.62
257.056	87.62
257.289	83.62
257.521	90.62
257.754	86.62
257.987	72.62
258.22	84.62
258.452	72.62
258.685	75.62
258.918	91.62
259.151	65.62
259.383	75.62
259.616	85.62
259.849	81.62
260.081	88.62
260.314	68.62
260.547	88.62
260.779	92.62
261.012	80.62
261.244	74.62
261.477	94.62
261.71	92.62
261.942	108.62
262.175	122.62
262.407	79.62
262.64	88.62
262.872	83.62
263.105	92.62
263.337	90.62
263.57	83.62
263.802	80.62
264.035	77.62
264.267	80.62
264.499	90.62
264.732	97.62
264.964	91.62
265.197	85.62
265.429	79.62
265.661	86.62
265.894	101.62
266.126	82.62
266.358	88.62
266.591	97.62
266.823	92.62
267.055	86.62
267.287	82.62
267.52	68.62
267.752	95.62
267.984	77.62
268.216	95.62
268.448	95.62
268.681	84.62
268.913	90.62
269.145	94.62
269.377	94.62
269.609	75.62
269.841	76.62
270.073	90.62
270.306	90.62
270.538	78.62
270.77	73.62
271.002	65.62
271.234	88.62
271.466	88.62
271.698	102.62
271.93	92.62
272.162	77.62
272.394	93.62
272.626	96.62
272.858	88.62
273.09	89.62
273.322	94.62
273.553	88.62
273.785	89.62
274.017	91.62
274.249	80.62
274.481	89.62
274.713	74.62
274.945	87.62
275.176	92.62
275.408	85.62
275.64	85.62
275.872	92.62
276.104	77.62
276.335	94.62
276.567	88.62
276.799	104.62
277.031	122.62
277.262	94.62
277.494	94.62
277.726	88.62
277.957	89.62
278.189	69.62
278.421	77.62
278.652	73.62
278.884	90.62
279.115	89.62
279.347	98.62
279.579	90.62
279.81	91.62
280.042	87.62
280.273	89.62
280.505	87.62
280.736	100.62
280.968	82.62
281.199	90.62
281.431	82.62
281.662	83.62
281.894	89.62
282.125	113.62
282.356	120.62
282.588	135.62
282.819	113.62
283.051	87.62
283.282	76.62
283.513	79.62
283.745	78.62
283.976	98.62
284.207	89.62
284.439	89.62
284.67	92.62
284.901	77.62
285.132	89.62
285.364	94.62
285.595	80.62
285.826	74.62
286.057	101.62
286.288	92.62
286.52	91.62
286.751	86.62
286.982	90.62
287.213	85.62
287.444	88.62
287.675	94.62
287.906	81.62
288.138	90.62
288.369	89.62
288.6	90.62
288.831	80.62
289.062	82.62
289.293	86.62
289.524	99.62
289.755	85.62
289.986	71.62
290.217	72.62
290.448	96.62
290.679	96.62
290.91	85.62
291.141	88.62
291.371	84.62
291.602	90.62
291.833	84.62
292.064	84.62
292.295	73.62
292.526	88.62
292.757	84.62
292.987	86.62
293.218	79.62
293.449	92.62
293.68	88.62
293.91	80.62
294.141	98.62
294.372	84.62
294.603	102.62
294.833	94.62
295.064	82.62
295.295	105.62
295.525	88.62
295.756	98.62
295.987	106.62
296.217	126.62
296.448	124.62
296.679	97.62
296.909	77.62
297.14	90.62
297.37	96.62
297.601	90.62
297.831	86.62
298.062	98.62
298.292	92.62
298.523	93.62
298.753	92.62
298.984	86.62
299.214	82.62
299.445	81.62
299.675	102.62
299.905	90.62
300.136	90.62
300.366	93.62
300.597	93.62
300.827	89.62
301.057	100.62
301.288	99.62
301.518	92.62
301.748	89.62
301.979	89.62
302.209	100.62
302.439	92.62
302.669	94.62
302.9	83.62
303.13	96.62
303.36	110.62
303.59	107.62
303.82	102.62
304.051	83.62
304.281	88.62
304.511	92.62
304.741	91.62
304.971	101.62
305.201	88.62
305.431	87.62
305.661	96.62
305.891	89.62
306.121	97.62
306.352	98.62
306.582	103.62
306.812	90.62
307.042	95.62
307.272	94.62
307.502	102.62
307.731	99.62
307.961	85.62
308.191	93.62
308.421	98.62
308.651	93.62
308.881	84.62
309.111	102.62
309.341	115.62
309.571	102.62
309.8	90.62
310.03	87.62
310.26	104.62
310.49	89.62
310.72	106.62
310.949	102.62
311.179	94.62
311.409	92.62
311.639	114.62
311.868	100.62
312.098	105.62
312.328	88.62
312.557	90.62
312.787	109.62
313.017	97.62
313.246	105.62
313.476	92.62
313.706	83.62
313.935	94.62
314.165	77.62
314.394	90.62
314.624	90.62
314.853	93.62
315.083	93.62
315.312	98.62
315.542	90.62
315.771	98.62
316.001	98.62
316.23	97.62
316.46	101.62
316.689	87.62
316.919	98.62
317.148	97.62
317.377	98.62
317.607	96.62
317.836	84.62
318.065	91.62
318.295	88.62
318.524	98.62
318.753	93.62
318.983	82.62
319.212	104.62
319.441	118.62
319.67	107.62
319.9	99.62
320.129	85.62
320.358	93.62
320.587	88.62
320.816	107.62
321.046	104.62
321.275	98.62
321.504	107.62
321.733	98.62
321.962	102.62
322.191	98.62
322.42	117.62
322.649	96.62
322.878	108.62
323.108	117.62
323.337	123.62
323.566	118.62
323.795	149.62
324.024	217.62
324.253	377.62
324.482	809.62
324.71	1630.62
324.939	2140.62
325.168	788.62
325.397	243.62
325.626	154.62
325.855	134.62
326.084	119.62
326.313	116.62
326.542	166.62
326.77	209.62
326.999	449.62
327.228	908.62
327.457	1643.62
327.686	1306.62
327.914	350.62
328.143	200.62
328.372	165.62
328.6	121.62
328.829	118.62
329.058	125.62
329.287	120.62
329.515	109.62
329.744	104.62
329.972	113.62
330.201	117.62
330.43	140.62
330.658	125.62
330.887	127.62
331.115	124.62
331.344	105.62
331.572	101.62
331.801	109.62
332.03	104.62
332.258	120.62
332.486	109.62
332.715	97.62
332.943	84.62
333.172	99.62
333.4	92.62
333.629	121.62
333.857	109.62
334.085	116.62
334.314	124.62
334.542	129.62
334.771	172.62
334.999	113.62
335.227	92.62
335.455	88.62
335.684	104.62
335.912	95.62
336.14	87.62
336.369	101.62
336.597	102.62
336.825	95.62
337.053	91.62
337.281	93.62
337.51	90.62
337.738	89.62
337.966	85.62
338.194	88.62
338.422	96.62
338.65	90.62
338.878	99.62
339.106	93.62
339.334	84.62
339.562	87.62
339.79	83.62
340.018	89.62
340.246	102.62
340.474	98.62
340.702	96.62
340.93	100.62
341.158	85.62
341.386	100.62
341.614	97.62
341.842	86.62
342.07	92.62
342.298	89.62
342.526	83.62
342.754	85.62
342.981	88.62
343.209	90.62
343.437	98.62
343.665	104.62
343.893	92.62
344.12	96.62
344.348	96.62
344.576	95.62
344.804	87.62
345.031	92.62
345.259	94.62
345.487	105.62
345.714	90.62
345.942	82.62
346.17	110.62
346.397	96.62
346.625	103.62
346.853	86.62
347.08	96.62
347.308	109.62
347.535	97.62
347.763	93.62
347.99	109.62
348.218	102.62
348.445	103.62
348.673	90.62
348.9	104.62
349.128	92.62
349.355	74.62
349.583	104.62
349.81	96.62
350.037	96.62
350.265	94.62
350.492	94.62
350.72	102.62
350.947	105.62
351.174	93.62
351.402	91.62
351.629	108.62
351.856	113.62
352.083	107.62
352.311	119.62
352.538	112.62
352.765	106.62
352.992	112.62
353.22	128.62
353.447	101.62
353.674	112.62
353.901	90.62
354.128	91.62
354.355	102.62
354.583	92.62
354.81	97.62
355.037	89.62
355.264	92.62
355.491	85.62
355.718	103.62
355.945	102.62
356.172	68.62
356.399	108.62
356.626	85.62
356.853	103.62
357.08	90.62
357.307	108.62
357.534	106.62
357.761	100.62
357.988	96.62
358.215	90.62
358.441	103.62
358.668	85.62
358.895	96.62
359.122	86.62
359.349	73.62
359.576	81.62
359.802	92.62
360.029	101.62
360.256	113.62
360.483	88.62
360.709	82.62
360.936	94.62
361.163	77.62
361.39	89.62
361.616	94.62
361.843	89.62
362.07	96.62
362.296	98.62
362.523	95.62
362.749	81.62
362.976	105.62
363.203	93.62
363.429	88.62
363.656	96.62
363.882	89.62
364.109	94.62
364.335	95.62
364.562	98.62
364.788	86.62
365.015	90.62
365.241	100.62
365.468	102.62
365.694	99.62
365.92	116.62
366.147	87.62
366.373	80.62
366.599	98.62
366.826	98.62
367.052	84.62
367.278	84.62
367.505	91.62
367.731	85.62
367.957	102.62
368.184	97.62
368.41	102.62
368.636	122.62
368.862	114.62
369.089	96.62
369.315	98.62
369.541	100.62
369.767	101.62
369.993	99.62
370.219	89.62
370.445	60.62
370.672	80.62
370.898	90.62
371.124	96.62
371.35	102.62
371.576	85.62
371.802	87.62
372.028	94.62
372.254	100.62
372.48	96.62
372.706	97.62
372.932	91.62
373.158	86.62
373.384	90.62
373.61	94.62
373.835	91.62
374.061	86.62
374.287	84.62
374.513	90.62
374.739	92.62
374.965	73.62
375.191	92.62
375.416	84.62
375.642	93.62
375.868	102.62
376.094	85.62
376.319	89.62
376.545	96.62
376.771	94.62
376.997	87.62
377.222	106.62
377.448	77.62
377.674	105.62
377.899	100.62
378.125	95.62
378.35	82.62
378.576	76.62
378.802	90.62
379.027	99.62
379.253	92.62
379.478	78.62
379.704	96.62
379.929	89.62
380.155	103.62
380.38	103.62
380.606	97.62
380.831	98.62
381.057	98.62
381.282	93.62
381.507	84.62
381.733	99.62
381.958	82.62
382.184	100.62
382.409	108.62
382.634	98.62
382.86	100.62
383.085	100.62
383.31	112.62
383.535	109.62
383.761	98.62
383.986	92.62
384.211	100.62
384.436	97.62
384.662	112.62
384.887	101.62
385.112	92.62
385.337	92.62
385.562	79.62
385.787	100.62
386.013	103.62
386.238	110.62
386.463	96.62
386.688	112.62
386.913	102.62
387.138	107.62
387.363	92.62
387.588	93.62
387.813	98.62
388.038	103.62
388.263	103.62
388.488	110.62
388.713	92.62
388.938	78.62
389.163	100.62
389.387	88.62
389.612	95.62
389.837	99.62
390.062	97.62
390.287	92.62
390.512	95.62
390.736	93.62
390.961	88.62
391.186	93.62
391.411	90.62
391.636	105.62
391.86	83.62
392.085	92.62
392.31	86.62
392.534	88.62
392.759	91.62
392.984	98.62
393.208	103.62
393.433	89.62
393.658	74.62
393.882	86.62
394.107	86.62
394.331	88.62
394.556	84.62
394.78	95.62
395.005	80.62
395.229	84.62
395.454	82.62
395.678	81.62
395.903	92.62
396.127	77.62
396.352	97.62
396.576	76.62
396.801	92.62
397.025	83.62
397.249	100.62
397.474	101.62
397.698	87.62
397.922	94.62
398.147	94.62
398.371	102.62
398.595	98.62
398.82	88.62
399.044	108.62
399.268	86.62
399.492	88.62
399.717	107.62
399.941	84.62
400.165	91.62
400.389	70.62
400.613	96.62
400.837	92.62
401.062	102.62
401.286	73.62
401.51	84.62
401.734	86.62
401.958	104.62
402.182	132.62
402.406	151.62
402.63	122.62
402.854	97.62
403.078	86.62
403.302	78.62
403.526	84.62
403.75	86.62
403.974	78.62
404.198	90.62
404.422	82.62
404.645	84.62
404.869	88.62
405.093	97.62
405.317	106.62
405.541	105.62
405.765	91.62
405.988	96.62
406.212	155.62
406.436	196.62
406.66	133.62
406.883	97.62
407.107	83.62
407.331	103.62
407.555	106.62
407.778	93.62
408.002	83.62
408.226	86.62
408.449	91.62
408.673	87.62
408.896	95.62
409.12	102.62
409.344	104.62
409.567	92.62
409.791	90.62
410.014	90.62
410.238	84.62
410.461	91.62
410.685	91.62
410.908	105.62
411.132	90.62
411.355	94.62
411.578	94.62
411.802	80.62
412.025	93.62
412.249	98.62
412.472	96.62
412.695	100.62
412.919	89.62
413.142	90.62
413.365	91.62
413.589	103.62
413.812	88.62
414.035	78.62
414.258	96.62
414.482	88.62
414.705	76.62
414.928	85.62
415.151	66.62
415.374	105.62
415.597	98.62
415.821	101.62
416.044	84.62
416.267	96.62
416.49	93.62
416.713	100.62
416.936	94.62
417.159	94.62
417.382	88.62
417.605	104.62
417.828	95.62
418.051	88.62
418.274	88.62
418.497	73.62
418.72	95.62
418.943	100.62
419.166	89.62
419.389	78.62
419.611	91.62
419.834	91.62
420.057	90.62
420.28	91.62
420.503	78.62
420.726	86.62
420.948	88.62
421.171	97.62
421.394	86.62
421.617	94.62
421.839	84.62
422.062	81.62
422.285	96.62
422.507	104.62
422.73	105.62
422.953	89.62
423.175	89.62
423.398	86.62
423.621	81.62
423.843	85.62
424.066	81.62
424.288	94.62
424.511	89.62
424.733	106.62
424.956	90.62
425.178	101.62
425.401	93.62
425.623	108.62
425.846	96.62
426.068	86.62
426.291	106.62
426.513	85.62
426.735	95.62
426.958	103.62
427.18	97.62
427.402	125.62
427.625	168.62
427.847	136.62
428.069	103.62
428.292	89.62
428.514	92.62
428.736	85.62
428.958	89.62
429.181	92.62
429.403	92.62
429.625	94.62
429.847	92.62
430.069	72.62
430.292	84.62
430.514	86.62
430.736	82.62
430.958	84.62
431.18	73.62
431.402	90.62
431.624	85.62
431.846	96.62
432.068	85.62
432.29	89.62
432.512	92.62
432.734	91.62
432.956	85.62
433.178	96.62
433.4	97.62
433.622	82.62
433.844	87.62
434.066	72.62
434.287	81.62
434.509	93.62
434.731	91.62
434.953	92.62
435.175	93.62
435.397	90.62
435.618	75.62
435.84	110.62
436.062	110.62
436.284	117.62
436.505	118.62
436.727	100.62
436.949	86.62
437.17	87.62
437.392	97.62
437.614	88.62
437.835	100.62
438.057	104.62
438.278	116.62
438.5	94.62
438.721	117.62
438.943	82.62
439.165	94.62
439.386	91.62
439.608	98.62
439.829	106.62
440.05	111.62
440.272	137.62
440.493	97.62
440.715	91.62
440.936	73.62
441.158	99.62
441.379	76.62
441.6	86.62
441.822	92.62
442.043	90.62
442.264	91.62
442.486	109.62
442.707	90.62
442.928	103.62
443.149	135.62
443.371	125.62
443.592	109.62
443.813	113.62
444.034	115.62
444.255	91.62
444.476	82.62
444.698	97.62
444.919	82.62
445.14	135.62
445.361	131.62
445.582	109.62
445.803	130.62
446.024	125.62
446.245	136.62
446.466	117.62
446.687	86.62
446.908	101.62
447.129	85.62
447.35	81.62
447.571	89.62
447.792	87.62
448.013	100.62
448.234	96.62
448.455	74.62
448.675	101.62
448.896	117.62
449.117	93.62
449.338	115.62
449.559	130.62
449.779	126.62
450	86.62
450.221	91.62
450.442	105.62
450.662	88.62
450.883	98.62
451.104	107.62
451.324	107.62
451.545	90.62
451.766	90.62
451.986	94.62
452.207	84.62
452.428	87.62
452.648	97.62
452.869	103.62
453.089	111.62
453.31	120.62
453.53	86.62
453.751	91.62
453.971	110.62
454.192	102.62
454.412	108.62
454.633	85.62
454.853	82.62
455.073	85.62
455.294	75.62
455.514	95.62
455.734	88.62
455.955	92.62
456.175	89.62
456.395	86.62
456.616	106.62
456.836	85.62
457.056	73.62
457.276	83.62
457.497	85.62
457.717	78.62
457.937	84.62
458.157	100.62
458.377	79.62
458.598	110.62
458.818	140.62
459.038	136.62
459.258	124.62
459.478	92.62
459.698	93.62
459.918	99.62
460.138	88.62
460.358	92.62
460.578	81.62
460.798	88.62
461.018	81.62
461.238	96.62
461.458	97.62
461.678	84.62
461.898	96.62
462.118	85.62
462.338	91.62
462.558	109.62
462.777	93.62
462.997	82.62
463.217	93.62
463.437	86.62
463.657	81.62
463.876	75.62
464.096	104.62
464.316	107.62
464.536	74.62
464.755	83.62
464.975	94.62
465.195	162.62
465.414	168.62
465.634	92.62
465.854	86.62
466.073	106.62
466.293	91.62
466.512	66.62
466.732	75.62
466.951	86.62
467.171	97.62
467.391	89.62
467.61	112.62
467.829	94.62
468.049	116.62
468.268	130.62
468.488	98.62
468.707	95.62
468.927	86.62
469.146	82.62
469.365	91.62
469.585	82.62
469.804	96.62
470.023	100.62
470.243	85.62
470.462	96.62
470.681	117.62
470.901	103.62
471.12	80.62
471.339	70.62
471.558	88.62
471.777	112.62
471.997	96.62
472.216	131.62
472.435	183.62
472.654	94.62
472.873	102.62
473.092	92.62
473.311	86.62
473.53	97.62
473.749	86.62
473.968	99.62
474.187	98.62
474.406	85.62
474.625	87.62
474.844	80.62
475.063	80.62
475.282	98.62
475.501	89.62
475.72	65.62
475.939	69.62
476.158	86.62
476.377	99.62
476.596	90.62
476.814	90.62
477.033	93.62
477.252	92.62
477.471	92.62
477.69	105.62
477.908	88.62
478.127	95.62
478.346	79.62
478.564	74.62
478.783	92.62
479.002	81.62
479.22	86.62
479.439	89.62
479.658	108.62
479.876	102.62
480.095	95.62
480.313	100.62
480.532	88.62
480.751	90.62
480.969	127.62
481.188	259.62
481.406	188.62
481.624	113.62
481.843	80.62
482.061	90.62
482.28	92.62
482.498	93.62
482.717	93.62
482.935	93.62
483.153	96.62
483.372	94.62
483.59	93.62
483.808	96.62
484.027	97.62
484.245	95.62
484.463	99.62
484.681	80.62
484.9	105.62
485.118	89.62
485.336	95.62
485.554	99.62
485.772	89.62
485.99	102.62
486.209	98.62
486.427	110.62
486.645	107.62
486.863	119.62
487.081	94.62
487.299	101.62
487.517	97.62
487.735	86.62
487.953	85.62
488.171	82.62
488.389	105.62
488.607	109.62
488.825	96.62
489.043	89.62
489.261	92.62
489.479	84.62
489.696	91.62
489.914	91.62
490.132	81.62
490.35	72.62
490.568	88.62
490.786	90.62
491.003	110.62
491.221	98.62
491.439	87.62
491.657	104.62
491.874	97.62
492.092	92.62
492.31	96.62
492.527	74.62
492.745	90.62
492.963	84.62
493.18	86.62
493.398	98.62
493.615	110.62
493.833	93.62
494.05	99.62
494.268	94.62
494.485	105.62
494.703	89.62
494.92	96.62
495.138	97.62
495.355	87.62
495.573	98.62
495.79	92.62
496.008	97.62
496.225	103.62
496.442	91.62
496.66	97.62
496.877	96.62
497.094	90.62
497.312	86.62
497.529	93.62
497.746	83.62
497.963	86.62
498.181	101.62
498.398	94.62
498.615	117.62
498.832	103.62
499.049	93.62
499.267	95.62
499.484	95.62
499.701	105.62
499.918	88.62
500.135	93.62
500.352	103.62
500.569	96.62
500.786	86.62
501.003	91.62
501.22	97.62
501.437	89.62
501.654	96.62
501.871	111.62
502.088	92.62
502.305	93.62
502.522	93.62
502.739	99.62
502.956	101.62
503.172	72.62
503.389	84.62
503.606	103.62
503.823	109.62
504.04	91.62
504.256	92.62
504.473	82.62
504.69	84.62
504.907	97.62
505.123	88.62
505.34	92.62
505.557	93.62
505.773	92.62
505.99	92.62
506.207	94.62
506.423	102.62
506.64	104.62
506.856	86.62
507.073	84.62
507.289	85.62
507.506	100.62
507.722	123.62
507.939	100.62
508.155	107.62
508.372	111.62
508.588	91.62
508.805	110.62
509.021	109.62
509.238	101.62
509.454	87.62
509.67	87.62
509.887	122.62
510.103	117.62
510.319	210.62
510.536	749.62
510.752	2409.62
510.968	640.62
511.184	150.62
511.401	121.62
511.617	103.62
511.833	101.62
512.049	105.62
512.265	96.62
512.481	104.62
512.698	101.62
512.914	79.62
513.13	92.62
513.346	94.62
513.562	98.62
513.778	105.62
513.994	94.62
514.21	105.62
514.426	108.62
514.642	139.62
514.858	121.62
515.074	157.62
515.29	431.62
