Data from Uncirc_1985_H10_HRD10591_00060.txt Node
Date: Wed Jan 03 12:18:29 EST 2024
User: Yrep
Spectrometer: HR+D1059
Trigger mode: 1
Integration Time (sec): 1.000000E-1
Scans to average: 1
Electric dark correction enabled: true
Nonlinearity correction enabled: false
Boxcar width: 0
XAxis mode: Wavelengths
Number of Pixels in Spectrum: 2048
>>>>>Begin Spectral Data<<<<<
223.165	-26.06
223.4	-26.06
223.635	-26.06
223.869	-17.06
224.104	-20.06
224.338	-13.06
224.573	-17.06
224.808	-9.06
225.042	-8.06
225.277	-1.06
225.511	7.94
225.746	-6.06
225.98	6.94
226.215	8.94
226.449	4.94
226.683	26.94
226.918	30.94
227.152	30.94
227.387	27.94
227.621	32.94
227.856	40.94
228.09	45.94
228.324	38.94
228.559	54.94
228.793	61.94
229.027	64.94
229.262	74.94
229.496	82.94
229.73	108.94
229.964	88.94
230.199	76.94
230.433	83.94
230.667	77.94
230.901	78.94
231.136	78.94
231.37	70.94
231.604	90.94
231.838	89.94
232.072	79.94
232.306	93.94
232.541	89.94
232.775	83.94
233.009	81.94
233.243	73.94
233.477	67.94
233.711	71.94
233.945	85.94
234.179	75.94
234.413	82.94
234.647	78.94
234.881	94.94
235.115	87.94
235.349	92.94
235.583	72.94
235.817	87.94
236.051	76.94
236.285	69.94
236.519	85.94
236.753	83.94
236.987	65.94
237.221	82.94
237.455	75.94
237.689	56.94
237.922	66.94
238.156	81.94
238.39	71.94
238.624	74.94
238.858	72.94
239.091	74.94
239.325	73.94
239.559	67.94
239.793	69.94
240.027	70.94
240.26	68.94
240.494	72.94
240.728	74.94
240.961	84.94
241.195	98.94
241.429	88.94
241.662	72.94
241.896	78.94
242.13	87.94
242.363	60.94
242.597	81.94
242.83	75.94
243.064	78.94
243.298	87.94
243.531	86.94
243.765	75.94
243.998	70.94
244.232	81.94
244.465	78.94
244.699	90.94
244.932	73.94
245.166	72.94
245.399	67.94
245.633	68.94
245.866	70.94
246.099	75.94
246.333	80.94
246.566	87.94
246.8	81.94
247.033	87.94
247.266	90.94
247.5	64.94
247.733	83.94
247.966	78.94
248.2	96.94
248.433	80.94
248.666	80.94
248.899	80.94
249.133	87.94
249.366	85.94
249.599	98.94
249.832	84.94
250.066	82.94
250.299	92.94
250.532	76.94
250.765	80.94
250.998	86.94
251.231	80.94
251.465	74.94
251.698	78.94
251.931	75.94
252.164	94.94
252.397	75.94
252.63	78.94
252.863	82.94
253.096	89.94
253.329	78.94
253.562	86.94
253.795	84.94
254.028	83.94
254.261	87.94
254.494	81.94
254.727	86.94
254.96	85.94
255.193	76.94
255.426	78.94
255.659	84.94
255.892	78.94
256.124	78.94
256.357	71.94
256.59	75.94
256.823	91.94
257.056	83.94
257.289	79.94
257.521	75.94
257.754	84.94
257.987	84.94
258.22	83.94
258.452	78.94
258.685	73.94
258.918	89.94
259.151	74.94
259.383	83.94
259.616	94.94
259.849	72.94
260.081	80.94
260.314	72.94
260.547	63.94
260.779	78.94
261.012	80.94
261.244	80.94
261.477	95.94
261.71	103.94
261.942	99.94
262.175	124.94
262.407	83.94
262.64	74.94
262.872	69.94
263.105	80.94
263.337	75.94
263.57	93.94
263.802	74.94
264.035	72.94
264.267	74.94
264.499	81.94
264.732	82.94
264.964	93.94
265.197	76.94
265.429	90.94
265.661	82.94
265.894	90.94
266.126	95.94
266.358	89.94
266.591	78.94
266.823	82.94
267.055	97.94
267.287	83.94
267.52	70.94
267.752	96.94
267.984	83.94
268.216	82.94
268.448	87.94
268.681	89.94
268.913	81.94
269.145	81.94
269.377	84.94
269.609	81.94
269.841	72.94
270.073	80.94
270.306	94.94
270.538	91.94
270.77	102.94
271.002	96.94
271.234	94.94
271.466	80.94
271.698	80.94
271.93	79.94
272.162	92.94
272.394	83.94
272.626	82.94
272.858	99.94
273.09	72.94
273.322	88.94
273.553	87.94
273.785	78.94
274.017	92.94
274.249	74.94
274.481	83.94
274.713	85.94
274.945	99.94
275.176	82.94
275.408	99.94
275.64	95.94
275.872	72.94
276.104	76.94
276.335	97.94
276.567	82.94
276.799	111.94
277.031	92.94
277.262	91.94
277.494	95.94
277.726	88.94
277.957	86.94
278.189	82.94
278.421	90.94
278.652	81.94
278.884	82.94
279.115	80.94
279.347	74.94
279.579	64.94
279.81	84.94
280.042	84.94
280.273	93.94
280.505	78.94
280.736	74.94
280.968	82.94
281.199	87.94
281.431	96.94
281.662	89.94
281.894	92.94
282.125	91.94
282.356	133.94
282.588	139.94
282.819	112.94
283.051	98.94
283.282	90.94
283.513	92.94
283.745	90.94
283.976	93.94
284.207	80.94
284.439	91.94
284.67	92.94
284.901	102.94
285.132	89.94
285.364	95.94
285.595	76.94
285.826	87.94
286.057	99.94
286.288	75.94
286.52	81.94
286.751	85.94
286.982	91.94
287.213	82.94
287.444	84.94
287.675	75.94
287.906	94.94
288.138	86.94
288.369	89.94
288.6	95.94
288.831	93.94
289.062	91.94
289.293	103.94
289.524	90.94
289.755	75.94
289.986	79.94
290.217	83.94
290.448	81.94
290.679	79.94
290.91	94.94
291.141	79.94
291.371	89.94
291.602	88.94
291.833	85.94
292.064	100.94
292.295	88.94
292.526	83.94
292.757	113.94
292.987	90.94
293.218	82.94
293.449	85.94
293.68	94.94
293.91	89.94
294.141	79.94
294.372	88.94
294.603	95.94
294.833	94.94
295.064	85.94
295.295	80.94
295.525	83.94
295.756	95.94
295.987	106.94
296.217	139.94
296.448	135.94
296.679	80.94
296.909	80.94
297.14	90.94
297.37	86.94
297.601	90.94
297.831	80.94
298.062	84.94
298.292	76.94
298.523	92.94
298.753	95.94
298.984	85.94
299.214	84.94
299.445	103.94
299.675	81.94
299.905	86.94
300.136	91.94
300.366	81.94
300.597	86.94
300.827	85.94
301.057	102.94
301.288	95.94
301.518	92.94
301.748	94.94
301.979	96.94
302.209	90.94
302.439	78.94
302.669	80.94
302.9	88.94
303.13	81.94
303.36	98.94
303.59	100.94
303.82	96.94
304.051	90.94
304.281	83.94
304.511	98.94
304.741	89.94
304.971	95.94
305.201	104.94
305.431	92.94
305.661	84.94
305.891	102.94
306.121	85.94
306.352	94.94
306.582	96.94
306.812	98.94
307.042	103.94
307.272	93.94
307.502	96.94
307.731	102.94
307.961	100.94
308.191	96.94
308.421	113.94
308.651	95.94
308.881	97.94
309.111	96.94
309.341	87.94
309.571	96.94
309.8	92.94
310.03	94.94
310.26	102.94
310.49	97.94
310.72	93.94
310.949	90.94
311.179	96.94
311.409	91.94
311.639	88.94
311.868	82.94
312.098	100.94
312.328	84.94
312.557	98.94
312.787	107.94
313.017	95.94
313.246	81.94
313.476	104.94
313.706	94.94
313.935	79.94
314.165	96.94
314.394	88.94
314.624	92.94
314.853	94.94
315.083	80.94
315.312	99.94
315.542	85.94
315.771	95.94
316.001	90.94
316.23	82.94
316.46	75.94
316.689	81.94
316.919	94.94
317.148	92.94
317.377	91.94
317.607	95.94
317.836	92.94
318.065	84.94
318.295	76.94
318.524	103.94
318.753	103.94
318.983	98.94
319.212	96.94
319.441	83.94
319.67	93.94
319.9	107.94
320.129	108.94
320.358	82.94
320.587	87.94
320.816	105.94
321.046	86.94
321.275	102.94
321.504	115.94
321.733	96.94
321.962	115.94
322.191	107.94
322.42	90.94
322.649	107.94
322.878	118.94
323.108	105.94
323.337	117.94
323.566	119.94
323.795	149.94
324.024	206.94
324.253	404.94
324.482	856.94
324.71	1824.94
324.939	2474.94
325.168	911.94
325.397	269.94
325.626	152.94
325.855	134.94
326.084	137.94
326.313	127.94
326.542	149.94
326.77	219.94
326.999	467.94
327.228	964.94
327.457	1846.94
327.686	1512.94
327.914	400.94
328.143	199.94
328.372	160.94
328.6	135.94
328.829	111.94
329.058	128.94
329.287	128.94
329.515	111.94
329.744	116.94
329.972	111.94
330.201	133.94
330.43	119.94
330.658	143.94
330.887	139.94
331.115	117.94
331.344	101.94
331.572	107.94
331.801	90.94
332.03	108.94
332.258	102.94
332.486	90.94
332.715	93.94
332.943	101.94
333.172	96.94
333.4	102.94
333.629	114.94
333.857	118.94
334.085	117.94
334.314	118.94
334.542	139.94
334.771	125.94
334.999	95.94
335.227	97.94
335.455	98.94
335.684	83.94
335.912	88.94
336.14	97.94
336.369	83.94
336.597	105.94
336.825	88.94
337.053	96.94
337.281	80.94
337.51	99.94
337.738	98.94
337.966	103.94
338.194	108.94
338.422	91.94
338.65	104.94
338.878	100.94
339.106	94.94
339.334	94.94
339.562	95.94
339.79	105.94
340.018	92.94
340.246	86.94
340.474	94.94
340.702	90.94
340.93	81.94
341.158	92.94
341.386	78.94
341.614	117.94
341.842	99.94
342.07	91.94
342.298	85.94
342.526	99.94
342.754	73.94
342.981	91.94
343.209	106.94
343.437	93.94
343.665	88.94
343.893	87.94
344.12	83.94
344.348	85.94
344.576	97.94
344.804	86.94
345.031	87.94
345.259	98.94
345.487	92.94
345.714	102.94
345.942	81.94
346.17	98.94
346.397	91.94
346.625	80.94
346.853	92.94
347.08	72.94
347.308	98.94
347.535	97.94
347.763	108.94
347.99	110.94
348.218	98.94
348.445	88.94
348.673	98.94
348.9	93.94
349.128	94.94
349.355	104.94
349.583	84.94
349.81	96.94
350.037	100.94
350.265	95.94
350.492	76.94
350.72	89.94
350.947	87.94
351.174	103.94
351.402	101.94
351.629	104.94
351.856	92.94
352.083	97.94
352.311	110.94
352.538	118.94
352.765	97.94
352.992	106.94
353.22	115.94
353.447	111.94
353.674	93.94
353.901	95.94
354.128	91.94
354.355	116.94
354.583	92.94
354.81	100.94
355.037	100.94
355.264	96.94
355.491	90.94
355.718	87.94
355.945	83.94
356.172	82.94
356.399	90.94
356.626	100.94
356.853	91.94
357.08	90.94
357.307	101.94
357.534	90.94
357.761	82.94
357.988	108.94
358.215	84.94
358.441	80.94
358.668	95.94
358.895	94.94
359.122	98.94
359.349	92.94
359.576	90.94
359.802	100.94
360.029	108.94
360.256	114.94
360.483	96.94
360.709	89.94
360.936	101.94
361.163	92.94
361.39	82.94
361.616	97.94
361.843	87.94
362.07	104.94
362.296	114.94
362.523	99.94
362.749	94.94
362.976	92.94
363.203	88.94
363.429	93.94
363.656	87.94
363.882	74.94
364.109	98.94
364.335	100.94
364.562	90.94
364.788	81.94
365.015	97.94
365.241	101.94
365.468	109.94
365.694	112.94
365.92	99.94
366.147	86.94
366.373	94.94
366.599	91.94
366.826	100.94
367.052	80.94
367.278	101.94
367.505	75.94
367.731	91.94
367.957	102.94
368.184	90.94
368.41	92.94
368.636	103.94
368.862	115.94
369.089	100.94
369.315	84.94
369.541	79.94
369.767	94.94
369.993	102.94
370.219	94.94
370.445	83.94
370.672	90.94
370.898	80.94
371.124	84.94
371.35	79.94
371.576	88.94
371.802	78.94
372.028	98.94
372.254	100.94
372.48	88.94
372.706	96.94
372.932	88.94
373.158	92.94
373.384	89.94
373.61	83.94
373.835	87.94
374.061	76.94
374.287	95.94
374.513	86.94
374.739	92.94
374.965	87.94
375.191	80.94
375.416	87.94
375.642	87.94
375.868	84.94
376.094	80.94
376.319	95.94
376.545	89.94
376.771	91.94
376.997	94.94
377.222	86.94
377.448	93.94
377.674	84.94
377.899	91.94
378.125	97.94
378.35	92.94
378.576	87.94
378.802	82.94
379.027	81.94
379.253	88.94
379.478	84.94
379.704	81.94
379.929	93.94
380.155	90.94
380.38	91.94
380.606	86.94
380.831	86.94
381.057	94.94
381.282	92.94
381.507	99.94
381.733	115.94
381.958	99.94
382.184	85.94
382.409	96.94
382.634	96.94
382.86	90.94
383.085	98.94
383.31	98.94
383.535	100.94
383.761	90.94
383.986	91.94
384.211	97.94
384.436	101.94
384.662	103.94
384.887	85.94
385.112	91.94
385.337	82.94
385.562	95.94
385.787	100.94
386.013	120.94
386.238	112.94
386.463	102.94
386.688	84.94
386.913	98.94
387.138	87.94
387.363	93.94
387.588	114.94
387.813	99.94
388.038	93.94
388.263	106.94
388.488	107.94
388.713	102.94
388.938	104.94
389.163	102.94
389.387	95.94
389.612	88.94
389.837	91.94
390.062	95.94
390.287	78.94
390.512	94.94
390.736	96.94
390.961	93.94
391.186	87.94
391.411	74.94
391.636	96.94
391.86	82.94
392.085	95.94
392.31	82.94
392.534	93.94
392.759	100.94
392.984	73.94
393.208	82.94
393.433	86.94
393.658	92.94
393.882	107.94
394.107	88.94
394.331	91.94
394.556	70.94
394.78	92.94
395.005	86.94
395.229	94.94
395.454	80.94
395.678	80.94
395.903	98.94
396.127	102.94
396.352	74.94
396.576	94.94
396.801	86.94
397.025	77.94
397.249	95.94
397.474	91.94
397.698	94.94
397.922	94.94
398.147	89.94
398.371	91.94
398.595	83.94
398.82	66.94
399.044	88.94
399.268	105.94
399.492	91.94
399.717	84.94
399.941	101.94
400.165	97.94
400.389	88.94
400.613	74.94
400.837	80.94
401.062	90.94
401.286	78.94
401.51	92.94
401.734	78.94
401.958	101.94
402.182	113.94
402.406	163.94
402.63	120.94
402.854	94.94
403.078	100.94
403.302	96.94
403.526	83.94
403.75	89.94
403.974	90.94
404.198	84.94
404.422	79.94
404.645	82.94
404.869	88.94
405.093	94.94
405.317	109.94
405.541	90.94
405.765	96.94
405.988	106.94
406.212	168.94
406.436	218.94
406.66	144.94
406.883	107.94
407.107	84.94
407.331	86.94
407.555	96.94
407.778	107.94
408.002	99.94
408.226	104.94
408.449	104.94
408.673	94.94
408.896	85.94
409.12	94.94
409.344	104.94
409.567	84.94
409.791	90.94
410.014	80.94
410.238	87.94
410.461	86.94
410.685	103.94
410.908	87.94
411.132	107.94
411.355	104.94
411.578	95.94
411.802	95.94
412.025	96.94
412.249	107.94
412.472	98.94
412.695	98.94
412.919	76.94
413.142	79.94
413.365	83.94
413.589	105.94
413.812	95.94
414.035	88.94
414.258	97.94
414.482	93.94
414.705	90.94
414.928	103.94
415.151	85.94
415.374	93.94
415.597	97.94
415.821	87.94
416.044	76.94
416.267	88.94
416.49	89.94
416.713	91.94
416.936	95.94
417.159	88.94
417.382	94.94
417.605	105.94
417.828	103.94
418.051	94.94
418.274	74.94
418.497	89.94
418.72	98.94
418.943	92.94
419.166	83.94
419.389	72.94
419.611	94.94
419.834	96.94
420.057	92.94
420.28	94.94
420.503	90.94
420.726	83.94
420.948	99.94
421.171	99.94
421.394	79.94
421.617	100.94
421.839	87.94
422.062	89.94
422.285	95.94
422.507	106.94
422.73	95.94
422.953	78.94
423.175	92.94
423.398	90.94
423.621	89.94
423.843	81.94
424.066	82.94
424.288	83.94
424.511	98.94
424.733	103.94
424.956	100.94
425.178	98.94
425.401	104.94
425.623	108.94
425.846	95.94
426.068	73.94
426.291	94.94
426.513	72.94
426.735	97.94
426.958	94.94
427.18	100.94
427.402	138.94
427.625	170.94
427.847	129.94
428.069	104.94
428.292	98.94
428.514	89.94
428.736	98.94
428.958	91.94
429.181	86.94
429.403	75.94
429.625	97.94
429.847	94.94
430.069	99.94
430.292	99.94
430.514	92.94
430.736	88.94
430.958	93.94
431.18	103.94
431.402	93.94
431.624	82.94
431.846	71.94
432.068	80.94
432.29	82.94
432.512	108.94
432.734	84.94
432.956	90.94
433.178	104.94
433.4	104.94
433.622	83.94
433.844	92.94
434.066	81.94
434.287	90.94
434.509	83.94
434.731	99.94
434.953	93.94
435.175	89.94
435.397	75.94
435.618	100.94
435.84	108.94
436.062	102.94
436.284	111.94
436.505	110.94
436.727	92.94
436.949	92.94
437.17	80.94
437.392	84.94
437.614	99.94
437.835	107.94
438.057	120.94
438.278	103.94
438.5	84.94
438.721	100.94
438.943	97.94
439.165	100.94
439.386	102.94
439.608	96.94
439.829	96.94
440.05	124.94
440.272	139.94
440.493	104.94
440.715	88.94
440.936	87.94
441.158	95.94
441.379	97.94
441.6	89.94
441.822	100.94
442.043	103.94
442.264	107.94
442.486	106.94
442.707	95.94
442.928	104.94
443.149	148.94
443.371	135.94
443.592	110.94
443.813	116.94
444.034	94.94
444.255	96.94
444.476	90.94
444.698	84.94
444.919	101.94
445.14	128.94
445.361	133.94
445.582	121.94
445.803	126.94
446.024	143.94
446.245	121.94
446.466	115.94
446.687	98.94
446.908	64.94
447.129	91.94
447.35	89.94
447.571	86.94
447.792	98.94
448.013	96.94
448.234	108.94
448.455	98.94
448.675	112.94
448.896	123.94
449.117	94.94
449.338	107.94
449.559	113.94
449.779	129.94
450	91.94
450.221	88.94
450.442	94.94
450.662	93.94
450.883	101.94
451.104	102.94
451.324	88.94
451.545	75.94
451.766	100.94
451.986	94.94
452.207	80.94
452.428	100.94
452.648	102.94
452.869	112.94
453.089	104.94
453.31	110.94
453.53	88.94
453.751	76.94
453.971	99.94
454.192	109.94
454.412	100.94
454.633	92.94
454.853	92.94
455.073	88.94
455.294	87.94
455.514	89.94
455.734	74.94
455.955	88.94
456.175	74.94
456.395	95.94
456.616	99.94
456.836	95.94
457.056	76.94
457.276	70.94
457.497	97.94
457.717	80.94
457.937	89.94
458.157	79.94
458.377	82.94
458.598	107.94
458.818	137.94
459.038	155.94
459.258	120.94
459.478	94.94
459.698	89.94
459.918	86.94
460.138	95.94
460.358	80.94
460.578	83.94
460.798	91.94
461.018	95.94
461.238	88.94
461.458	86.94
461.678	92.94
461.898	92.94
462.118	90.94
462.338	83.94
462.558	94.94
462.777	75.94
462.997	90.94
463.217	89.94
463.437	74.94
463.657	93.94
463.876	98.94
464.096	85.94
464.316	96.94
464.536	108.94
464.755	97.94
464.975	102.94
465.195	163.94
465.414	170.94
465.634	107.94
465.854	90.94
466.073	80.94
466.293	91.94
466.512	98.94
466.732	89.94
466.951	87.94
467.171	87.94
467.391	84.94
467.61	101.94
467.829	94.94
468.049	97.94
468.268	113.94
468.488	99.94
468.707	71.94
468.927	73.94
469.146	84.94
469.365	78.94
469.585	89.94
469.804	90.94
470.023	93.94
470.243	91.94
470.462	88.94
470.681	111.94
470.901	80.94
471.12	95.94
471.339	82.94
471.558	78.94
471.777	92.94
471.997	101.94
472.216	115.94
472.435	161.94
472.654	92.94
472.873	86.94
473.092	81.94
473.311	89.94
473.53	91.94
473.749	83.94
473.968	98.94
474.187	92.94
474.406	83.94
474.625	74.94
474.844	98.94
475.063	71.94
475.282	94.94
475.501	91.94
475.72	88.94
475.939	80.94
476.158	97.94
476.377	82.94
476.596	90.94
476.814	103.94
477.033	95.94
477.252	105.94
477.471	100.94
477.69	87.94
477.908	73.94
478.127	86.94
478.346	80.94
478.564	96.94
478.783	90.94
479.002	92.94
479.22	105.94
479.439	102.94
479.658	110.94
479.876	99.94
480.095	88.94
480.313	99.94
480.532	86.94
480.751	100.94
480.969	127.94
481.188	217.94
481.406	156.94
481.624	108.94
481.843	100.94
482.061	100.94
482.28	83.94
482.498	97.94
482.717	85.94
482.935	84.94
483.153	105.94
483.372	101.94
483.59	74.94
483.808	86.94
484.027	94.94
484.245	111.94
484.463	95.94
484.681	100.94
484.9	83.94
485.118	91.94
485.336	97.94
485.554	103.94
485.772	118.94
485.99	94.94
486.209	81.94
486.427	87.94
486.645	118.94
486.863	105.94
487.081	87.94
487.299	99.94
487.517	98.94
487.735	87.94
487.953	78.94
488.171	78.94
488.389	79.94
488.607	89.94
488.825	78.94
489.043	86.94
489.261	92.94
489.479	95.94
489.696	82.94
489.914	87.94
490.132	89.94
490.35	74.94
490.568	103.94
490.786	89.94
491.003	82.94
491.221	79.94
491.439	89.94
491.657	89.94
491.874	83.94
492.092	85.94
492.31	92.94
492.527	84.94
492.745	92.94
492.963	87.94
493.18	86.94
493.398	98.94
493.615	87.94
493.833	82.94
494.05	81.94
494.268	75.94
494.485	91.94
494.703	112.94
494.92	102.94
495.138	94.94
495.355	91.94
495.573	105.94
495.79	89.94
496.008	105.94
496.225	88.94
496.442	87.94
496.66	80.94
496.877	93.94
497.094	93.94
497.312	99.94
497.529	81.94
497.746	82.94
497.963	99.94
498.181	95.94
498.398	97.94
498.615	111.94
498.832	102.94
499.049	87.94
499.267	73.94
499.484	98.94
499.701	93.94
499.918	84.94
500.135	90.94
500.352	87.94
500.569	89.94
500.786	95.94
501.003	89.94
501.22	88.94
501.437	103.94
501.654	93.94
501.871	99.94
502.088	87.94
502.305	96.94
502.522	99.94
502.739	99.94
502.956	87.94
503.172	94.94
503.389	86.94
503.606	102.94
503.823	89.94
504.04	96.94
504.256	98.94
504.473	96.94
504.69	89.94
504.907	96.94
505.123	83.94
505.34	97.94
505.557	95.94
505.773	84.94
505.99	92.94
506.207	92.94
506.423	97.94
506.64	96.94
506.856	88.94
507.073	88.94
507.289	85.94
507.506	101.94
507.722	108.94
507.939	117.94
508.155	99.94
508.372	86.94
508.588	101.94
508.805	106.94
509.021	104.94
509.238	93.94
509.454	92.94
509.67	103.94
509.887	106.94
510.103	145.94
510.319	233.94
510.536	808.94
510.752	2646.94
510.968	706.94
511.184	136.94
511.401	106.94
511.617	113.94
511.833	99.94
512.049	103.94
512.265	81.94
512.481	90.94
512.698	102.94
512.914	92.94
513.13	93.94
513.346	94.94
513.562	106.94
513.778	98.94
513.994	79.94
514.21	111.94
514.426	130.94
514.642	123.94
514.858	130.94
515.074	163.94
515.29	448.94
515.506	1536.94
515.721	560.94
