Data from Uncirc_1985_H10_HRD10591_00062.txt Node
Date: Wed Jan 03 12:18:29 EST 2024
User: Yrep
Spectrometer: HR+D1059
Trigger mode: 1
Integration Time (sec): 1.000000E-1
Scans to average: 1
Electric dark correction enabled: true
Nonlinearity correction enabled: false
Boxcar width: 0
XAxis mode: Wavelengths
Number of Pixels in Spectrum: 2048
>>>>>Begin Spectral Data<<<<<
223.165	-26.81
223.4	-26.81
223.635	-26.81
223.869	-18.81
224.104	-11.81
224.338	-11.81
224.573	-7.81
224.808	-15.81
225.042	-17.81
225.277	-7.81
225.511	-9.81
225.746	-3.81
225.98	8.19
226.215	15.19
226.449	18.19
226.683	29.19
226.918	28.19
227.152	33.19
227.387	50.19
227.621	48.19
227.856	46.19
228.09	48.19
228.324	43.19
228.559	63.19
228.793	68.19
229.027	55.19
229.262	67.19
229.496	83.19
229.73	85.19
229.964	78.19
230.199	61.19
230.433	84.19
230.667	74.19
230.901	73.19
231.136	80.19
231.37	74.19
231.604	78.19
231.838	79.19
232.072	78.19
232.306	69.19
232.541	85.19
232.775	86.19
233.009	92.19
233.243	77.19
233.477	85.19
233.711	89.19
233.945	84.19
234.179	90.19
234.413	79.19
234.647	90.19
234.881	80.19
235.115	69.19
235.349	82.19
235.583	69.19
235.817	88.19
236.051	81.19
236.285	68.19
236.519	82.19
236.753	84.19
236.987	77.19
237.221	101.19
237.455	73.19
237.689	89.19
237.922	83.19
238.156	63.19
238.39	84.19
238.624	71.19
238.858	88.19
239.091	86.19
239.325	80.19
239.559	73.19
239.793	82.19
240.027	74.19
240.26	85.19
240.494	77.19
240.728	65.19
240.961	75.19
241.195	71.19
241.429	68.19
241.662	70.19
241.896	80.19
242.13	70.19
242.363	78.19
242.597	90.19
242.83	85.19
243.064	77.19
243.298	74.19
243.531	83.19
243.765	76.19
243.998	85.19
244.232	88.19
244.465	91.19
244.699	92.19
244.932	80.19
245.166	86.19
245.399	86.19
245.633	81.19
245.866	82.19
246.099	91.19
246.333	82.19
246.566	77.19
246.8	84.19
247.033	72.19
247.266	80.19
247.5	77.19
247.733	89.19
247.966	84.19
248.2	89.19
248.433	65.19
248.666	82.19
248.899	76.19
249.133	89.19
249.366	109.19
249.599	105.19
249.832	76.19
250.066	86.19
250.299	75.19
250.532	86.19
250.765	86.19
250.998	87.19
251.231	77.19
251.465	83.19
251.698	91.19
251.931	100.19
252.164	80.19
252.397	73.19
252.63	101.19
252.863	87.19
253.096	86.19
253.329	90.19
253.562	87.19
253.795	84.19
254.028	76.19
254.261	62.19
254.494	81.19
254.727	84.19
254.96	82.19
255.193	90.19
255.426	90.19
255.659	83.19
255.892	105.19
256.124	90.19
256.357	65.19
256.59	89.19
256.823	86.19
257.056	81.19
257.289	86.19
257.521	82.19
257.754	86.19
257.987	91.19
258.22	82.19
258.452	78.19
258.685	76.19
258.918	86.19
259.151	82.19
259.383	86.19
259.616	93.19
259.849	81.19
260.081	73.19
260.314	82.19
260.547	83.19
260.779	82.19
261.012	82.19
261.244	90.19
261.477	99.19
261.71	91.19
261.942	116.19
262.175	105.19
262.407	70.19
262.64	89.19
262.872	80.19
263.105	82.19
263.337	103.19
263.57	96.19
263.802	84.19
264.035	81.19
264.267	76.19
264.499	93.19
264.732	91.19
264.964	80.19
265.197	92.19
265.429	84.19
265.661	101.19
265.894	92.19
266.126	90.19
266.358	86.19
266.591	84.19
266.823	96.19
267.055	94.19
267.287	89.19
267.52	85.19
267.752	93.19
267.984	90.19
268.216	88.19
268.448	78.19
268.681	89.19
268.913	83.19
269.145	101.19
269.377	90.19
269.609	76.19
269.841	96.19
270.073	91.19
270.306	82.19
270.538	82.19
270.77	75.19
271.002	82.19
271.234	83.19
271.466	86.19
271.698	82.19
271.93	94.19
272.162	108.19
272.394	93.19
272.626	86.19
272.858	86.19
273.09	87.19
273.322	80.19
273.553	81.19
273.785	74.19
274.017	95.19
274.249	78.19
274.481	92.19
274.713	93.19
274.945	85.19
275.176	104.19
275.408	92.19
275.64	85.19
275.872	81.19
276.104	87.19
276.335	92.19
276.567	96.19
276.799	115.19
277.031	95.19
277.262	90.19
277.494	93.19
277.726	80.19
277.957	91.19
278.189	98.19
278.421	86.19
278.652	87.19
278.884	91.19
279.115	81.19
279.347	87.19
279.579	95.19
279.81	97.19
280.042	81.19
280.273	89.19
280.505	94.19
280.736	89.19
280.968	92.19
281.199	90.19
281.431	88.19
281.662	81.19
281.894	99.19
282.125	103.19
282.356	131.19
282.588	141.19
282.819	101.19
283.051	109.19
283.282	81.19
283.513	87.19
283.745	83.19
283.976	93.19
284.207	89.19
284.439	83.19
284.67	80.19
284.901	80.19
285.132	93.19
285.364	91.19
285.595	94.19
285.826	86.19
286.057	106.19
286.288	89.19
286.52	81.19
286.751	87.19
286.982	85.19
287.213	90.19
287.444	82.19
287.675	94.19
287.906	81.19
288.138	88.19
288.369	96.19
288.6	109.19
288.831	96.19
289.062	88.19
289.293	99.19
289.524	80.19
289.755	92.19
289.986	86.19
290.217	84.19
290.448	86.19
290.679	86.19
290.91	91.19
291.141	96.19
291.371	92.19
291.602	77.19
291.833	96.19
292.064	91.19
292.295	88.19
292.526	102.19
292.757	90.19
292.987	90.19
293.218	82.19
293.449	92.19
293.68	77.19
293.91	92.19
294.141	100.19
294.372	93.19
294.603	75.19
294.833	88.19
295.064	88.19
295.295	70.19
295.525	94.19
295.756	105.19
295.987	125.19
296.217	139.19
296.448	124.19
296.679	113.19
296.909	93.19
297.14	93.19
297.37	83.19
297.601	94.19
297.831	80.19
298.062	101.19
298.292	92.19
298.523	86.19
298.753	99.19
298.984	92.19
299.214	100.19
299.445	90.19
299.675	92.19
299.905	95.19
300.136	106.19
300.366	87.19
300.597	75.19
300.827	93.19
301.057	109.19
301.288	106.19
301.518	100.19
301.748	90.19
301.979	118.19
302.209	103.19
302.439	96.19
302.669	89.19
302.9	90.19
303.13	83.19
303.36	100.19
303.59	103.19
303.82	108.19
304.051	94.19
304.281	100.19
304.511	90.19
304.741	96.19
304.971	89.19
305.201	104.19
305.431	84.19
305.661	88.19
305.891	92.19
306.121	90.19
306.352	89.19
306.582	100.19
306.812	90.19
307.042	98.19
307.272	64.19
307.502	92.19
307.731	109.19
307.961	80.19
308.191	88.19
308.421	93.19
308.651	87.19
308.881	89.19
309.111	104.19
309.341	87.19
309.571	101.19
309.8	96.19
310.03	97.19
310.26	96.19
310.49	92.19
310.72	94.19
310.949	97.19
311.179	95.19
311.409	93.19
311.639	80.19
311.868	97.19
312.098	95.19
312.328	112.19
312.557	102.19
312.787	111.19
313.017	94.19
313.246	100.19
313.476	103.19
313.706	88.19
313.935	86.19
314.165	105.19
314.394	98.19
314.624	109.19
314.853	89.19
315.083	104.19
315.312	111.19
315.542	94.19
315.771	88.19
316.001	96.19
316.23	95.19
316.46	88.19
316.689	92.19
316.919	84.19
317.148	97.19
317.377	101.19
317.607	94.19
317.836	97.19
318.065	97.19
318.295	100.19
318.524	86.19
318.753	104.19
318.983	91.19
319.212	102.19
319.441	101.19
319.67	97.19
319.9	101.19
320.129	93.19
320.358	82.19
320.587	101.19
320.816	105.19
321.046	98.19
321.275	92.19
321.504	99.19
321.733	93.19
321.962	93.19
322.191	108.19
322.42	114.19
322.649	104.19
322.878	106.19
323.108	119.19
323.337	123.19
323.566	127.19
323.795	140.19
324.024	195.19
324.253	351.19
324.482	735.19
324.71	1579.19
324.939	2031.19
325.168	760.19
325.397	229.19
325.626	148.19
325.855	133.19
326.084	119.19
326.313	137.19
326.542	147.19
326.77	216.19
326.999	412.19
327.228	853.19
327.457	1552.19
327.686	1227.19
327.914	346.19
328.143	188.19
328.372	150.19
328.6	141.19
328.829	107.19
329.058	129.19
329.287	116.19
329.515	100.19
329.744	92.19
329.972	111.19
330.201	131.19
330.43	171.19
330.658	130.19
330.887	131.19
331.115	116.19
331.344	103.19
331.572	93.19
331.801	110.19
332.03	99.19
332.258	98.19
332.486	97.19
332.715	95.19
332.943	100.19
333.172	94.19
333.4	93.19
333.629	106.19
333.857	114.19
334.085	108.19
334.314	128.19
334.542	156.19
334.771	145.19
334.999	110.19
335.227	93.19
335.455	94.19
335.684	89.19
335.912	97.19
336.14	94.19
336.369	91.19
336.597	96.19
336.825	91.19
337.053	95.19
337.281	96.19
337.51	89.19
337.738	89.19
337.966	80.19
338.194	94.19
338.422	92.19
338.65	86.19
338.878	103.19
339.106	91.19
339.334	104.19
339.562	73.19
339.79	92.19
340.018	91.19
340.246	100.19
340.474	93.19
340.702	102.19
340.93	95.19
341.158	94.19
341.386	99.19
341.614	91.19
341.842	104.19
342.07	94.19
342.298	85.19
342.526	83.19
342.754	81.19
342.981	90.19
343.209	92.19
343.437	102.19
343.665	102.19
343.893	97.19
344.12	103.19
344.348	103.19
344.576	92.19
344.804	90.19
345.031	87.19
345.259	94.19
345.487	99.19
345.714	102.19
345.942	98.19
346.17	96.19
346.397	80.19
346.625	102.19
346.853	91.19
347.08	81.19
347.308	100.19
347.535	86.19
347.763	96.19
347.99	93.19
348.218	105.19
348.445	109.19
348.673	101.19
348.9	81.19
349.128	102.19
349.355	79.19
349.583	85.19
349.81	98.19
350.037	94.19
350.265	93.19
350.492	89.19
350.72	94.19
350.947	96.19
351.174	116.19
351.402	108.19
351.629	96.19
351.856	89.19
352.083	98.19
352.311	108.19
352.538	111.19
352.765	100.19
352.992	107.19
353.22	112.19
353.447	126.19
353.674	101.19
353.901	109.19
354.128	96.19
354.355	97.19
354.583	102.19
354.81	106.19
355.037	97.19
355.264	107.19
355.491	93.19
355.718	69.19
355.945	74.19
356.172	88.19
356.399	93.19
356.626	86.19
356.853	80.19
357.08	88.19
357.307	88.19
357.534	85.19
357.761	91.19
357.988	92.19
358.215	93.19
358.441	91.19
358.668	99.19
358.895	82.19
359.122	93.19
359.349	79.19
359.576	90.19
359.802	105.19
360.029	103.19
360.256	93.19
360.483	117.19
360.709	108.19
360.936	89.19
361.163	92.19
361.39	90.19
361.616	94.19
361.843	71.19
362.07	94.19
362.296	93.19
362.523	87.19
362.749	98.19
362.976	95.19
363.203	102.19
363.429	93.19
363.656	94.19
363.882	100.19
364.109	84.19
364.335	98.19
364.562	89.19
364.788	102.19
365.015	98.19
365.241	99.19
365.468	101.19
365.694	100.19
365.92	99.19
366.147	85.19
366.373	96.19
366.599	84.19
366.826	80.19
367.052	85.19
367.278	101.19
367.505	94.19
367.731	89.19
367.957	83.19
368.184	84.19
368.41	113.19
368.636	97.19
368.862	114.19
369.089	117.19
369.315	95.19
369.541	84.19
369.767	78.19
369.993	76.19
370.219	94.19
370.445	86.19
370.672	83.19
370.898	84.19
371.124	103.19
371.35	86.19
371.576	79.19
371.802	92.19
372.028	94.19
372.254	82.19
372.48	90.19
372.706	87.19
372.932	91.19
373.158	104.19
373.384	98.19
373.61	99.19
373.835	92.19
374.061	86.19
374.287	94.19
374.513	82.19
374.739	66.19
374.965	94.19
375.191	80.19
375.416	83.19
375.642	86.19
375.868	90.19
376.094	97.19
376.319	96.19
376.545	87.19
376.771	99.19
376.997	100.19
377.222	100.19
377.448	99.19
377.674	85.19
377.899	74.19
378.125	96.19
378.35	96.19
378.576	85.19
378.802	88.19
379.027	73.19
379.253	99.19
379.478	79.19
379.704	90.19
379.929	100.19
380.155	89.19
380.38	97.19
380.606	95.19
380.831	92.19
381.057	104.19
381.282	81.19
381.507	88.19
381.733	97.19
381.958	104.19
382.184	93.19
382.409	92.19
382.634	105.19
382.86	100.19
383.085	86.19
383.31	81.19
383.535	101.19
383.761	86.19
383.986	93.19
384.211	98.19
384.436	92.19
384.662	93.19
384.887	100.19
385.112	98.19
385.337	90.19
385.562	100.19
385.787	100.19
386.013	91.19
386.238	103.19
386.463	100.19
386.688	92.19
386.913	106.19
387.138	103.19
387.363	88.19
387.588	98.19
387.813	93.19
388.038	111.19
388.263	109.19
388.488	99.19
388.713	89.19
388.938	97.19
389.163	103.19
389.387	84.19
389.612	85.19
389.837	98.19
390.062	96.19
390.287	101.19
390.512	78.19
390.736	92.19
390.961	94.19
391.186	102.19
391.411	86.19
391.636	90.19
391.86	98.19
392.085	91.19
392.31	91.19
392.534	88.19
392.759	88.19
392.984	90.19
393.208	94.19
393.433	100.19
393.658	90.19
393.882	68.19
394.107	81.19
394.331	98.19
394.556	104.19
394.78	100.19
395.005	84.19
395.229	96.19
395.454	81.19
395.678	91.19
395.903	87.19
396.127	84.19
396.352	91.19
396.576	95.19
396.801	77.19
397.025	85.19
397.249	81.19
397.474	73.19
397.698	94.19
397.922	85.19
398.147	93.19
398.371	86.19
398.595	97.19
398.82	91.19
399.044	97.19
399.268	101.19
399.492	95.19
399.717	97.19
399.941	90.19
400.165	107.19
400.389	85.19
400.613	99.19
400.837	94.19
401.062	76.19
401.286	81.19
401.51	86.19
401.734	91.19
401.958	100.19
402.182	130.19
402.406	153.19
402.63	105.19
402.854	94.19
403.078	93.19
403.302	84.19
403.526	77.19
403.75	90.19
403.974	76.19
404.198	88.19
404.422	84.19
404.645	81.19
404.869	75.19
405.093	96.19
405.317	109.19
405.541	106.19
405.765	105.19
405.988	112.19
406.212	162.19
406.436	219.19
406.66	132.19
406.883	104.19
407.107	90.19
407.331	86.19
407.555	92.19
407.778	105.19
408.002	99.19
408.226	95.19
408.449	70.19
408.673	88.19
408.896	91.19
409.12	96.19
409.344	88.19
409.567	80.19
409.791	90.19
410.014	94.19
410.238	93.19
410.461	88.19
410.685	99.19
410.908	100.19
411.132	101.19
411.355	108.19
411.578	108.19
411.802	77.19
412.025	90.19
412.249	92.19
412.472	103.19
412.695	99.19
412.919	96.19
413.142	93.19
413.365	75.19
413.589	82.19
413.812	79.19
414.035	100.19
414.258	93.19
414.482	78.19
414.705	88.19
414.928	93.19
415.151	84.19
415.374	89.19
415.597	90.19
415.821	92.19
416.044	87.19
416.267	89.19
416.49	84.19
416.713	95.19
416.936	77.19
417.159	84.19
417.382	98.19
417.605	84.19
417.828	100.19
418.051	109.19
418.274	108.19
418.497	94.19
418.72	97.19
418.943	70.19
419.166	98.19
419.389	91.19
419.611	88.19
419.834	81.19
420.057	76.19
420.28	95.19
420.503	96.19
420.726	73.19
420.948	93.19
421.171	88.19
421.394	84.19
421.617	102.19
421.839	88.19
422.062	82.19
422.285	92.19
422.507	91.19
422.73	88.19
422.953	106.19
423.175	95.19
423.398	85.19
423.621	96.19
423.843	80.19
424.066	75.19
424.288	96.19
424.511	99.19
424.733	107.19
424.956	101.19
425.178	108.19
425.401	101.19
425.623	103.19
425.846	96.19
426.068	94.19
426.291	92.19
426.513	86.19
426.735	88.19
426.958	95.19
427.18	104.19
427.402	125.19
427.625	158.19
427.847	125.19
428.069	119.19
428.292	108.19
428.514	88.19
428.736	83.19
428.958	89.19
429.181	92.19
429.403	78.19
429.625	97.19
429.847	100.19
430.069	109.19
430.292	102.19
430.514	77.19
430.736	96.19
430.958	77.19
431.18	74.19
431.402	92.19
431.624	99.19
431.846	96.19
432.068	86.19
432.29	104.19
432.512	106.19
432.734	94.19
432.956	82.19
433.178	98.19
433.4	77.19
433.622	95.19
433.844	89.19
434.066	96.19
434.287	94.19
434.509	88.19
434.731	92.19
434.953	87.19
435.175	87.19
435.397	78.19
435.618	96.19
435.84	109.19
436.062	125.19
436.284	118.19
436.505	100.19
436.727	89.19
436.949	115.19
437.17	91.19
437.392	90.19
437.614	99.19
437.835	107.19
438.057	125.19
438.278	112.19
438.5	91.19
438.721	96.19
438.943	101.19
439.165	93.19
439.386	76.19
439.608	97.19
439.829	90.19
440.05	110.19
440.272	134.19
440.493	97.19
440.715	85.19
440.936	84.19
441.158	88.19
441.379	89.19
441.6	101.19
441.822	106.19
442.043	101.19
442.264	105.19
442.486	98.19
442.707	103.19
442.928	111.19
443.149	117.19
443.371	117.19
443.592	121.19
443.813	126.19
444.034	94.19
444.255	90.19
444.476	87.19
444.698	96.19
444.919	92.19
445.14	145.19
445.361	117.19
445.582	117.19
445.803	135.19
446.024	124.19
446.245	125.19
446.466	110.19
446.687	90.19
446.908	90.19
447.129	96.19
447.35	92.19
447.571	88.19
447.792	102.19
448.013	96.19
448.234	107.19
448.455	111.19
448.675	107.19
448.896	116.19
449.117	100.19
449.338	97.19
449.559	130.19
449.779	124.19
450	101.19
450.221	99.19
450.442	97.19
450.662	95.19
450.883	110.19
451.104	109.19
451.324	98.19
451.545	90.19
451.766	96.19
451.986	98.19
452.207	102.19
452.428	96.19
452.648	92.19
452.869	109.19
453.089	107.19
453.31	133.19
453.53	90.19
453.751	96.19
453.971	118.19
454.192	108.19
454.412	88.19
454.633	82.19
454.853	94.19
455.073	88.19
455.294	105.19
455.514	116.19
455.734	94.19
455.955	96.19
456.175	67.19
456.395	84.19
456.616	88.19
456.836	81.19
457.056	94.19
457.276	102.19
457.497	77.19
457.717	86.19
457.937	94.19
458.157	89.19
458.377	114.19
458.598	106.19
458.818	139.19
459.038	152.19
459.258	94.19
459.478	96.19
459.698	74.19
459.918	96.19
460.138	89.19
460.358	90.19
460.578	85.19
460.798	92.19
461.018	93.19
461.238	92.19
461.458	96.19
461.678	85.19
461.898	83.19
462.118	85.19
462.338	90.19
462.558	86.19
462.777	71.19
462.997	80.19
463.217	104.19
463.437	99.19
463.657	92.19
463.876	70.19
464.096	96.19
464.316	86.19
464.536	93.19
464.755	83.19
464.975	82.19
465.195	165.19
465.414	147.19
465.634	99.19
465.854	105.19
466.073	88.19
466.293	87.19
466.512	90.19
466.732	82.19
466.951	87.19
467.171	80.19
467.391	90.19
467.61	96.19
467.829	98.19
468.049	85.19
468.268	111.19
468.488	88.19
468.707	88.19
468.927	88.19
469.146	85.19
469.365	87.19
469.585	87.19
469.804	91.19
470.023	99.19
470.243	90.19
470.462	101.19
470.681	103.19
470.901	84.19
471.12	86.19
471.339	90.19
471.558	94.19
471.777	92.19
471.997	85.19
472.216	123.19
472.435	171.19
472.654	99.19
472.873	94.19
473.092	97.19
473.311	85.19
473.53	94.19
473.749	93.19
473.968	93.19
474.187	118.19
474.406	110.19
474.625	91.19
474.844	92.19
475.063	90.19
475.282	86.19
475.501	89.19
475.72	96.19
475.939	92.19
476.158	87.19
476.377	100.19
476.596	90.19
476.814	93.19
477.033	94.19
477.252	93.19
477.471	84.19
477.69	88.19
477.908	98.19
478.127	91.19
478.346	105.19
478.564	81.19
478.783	100.19
479.002	94.19
479.22	87.19
479.439	106.19
479.658	92.19
479.876	94.19
480.095	89.19
480.313	91.19
480.532	108.19
480.751	93.19
480.969	126.19
481.188	261.19
481.406	162.19
481.624	99.19
481.843	91.19
482.061	92.19
482.28	83.19
482.498	84.19
482.717	85.19
482.935	92.19
483.153	97.19
483.372	92.19
483.59	86.19
483.808	89.19
484.027	87.19
484.245	86.19
484.463	75.19
484.681	92.19
484.9	96.19
485.118	89.19
485.336	96.19
485.554	88.19
485.772	97.19
485.99	86.19
486.209	116.19
486.427	101.19
486.645	119.19
486.863	113.19
487.081	102.19
487.299	97.19
487.517	101.19
487.735	100.19
487.953	91.19
488.171	103.19
488.389	105.19
488.607	100.19
488.825	82.19
489.043	94.19
489.261	91.19
489.479	75.19
489.696	86.19
489.914	84.19
490.132	79.19
490.35	88.19
490.568	84.19
490.786	96.19
491.003	101.19
491.221	84.19
491.439	96.19
491.657	91.19
491.874	101.19
492.092	89.19
492.31	94.19
492.527	82.19
492.745	87.19
492.963	97.19
493.18	96.19
493.398	100.19
493.615	94.19
493.833	100.19
494.05	94.19
494.268	92.19
494.485	85.19
494.703	84.19
494.92	97.19
495.138	89.19
495.355	103.19
495.573	92.19
495.79	71.19
496.008	91.19
496.225	98.19
496.442	100.19
496.66	83.19
496.877	72.19
497.094	97.19
497.312	98.19
497.529	93.19
497.746	86.19
497.963	100.19
498.181	98.19
498.398	96.19
498.615	91.19
498.832	99.19
499.049	90.19
499.267	88.19
499.484	105.19
499.701	89.19
499.918	101.19
500.135	80.19
500.352	97.19
500.569	76.19
500.786	94.19
501.003	107.19
501.22	91.19
501.437	91.19
501.654	93.19
501.871	100.19
502.088	86.19
502.305	88.19
502.522	92.19
502.739	85.19
502.956	97.19
503.172	93.19
503.389	92.19
503.606	94.19
503.823	86.19
504.04	90.19
504.256	85.19
504.473	93.19
504.69	89.19
504.907	91.19
505.123	85.19
505.34	91.19
505.557	91.19
505.773	101.19
505.99	92.19
506.207	88.19
506.423	93.19
506.64	90.19
506.856	98.19
507.073	96.19
507.289	108.19
507.506	98.19
507.722	109.19
507.939	102.19
508.155	78.19
508.372	88.19
508.588	101.19
508.805	97.19
509.021	89.19
509.238	100.19
509.454	95.19
509.67	106.19
509.887	104.19
510.103	138.19
510.319	222.19
510.536	772.19
510.752	2376.19
510.968	638.19
511.184	144.19
511.401	116.19
511.617	98.19
511.833	105.19
512.049	91.19
512.265	93.19
512.481	81.19
512.698	106.19
512.914	81.19
513.13	75.19
513.346	89.19
513.562	107.19
513.778	101.19
513.994	102.19
514.21	114.19
514.426	121.19
514.642	144.19
514.858	125.19
515.074	144.19
515.29	426.19
