Data from Uncirc_1985_H10_HRD10591_00066.txt Node
Date: Wed Jan 03 12:18:30 EST 2024
User: Yrep
Spectrometer: HR+D1059
Trigger mode: 1
Integration Time (sec): 1.000000E-1
Scans to average: 1
Electric dark correction enabled: true
Nonlinearity correction enabled: false
Boxcar width: 0
XAxis mode: Wavelengths
Number of Pixels in Spectrum: 2048
>>>>>Begin Spectral Data<<<<<
223.165	-10.62
223.4	-10.62
223.635	-10.62
223.869	-20.62
224.104	-20.62
224.338	-21.62
224.573	-20.62
224.808	-15.62
225.042	-12.62
225.277	-21.62
225.511	6.38
225.746	14.38
225.98	-2.62
226.215	14.38
226.449	14.38
226.683	26.38
226.918	34.38
227.152	36.38
227.387	41.38
227.621	45.38
227.856	37.38
228.09	38.38
228.324	43.38
228.559	54.38
228.793	51.38
229.027	63.38
229.262	57.38
229.496	57.38
229.73	81.38
229.964	84.38
230.199	78.38
230.433	77.38
230.667	85.38
230.901	79.38
231.136	83.38
231.37	69.38
231.604	81.38
231.838	74.38
232.072	71.38
232.306	84.38
232.541	75.38
232.775	82.38
233.009	74.38
233.243	77.38
233.477	74.38
233.711	61.38
233.945	78.38
234.179	85.38
234.413	81.38
234.647	87.38
234.881	74.38
235.115	65.38
235.349	77.38
235.583	78.38
235.817	71.38
236.051	81.38
236.285	83.38
236.519	73.38
236.753	80.38
236.987	74.38
237.221	77.38
237.455	79.38
237.689	69.38
237.922	79.38
238.156	88.38
238.39	81.38
238.624	62.38
238.858	62.38
239.091	79.38
239.325	81.38
239.559	77.38
239.793	80.38
240.027	75.38
240.26	79.38
240.494	81.38
240.728	68.38
240.961	83.38
241.195	81.38
241.429	65.38
241.662	70.38
241.896	75.38
242.13	72.38
242.363	67.38
242.597	86.38
242.83	64.38
243.064	86.38
243.298	74.38
243.531	81.38
243.765	67.38
243.998	61.38
244.232	71.38
244.465	77.38
244.699	70.38
244.932	70.38
245.166	74.38
245.399	81.38
245.633	85.38
245.866	69.38
246.099	72.38
246.333	68.38
246.566	66.38
246.8	63.38
247.033	76.38
247.266	53.38
247.5	81.38
247.733	66.38
247.966	74.38
248.2	71.38
248.433	79.38
248.666	82.38
248.899	73.38
249.133	73.38
249.366	97.38
249.599	109.38
249.832	85.38
250.066	74.38
250.299	88.38
250.532	71.38
250.765	77.38
250.998	73.38
251.231	79.38
251.465	94.38
251.698	74.38
251.931	74.38
252.164	63.38
252.397	77.38
252.63	93.38
252.863	73.38
253.096	77.38
253.329	85.38
253.562	68.38
253.795	74.38
254.028	81.38
254.261	72.38
254.494	82.38
254.727	77.38
254.96	75.38
255.193	73.38
255.426	86.38
255.659	72.38
255.892	88.38
256.124	88.38
256.357	80.38
256.59	77.38
256.823	78.38
257.056	83.38
257.289	81.38
257.521	79.38
257.754	90.38
257.987	72.38
258.22	86.38
258.452	80.38
258.685	71.38
258.918	95.38
259.151	80.38
259.383	83.38
259.616	84.38
259.849	81.38
260.081	93.38
260.314	78.38
260.547	65.38
260.779	81.38
261.012	68.38
261.244	77.38
261.477	99.38
261.71	83.38
261.942	114.38
262.175	120.38
262.407	81.38
262.64	79.38
262.872	75.38
263.105	85.38
263.337	85.38
263.57	82.38
263.802	81.38
264.035	85.38
264.267	86.38
264.499	76.38
264.732	90.38
264.964	88.38
265.197	96.38
265.429	97.38
265.661	75.38
265.894	95.38
266.126	86.38
266.358	70.38
266.591	75.38
266.823	89.38
267.055	86.38
267.287	82.38
267.52	82.38
267.752	79.38
267.984	83.38
268.216	69.38
268.448	75.38
268.681	94.38
268.913	82.38
269.145	82.38
269.377	78.38
269.609	80.38
269.841	93.38
270.073	81.38
270.306	101.38
270.538	79.38
270.77	78.38
271.002	73.38
271.234	74.38
271.466	74.38
271.698	79.38
271.93	73.38
272.162	90.38
272.394	90.38
272.626	82.38
272.858	83.38
273.09	64.38
273.322	62.38
273.553	94.38
273.785	76.38
274.017	83.38
274.249	95.38
274.481	93.38
274.713	79.38
274.945	81.38
275.176	73.38
275.408	83.38
275.64	79.38
275.872	89.38
276.104	87.38
276.335	91.38
276.567	97.38
276.799	93.38
277.031	93.38
277.262	90.38
277.494	85.38
277.726	89.38
277.957	96.38
278.189	91.38
278.421	89.38
278.652	70.38
278.884	86.38
279.115	66.38
279.347	79.38
279.579	85.38
279.81	88.38
280.042	86.38
280.273	86.38
280.505	85.38
280.736	73.38
280.968	88.38
281.199	71.38
281.431	85.38
281.662	91.38
281.894	83.38
282.125	111.38
282.356	108.38
282.588	124.38
282.819	107.38
283.051	75.38
283.282	77.38
283.513	86.38
283.745	89.38
283.976	99.38
284.207	90.38
284.439	68.38
284.67	79.38
284.901	85.38
285.132	80.38
285.364	82.38
285.595	96.38
285.826	80.38
286.057	78.38
286.288	78.38
286.52	81.38
286.751	85.38
286.982	93.38
287.213	82.38
287.444	98.38
287.675	84.38
287.906	70.38
288.138	81.38
288.369	85.38
288.6	98.38
288.831	85.38
289.062	89.38
289.293	84.38
289.524	87.38
289.755	99.38
289.986	82.38
290.217	78.38
290.448	86.38
290.679	74.38
290.91	89.38
291.141	86.38
291.371	84.38
291.602	96.38
291.833	86.38
292.064	79.38
292.295	83.38
292.526	80.38
292.757	90.38
292.987	84.38
293.218	82.38
293.449	78.38
293.68	84.38
293.91	78.38
294.141	85.38
294.372	85.38
294.603	92.38
294.833	96.38
295.064	93.38
295.295	95.38
295.525	75.38
295.756	87.38
295.987	93.38
296.217	133.38
296.448	120.38
296.679	101.38
296.909	81.38
297.14	89.38
297.37	77.38
297.601	90.38
297.831	94.38
298.062	87.38
298.292	94.38
298.523	86.38
298.753	93.38
298.984	94.38
299.214	88.38
299.445	93.38
299.675	89.38
299.905	87.38
300.136	81.38
300.366	87.38
300.597	80.38
300.827	96.38
301.057	98.38
301.288	92.38
301.518	81.38
301.748	95.38
301.979	98.38
302.209	98.38
302.439	94.38
302.669	82.38
302.9	84.38
303.13	70.38
303.36	90.38
303.59	83.38
303.82	110.38
304.051	90.38
304.281	85.38
304.511	95.38
304.741	94.38
304.971	79.38
305.201	86.38
305.431	86.38
305.661	88.38
305.891	102.38
306.121	82.38
306.352	89.38
306.582	103.38
306.812	88.38
307.042	83.38
307.272	86.38
307.502	71.38
307.731	93.38
307.961	86.38
308.191	86.38
308.421	81.38
308.651	88.38
308.881	98.38
309.111	85.38
309.341	94.38
309.571	93.38
309.8	86.38
310.03	97.38
310.26	86.38
310.49	90.38
310.72	84.38
310.949	105.38
311.179	85.38
311.409	107.38
311.639	107.38
311.868	97.38
312.098	85.38
312.328	91.38
312.557	85.38
312.787	98.38
313.017	95.38
313.246	87.38
313.476	87.38
313.706	102.38
313.935	98.38
314.165	83.38
314.394	89.38
314.624	97.38
314.853	97.38
315.083	95.38
315.312	79.38
315.542	89.38
315.771	104.38
316.001	82.38
316.23	83.38
316.46	97.38
316.689	94.38
316.919	97.38
317.148	85.38
317.377	95.38
317.607	92.38
317.836	92.38
318.065	101.38
318.295	86.38
318.524	86.38
318.753	98.38
318.983	95.38
319.212	93.38
319.441	82.38
319.67	102.38
319.9	95.38
320.129	81.38
320.358	90.38
320.587	100.38
320.816	101.38
321.046	99.38
321.275	112.38
321.504	87.38
321.733	95.38
321.962	90.38
322.191	101.38
322.42	110.38
322.649	100.38
322.878	98.38
323.108	111.38
323.337	110.38
323.566	114.38
323.795	143.38
324.024	201.38
324.253	371.38
324.482	794.38
324.71	1615.38
324.939	2122.38
325.168	779.38
325.397	233.38
325.626	139.38
325.855	117.38
326.084	105.38
326.313	118.38
326.542	154.38
326.77	221.38
326.999	452.38
327.228	886.38
327.457	1679.38
327.686	1299.38
327.914	358.38
328.143	174.38
328.372	138.38
328.6	107.38
328.829	131.38
329.058	124.38
329.287	115.38
329.515	101.38
329.744	97.38
329.972	112.38
330.201	128.38
330.43	152.38
330.658	125.38
330.887	134.38
331.115	116.38
331.344	100.38
331.572	103.38
331.801	100.38
332.03	107.38
332.258	110.38
332.486	100.38
332.715	89.38
332.943	94.38
333.172	85.38
333.4	110.38
333.629	95.38
333.857	110.38
334.085	107.38
334.314	130.38
334.542	149.38
334.771	129.38
334.999	86.38
335.227	97.38
335.455	94.38
335.684	98.38
335.912	101.38
336.14	107.38
336.369	99.38
336.597	91.38
336.825	110.38
337.053	93.38
337.281	97.38
337.51	86.38
337.738	91.38
337.966	91.38
338.194	87.38
338.422	107.38
338.65	100.38
338.878	86.38
339.106	102.38
339.334	99.38
339.562	97.38
339.79	82.38
340.018	78.38
340.246	95.38
340.474	84.38
340.702	79.38
340.93	87.38
341.158	77.38
341.386	97.38
341.614	101.38
341.842	89.38
342.07	90.38
342.298	78.38
342.526	94.38
342.754	91.38
342.981	72.38
343.209	87.38
343.437	98.38
343.665	85.38
343.893	95.38
344.12	105.38
344.348	99.38
344.576	100.38
344.804	88.38
345.031	91.38
345.259	94.38
345.487	90.38
345.714	81.38
345.942	97.38
346.17	81.38
346.397	91.38
346.625	93.38
346.853	89.38
347.08	95.38
347.308	94.38
347.535	87.38
347.763	89.38
347.99	101.38
348.218	91.38
348.445	102.38
348.673	93.38
348.9	100.38
349.128	109.38
349.355	98.38
349.583	100.38
349.81	96.38
350.037	89.38
350.265	84.38
350.492	106.38
350.72	91.38
350.947	94.38
351.174	115.38
351.402	103.38
351.629	85.38
351.856	102.38
352.083	98.38
352.311	104.38
352.538	89.38
352.765	107.38
352.992	95.38
353.22	119.38
353.447	98.38
353.674	98.38
353.901	112.38
354.128	77.38
354.355	98.38
354.583	93.38
354.81	99.38
355.037	102.38
355.264	99.38
355.491	80.38
355.718	80.38
355.945	92.38
356.172	94.38
356.399	81.38
356.626	101.38
356.853	74.38
357.08	95.38
357.307	90.38
357.534	95.38
357.761	79.38
357.988	91.38
358.215	98.38
358.441	87.38
358.668	103.38
358.895	80.38
359.122	92.38
359.349	82.38
359.576	66.38
359.802	96.38
360.029	110.38
360.256	114.38
360.483	92.38
360.709	79.38
360.936	97.38
361.163	91.38
361.39	77.38
361.616	74.38
361.843	91.38
362.07	79.38
362.296	91.38
362.523	80.38
362.749	87.38
362.976	85.38
363.203	104.38
363.429	97.38
363.656	67.38
363.882	85.38
364.109	92.38
364.335	107.38
364.562	98.38
364.788	97.38
365.015	85.38
365.241	102.38
365.468	100.38
365.694	97.38
365.92	91.38
366.147	85.38
366.373	101.38
366.599	83.38
366.826	88.38
367.052	97.38
367.278	97.38
367.505	94.38
367.731	96.38
367.957	88.38
368.184	97.38
368.41	100.38
368.636	100.38
368.862	114.38
369.089	79.38
369.315	98.38
369.541	82.38
369.767	98.38
369.993	99.38
370.219	80.38
370.445	97.38
370.672	81.38
370.898	96.38
371.124	81.38
371.35	77.38
371.576	65.38
371.802	79.38
372.028	111.38
372.254	93.38
372.48	106.38
372.706	77.38
372.932	82.38
373.158	85.38
373.384	86.38
373.61	103.38
373.835	87.38
374.061	91.38
374.287	90.38
374.513	82.38
374.739	89.38
374.965	101.38
375.191	89.38
375.416	99.38
375.642	81.38
375.868	82.38
376.094	86.38
376.319	93.38
376.545	73.38
376.771	75.38
376.997	99.38
377.222	90.38
377.448	101.38
377.674	87.38
377.899	78.38
378.125	91.38
378.35	83.38
378.576	93.38
378.802	89.38
379.027	90.38
379.253	91.38
379.478	77.38
379.704	88.38
379.929	85.38
380.155	96.38
380.38	97.38
380.606	89.38
380.831	82.38
381.057	82.38
381.282	91.38
381.507	83.38
381.733	83.38
381.958	93.38
382.184	91.38
382.409	97.38
382.634	94.38
382.86	85.38
383.085	98.38
383.31	103.38
383.535	100.38
383.761	105.38
383.986	100.38
384.211	99.38
384.436	97.38
384.662	78.38
384.887	107.38
385.112	91.38
385.337	104.38
385.562	78.38
385.787	97.38
386.013	104.38
386.238	106.38
386.463	109.38
386.688	88.38
386.913	81.38
387.138	97.38
387.363	93.38
387.588	91.38
387.813	99.38
388.038	89.38
388.263	100.38
388.488	91.38
388.713	87.38
388.938	82.38
389.163	86.38
389.387	96.38
389.612	82.38
389.837	80.38
390.062	85.38
390.287	104.38
390.512	83.38
390.736	88.38
390.961	93.38
391.186	91.38
391.411	113.38
391.636	100.38
391.86	81.38
392.085	71.38
392.31	89.38
392.534	101.38
392.759	90.38
392.984	102.38
393.208	91.38
393.433	93.38
393.658	69.38
393.882	77.38
394.107	95.38
394.331	83.38
394.556	87.38
394.78	91.38
395.005	93.38
395.229	88.38
395.454	85.38
395.678	89.38
395.903	85.38
396.127	91.38
396.352	94.38
396.576	83.38
396.801	90.38
397.025	79.38
397.249	86.38
397.474	94.38
397.698	80.38
397.922	88.38
398.147	92.38
398.371	88.38
398.595	94.38
398.82	80.38
399.044	82.38
399.268	77.38
399.492	87.38
399.717	84.38
399.941	91.38
400.165	99.38
400.389	102.38
400.613	86.38
400.837	95.38
401.062	90.38
401.286	87.38
401.51	87.38
401.734	89.38
401.958	96.38
402.182	123.38
402.406	141.38
402.63	111.38
402.854	89.38
403.078	75.38
403.302	83.38
403.526	89.38
403.75	78.38
403.974	82.38
404.198	91.38
404.422	82.38
404.645	89.38
404.869	87.38
405.093	85.38
405.317	103.38
405.541	95.38
405.765	90.38
405.988	99.38
406.212	147.38
406.436	200.38
406.66	134.38
406.883	109.38
407.107	85.38
407.331	85.38
407.555	105.38
407.778	94.38
408.002	87.38
408.226	89.38
408.449	80.38
408.673	77.38
408.896	88.38
409.12	87.38
409.344	80.38
409.567	85.38
409.791	96.38
410.014	78.38
410.238	97.38
410.461	76.38
410.685	77.38
410.908	88.38
411.132	102.38
411.355	86.38
411.578	86.38
411.802	80.38
412.025	80.38
412.249	90.38
412.472	92.38
412.695	89.38
412.919	96.38
413.142	84.38
413.365	81.38
413.589	85.38
413.812	82.38
414.035	96.38
414.258	82.38
414.482	92.38
414.705	85.38
414.928	75.38
415.151	87.38
415.374	84.38
415.597	73.38
415.821	91.38
416.044	86.38
416.267	95.38
416.49	85.38
416.713	79.38
416.936	82.38
417.159	100.38
417.382	93.38
417.605	99.38
417.828	105.38
418.051	103.38
418.274	102.38
418.497	104.38
418.72	91.38
418.943	77.38
419.166	98.38
419.389	85.38
419.611	94.38
419.834	81.38
420.057	88.38
420.28	91.38
420.503	99.38
420.726	70.38
420.948	84.38
421.171	95.38
421.394	93.38
421.617	83.38
421.839	72.38
422.062	87.38
422.285	86.38
422.507	100.38
422.73	92.38
422.953	82.38
423.175	88.38
423.398	84.38
423.621	93.38
423.843	88.38
424.066	83.38
424.288	82.38
424.511	94.38
424.733	98.38
424.956	92.38
425.178	95.38
425.401	95.38
425.623	96.38
425.846	79.38
426.068	89.38
426.291	77.38
426.513	68.38
426.735	85.38
426.958	98.38
427.18	93.38
427.402	122.38
427.625	151.38
427.847	130.38
428.069	103.38
428.292	85.38
428.514	85.38
428.736	83.38
428.958	77.38
429.181	108.38
429.403	94.38
429.625	77.38
429.847	96.38
430.069	86.38
430.292	104.38
430.514	73.38
430.736	93.38
430.958	67.38
431.18	89.38
431.402	93.38
431.624	84.38
431.846	90.38
432.068	98.38
432.29	110.38
432.512	95.38
432.734	89.38
432.956	86.38
433.178	89.38
433.4	88.38
433.622	95.38
433.844	97.38
434.066	99.38
434.287	81.38
434.509	73.38
434.731	101.38
434.953	80.38
435.175	82.38
435.397	97.38
435.618	83.38
435.84	110.38
436.062	115.38
436.284	98.38
436.505	86.38
436.727	113.38
436.949	72.38
437.17	91.38
437.392	87.38
437.614	104.38
437.835	89.38
438.057	115.38
438.278	109.38
438.5	99.38
438.721	112.38
438.943	102.38
439.165	90.38
439.386	95.38
439.608	85.38
439.829	88.38
440.05	104.38
440.272	121.38
440.493	110.38
440.715	85.38
440.936	85.38
441.158	84.38
441.379	104.38
441.6	85.38
441.822	100.38
442.043	85.38
442.264	89.38
442.486	95.38
442.707	90.38
442.928	90.38
443.149	106.38
443.371	117.38
443.592	95.38
443.813	97.38
444.034	105.38
444.255	91.38
444.476	106.38
444.698	94.38
444.919	91.38
445.14	129.38
445.361	118.38
445.582	126.38
445.803	138.38
446.024	121.38
446.245	116.38
446.466	83.38
446.687	85.38
446.908	94.38
447.129	90.38
447.35	91.38
447.571	87.38
447.792	86.38
448.013	102.38
448.234	115.38
448.455	99.38
448.675	106.38
448.896	123.38
449.117	97.38
449.338	95.38
449.559	119.38
449.779	106.38
450	93.38
450.221	80.38
450.442	80.38
450.662	95.38
450.883	95.38
451.104	106.38
451.324	86.38
451.545	86.38
451.766	74.38
451.986	81.38
452.207	101.38
452.428	104.38
452.648	97.38
452.869	121.38
453.089	111.38
453.31	101.38
453.53	104.38
453.751	86.38
453.971	86.38
454.192	89.38
454.412	74.38
454.633	89.38
454.853	71.38
455.073	88.38
455.294	95.38
455.514	110.38
455.734	82.38
455.955	73.38
456.175	75.38
456.395	82.38
456.616	72.38
456.836	93.38
457.056	78.38
457.276	75.38
457.497	77.38
457.717	87.38
457.937	83.38
458.157	96.38
458.377	90.38
458.598	99.38
458.818	127.38
459.038	158.38
459.258	108.38
459.478	77.38
459.698	74.38
459.918	103.38
460.138	85.38
460.358	84.38
460.578	82.38
460.798	92.38
461.018	86.38
461.238	98.38
461.458	93.38
461.678	79.38
461.898	85.38
462.118	70.38
462.338	82.38
462.558	95.38
462.777	88.38
462.997	81.38
463.217	89.38
463.437	95.38
463.657	85.38
463.876	101.38
464.096	89.38
464.316	90.38
464.536	82.38
464.755	87.38
464.975	101.38
465.195	148.38
465.414	152.38
465.634	90.38
465.854	95.38
466.073	90.38
466.293	80.38
466.512	76.38
466.732	72.38
466.951	85.38
467.171	99.38
467.391	99.38
467.61	93.38
467.829	78.38
468.049	104.38
468.268	117.38
468.488	70.38
468.707	79.38
468.927	97.38
469.146	81.38
469.365	95.38
469.585	93.38
469.804	68.38
470.023	86.38
470.243	100.38
470.462	95.38
470.681	105.38
470.901	85.38
471.12	90.38
471.339	87.38
471.558	82.38
471.777	73.38
471.997	85.38
472.216	121.38
472.435	170.38
472.654	99.38
472.873	89.38
473.092	91.38
473.311	94.38
473.53	89.38
473.749	88.38
473.968	102.38
474.187	103.38
474.406	101.38
474.625	77.38
474.844	87.38
475.063	82.38
475.282	99.38
475.501	85.38
475.72	93.38
475.939	73.38
476.158	84.38
476.377	82.38
476.596	75.38
476.814	96.38
477.033	85.38
477.252	88.38
477.471	75.38
477.69	77.38
477.908	89.38
478.127	91.38
478.346	79.38
478.564	91.38
478.783	88.38
479.002	97.38
479.22	84.38
479.439	111.38
479.658	92.38
479.876	87.38
480.095	101.38
480.313	90.38
480.532	86.38
480.751	83.38
480.969	113.38
481.188	231.38
481.406	179.38
481.624	87.38
481.843	91.38
482.061	79.38
482.28	71.38
482.498	99.38
482.717	101.38
482.935	81.38
483.153	87.38
483.372	89.38
483.59	87.38
483.808	72.38
484.027	88.38
484.245	90.38
484.463	98.38
484.681	99.38
484.9	95.38
485.118	89.38
485.336	85.38
485.554	85.38
485.772	90.38
485.99	100.38
486.209	91.38
486.427	112.38
486.645	105.38
486.863	101.38
487.081	86.38
487.299	95.38
487.517	101.38
487.735	101.38
487.953	82.38
488.171	85.38
488.389	84.38
488.607	92.38
488.825	81.38
489.043	80.38
489.261	90.38
489.479	88.38
489.696	74.38
489.914	87.38
490.132	102.38
490.35	97.38
490.568	89.38
490.786	87.38
491.003	88.38
491.221	86.38
491.439	84.38
491.657	83.38
491.874	90.38
492.092	80.38
492.31	81.38
492.527	84.38
492.745	94.38
492.963	87.38
493.18	91.38
493.398	86.38
493.615	99.38
493.833	100.38
494.05	97.38
494.268	89.38
494.485	87.38
494.703	74.38
494.92	96.38
495.138	83.38
495.355	85.38
495.573	89.38
495.79	89.38
496.008	91.38
496.225	76.38
496.442	84.38
496.66	91.38
496.877	85.38
497.094	85.38
497.312	79.38
497.529	74.38
497.746	91.38
497.963	101.38
498.181	95.38
498.398	84.38
498.615	97.38
498.832	94.38
499.049	93.38
499.267	79.38
499.484	79.38
499.701	106.38
499.918	77.38
500.135	90.38
500.352	83.38
500.569	90.38
500.786	91.38
501.003	78.38
501.22	82.38
501.437	86.38
501.654	88.38
501.871	105.38
502.088	92.38
502.305	94.38
502.522	85.38
502.739	75.38
502.956	84.38
503.172	81.38
503.389	81.38
503.606	96.38
503.823	77.38
504.04	82.38
504.256	83.38
504.473	87.38
504.69	94.38
504.907	99.38
505.123	91.38
505.34	83.38
505.557	90.38
505.773	93.38
505.99	94.38
506.207	94.38
506.423	84.38
506.64	87.38
506.856	90.38
507.073	86.38
507.289	102.38
507.506	93.38
507.722	104.38
507.939	105.38
508.155	110.38
508.372	93.38
508.588	94.38
508.805	87.38
509.021	95.38
509.238	97.38
509.454	96.38
509.67	87.38
509.887	119.38
510.103	122.38
510.319	214.38
510.536	756.38
510.752	2223.38
510.968	617.38
511.184	147.38
511.401	107.38
511.617	98.38
511.833	98.38
512.049	89.38
512.265	98.38
512.481	87.38
512.698	90.38
512.914	94.38
513.13	88.38
513.346	88.38
513.562	82.38
513.778	90.38
513.994	103.38
514.21	89.38
514.426	112.38
514.642	134.38
514.858	129.38
515.074	161.38
515.29	391.38
515.506	1340.38
515.721	482.38
515.937	141.38
516.153	104.38
516.369	102.38
516.585	92.38
