Data from Uncirc_1985_H10_HRD10591_00099.txt Node
Date: Wed Jan 03 12:18:37 EST 2024
User: Yrep
Spectrometer: HR+D1059
Trigger mode: 1
Integration Time (sec): 1.000000E-1
Scans to average: 1
Electric dark correction enabled: true
Nonlinearity correction enabled: false
Boxcar width: 0
XAxis mode: Wavelengths
Number of Pixels in Spectrum: 2048
>>>>>Begin Spectral Data<<<<<
223.165	-21.75
223.4	-21.75
223.635	-21.75
223.869	-14.75
224.104	-15.75
224.338	-14.75
224.573	-19.75
224.808	-24.75
225.042	-9.75
225.277	-8.75
225.511	10.25
225.746	6.25
225.98	6.25
226.215	16.25
226.449	23.25
226.683	21.25
226.918	11.25
227.152	35.25
227.387	30.25
227.621	24.25
227.856	32.25
228.09	63.25
228.324	39.25
228.559	54.25
228.793	60.25
229.027	45.25
229.262	71.25
229.496	66.25
229.73	74.25
229.964	80.25
230.199	70.25
230.433	71.25
230.667	76.25
230.901	73.25
231.136	72.25
231.37	79.25
231.604	80.25
231.838	80.25
232.072	78.25
232.306	68.25
232.541	73.25
232.775	57.25
233.009	78.25
233.243	76.25
233.477	84.25
233.711	91.25
233.945	84.25
234.179	82.25
234.413	74.25
234.647	77.25
234.881	78.25
235.115	90.25
235.349	84.25
235.583	66.25
235.817	70.25
236.051	78.25
236.285	79.25
236.519	73.25
236.753	89.25
236.987	84.25
237.221	72.25
237.455	67.25
237.689	78.25
237.922	76.25
238.156	76.25
238.39	67.25
238.624	67.25
238.858	80.25
239.091	70.25
239.325	62.25
239.559	78.25
239.793	73.25
240.027	67.25
240.26	63.25
240.494	81.25
240.728	80.25
240.961	62.25
241.195	82.25
241.429	71.25
241.662	75.25
241.896	65.25
242.13	88.25
242.363	82.25
242.597	72.25
242.83	78.25
243.064	65.25
243.298	76.25
243.531	80.25
243.765	82.25
243.998	88.25
244.232	78.25
244.465	89.25
244.699	80.25
244.932	71.25
245.166	65.25
245.399	80.25
245.633	85.25
245.866	67.25
246.099	71.25
246.333	94.25
246.566	74.25
246.8	83.25
247.033	81.25
247.266	76.25
247.5	82.25
247.733	80.25
247.966	82.25
248.2	78.25
248.433	79.25
248.666	76.25
248.899	77.25
249.133	76.25
249.366	88.25
249.599	90.25
249.832	82.25
250.066	74.25
250.299	78.25
250.532	76.25
250.765	80.25
250.998	71.25
251.231	78.25
251.465	64.25
251.698	68.25
251.931	79.25
252.164	77.25
252.397	85.25
252.63	77.25
252.863	82.25
253.096	68.25
253.329	81.25
253.562	88.25
253.795	70.25
254.028	84.25
254.261	79.25
254.494	66.25
254.727	88.25
254.96	64.25
255.193	81.25
255.426	73.25
255.659	76.25
255.892	78.25
256.124	92.25
256.357	92.25
256.59	66.25
256.823	82.25
257.056	80.25
257.289	92.25
257.521	90.25
257.754	76.25
257.987	78.25
258.22	91.25
258.452	90.25
258.685	74.25
258.918	69.25
259.151	76.25
259.383	88.25
259.616	85.25
259.849	83.25
260.081	82.25
260.314	77.25
260.547	79.25
260.779	87.25
261.012	68.25
261.244	95.25
261.477	84.25
261.71	94.25
261.942	127.25
262.175	111.25
262.407	91.25
262.64	90.25
262.872	82.25
263.105	83.25
263.337	93.25
263.57	90.25
263.802	80.25
264.035	71.25
264.267	88.25
264.499	85.25
264.732	85.25
264.964	78.25
265.197	77.25
265.429	85.25
265.661	80.25
265.894	66.25
266.126	85.25
266.358	82.25
266.591	86.25
266.823	82.25
267.055	90.25
267.287	75.25
267.52	68.25
267.752	92.25
267.984	94.25
268.216	94.25
268.448	82.25
268.681	93.25
268.913	92.25
269.145	78.25
269.377	77.25
269.609	83.25
269.841	84.25
270.073	72.25
270.306	94.25
270.538	89.25
270.77	70.25
271.002	80.25
271.234	78.25
271.466	89.25
271.698	87.25
271.93	87.25
272.162	96.25
272.394	108.25
272.626	86.25
272.858	72.25
273.09	76.25
273.322	85.25
273.553	86.25
273.785	81.25
274.017	92.25
274.249	81.25
274.481	79.25
274.713	81.25
274.945	77.25
275.176	83.25
275.408	89.25
275.64	83.25
275.872	73.25
276.104	89.25
276.335	96.25
276.567	80.25
276.799	110.25
277.031	92.25
277.262	92.25
277.494	95.25
277.726	82.25
277.957	86.25
278.189	70.25
278.421	85.25
278.652	94.25
278.884	84.25
279.115	76.25
279.347	88.25
279.579	86.25
279.81	99.25
280.042	85.25
280.273	102.25
280.505	86.25
280.736	102.25
280.968	71.25
281.199	77.25
281.431	85.25
281.662	87.25
281.894	89.25
282.125	99.25
282.356	110.25
282.588	119.25
282.819	113.25
283.051	95.25
283.282	73.25
283.513	90.25
283.745	82.25
283.976	84.25
284.207	77.25
284.439	85.25
284.67	78.25
284.901	81.25
285.132	77.25
285.364	85.25
285.595	73.25
285.826	86.25
286.057	91.25
286.288	96.25
286.52	94.25
286.751	88.25
286.982	88.25
287.213	87.25
287.444	90.25
287.675	84.25
287.906	94.25
288.138	88.25
288.369	82.25
288.6	93.25
288.831	76.25
289.062	82.25
289.293	89.25
289.524	80.25
289.755	93.25
289.986	85.25
290.217	94.25
290.448	89.25
290.679	88.25
290.91	101.25
291.141	73.25
291.371	93.25
291.602	81.25
291.833	78.25
292.064	96.25
292.295	88.25
292.526	77.25
292.757	89.25
292.987	85.25
293.218	95.25
293.449	94.25
293.68	95.25
293.91	82.25
294.141	88.25
294.372	88.25
294.603	82.25
294.833	85.25
295.064	80.25
295.295	92.25
295.525	90.25
295.756	99.25
295.987	110.25
296.217	135.25
296.448	115.25
296.679	92.25
296.909	92.25
297.14	72.25
297.37	88.25
297.601	82.25
297.831	84.25
298.062	92.25
298.292	86.25
298.523	90.25
298.753	97.25
298.984	85.25
299.214	88.25
299.445	69.25
299.675	80.25
299.905	97.25
300.136	89.25
300.366	97.25
300.597	81.25
300.827	105.25
301.057	101.25
301.288	97.25
301.518	88.25
301.748	82.25
301.979	95.25
302.209	76.25
302.439	87.25
302.669	80.25
302.9	92.25
303.13	86.25
303.36	100.25
303.59	115.25
303.82	105.25
304.051	82.25
304.281	91.25
304.511	93.25
304.741	95.25
304.971	83.25
305.201	88.25
305.431	87.25
305.661	90.25
305.891	99.25
306.121	90.25
306.352	115.25
306.582	84.25
306.812	98.25
307.042	93.25
307.272	68.25
307.502	78.25
307.731	79.25
307.961	92.25
308.191	95.25
308.421	96.25
308.651	88.25
308.881	94.25
309.111	89.25
309.341	81.25
309.571	95.25
309.8	85.25
310.03	100.25
310.26	101.25
310.49	99.25
310.72	86.25
310.949	108.25
311.179	93.25
311.409	98.25
311.639	103.25
311.868	97.25
312.098	77.25
312.328	87.25
312.557	110.25
312.787	86.25
313.017	93.25
313.246	102.25
313.476	96.25
313.706	80.25
313.935	93.25
314.165	102.25
314.394	90.25
314.624	89.25
314.853	91.25
315.083	95.25
315.312	89.25
315.542	87.25
315.771	94.25
316.001	77.25
316.23	87.25
316.46	102.25
316.689	100.25
316.919	87.25
317.148	80.25
317.377	82.25
317.607	79.25
317.836	81.25
318.065	87.25
318.295	85.25
318.524	90.25
318.753	75.25
318.983	97.25
319.212	108.25
319.441	101.25
319.67	113.25
319.9	88.25
320.129	87.25
320.358	86.25
320.587	94.25
320.816	110.25
321.046	101.25
321.275	105.25
321.504	91.25
321.733	83.25
321.962	86.25
322.191	84.25
322.42	106.25
322.649	107.25
322.878	114.25
323.108	106.25
323.337	113.25
323.566	140.25
323.795	141.25
324.024	210.25
324.253	383.25
324.482	788.25
324.71	1604.25
324.939	2126.25
325.168	795.25
325.397	236.25
325.626	149.25
325.855	121.25
326.084	120.25
326.313	124.25
326.542	135.25
326.77	225.25
326.999	436.25
327.228	889.25
327.457	1644.25
327.686	1297.25
327.914	349.25
328.143	190.25
328.372	170.25
328.6	119.25
328.829	110.25
329.058	123.25
329.287	125.25
329.515	108.25
329.744	103.25
329.972	117.25
330.201	147.25
330.43	170.25
330.658	147.25
330.887	154.25
331.115	132.25
331.344	83.25
331.572	98.25
331.801	91.25
332.03	92.25
332.258	106.25
332.486	95.25
332.715	105.25
332.943	100.25
333.172	97.25
333.4	104.25
333.629	103.25
333.857	104.25
334.085	119.25
334.314	133.25
334.542	198.25
334.771	189.25
334.999	119.25
335.227	94.25
335.455	96.25
335.684	96.25
335.912	95.25
336.14	91.25
336.369	94.25
336.597	95.25
336.825	87.25
337.053	93.25
337.281	104.25
337.51	85.25
337.738	76.25
337.966	81.25
338.194	88.25
338.422	108.25
338.65	98.25
338.878	85.25
339.106	92.25
339.334	86.25
339.562	89.25
339.79	98.25
340.018	84.25
340.246	95.25
340.474	86.25
340.702	86.25
340.93	99.25
341.158	97.25
341.386	103.25
341.614	93.25
341.842	101.25
342.07	90.25
342.298	80.25
342.526	86.25
342.754	85.25
342.981	86.25
343.209	87.25
343.437	89.25
343.665	81.25
343.893	80.25
344.12	86.25
344.348	84.25
344.576	82.25
344.804	86.25
345.031	100.25
345.259	89.25
345.487	82.25
345.714	94.25
345.942	83.25
346.17	87.25
346.397	97.25
346.625	86.25
346.853	78.25
347.08	96.25
347.308	91.25
347.535	103.25
347.763	96.25
347.99	99.25
348.218	92.25
348.445	100.25
348.673	94.25
348.9	96.25
349.128	86.25
349.355	82.25
349.583	103.25
349.81	89.25
350.037	87.25
350.265	78.25
350.492	85.25
350.72	96.25
350.947	92.25
351.174	104.25
351.402	103.25
351.629	106.25
351.856	100.25
352.083	94.25
352.311	105.25
352.538	103.25
352.765	95.25
352.992	96.25
353.22	114.25
353.447	94.25
353.674	89.25
353.901	95.25
354.128	97.25
354.355	89.25
354.583	88.25
354.81	86.25
355.037	91.25
355.264	81.25
355.491	89.25
355.718	86.25
355.945	72.25
356.172	80.25
356.399	89.25
356.626	93.25
356.853	79.25
357.08	92.25
357.307	89.25
357.534	72.25
357.761	98.25
357.988	85.25
358.215	90.25
358.441	91.25
358.668	98.25
358.895	94.25
359.122	92.25
359.349	91.25
359.576	88.25
359.802	102.25
360.029	118.25
360.256	97.25
360.483	92.25
360.709	92.25
360.936	90.25
361.163	82.25
361.39	89.25
361.616	104.25
361.843	91.25
362.07	93.25
362.296	94.25
362.523	83.25
362.749	87.25
362.976	85.25
363.203	87.25
363.429	90.25
363.656	93.25
363.882	89.25
364.109	98.25
364.335	96.25
364.562	94.25
364.788	94.25
365.015	93.25
365.241	92.25
365.468	92.25
365.694	90.25
365.92	86.25
366.147	84.25
366.373	84.25
366.599	89.25
366.826	80.25
367.052	81.25
367.278	95.25
367.505	97.25
367.731	84.25
367.957	85.25
368.184	81.25
368.41	92.25
368.636	112.25
368.862	121.25
369.089	105.25
369.315	92.25
369.541	81.25
369.767	86.25
369.993	94.25
370.219	92.25
370.445	85.25
370.672	93.25
370.898	94.25
371.124	79.25
371.35	90.25
371.576	96.25
371.802	87.25
372.028	85.25
372.254	90.25
372.48	100.25
372.706	87.25
372.932	85.25
373.158	94.25
373.384	92.25
373.61	97.25
373.835	77.25
374.061	87.25
374.287	94.25
374.513	99.25
374.739	81.25
374.965	73.25
375.191	89.25
375.416	88.25
375.642	72.25
375.868	89.25
376.094	90.25
376.319	88.25
376.545	83.25
376.771	96.25
376.997	98.25
377.222	88.25
377.448	92.25
377.674	82.25
377.899	78.25
378.125	73.25
378.35	85.25
378.576	90.25
378.802	90.25
379.027	93.25
379.253	93.25
379.478	72.25
379.704	76.25
379.929	97.25
380.155	86.25
380.38	89.25
380.606	68.25
380.831	84.25
381.057	87.25
381.282	84.25
381.507	109.25
381.733	93.25
381.958	96.25
382.184	89.25
382.409	90.25
382.634	113.25
382.86	80.25
383.085	104.25
383.31	94.25
383.535	87.25
383.761	73.25
383.986	98.25
384.211	90.25
384.436	90.25
384.662	99.25
384.887	93.25
385.112	82.25
385.337	97.25
385.562	95.25
385.787	92.25
386.013	103.25
386.238	98.25
386.463	103.25
386.688	109.25
386.913	95.25
387.138	102.25
387.363	97.25
387.588	99.25
387.813	94.25
388.038	88.25
388.263	97.25
388.488	99.25
388.713	106.25
388.938	99.25
389.163	95.25
389.387	83.25
389.612	93.25
389.837	99.25
390.062	95.25
390.287	90.25
390.512	93.25
390.736	85.25
390.961	100.25
391.186	91.25
391.411	89.25
391.636	83.25
391.86	78.25
392.085	65.25
392.31	90.25
392.534	91.25
392.759	74.25
392.984	82.25
393.208	80.25
393.433	89.25
393.658	85.25
393.882	71.25
394.107	86.25
394.331	82.25
394.556	70.25
394.78	92.25
395.005	85.25
395.229	78.25
395.454	79.25
395.678	79.25
395.903	81.25
396.127	89.25
396.352	81.25
396.576	92.25
396.801	97.25
397.025	89.25
397.249	69.25
397.474	84.25
397.698	92.25
397.922	88.25
398.147	83.25
398.371	87.25
398.595	72.25
398.82	84.25
399.044	81.25
399.268	98.25
399.492	90.25
399.717	82.25
399.941	90.25
400.165	85.25
400.389	95.25
400.613	80.25
400.837	86.25
401.062	80.25
401.286	92.25
401.51	85.25
401.734	78.25
401.958	87.25
402.182	120.25
402.406	154.25
402.63	112.25
402.854	93.25
403.078	78.25
403.302	90.25
403.526	79.25
403.75	93.25
403.974	83.25
404.198	93.25
404.422	80.25
404.645	81.25
404.869	84.25
405.093	93.25
405.317	98.25
405.541	84.25
405.765	86.25
405.988	108.25
406.212	169.25
406.436	218.25
406.66	161.25
406.883	90.25
407.107	89.25
407.331	88.25
407.555	86.25
407.778	84.25
408.002	77.25
408.226	91.25
408.449	72.25
408.673	86.25
408.896	89.25
409.12	101.25
409.344	85.25
409.567	74.25
409.791	93.25
410.014	93.25
410.238	87.25
410.461	94.25
410.685	89.25
410.908	88.25
411.132	90.25
411.355	90.25
411.578	72.25
411.802	84.25
412.025	66.25
412.249	86.25
412.472	80.25
412.695	102.25
412.919	98.25
413.142	72.25
413.365	90.25
413.589	78.25
413.812	89.25
414.035	85.25
414.258	93.25
414.482	89.25
414.705	95.25
414.928	80.25
415.151	80.25
415.374	85.25
415.597	77.25
415.821	84.25
416.044	89.25
416.267	78.25
416.49	79.25
416.713	96.25
416.936	86.25
417.159	70.25
417.382	80.25
417.605	84.25
417.828	94.25
418.051	88.25
418.274	73.25
418.497	87.25
418.72	82.25
418.943	82.25
419.166	72.25
419.389	89.25
419.611	85.25
419.834	71.25
420.057	91.25
420.28	105.25
420.503	77.25
420.726	75.25
420.948	89.25
421.171	72.25
421.394	98.25
421.617	81.25
421.839	96.25
422.062	76.25
422.285	102.25
422.507	95.25
422.73	103.25
422.953	84.25
423.175	86.25
423.398	79.25
423.621	81.25
423.843	79.25
424.066	77.25
424.288	86.25
424.511	80.25
424.733	88.25
424.956	87.25
425.178	78.25
425.401	93.25
425.623	94.25
425.846	70.25
426.068	94.25
426.291	89.25
426.513	86.25
426.735	81.25
426.958	98.25
427.18	93.25
427.402	127.25
427.625	160.25
427.847	135.25
428.069	95.25
428.292	93.25
428.514	100.25
428.736	87.25
428.958	82.25
429.181	81.25
429.403	76.25
429.625	96.25
429.847	98.25
430.069	88.25
430.292	95.25
430.514	82.25
430.736	80.25
430.958	82.25
431.18	67.25
431.402	78.25
431.624	84.25
431.846	94.25
432.068	85.25
432.29	83.25
432.512	85.25
432.734	83.25
432.956	93.25
433.178	94.25
433.4	92.25
433.622	79.25
433.844	97.25
434.066	97.25
434.287	70.25
434.509	85.25
434.731	84.25
434.953	72.25
435.175	83.25
435.397	100.25
435.618	94.25
435.84	93.25
436.062	116.25
436.284	103.25
436.505	101.25
436.727	83.25
436.949	101.25
437.17	88.25
437.392	80.25
437.614	89.25
437.835	97.25
438.057	105.25
438.278	90.25
438.5	101.25
438.721	108.25
438.943	106.25
439.165	81.25
439.386	85.25
439.608	84.25
439.829	96.25
440.05	129.25
440.272	145.25
440.493	97.25
440.715	78.25
440.936	74.25
441.158	80.25
441.379	86.25
441.6	92.25
441.822	82.25
442.043	94.25
442.264	105.25
442.486	88.25
442.707	93.25
442.928	104.25
443.149	112.25
443.371	131.25
443.592	101.25
443.813	108.25
444.034	92.25
444.255	73.25
444.476	84.25
444.698	74.25
444.919	87.25
445.14	141.25
445.361	122.25
445.582	113.25
445.803	134.25
446.024	113.25
446.245	134.25
446.466	96.25
446.687	86.25
446.908	92.25
447.129	92.25
447.35	85.25
447.571	81.25
447.792	80.25
448.013	91.25
448.234	96.25
448.455	98.25
448.675	106.25
448.896	112.25
449.117	96.25
449.338	86.25
449.559	121.25
449.779	127.25
450	87.25
450.221	90.25
450.442	82.25
450.662	99.25
450.883	108.25
451.104	118.25
451.324	91.25
451.545	80.25
451.766	101.25
451.986	84.25
452.207	95.25
452.428	104.25
452.648	93.25
452.869	104.25
453.089	98.25
453.31	107.25
453.53	94.25
453.751	98.25
453.971	93.25
454.192	108.25
454.412	88.25
454.633	95.25
454.853	90.25
455.073	80.25
455.294	87.25
455.514	102.25
455.734	100.25
455.955	83.25
456.175	83.25
456.395	86.25
456.616	94.25
456.836	81.25
457.056	88.25
457.276	85.25
457.497	96.25
457.717	80.25
457.937	82.25
458.157	78.25
458.377	82.25
458.598	102.25
458.818	139.25
459.038	128.25
459.258	112.25
459.478	78.25
459.698	88.25
459.918	82.25
460.138	89.25
460.358	86.25
460.578	89.25
460.798	85.25
461.018	83.25
461.238	79.25
461.458	79.25
461.678	77.25
461.898	85.25
462.118	86.25
462.338	99.25
462.558	85.25
462.777	97.25
462.997	78.25
463.217	76.25
463.437	56.25
463.657	80.25
463.876	85.25
464.096	70.25
464.316	93.25
464.536	100.25
464.755	91.25
464.975	100.25
465.195	153.25
465.414	161.25
465.634	97.25
465.854	79.25
466.073	81.25
466.293	79.25
466.512	89.25
466.732	90.25
466.951	77.25
467.171	99.25
467.391	88.25
467.61	93.25
467.829	97.25
468.049	112.25
468.268	121.25
468.488	94.25
468.707	84.25
468.927	86.25
469.146	82.25
469.365	92.25
469.585	87.25
469.804	86.25
470.023	93.25
470.243	89.25
470.462	98.25
470.681	108.25
470.901	84.25
471.12	81.25
471.339	89.25
471.558	69.25
471.777	94.25
471.997	100.25
472.216	144.25
472.435	217.25
472.654	117.25
472.873	81.25
473.092	88.25
473.311	77.25
473.53	70.25
473.749	84.25
473.968	93.25
474.187	96.25
474.406	96.25
474.625	83.25
474.844	83.25
475.063	73.25
475.282	76.25
475.501	92.25
475.72	94.25
475.939	79.25
476.158	89.25
476.377	81.25
476.596	88.25
476.814	84.25
477.033	98.25
477.252	81.25
477.471	87.25
477.69	79.25
477.908	80.25
478.127	92.25
478.346	83.25
478.564	86.25
478.783	89.25
479.002	94.25
479.22	82.25
479.439	96.25
479.658	92.25
479.876	85.25
480.095	78.25
480.313	86.25
480.532	71.25
480.751	110.25
480.969	162.25
481.188	371.25
481.406	240.25
481.624	95.25
481.843	92.25
482.061	80.25
482.28	95.25
482.498	83.25
482.717	100.25
482.935	96.25
483.153	94.25
483.372	86.25
483.59	93.25
483.808	79.25
484.027	99.25
484.245	82.25
484.463	90.25
484.681	98.25
484.9	96.25
485.118	90.25
485.336	86.25
485.554	84.25
485.772	96.25
485.99	103.25
486.209	97.25
486.427	101.25
486.645	109.25
486.863	113.25
487.081	96.25
487.299	95.25
487.517	78.25
487.735	92.25
487.953	96.25
488.171	90.25
488.389	97.25
488.607	87.25
488.825	94.25
489.043	82.25
489.261	86.25
489.479	81.25
489.696	90.25
489.914	89.25
490.132	79.25
490.35	91.25
490.568	78.25
490.786	76.25
491.003	85.25
491.221	87.25
491.439	81.25
491.657	93.25
491.874	87.25
492.092	104.25
492.31	96.25
492.527	73.25
492.745	94.25
492.963	84.25
493.18	82.25
493.398	84.25
493.615	101.25
493.833	73.25
494.05	81.25
494.268	90.25
494.485	90.25
494.703	69.25
494.92	73.25
495.138	70.25
495.355	85.25
495.573	86.25
495.79	97.25
496.008	107.25
496.225	66.25
496.442	88.25
496.66	86.25
496.877	82.25
497.094	76.25
497.312	86.25
497.529	93.25
497.746	90.25
497.963	92.25
498.181	94.25
498.398	97.25
498.615	91.25
498.832	94.25
499.049	78.25
499.267	83.25
499.484	93.25
499.701	96.25
499.918	101.25
500.135	95.25
500.352	69.25
500.569	81.25
500.786	92.25
501.003	84.25
501.22	81.25
501.437	93.25
501.654	93.25
501.871	99.25
502.088	99.25
502.305	87.25
502.522	92.25
502.739	105.25
502.956	79.25
503.172	81.25
503.389	103.25
503.606	102.25
503.823	90.25
504.04	96.25
504.256	94.25
504.473	77.25
504.69	94.25
504.907	82.25
505.123	86.25
505.34	76.25
505.557	95.25
505.773	87.25
505.99	93.25
506.207	92.25
506.423	89.25
506.64	78.25
506.856	95.25
507.073	79.25
507.289	84.25
507.506	93.25
507.722	119.25
507.939	93.25
508.155	85.25
508.372	85.25
508.588	109.25
508.805	94.25
509.021	112.25
509.238	97.25
509.454	100.25
509.67	94.25
509.887	117.25
510.103	128.25
510.319	201.25
510.536	744.25
510.752	2341.25
510.968	629.25
511.184	143.25
511.401	105.25
511.617	85.25
511.833	94.25
512.049	111.25
512.265	80.25
512.481	86.25
512.698	93.25
512.914	81.25
513.13	101.25
513.346	105.25
513.562	105.25
513.778	90.25
513.994	102.25
514.21	116.25
514.426	110.25
514.642	121.25
514.858	119.25
515.074	165.25
515.29	456.25
515.506	1469.25
515.721	511.25
515.937	142.25
516.153	98.25
516.369	96.25
516.585	84.25
516.801	101.25
