Data from Uncirc_1985_H10_HRD10591_00022.txt Node
Date: Wed Jan 03 12:18:21 EST 2024
User: Yrep
Spectrometer: HR+D1059
Trigger mode: 1
Integration Time (sec): 1.000000E-1
Scans to average: 1
Electric dark correction enabled: true
Nonlinearity correction enabled: false
Boxcar width: 0
XAxis mode: Wavelengths
Number of Pixels in Spectrum: 2048
>>>>>Begin Spectral Data<<<<<
223.165	-15.94
223.4	-15.94
223.635	-15.94
223.869	-19.94
224.104	-26.94
224.338	-23.94
224.573	-19.94
224.808	-18.94
225.042	-8.94
225.277	-12.94
225.511	12.06
225.746	15.06
225.98	8.06
226.215	19.06
226.449	19.06
226.683	25.06
226.918	29.06
227.152	20.06
227.387	30.06
227.621	46.06
227.856	55.06
228.09	44.06
228.324	63.06
228.559	51.06
228.793	58.06
229.027	72.06
229.262	73.06
229.496	64.06
229.73	77.06
229.964	73.06
230.199	72.06
230.433	84.06
230.667	94.06
230.901	75.06
231.136	75.06
231.37	78.06
231.604	74.06
231.838	83.06
232.072	100.06
232.306	82.06
232.541	80.06
232.775	75.06
233.009	88.06
233.243	78.06
233.477	92.06
233.711	96.06
233.945	82.06
234.179	95.06
234.413	86.06
234.647	70.06
234.881	77.06
235.115	92.06
235.349	72.06
235.583	84.06
235.817	87.06
236.051	95.06
236.285	89.06
236.519	87.06
236.753	79.06
236.987	84.06
237.221	96.06
237.455	71.06
237.689	86.06
237.922	68.06
238.156	74.06
238.39	80.06
238.624	77.06
238.858	90.06
239.091	83.06
239.325	75.06
239.559	80.06
239.793	96.06
240.027	73.06
240.26	67.06
240.494	67.06
240.728	71.06
240.961	83.06
241.195	79.06
241.429	80.06
241.662	83.06
241.896	79.06
242.13	87.06
242.363	74.06
242.597	82.06
242.83	97.06
243.064	79.06
243.298	82.06
243.531	90.06
243.765	71.06
243.998	89.06
244.232	87.06
244.465	86.06
244.699	80.06
244.932	79.06
245.166	79.06
245.399	76.06
245.633	96.06
245.866	90.06
246.099	82.06
246.333	72.06
246.566	79.06
246.8	88.06
247.033	84.06
247.266	82.06
247.5	90.06
247.733	72.06
247.966	82.06
248.2	77.06
248.433	88.06
248.666	92.06
248.899	88.06
249.133	95.06
249.366	100.06
249.599	113.06
249.832	82.06
250.066	94.06
250.299	93.06
250.532	86.06
250.765	84.06
250.998	86.06
251.231	83.06
251.465	75.06
251.698	71.06
251.931	94.06
252.164	76.06
252.397	83.06
252.63	67.06
252.863	92.06
253.096	78.06
253.329	100.06
253.562	80.06
253.795	76.06
254.028	83.06
254.261	78.06
254.494	85.06
254.727	75.06
254.96	91.06
255.193	72.06
255.426	84.06
255.659	93.06
255.892	100.06
256.124	87.06
256.357	91.06
256.59	80.06
256.823	74.06
257.056	85.06
257.289	72.06
257.521	85.06
257.754	74.06
257.987	86.06
258.22	78.06
258.452	102.06
258.685	77.06
258.918	83.06
259.151	94.06
259.383	69.06
259.616	85.06
259.849	86.06
260.081	77.06
260.314	88.06
260.547	83.06
260.779	72.06
261.012	90.06
261.244	86.06
261.477	96.06
261.71	102.06
261.942	107.06
262.175	92.06
262.407	105.06
262.64	95.06
262.872	94.06
263.105	89.06
263.337	97.06
263.57	82.06
263.802	78.06
264.035	93.06
264.267	88.06
264.499	77.06
264.732	92.06
264.964	85.06
265.197	82.06
265.429	79.06
265.661	72.06
265.894	89.06
266.126	98.06
266.358	90.06
266.591	82.06
266.823	76.06
267.055	87.06
267.287	93.06
267.52	95.06
267.752	85.06
267.984	85.06
268.216	88.06
268.448	76.06
268.681	78.06
268.913	82.06
269.145	98.06
269.377	75.06
269.609	79.06
269.841	90.06
270.073	90.06
270.306	89.06
270.538	90.06
270.77	84.06
271.002	91.06
271.234	83.06
271.466	86.06
271.698	98.06
271.93	96.06
272.162	86.06
272.394	89.06
272.626	82.06
272.858	88.06
273.09	78.06
273.322	74.06
273.553	77.06
273.785	88.06
274.017	97.06
274.249	96.06
274.481	94.06
274.713	88.06
274.945	90.06
275.176	97.06
275.408	77.06
275.64	83.06
275.872	87.06
276.104	91.06
276.335	111.06
276.567	115.06
276.799	103.06
277.031	86.06
277.262	79.06
277.494	99.06
277.726	92.06
277.957	81.06
278.189	89.06
278.421	83.06
278.652	103.06
278.884	83.06
279.115	82.06
279.347	95.06
279.579	97.06
279.81	76.06
280.042	96.06
280.273	90.06
280.505	96.06
280.736	100.06
280.968	92.06
281.199	90.06
281.431	75.06
281.662	81.06
281.894	86.06
282.125	85.06
282.356	131.06
282.588	138.06
282.819	103.06
283.051	93.06
283.282	85.06
283.513	103.06
283.745	94.06
283.976	95.06
284.207	88.06
284.439	88.06
284.67	88.06
284.901	83.06
285.132	79.06
285.364	85.06
285.595	90.06
285.826	94.06
286.057	90.06
286.288	88.06
286.52	101.06
286.751	87.06
286.982	86.06
287.213	90.06
287.444	89.06
287.675	101.06
287.906	97.06
288.138	98.06
288.369	89.06
288.6	99.06
288.831	82.06
289.062	93.06
289.293	96.06
289.524	90.06
289.755	87.06
289.986	106.06
290.217	89.06
290.448	93.06
290.679	98.06
290.91	84.06
291.141	92.06
291.371	97.06
291.602	89.06
291.833	92.06
292.064	100.06
292.295	88.06
292.526	96.06
292.757	94.06
292.987	82.06
293.218	96.06
293.449	98.06
293.68	86.06
293.91	93.06
294.141	97.06
294.372	98.06
294.603	75.06
294.833	84.06
295.064	105.06
295.295	93.06
295.525	94.06
295.756	97.06
295.987	132.06
296.217	137.06
296.448	101.06
296.679	102.06
296.909	105.06
297.14	92.06
297.37	99.06
297.601	102.06
297.831	100.06
298.062	91.06
298.292	99.06
298.523	94.06
298.753	100.06
298.984	97.06
299.214	100.06
299.445	84.06
299.675	101.06
299.905	92.06
300.136	86.06
300.366	89.06
300.597	101.06
300.827	88.06
301.057	93.06
301.288	97.06
301.518	105.06
301.748	94.06
301.979	110.06
302.209	87.06
302.439	94.06
302.669	98.06
302.9	95.06
303.13	95.06
303.36	100.06
303.59	103.06
303.82	105.06
304.051	99.06
304.281	91.06
304.511	96.06
304.741	84.06
304.971	98.06
305.201	98.06
305.431	95.06
305.661	89.06
305.891	98.06
306.121	98.06
306.352	106.06
306.582	88.06
306.812	90.06
307.042	78.06
307.272	106.06
307.502	102.06
307.731	102.06
307.961	97.06
308.191	93.06
308.421	95.06
308.651	98.06
308.881	84.06
309.111	76.06
309.341	93.06
309.571	99.06
309.8	99.06
310.03	100.06
310.26	96.06
310.49	86.06
310.72	93.06
310.949	103.06
311.179	100.06
311.409	88.06
311.639	83.06
311.868	107.06
312.098	89.06
312.328	100.06
312.557	102.06
312.787	90.06
313.017	103.06
313.246	95.06
313.476	99.06
313.706	82.06
313.935	90.06
314.165	89.06
314.394	91.06
314.624	104.06
314.853	90.06
315.083	106.06
315.312	85.06
315.542	99.06
315.771	90.06
316.001	91.06
316.23	106.06
316.46	100.06
316.689	72.06
316.919	94.06
317.148	94.06
317.377	90.06
317.607	90.06
317.836	89.06
318.065	98.06
318.295	91.06
318.524	95.06
318.753	99.06
318.983	104.06
319.212	106.06
319.441	111.06
319.67	115.06
319.9	103.06
320.129	91.06
320.358	92.06
320.587	90.06
320.816	93.06
321.046	96.06
321.275	114.06
321.504	86.06
321.733	96.06
321.962	95.06
322.191	104.06
322.42	100.06
322.649	102.06
322.878	114.06
323.108	107.06
323.337	135.06
323.566	133.06
323.795	159.06
324.024	198.06
324.253	344.06
324.482	750.06
324.71	1585.06
324.939	2054.06
325.168	756.06
325.397	241.06
325.626	143.06
325.855	116.06
326.084	112.06
326.313	140.06
326.542	141.06
326.77	213.06
326.999	432.06
327.228	877.06
327.457	1579.06
327.686	1262.06
327.914	349.06
328.143	181.06
328.372	133.06
328.6	131.06
328.829	119.06
329.058	114.06
329.287	119.06
329.515	99.06
329.744	118.06
329.972	115.06
330.201	102.06
330.43	112.06
330.658	126.06
330.887	127.06
331.115	121.06
331.344	105.06
331.572	122.06
331.801	102.06
332.03	110.06
332.258	98.06
332.486	101.06
332.715	110.06
332.943	95.06
333.172	103.06
333.4	103.06
333.629	93.06
333.857	116.06
334.085	100.06
334.314	111.06
334.542	122.06
334.771	109.06
334.999	107.06
335.227	111.06
335.455	103.06
335.684	87.06
335.912	86.06
336.14	82.06
336.369	94.06
336.597	107.06
336.825	98.06
337.053	91.06
337.281	90.06
337.51	99.06
337.738	98.06
337.966	100.06
338.194	93.06
338.422	100.06
338.65	101.06
338.878	88.06
339.106	86.06
339.334	89.06
339.562	98.06
339.79	96.06
340.018	88.06
340.246	100.06
340.474	93.06
340.702	85.06
340.93	96.06
341.158	93.06
341.386	109.06
341.614	105.06
341.842	102.06
342.07	97.06
342.298	109.06
342.526	88.06
342.754	94.06
342.981	97.06
343.209	98.06
343.437	101.06
343.665	91.06
343.893	109.06
344.12	88.06
344.348	103.06
344.576	78.06
344.804	91.06
345.031	100.06
345.259	98.06
345.487	95.06
345.714	97.06
345.942	92.06
346.17	93.06
346.397	101.06
346.625	98.06
346.853	84.06
347.08	90.06
347.308	95.06
347.535	101.06
347.763	106.06
347.99	104.06
348.218	94.06
348.445	88.06
348.673	97.06
348.9	103.06
349.128	112.06
349.355	102.06
349.583	93.06
349.81	106.06
350.037	79.06
350.265	87.06
350.492	103.06
350.72	98.06
350.947	102.06
351.174	98.06
351.402	106.06
351.629	109.06
351.856	98.06
352.083	101.06
352.311	96.06
352.538	101.06
352.765	104.06
352.992	117.06
353.22	111.06
353.447	120.06
353.674	116.06
353.901	102.06
354.128	99.06
354.355	110.06
354.583	109.06
354.81	100.06
355.037	101.06
355.264	104.06
355.491	100.06
355.718	106.06
355.945	98.06
356.172	114.06
356.399	109.06
356.626	95.06
356.853	88.06
357.08	120.06
357.307	95.06
357.534	100.06
357.761	90.06
357.988	110.06
358.215	104.06
358.441	102.06
358.668	89.06
358.895	93.06
359.122	93.06
359.349	90.06
359.576	102.06
359.802	94.06
360.029	111.06
360.256	108.06
360.483	93.06
360.709	84.06
360.936	79.06
361.163	103.06
361.39	88.06
361.616	89.06
361.843	91.06
362.07	92.06
362.296	92.06
362.523	101.06
362.749	89.06
362.976	90.06
363.203	93.06
363.429	86.06
363.656	101.06
363.882	95.06
364.109	114.06
364.335	95.06
364.562	91.06
364.788	103.06
365.015	107.06
365.241	95.06
365.468	115.06
365.694	114.06
365.92	91.06
366.147	102.06
366.373	86.06
366.599	89.06
366.826	106.06
367.052	83.06
367.278	90.06
367.505	96.06
367.731	102.06
367.957	98.06
368.184	90.06
368.41	78.06
368.636	112.06
368.862	126.06
369.089	110.06
369.315	119.06
369.541	98.06
369.767	98.06
369.993	94.06
370.219	90.06
370.445	88.06
370.672	94.06
370.898	102.06
371.124	96.06
371.35	101.06
371.576	89.06
371.802	98.06
372.028	93.06
372.254	95.06
372.48	102.06
372.706	90.06
372.932	96.06
373.158	93.06
373.384	80.06
373.61	94.06
373.835	105.06
374.061	96.06
374.287	99.06
374.513	79.06
374.739	109.06
374.965	103.06
375.191	110.06
375.416	100.06
375.642	98.06
375.868	111.06
376.094	103.06
376.319	88.06
376.545	108.06
376.771	95.06
376.997	92.06
377.222	98.06
377.448	86.06
377.674	105.06
377.899	87.06
378.125	94.06
378.35	99.06
378.576	82.06
378.802	92.06
379.027	96.06
379.253	100.06
379.478	71.06
379.704	93.06
379.929	90.06
380.155	105.06
380.38	100.06
380.606	106.06
380.831	93.06
381.057	113.06
381.282	93.06
381.507	101.06
381.733	108.06
381.958	103.06
382.184	90.06
382.409	76.06
382.634	113.06
382.86	108.06
383.085	112.06
383.31	101.06
383.535	118.06
383.761	99.06
383.986	90.06
384.211	87.06
384.436	97.06
384.662	98.06
384.887	110.06
385.112	85.06
385.337	108.06
385.562	107.06
385.787	94.06
386.013	107.06
386.238	114.06
386.463	101.06
386.688	119.06
386.913	109.06
387.138	101.06
387.363	98.06
387.588	102.06
387.813	122.06
388.038	116.06
388.263	116.06
388.488	111.06
388.713	100.06
388.938	101.06
389.163	106.06
389.387	84.06
389.612	95.06
389.837	98.06
390.062	101.06
390.287	98.06
390.512	103.06
390.736	89.06
390.961	97.06
391.186	103.06
391.411	105.06
391.636	103.06
391.86	88.06
392.085	94.06
392.31	78.06
392.534	91.06
392.759	106.06
392.984	94.06
393.208	84.06
393.433	100.06
393.658	100.06
393.882	99.06
394.107	82.06
394.331	80.06
394.556	82.06
394.78	80.06
395.005	86.06
395.229	93.06
395.454	98.06
395.678	82.06
395.903	79.06
396.127	86.06
396.352	86.06
396.576	101.06
396.801	90.06
397.025	90.06
397.249	95.06
397.474	75.06
397.698	101.06
397.922	95.06
398.147	102.06
398.371	89.06
398.595	78.06
398.82	86.06
399.044	99.06
399.268	88.06
399.492	89.06
399.717	92.06
399.941	95.06
400.165	94.06
400.389	99.06
400.613	91.06
400.837	83.06
401.062	77.06
401.286	88.06
401.51	90.06
401.734	90.06
401.958	95.06
402.182	126.06
402.406	134.06
402.63	119.06
402.854	95.06
403.078	86.06
403.302	106.06
403.526	110.06
403.75	97.06
403.974	93.06
404.198	98.06
404.422	84.06
404.645	108.06
404.869	91.06
405.093	91.06
405.317	107.06
405.541	109.06
405.765	97.06
405.988	122.06
406.212	152.06
406.436	188.06
406.66	140.06
406.883	107.06
407.107	105.06
407.331	109.06
407.555	99.06
407.778	91.06
408.002	93.06
408.226	89.06
408.449	90.06
408.673	89.06
408.896	93.06
409.12	92.06
409.344	94.06
409.567	91.06
409.791	106.06
410.014	98.06
410.238	93.06
410.461	96.06
410.685	90.06
410.908	105.06
411.132	100.06
411.355	93.06
411.578	97.06
411.802	91.06
412.025	94.06
412.249	79.06
412.472	96.06
412.695	100.06
412.919	88.06
413.142	78.06
413.365	84.06
413.589	87.06
413.812	87.06
414.035	88.06
414.258	95.06
414.482	99.06
414.705	90.06
414.928	99.06
415.151	92.06
415.374	107.06
415.597	84.06
415.821	99.06
416.044	89.06
416.267	86.06
416.49	83.06
416.713	94.06
416.936	87.06
417.159	90.06
417.382	88.06
417.605	84.06
417.828	91.06
418.051	116.06
418.274	83.06
418.497	92.06
418.72	90.06
418.943	98.06
419.166	91.06
419.389	87.06
419.611	96.06
419.834	108.06
420.057	87.06
420.28	102.06
420.503	87.06
420.726	91.06
420.948	79.06
421.171	87.06
421.394	94.06
421.617	90.06
421.839	97.06
422.062	94.06
422.285	92.06
422.507	99.06
422.73	107.06
422.953	112.06
423.175	106.06
423.398	78.06
423.621	93.06
423.843	104.06
424.066	95.06
424.288	93.06
424.511	91.06
424.733	89.06
424.956	109.06
425.178	86.06
425.401	103.06
425.623	96.06
425.846	108.06
426.068	103.06
426.291	82.06
426.513	98.06
426.735	92.06
426.958	109.06
427.18	93.06
427.402	136.06
427.625	153.06
427.847	108.06
428.069	95.06
428.292	90.06
428.514	90.06
428.736	84.06
428.958	94.06
429.181	88.06
429.403	95.06
429.625	107.06
429.847	96.06
430.069	92.06
430.292	80.06
430.514	86.06
430.736	80.06
430.958	88.06
431.18	88.06
431.402	90.06
431.624	84.06
431.846	83.06
432.068	87.06
432.29	91.06
432.512	91.06
432.734	97.06
432.956	93.06
433.178	99.06
433.4	95.06
433.622	94.06
433.844	100.06
434.066	95.06
434.287	90.06
434.509	86.06
434.731	91.06
434.953	82.06
435.175	99.06
435.397	97.06
435.618	93.06
435.84	94.06
436.062	123.06
436.284	111.06
436.505	94.06
436.727	112.06
436.949	99.06
437.17	87.06
437.392	105.06
437.614	92.06
437.835	94.06
438.057	118.06
438.278	111.06
438.5	95.06
438.721	123.06
438.943	108.06
439.165	94.06
439.386	98.06
439.608	94.06
439.829	98.06
440.05	121.06
440.272	131.06
440.493	100.06
440.715	92.06
440.936	85.06
441.158	95.06
441.379	78.06
441.6	92.06
441.822	107.06
442.043	99.06
442.264	112.06
442.486	98.06
442.707	93.06
442.928	114.06
443.149	138.06
443.371	116.06
443.592	98.06
443.813	102.06
444.034	107.06
444.255	103.06
444.476	94.06
444.698	80.06
444.919	89.06
445.14	119.06
445.361	126.06
445.582	123.06
445.803	121.06
446.024	135.06
446.245	123.06
446.466	114.06
446.687	91.06
446.908	88.06
447.129	82.06
447.35	92.06
447.571	84.06
447.792	94.06
448.013	109.06
448.234	106.06
448.455	88.06
448.675	103.06
448.896	124.06
449.117	95.06
449.338	95.06
449.559	106.06
449.779	111.06
450	91.06
450.221	91.06
450.442	80.06
450.662	101.06
450.883	97.06
451.104	110.06
451.324	78.06
451.545	88.06
451.766	84.06
451.986	92.06
452.207	88.06
452.428	89.06
452.648	81.06
452.869	115.06
453.089	116.06
453.31	98.06
453.53	98.06
453.751	93.06
453.971	93.06
454.192	103.06
454.412	83.06
454.633	88.06
454.853	93.06
455.073	88.06
455.294	88.06
455.514	93.06
455.734	91.06
455.955	71.06
456.175	92.06
456.395	89.06
456.616	83.06
456.836	76.06
457.056	93.06
457.276	96.06
457.497	86.06
457.717	93.06
457.937	85.06
458.157	94.06
458.377	98.06
458.598	114.06
458.818	129.06
459.038	136.06
459.258	105.06
459.478	90.06
459.698	87.06
459.918	101.06
460.138	100.06
460.358	101.06
460.578	84.06
460.798	82.06
461.018	80.06
461.238	75.06
461.458	95.06
461.678	98.06
461.898	79.06
462.118	84.06
462.338	86.06
462.558	82.06
462.777	91.06
462.997	88.06
463.217	94.06
463.437	90.06
463.657	90.06
463.876	94.06
464.096	104.06
464.316	83.06
464.536	96.06
464.755	85.06
464.975	107.06
465.195	127.06
465.414	144.06
465.634	92.06
465.854	93.06
466.073	91.06
466.293	87.06
466.512	92.06
466.732	92.06
466.951	92.06
467.171	86.06
467.391	92.06
467.61	98.06
467.829	94.06
468.049	100.06
468.268	91.06
468.488	94.06
468.707	81.06
468.927	86.06
469.146	95.06
469.365	88.06
469.585	96.06
469.804	98.06
470.023	90.06
470.243	85.06
470.462	96.06
470.681	106.06
470.901	106.06
471.12	103.06
471.339	90.06
471.558	101.06
471.777	107.06
471.997	91.06
472.216	105.06
472.435	111.06
472.654	88.06
472.873	103.06
473.092	97.06
473.311	88.06
473.53	93.06
473.749	88.06
473.968	92.06
474.187	96.06
474.406	94.06
474.625	104.06
474.844	80.06
475.063	90.06
475.282	95.06
475.501	85.06
475.72	97.06
475.939	76.06
476.158	87.06
476.377	94.06
476.596	88.06
476.814	82.06
477.033	92.06
477.252	78.06
477.471	95.06
477.69	108.06
477.908	93.06
478.127	98.06
478.346	75.06
478.564	89.06
478.783	86.06
479.002	92.06
479.22	99.06
479.439	101.06
479.658	96.06
479.876	94.06
480.095	88.06
480.313	95.06
480.532	90.06
480.751	92.06
480.969	104.06
481.188	136.06
481.406	123.06
481.624	107.06
481.843	89.06
482.061	85.06
482.28	94.06
482.498	96.06
482.717	94.06
482.935	96.06
483.153	100.06
483.372	98.06
483.59	101.06
483.808	91.06
484.027	102.06
484.245	93.06
484.463	91.06
484.681	99.06
484.9	102.06
485.118	94.06
485.336	112.06
485.554	91.06
485.772	93.06
485.99	104.06
486.209	93.06
486.427	103.06
486.645	107.06
486.863	116.06
487.081	105.06
487.299	82.06
487.517	102.06
487.735	103.06
487.953	95.06
488.171	84.06
488.389	96.06
488.607	94.06
488.825	98.06
489.043	96.06
489.261	95.06
489.479	94.06
489.696	74.06
489.914	95.06
490.132	89.06
490.35	91.06
490.568	86.06
490.786	110.06
491.003	109.06
491.221	86.06
491.439	102.06
491.657	90.06
491.874	88.06
492.092	94.06
492.31	100.06
492.527	95.06
492.745	92.06
492.963	94.06
493.18	97.06
493.398	83.06
493.615	106.06
493.833	88.06
494.05	90.06
494.268	70.06
494.485	82.06
494.703	82.06
494.92	79.06
495.138	83.06
495.355	75.06
495.573	82.06
495.79	90.06
496.008	88.06
496.225	84.06
496.442	89.06
496.66	103.06
496.877	100.06
497.094	92.06
497.312	92.06
497.529	102.06
497.746	90.06
497.963	102.06
498.181	90.06
498.398	98.06
498.615	106.06
498.832	98.06
499.049	91.06
499.267	97.06
499.484	111.06
499.701	107.06
499.918	96.06
500.135	92.06
500.352	91.06
500.569	91.06
500.786	91.06
501.003	95.06
501.22	118.06
501.437	97.06
501.654	100.06
501.871	107.06
502.088	79.06
502.305	102.06
502.522	100.06
502.739	97.06
502.956	100.06
503.172	92.06
503.389	116.06
503.606	98.06
503.823	90.06
504.04	92.06
504.256	93.06
504.473	116.06
504.69	97.06
504.907	105.06
505.123	88.06
505.34	88.06
505.557	91.06
505.773	84.06
505.99	98.06
506.207	107.06
506.423	83.06
506.64	82.06
506.856	100.06
507.073	85.06
507.289	91.06
507.506	88.06
507.722	100.06
507.939	112.06
508.155	89.06
508.372	94.06
508.588	98.06
508.805	97.06
509.021	98.06
509.238	96.06
509.454	114.06
509.67	104.06
509.887	107.06
510.103	137.06
510.319	202.06
510.536	668.06
510.752	2030.06
510.968	582.06
511.184	149.06
511.401	104.06
511.617	93.06
511.833	92.06
512.049	98.06
512.265	100.06
512.481	91.06
512.698	99.06
512.914	101.06
513.13	92.06
513.346	94.06
513.562	96.06
513.778	113.06
513.994	103.06
514.21	110.06
514.426	122.06
