Data from Uncirc_1985_H10_HRD10591_00031.txt Node
Date: Wed Jan 03 12:18:23 EST 2024
User: Yrep
Spectrometer: HR+D1059
Trigger mode: 1
Integration Time (sec): 1.000000E-1
Scans to average: 1
Electric dark correction enabled: true
Nonlinearity correction enabled: false
Boxcar width: 0
XAxis mode: Wavelengths
Number of Pixels in Spectrum: 2048
>>>>>Begin Spectral Data<<<<<
223.165	-22.12
223.4	-22.12
223.635	-22.12
223.869	-24.12
224.104	-12.12
224.338	-9.12
224.573	-2.12
224.808	-13.12
225.042	-19.12
225.277	-8.12
225.511	-7.12
225.746	-5.12
225.98	5.88
226.215	18.88
226.449	14.88
226.683	16.88
226.918	35.88
227.152	29.88
227.387	33.88
227.621	36.88
227.856	45.88
228.09	51.88
228.324	45.88
228.559	67.88
228.793	58.88
229.027	70.88
229.262	69.88
229.496	62.88
229.73	93.88
229.964	65.88
230.199	66.88
230.433	82.88
230.667	73.88
230.901	73.88
231.136	73.88
231.37	87.88
231.604	88.88
231.838	92.88
232.072	76.88
232.306	64.88
232.541	84.88
232.775	77.88
233.009	87.88
233.243	82.88
233.477	93.88
233.711	72.88
233.945	87.88
234.179	77.88
234.413	81.88
234.647	91.88
234.881	90.88
235.115	82.88
235.349	70.88
235.583	78.88
235.817	75.88
236.051	79.88
236.285	83.88
236.519	65.88
236.753	91.88
236.987	70.88
237.221	86.88
237.455	81.88
237.689	80.88
237.922	79.88
238.156	75.88
238.39	77.88
238.624	86.88
238.858	64.88
239.091	88.88
239.325	61.88
239.559	70.88
239.793	66.88
240.027	82.88
240.26	82.88
240.494	71.88
240.728	69.88
240.961	77.88
241.195	75.88
241.429	84.88
241.662	76.88
241.896	63.88
242.13	73.88
242.363	78.88
242.597	85.88
242.83	76.88
243.064	75.88
243.298	85.88
243.531	76.88
243.765	81.88
243.998	75.88
244.232	78.88
244.465	86.88
244.699	77.88
244.932	84.88
245.166	92.88
245.399	85.88
245.633	77.88
245.866	61.88
246.099	78.88
246.333	86.88
246.566	64.88
246.8	69.88
247.033	89.88
247.266	80.88
247.5	83.88
247.733	74.88
247.966	69.88
248.2	92.88
248.433	83.88
248.666	82.88
248.899	97.88
249.133	81.88
249.366	86.88
249.599	92.88
249.832	86.88
250.066	94.88
250.299	78.88
250.532	89.88
250.765	89.88
250.998	74.88
251.231	77.88
251.465	97.88
251.698	79.88
251.931	84.88
252.164	78.88
252.397	93.88
252.63	84.88
252.863	85.88
253.096	84.88
253.329	89.88
253.562	74.88
253.795	76.88
254.028	76.88
254.261	88.88
254.494	75.88
254.727	88.88
254.96	80.88
255.193	73.88
255.426	88.88
255.659	77.88
255.892	84.88
256.124	90.88
256.357	82.88
256.59	86.88
256.823	86.88
257.056	96.88
257.289	92.88
257.521	75.88
257.754	53.88
257.987	74.88
258.22	75.88
258.452	76.88
258.685	81.88
258.918	86.88
259.151	86.88
259.383	77.88
259.616	70.88
259.849	75.88
260.081	88.88
260.314	76.88
260.547	84.88
260.779	80.88
261.012	96.88
261.244	86.88
261.477	96.88
261.71	67.88
261.942	91.88
262.175	99.88
262.407	99.88
262.64	84.88
262.872	90.88
263.105	88.88
263.337	76.88
263.57	93.88
263.802	96.88
264.035	78.88
264.267	77.88
264.499	98.88
264.732	91.88
264.964	78.88
265.197	90.88
265.429	75.88
265.661	77.88
265.894	80.88
266.126	74.88
266.358	84.88
266.591	84.88
266.823	84.88
267.055	85.88
267.287	70.88
267.52	74.88
267.752	79.88
267.984	91.88
268.216	93.88
268.448	85.88
268.681	90.88
268.913	84.88
269.145	73.88
269.377	80.88
269.609	74.88
269.841	94.88
270.073	101.88
270.306	73.88
270.538	77.88
270.77	82.88
271.002	72.88
271.234	97.88
271.466	80.88
271.698	86.88
271.93	83.88
272.162	74.88
272.394	86.88
272.626	77.88
272.858	86.88
273.09	88.88
273.322	86.88
273.553	94.88
273.785	88.88
274.017	83.88
274.249	77.88
274.481	80.88
274.713	88.88
274.945	82.88
275.176	90.88
275.408	82.88
275.64	85.88
275.872	81.88
276.104	77.88
276.335	77.88
276.567	93.88
276.799	103.88
277.031	85.88
277.262	86.88
277.494	87.88
277.726	89.88
277.957	83.88
278.189	91.88
278.421	86.88
278.652	76.88
278.884	101.88
279.115	84.88
279.347	81.88
279.579	92.88
279.81	75.88
280.042	83.88
280.273	90.88
280.505	82.88
280.736	84.88
280.968	97.88
281.199	102.88
281.431	101.88
281.662	102.88
281.894	81.88
282.125	101.88
282.356	100.88
282.588	113.88
282.819	109.88
283.051	102.88
283.282	88.88
283.513	104.88
283.745	92.88
283.976	93.88
284.207	92.88
284.439	82.88
284.67	77.88
284.901	88.88
285.132	90.88
285.364	83.88
285.595	84.88
285.826	95.88
286.057	87.88
286.288	84.88
286.52	72.88
286.751	84.88
286.982	84.88
287.213	85.88
287.444	94.88
287.675	97.88
287.906	96.88
288.138	92.88
288.369	91.88
288.6	86.88
288.831	86.88
289.062	93.88
289.293	86.88
289.524	90.88
289.755	97.88
289.986	94.88
290.217	71.88
290.448	82.88
290.679	80.88
290.91	96.88
291.141	86.88
291.371	83.88
291.602	86.88
291.833	97.88
292.064	84.88
292.295	88.88
292.526	90.88
292.757	96.88
292.987	98.88
293.218	94.88
293.449	92.88
293.68	84.88
293.91	76.88
294.141	94.88
294.372	88.88
294.603	81.88
294.833	92.88
295.064	80.88
295.295	90.88
295.525	87.88
295.756	100.88
295.987	97.88
296.217	122.88
296.448	132.88
296.679	106.88
296.909	99.88
297.14	81.88
297.37	79.88
297.601	97.88
297.831	97.88
298.062	92.88
298.292	84.88
298.523	92.88
298.753	88.88
298.984	85.88
299.214	93.88
299.445	96.88
299.675	89.88
299.905	95.88
300.136	100.88
300.366	87.88
300.597	82.88
300.827	85.88
301.057	104.88
301.288	101.88
301.518	80.88
301.748	85.88
301.979	98.88
302.209	111.88
302.439	92.88
302.669	84.88
302.9	84.88
303.13	77.88
303.36	87.88
303.59	102.88
303.82	104.88
304.051	82.88
304.281	89.88
304.511	95.88
304.741	84.88
304.971	94.88
305.201	97.88
305.431	84.88
305.661	80.88
305.891	94.88
306.121	103.88
306.352	91.88
306.582	92.88
306.812	83.88
307.042	85.88
307.272	80.88
307.502	97.88
307.731	101.88
307.961	102.88
308.191	90.88
308.421	97.88
308.651	85.88
308.881	92.88
309.111	74.88
309.341	84.88
309.571	92.88
309.8	84.88
310.03	102.88
310.26	100.88
310.49	96.88
310.72	96.88
310.949	94.88
311.179	91.88
311.409	96.88
311.639	84.88
311.868	97.88
312.098	97.88
312.328	102.88
312.557	86.88
312.787	88.88
313.017	90.88
313.246	103.88
313.476	98.88
313.706	92.88
313.935	92.88
314.165	96.88
314.394	110.88
314.624	82.88
314.853	99.88
315.083	93.88
315.312	99.88
315.542	98.88
315.771	102.88
316.001	87.88
316.23	97.88
316.46	98.88
316.689	83.88
316.919	85.88
317.148	92.88
317.377	86.88
317.607	97.88
317.836	92.88
318.065	88.88
318.295	103.88
318.524	98.88
318.753	89.88
318.983	92.88
319.212	96.88
319.441	107.88
319.67	110.88
319.9	100.88
320.129	105.88
320.358	104.88
320.587	108.88
320.816	97.88
321.046	96.88
321.275	97.88
321.504	102.88
321.733	99.88
321.962	101.88
322.191	99.88
322.42	103.88
322.649	101.88
322.878	110.88
323.108	114.88
323.337	113.88
323.566	134.88
323.795	141.88
324.024	180.88
324.253	340.88
324.482	728.88
324.71	1423.88
324.939	1918.88
325.168	699.88
325.397	225.88
325.626	139.88
325.855	129.88
326.084	119.88
326.313	128.88
326.542	137.88
326.77	210.88
326.999	441.88
327.228	836.88
327.457	1522.88
327.686	1226.88
327.914	351.88
328.143	178.88
328.372	144.88
328.6	119.88
328.829	109.88
329.058	113.88
329.287	116.88
329.515	110.88
329.744	95.88
329.972	127.88
330.201	126.88
330.43	109.88
330.658	126.88
330.887	111.88
331.115	114.88
331.344	105.88
331.572	97.88
331.801	90.88
332.03	89.88
332.258	92.88
332.486	96.88
332.715	108.88
332.943	100.88
333.172	94.88
333.4	97.88
333.629	90.88
333.857	102.88
334.085	105.88
334.314	105.88
334.542	117.88
334.771	120.88
334.999	86.88
335.227	99.88
335.455	93.88
335.684	103.88
335.912	96.88
336.14	89.88
336.369	98.88
336.597	101.88
336.825	103.88
337.053	91.88
337.281	102.88
337.51	91.88
337.738	119.88
337.966	93.88
338.194	94.88
338.422	71.88
338.65	87.88
338.878	98.88
339.106	91.88
339.334	77.88
339.562	91.88
339.79	94.88
340.018	100.88
340.246	95.88
340.474	102.88
340.702	93.88
340.93	100.88
341.158	88.88
341.386	91.88
341.614	88.88
341.842	101.88
342.07	94.88
342.298	108.88
342.526	103.88
342.754	73.88
342.981	74.88
343.209	84.88
343.437	102.88
343.665	88.88
343.893	102.88
344.12	100.88
344.348	93.88
344.576	105.88
344.804	84.88
345.031	87.88
345.259	81.88
345.487	100.88
345.714	89.88
345.942	90.88
346.17	97.88
346.397	100.88
346.625	97.88
346.853	91.88
347.08	84.88
347.308	86.88
347.535	102.88
347.763	97.88
347.99	94.88
348.218	108.88
348.445	104.88
348.673	93.88
348.9	103.88
349.128	94.88
349.355	96.88
349.583	89.88
349.81	93.88
350.037	72.88
350.265	105.88
350.492	102.88
350.72	92.88
350.947	86.88
351.174	104.88
351.402	116.88
351.629	94.88
351.856	110.88
352.083	98.88
352.311	101.88
352.538	101.88
352.765	94.88
352.992	113.88
353.22	107.88
353.447	87.88
353.674	110.88
353.901	97.88
354.128	104.88
354.355	96.88
354.583	108.88
354.81	99.88
355.037	107.88
355.264	91.88
355.491	91.88
355.718	93.88
355.945	94.88
356.172	83.88
356.399	93.88
356.626	91.88
356.853	94.88
357.08	95.88
357.307	89.88
357.534	106.88
357.761	94.88
357.988	95.88
358.215	99.88
358.441	105.88
358.668	94.88
358.895	98.88
359.122	110.88
359.349	81.88
359.576	88.88
359.802	99.88
360.029	112.88
360.256	106.88
360.483	109.88
360.709	109.88
360.936	103.88
361.163	91.88
361.39	88.88
361.616	90.88
361.843	82.88
362.07	101.88
362.296	98.88
362.523	90.88
362.749	91.88
362.976	95.88
363.203	100.88
363.429	83.88
363.656	86.88
363.882	99.88
364.109	108.88
364.335	93.88
364.562	92.88
364.788	96.88
365.015	99.88
365.241	109.88
365.468	97.88
365.694	89.88
365.92	96.88
366.147	91.88
366.373	90.88
366.599	84.88
366.826	96.88
367.052	89.88
367.278	96.88
367.505	96.88
367.731	104.88
367.957	105.88
368.184	89.88
368.41	102.88
368.636	113.88
368.862	109.88
369.089	80.88
369.315	95.88
369.541	85.88
369.767	89.88
369.993	96.88
370.219	90.88
370.445	86.88
370.672	78.88
370.898	82.88
371.124	76.88
371.35	88.88
371.576	100.88
371.802	89.88
372.028	93.88
372.254	89.88
372.48	86.88
372.706	82.88
372.932	92.88
373.158	78.88
373.384	84.88
373.61	90.88
373.835	80.88
374.061	89.88
374.287	90.88
374.513	77.88
374.739	86.88
374.965	95.88
375.191	92.88
375.416	96.88
375.642	103.88
375.868	90.88
376.094	93.88
376.319	91.88
376.545	84.88
376.771	91.88
376.997	107.88
377.222	93.88
377.448	83.88
377.674	82.88
377.899	94.88
378.125	112.88
378.35	98.88
378.576	87.88
378.802	89.88
379.027	89.88
379.253	93.88
379.478	97.88
379.704	94.88
379.929	98.88
380.155	110.88
380.38	96.88
380.606	87.88
380.831	99.88
381.057	105.88
381.282	91.88
381.507	84.88
381.733	97.88
381.958	100.88
382.184	98.88
382.409	109.88
382.634	94.88
382.86	98.88
383.085	93.88
383.31	98.88
383.535	100.88
383.761	80.88
383.986	100.88
384.211	91.88
384.436	90.88
384.662	102.88
384.887	105.88
385.112	98.88
385.337	106.88
385.562	106.88
385.787	109.88
386.013	103.88
386.238	116.88
386.463	107.88
386.688	104.88
386.913	96.88
387.138	104.88
387.363	109.88
387.588	92.88
387.813	111.88
388.038	108.88
388.263	102.88
388.488	113.88
388.713	98.88
388.938	97.88
389.163	109.88
389.387	107.88
389.612	92.88
389.837	100.88
390.062	91.88
390.287	100.88
390.512	104.88
390.736	94.88
390.961	84.88
391.186	90.88
391.411	119.88
391.636	85.88
391.86	89.88
392.085	91.88
392.31	93.88
392.534	80.88
392.759	77.88
392.984	86.88
393.208	88.88
393.433	97.88
393.658	86.88
393.882	83.88
394.107	93.88
394.331	98.88
394.556	75.88
394.78	88.88
395.005	92.88
395.229	96.88
395.454	94.88
395.678	86.88
395.903	84.88
396.127	80.88
396.352	89.88
396.576	96.88
396.801	102.88
397.025	88.88
397.249	98.88
397.474	100.88
397.698	98.88
397.922	104.88
398.147	85.88
398.371	90.88
398.595	91.88
398.82	75.88
399.044	91.88
399.268	92.88
399.492	86.88
399.717	94.88
399.941	98.88
400.165	107.88
400.389	76.88
400.613	85.88
400.837	76.88
401.062	84.88
401.286	86.88
401.51	83.88
401.734	84.88
401.958	105.88
402.182	135.88
402.406	129.88
402.63	112.88
402.854	92.88
403.078	94.88
403.302	78.88
403.526	99.88
403.75	78.88
403.974	82.88
404.198	87.88
404.422	96.88
404.645	83.88
404.869	92.88
405.093	86.88
405.317	109.88
405.541	88.88
405.765	94.88
405.988	103.88
406.212	139.88
406.436	180.88
406.66	116.88
406.883	97.88
407.107	92.88
407.331	113.88
407.555	106.88
407.778	90.88
408.002	93.88
408.226	78.88
408.449	90.88
408.673	106.88
408.896	81.88
409.12	88.88
409.344	105.88
409.567	77.88
409.791	98.88
410.014	102.88
410.238	85.88
410.461	105.88
410.685	94.88
410.908	85.88
411.132	99.88
411.355	94.88
411.578	93.88
411.802	88.88
412.025	90.88
412.249	100.88
412.472	82.88
412.695	72.88
412.919	91.88
413.142	89.88
413.365	102.88
413.589	86.88
413.812	105.88
414.035	90.88
414.258	85.88
414.482	85.88
414.705	90.88
414.928	99.88
415.151	88.88
415.374	106.88
415.597	90.88
415.821	87.88
416.044	77.88
416.267	80.88
416.49	73.88
416.713	94.88
416.936	84.88
417.159	86.88
417.382	81.88
417.605	88.88
417.828	85.88
418.051	93.88
418.274	75.88
418.497	76.88
418.72	82.88
418.943	85.88
419.166	89.88
419.389	88.88
419.611	90.88
419.834	91.88
420.057	88.88
420.28	88.88
420.503	83.88
420.726	84.88
420.948	83.88
421.171	102.88
421.394	77.88
421.617	90.88
421.839	92.88
422.062	93.88
422.285	85.88
422.507	96.88
422.73	108.88
422.953	97.88
423.175	94.88
423.398	85.88
423.621	88.88
423.843	77.88
424.066	88.88
424.288	96.88
424.511	82.88
424.733	92.88
424.956	91.88
425.178	114.88
425.401	97.88
425.623	92.88
425.846	98.88
426.068	84.88
426.291	92.88
426.513	94.88
426.735	83.88
426.958	101.88
427.18	98.88
427.402	137.88
427.625	145.88
427.847	110.88
428.069	112.88
428.292	83.88
428.514	82.88
428.736	81.88
428.958	90.88
429.181	95.88
429.403	105.88
429.625	100.88
429.847	101.88
430.069	89.88
430.292	92.88
430.514	81.88
430.736	88.88
430.958	101.88
431.18	102.88
431.402	87.88
431.624	86.88
431.846	83.88
432.068	95.88
432.29	90.88
432.512	82.88
432.734	108.88
432.956	104.88
433.178	97.88
433.4	101.88
433.622	92.88
433.844	90.88
434.066	85.88
434.287	78.88
434.509	77.88
434.731	104.88
434.953	90.88
435.175	102.88
435.397	101.88
435.618	85.88
435.84	87.88
436.062	108.88
436.284	104.88
436.505	113.88
436.727	93.88
436.949	102.88
437.17	88.88
437.392	73.88
437.614	82.88
437.835	99.88
438.057	117.88
438.278	97.88
438.5	101.88
438.721	123.88
438.943	93.88
439.165	89.88
439.386	81.88
439.608	88.88
439.829	92.88
440.05	119.88
440.272	119.88
440.493	71.88
440.715	89.88
440.936	84.88
441.158	86.88
441.379	96.88
441.6	94.88
441.822	94.88
442.043	105.88
442.264	101.88
442.486	96.88
442.707	81.88
442.928	107.88
443.149	132.88
443.371	109.88
443.592	101.88
443.813	121.88
444.034	99.88
444.255	89.88
444.476	92.88
444.698	90.88
444.919	91.88
445.14	144.88
445.361	123.88
445.582	112.88
445.803	120.88
446.024	124.88
446.245	120.88
446.466	95.88
446.687	86.88
446.908	77.88
447.129	87.88
447.35	90.88
447.571	96.88
447.792	89.88
448.013	96.88
448.234	108.88
448.455	87.88
448.675	120.88
448.896	124.88
449.117	110.88
449.338	100.88
449.559	114.88
449.779	122.88
450	103.88
450.221	77.88
450.442	90.88
450.662	91.88
450.883	101.88
451.104	93.88
451.324	103.88
451.545	82.88
451.766	96.88
451.986	76.88
452.207	99.88
452.428	91.88
452.648	98.88
452.869	106.88
453.089	108.88
453.31	99.88
453.53	99.88
453.751	108.88
453.971	101.88
454.192	105.88
454.412	90.88
454.633	83.88
454.853	75.88
455.073	98.88
455.294	88.88
455.514	108.88
455.734	74.88
455.955	75.88
456.175	92.88
456.395	74.88
456.616	81.88
456.836	87.88
457.056	75.88
457.276	87.88
457.497	74.88
457.717	86.88
457.937	90.88
458.157	85.88
458.377	98.88
458.598	104.88
458.818	131.88
459.038	140.88
459.258	108.88
459.478	93.88
459.698	90.88
459.918	89.88
460.138	86.88
460.358	85.88
460.578	91.88
460.798	88.88
461.018	84.88
461.238	88.88
461.458	84.88
461.678	98.88
461.898	84.88
462.118	93.88
462.338	79.88
462.558	89.88
462.777	71.88
462.997	84.88
463.217	92.88
463.437	96.88
463.657	90.88
463.876	104.88
464.096	98.88
464.316	86.88
464.536	91.88
464.755	100.88
464.975	88.88
465.195	141.88
465.414	155.88
465.634	96.88
465.854	85.88
466.073	82.88
466.293	91.88
466.512	98.88
466.732	98.88
466.951	99.88
467.171	82.88
467.391	86.88
467.61	89.88
467.829	94.88
468.049	70.88
468.268	79.88
468.488	91.88
468.707	82.88
468.927	92.88
469.146	83.88
469.365	73.88
469.585	98.88
469.804	95.88
470.023	98.88
470.243	93.88
470.462	86.88
470.681	103.88
470.901	98.88
471.12	81.88
471.339	99.88
471.558	100.88
471.777	91.88
471.997	99.88
472.216	95.88
472.435	115.88
472.654	89.88
472.873	88.88
473.092	78.88
473.311	84.88
473.53	101.88
473.749	95.88
473.968	108.88
474.187	101.88
474.406	100.88
474.625	91.88
474.844	74.88
475.063	98.88
475.282	93.88
475.501	93.88
475.72	91.88
475.939	97.88
476.158	85.88
476.377	85.88
476.596	94.88
476.814	89.88
477.033	82.88
477.252	81.88
477.471	94.88
477.69	84.88
477.908	88.88
478.127	101.88
478.346	71.88
478.564	92.88
478.783	87.88
479.002	82.88
479.22	108.88
479.439	101.88
479.658	98.88
479.876	89.88
480.095	94.88
480.313	88.88
480.532	81.88
480.751	102.88
480.969	92.88
481.188	149.88
481.406	114.88
481.624	97.88
481.843	82.88
482.061	86.88
482.28	97.88
482.498	94.88
482.717	86.88
482.935	96.88
483.153	94.88
483.372	91.88
483.59	93.88
483.808	100.88
484.027	78.88
484.245	94.88
484.463	92.88
484.681	99.88
484.9	88.88
485.118	88.88
485.336	94.88
485.554	99.88
485.772	99.88
485.99	94.88
486.209	117.88
486.427	90.88
486.645	100.88
486.863	102.88
487.081	103.88
487.299	90.88
487.517	95.88
487.735	85.88
487.953	99.88
488.171	85.88
488.389	106.88
488.607	93.88
488.825	86.88
489.043	96.88
489.261	105.88
489.479	95.88
489.696	85.88
489.914	91.88
490.132	78.88
490.35	88.88
490.568	84.88
490.786	81.88
491.003	78.88
491.221	88.88
491.439	96.88
491.657	104.88
491.874	100.88
492.092	92.88
492.31	75.88
492.527	92.88
492.745	100.88
492.963	93.88
493.18	86.88
493.398	83.88
493.615	96.88
493.833	85.88
494.05	88.88
494.268	84.88
494.485	97.88
494.703	94.88
494.92	81.88
495.138	92.88
495.355	103.88
495.573	94.88
495.79	81.88
496.008	82.88
496.225	85.88
496.442	85.88
496.66	101.88
496.877	85.88
497.094	83.88
497.312	91.88
497.529	97.88
497.746	88.88
497.963	91.88
498.181	93.88
498.398	102.88
498.615	110.88
498.832	83.88
499.049	90.88
499.267	93.88
499.484	91.88
499.701	97.88
499.918	104.88
500.135	82.88
500.352	87.88
500.569	90.88
500.786	91.88
501.003	101.88
501.22	99.88
501.437	85.88
501.654	72.88
501.871	99.88
502.088	78.88
502.305	93.88
502.522	108.88
502.739	100.88
502.956	96.88
503.172	84.88
503.389	90.88
503.606	95.88
503.823	88.88
504.04	91.88
504.256	91.88
504.473	75.88
504.69	90.88
504.907	89.88
505.123	94.88
505.34	94.88
505.557	76.88
505.773	93.88
505.99	80.88
506.207	94.88
506.423	106.88
506.64	96.88
506.856	93.88
507.073	100.88
507.289	113.88
507.506	103.88
507.722	103.88
507.939	91.88
508.155	68.88
508.372	91.88
508.588	86.88
508.805	93.88
509.021	100.88
509.238	88.88
509.454	93.88
509.67	105.88
509.887	111.88
510.103	115.88
510.319	193.88
510.536	648.88
510.752	1967.88
510.968	551.88
511.184	140.88
511.401	109.88
511.617	81.88
511.833	98.88
512.049	101.88
512.265	90.88
512.481	102.88
512.698	95.88
512.914	87.88
513.13	86.88
513.346	100.88
513.562	103.88
513.778	100.88
513.994	84.88
514.21	97.88
514.426	116.88
514.642	124.88
514.858	122.88
515.074	130.88
515.29	354.88
515.506	1146.88
