Data from Uncirc_1985_H10_HRD10591_00019.txt Node
Date: Wed Jan 03 12:18:21 EST 2024
User: Yrep
Spectrometer: HR+D1059
Trigger mode: 1
Integration Time (sec): 1.000000E-1
Scans to average: 1
Electric dark correction enabled: true
Nonlinearity correction enabled: false
Boxcar width: 0
XAxis mode: Wavelengths
Number of Pixels in Spectrum: 2048
>>>>>Begin Spectral Data<<<<<
223.165	-14.88
223.4	-14.88
223.635	-14.88
223.869	-13.88
224.104	-16.88
224.338	-12.88
224.573	-17.88
224.808	-13.88
225.042	-1.88
225.277	8.12
225.511	-0.88
225.746	-1.88
225.98	16.12
226.215	-0.88
226.449	13.12
226.683	20.12
226.918	19.12
227.152	19.12
227.387	34.12
227.621	40.12
227.856	52.12
228.09	46.12
228.324	53.12
228.559	59.12
228.793	46.12
229.027	69.12
229.262	68.12
229.496	66.12
229.73	88.12
229.964	85.12
230.199	82.12
230.433	69.12
230.667	88.12
230.901	79.12
231.136	80.12
231.37	81.12
231.604	74.12
231.838	83.12
232.072	88.12
232.306	90.12
232.541	102.12
232.775	92.12
233.009	90.12
233.243	79.12
233.477	69.12
233.711	85.12
233.945	71.12
234.179	95.12
234.413	81.12
234.647	79.12
234.881	97.12
235.115	83.12
235.349	97.12
235.583	83.12
235.817	80.12
236.051	92.12
236.285	77.12
236.519	81.12
236.753	77.12
236.987	93.12
237.221	77.12
237.455	80.12
237.689	75.12
237.922	89.12
238.156	81.12
238.39	78.12
238.624	85.12
238.858	76.12
239.091	65.12
239.325	86.12
239.559	83.12
239.793	81.12
240.027	73.12
240.26	90.12
240.494	85.12
240.728	74.12
240.961	90.12
241.195	70.12
241.429	78.12
241.662	73.12
241.896	79.12
242.13	93.12
242.363	83.12
242.597	82.12
242.83	84.12
243.064	85.12
243.298	77.12
243.531	82.12
243.765	77.12
243.998	92.12
244.232	99.12
244.465	91.12
244.699	68.12
244.932	81.12
245.166	69.12
245.399	79.12
245.633	83.12
245.866	73.12
246.099	86.12
246.333	89.12
246.566	87.12
246.8	86.12
247.033	91.12
247.266	92.12
247.5	63.12
247.733	81.12
247.966	84.12
248.2	78.12
248.433	85.12
248.666	82.12
248.899	81.12
249.133	77.12
249.366	107.12
249.599	104.12
249.832	81.12
250.066	89.12
250.299	82.12
250.532	70.12
250.765	77.12
250.998	74.12
251.231	86.12
251.465	102.12
251.698	84.12
251.931	73.12
252.164	73.12
252.397	69.12
252.63	81.12
252.863	76.12
253.096	99.12
253.329	78.12
253.562	89.12
253.795	77.12
254.028	77.12
254.261	101.12
254.494	92.12
254.727	92.12
254.96	93.12
255.193	85.12
255.426	79.12
255.659	81.12
255.892	83.12
256.124	77.12
256.357	84.12
256.59	85.12
256.823	89.12
257.056	83.12
257.289	81.12
257.521	86.12
257.754	81.12
257.987	74.12
258.22	86.12
258.452	92.12
258.685	89.12
258.918	88.12
259.151	95.12
259.383	82.12
259.616	83.12
259.849	70.12
260.081	67.12
260.314	87.12
260.547	79.12
260.779	89.12
261.012	83.12
261.244	91.12
261.477	93.12
261.71	76.12
261.942	111.12
262.175	107.12
262.407	82.12
262.64	95.12
262.872	105.12
263.105	77.12
263.337	78.12
263.57	77.12
263.802	79.12
264.035	80.12
264.267	76.12
264.499	81.12
264.732	90.12
264.964	72.12
265.197	99.12
265.429	85.12
265.661	88.12
265.894	68.12
266.126	86.12
266.358	90.12
266.591	103.12
266.823	81.12
267.055	78.12
267.287	83.12
267.52	85.12
267.752	100.12
267.984	75.12
268.216	87.12
268.448	81.12
268.681	77.12
268.913	79.12
269.145	74.12
269.377	76.12
269.609	84.12
269.841	96.12
270.073	78.12
270.306	85.12
270.538	102.12
270.77	84.12
271.002	84.12
271.234	80.12
271.466	86.12
271.698	85.12
271.93	86.12
272.162	83.12
272.394	88.12
272.626	86.12
272.858	81.12
273.09	91.12
273.322	86.12
273.553	74.12
273.785	77.12
274.017	87.12
274.249	85.12
274.481	79.12
274.713	81.12
274.945	89.12
275.176	72.12
275.408	87.12
275.64	84.12
275.872	98.12
276.104	100.12
276.335	75.12
276.567	108.12
276.799	110.12
277.031	84.12
277.262	89.12
277.494	82.12
277.726	94.12
277.957	105.12
278.189	87.12
278.421	90.12
278.652	93.12
278.884	79.12
279.115	91.12
279.347	85.12
279.579	87.12
279.81	84.12
280.042	75.12
280.273	95.12
280.505	78.12
280.736	93.12
280.968	93.12
281.199	79.12
281.431	95.12
281.662	90.12
281.894	89.12
282.125	105.12
282.356	118.12
282.588	134.12
282.819	100.12
283.051	103.12
283.282	95.12
283.513	81.12
283.745	86.12
283.976	92.12
284.207	101.12
284.439	85.12
284.67	93.12
284.901	73.12
285.132	99.12
285.364	81.12
285.595	81.12
285.826	98.12
286.057	101.12
286.288	86.12
286.52	102.12
286.751	83.12
286.982	83.12
287.213	97.12
287.444	74.12
287.675	101.12
287.906	88.12
288.138	98.12
288.369	93.12
288.6	85.12
288.831	93.12
289.062	91.12
289.293	87.12
289.524	86.12
289.755	90.12
289.986	85.12
290.217	89.12
290.448	80.12
290.679	94.12
290.91	100.12
291.141	90.12
291.371	97.12
291.602	78.12
291.833	87.12
292.064	87.12
292.295	95.12
292.526	120.12
292.757	89.12
292.987	86.12
293.218	90.12
293.449	99.12
293.68	99.12
293.91	88.12
294.141	91.12
294.372	93.12
294.603	93.12
294.833	84.12
295.064	93.12
295.295	92.12
295.525	84.12
295.756	86.12
295.987	110.12
296.217	131.12
296.448	121.12
296.679	88.12
296.909	99.12
297.14	97.12
297.37	95.12
297.601	94.12
297.831	83.12
298.062	84.12
298.292	76.12
298.523	88.12
298.753	80.12
298.984	83.12
299.214	99.12
299.445	85.12
299.675	88.12
299.905	82.12
300.136	92.12
300.366	93.12
300.597	87.12
300.827	98.12
301.057	95.12
301.288	111.12
301.518	109.12
301.748	91.12
301.979	108.12
302.209	91.12
302.439	81.12
302.669	77.12
302.9	83.12
303.13	101.12
303.36	96.12
303.59	94.12
303.82	94.12
304.051	94.12
304.281	103.12
304.511	94.12
304.741	104.12
304.971	97.12
305.201	90.12
305.431	88.12
305.661	95.12
305.891	103.12
306.121	109.12
306.352	90.12
306.582	90.12
306.812	108.12
307.042	103.12
307.272	103.12
307.502	103.12
307.731	98.12
307.961	89.12
308.191	90.12
308.421	97.12
308.651	75.12
308.881	102.12
309.111	94.12
309.341	101.12
309.571	89.12
309.8	98.12
310.03	99.12
310.26	95.12
310.49	83.12
310.72	109.12
310.949	116.12
311.179	97.12
311.409	91.12
311.639	97.12
311.868	93.12
312.098	89.12
312.328	104.12
312.557	95.12
312.787	107.12
313.017	85.12
313.246	97.12
313.476	92.12
313.706	100.12
313.935	110.12
314.165	97.12
314.394	107.12
314.624	93.12
314.853	92.12
315.083	96.12
315.312	91.12
315.542	88.12
315.771	93.12
316.001	93.12
316.23	88.12
316.46	87.12
316.689	96.12
316.919	99.12
317.148	104.12
317.377	96.12
317.607	101.12
317.836	89.12
318.065	85.12
318.295	92.12
318.524	96.12
318.753	85.12
318.983	106.12
319.212	90.12
319.441	106.12
319.67	105.12
319.9	87.12
320.129	85.12
320.358	100.12
320.587	85.12
320.816	95.12
321.046	112.12
321.275	107.12
321.504	99.12
321.733	102.12
321.962	95.12
322.191	104.12
322.42	100.12
322.649	115.12
322.878	107.12
323.108	121.12
323.337	96.12
323.566	131.12
323.795	148.12
324.024	188.12
324.253	361.12
324.482	752.12
324.71	1520.12
324.939	1965.12
325.168	742.12
325.397	223.12
325.626	155.12
325.855	118.12
326.084	132.12
326.313	136.12
326.542	163.12
326.77	203.12
326.999	425.12
327.228	843.12
327.457	1539.12
327.686	1280.12
327.914	348.12
328.143	173.12
328.372	133.12
328.6	127.12
328.829	96.12
329.058	130.12
329.287	124.12
329.515	101.12
329.744	98.12
329.972	117.12
330.201	106.12
330.43	110.12
330.658	127.12
330.887	140.12
331.115	111.12
331.344	109.12
331.572	94.12
331.801	89.12
332.03	97.12
332.258	106.12
332.486	96.12
332.715	105.12
332.943	92.12
333.172	93.12
333.4	98.12
333.629	89.12
333.857	99.12
334.085	97.12
334.314	104.12
334.542	106.12
334.771	111.12
334.999	96.12
335.227	92.12
335.455	102.12
335.684	89.12
335.912	94.12
336.14	107.12
336.369	104.12
336.597	95.12
336.825	101.12
337.053	107.12
337.281	78.12
337.51	81.12
337.738	100.12
337.966	94.12
338.194	94.12
338.422	95.12
338.65	104.12
338.878	81.12
339.106	87.12
339.334	93.12
339.562	90.12
339.79	108.12
340.018	96.12
340.246	90.12
340.474	102.12
340.702	104.12
340.93	101.12
341.158	91.12
341.386	101.12
341.614	105.12
341.842	92.12
342.07	105.12
342.298	103.12
342.526	100.12
342.754	96.12
342.981	102.12
343.209	94.12
343.437	96.12
343.665	101.12
343.893	101.12
344.12	89.12
344.348	103.12
344.576	85.12
344.804	86.12
345.031	104.12
345.259	101.12
345.487	89.12
345.714	102.12
345.942	89.12
346.17	98.12
346.397	99.12
346.625	92.12
346.853	79.12
347.08	94.12
347.308	81.12
347.535	94.12
347.763	105.12
347.99	106.12
348.218	91.12
348.445	99.12
348.673	93.12
348.9	101.12
349.128	104.12
349.355	91.12
349.583	84.12
349.81	86.12
350.037	90.12
350.265	85.12
350.492	89.12
350.72	93.12
350.947	93.12
351.174	106.12
351.402	101.12
351.629	102.12
351.856	97.12
352.083	105.12
352.311	104.12
352.538	118.12
352.765	107.12
352.992	119.12
353.22	116.12
353.447	109.12
353.674	108.12
353.901	106.12
354.128	99.12
354.355	80.12
354.583	104.12
354.81	98.12
355.037	83.12
355.264	103.12
355.491	99.12
355.718	94.12
355.945	111.12
356.172	98.12
356.399	85.12
356.626	103.12
356.853	91.12
357.08	90.12
357.307	96.12
357.534	102.12
357.761	100.12
357.988	92.12
358.215	98.12
358.441	87.12
358.668	85.12
358.895	97.12
359.122	90.12
359.349	93.12
359.576	90.12
359.802	92.12
360.029	113.12
360.256	121.12
360.483	106.12
360.709	88.12
360.936	114.12
361.163	98.12
361.39	85.12
361.616	84.12
361.843	86.12
362.07	96.12
362.296	97.12
362.523	97.12
362.749	107.12
362.976	101.12
363.203	101.12
363.429	87.12
363.656	125.12
363.882	93.12
364.109	79.12
364.335	90.12
364.562	95.12
364.788	82.12
365.015	94.12
365.241	89.12
365.468	115.12
365.694	109.12
365.92	101.12
366.147	83.12
366.373	93.12
366.599	87.12
366.826	93.12
367.052	102.12
367.278	92.12
367.505	92.12
367.731	86.12
367.957	100.12
368.184	96.12
368.41	114.12
368.636	117.12
368.862	110.12
369.089	113.12
369.315	99.12
369.541	99.12
369.767	102.12
369.993	81.12
370.219	81.12
370.445	98.12
370.672	85.12
370.898	102.12
371.124	95.12
371.35	97.12
371.576	102.12
371.802	93.12
372.028	97.12
372.254	97.12
372.48	92.12
372.706	89.12
372.932	94.12
373.158	91.12
373.384	68.12
373.61	96.12
373.835	91.12
374.061	88.12
374.287	99.12
374.513	88.12
374.739	85.12
374.965	90.12
375.191	81.12
375.416	95.12
375.642	97.12
375.868	86.12
376.094	98.12
376.319	87.12
376.545	91.12
376.771	87.12
376.997	71.12
377.222	93.12
377.448	96.12
377.674	95.12
377.899	89.12
378.125	91.12
378.35	94.12
378.576	105.12
378.802	106.12
379.027	92.12
379.253	84.12
379.478	90.12
379.704	91.12
379.929	93.12
380.155	83.12
380.38	99.12
380.606	88.12
380.831	85.12
381.057	103.12
381.282	97.12
381.507	93.12
381.733	103.12
381.958	90.12
382.184	91.12
382.409	105.12
382.634	94.12
382.86	106.12
383.085	95.12
383.31	106.12
383.535	108.12
383.761	104.12
383.986	94.12
384.211	106.12
384.436	102.12
384.662	100.12
384.887	106.12
385.112	103.12
385.337	97.12
385.562	112.12
385.787	101.12
386.013	108.12
386.238	111.12
386.463	111.12
386.688	101.12
386.913	99.12
387.138	108.12
387.363	100.12
387.588	103.12
387.813	99.12
388.038	110.12
388.263	123.12
388.488	106.12
388.713	89.12
388.938	81.12
389.163	93.12
389.387	99.12
389.612	103.12
389.837	103.12
390.062	101.12
390.287	105.12
390.512	102.12
390.736	87.12
390.961	86.12
391.186	84.12
391.411	105.12
391.636	92.12
391.86	87.12
392.085	90.12
392.31	79.12
392.534	92.12
392.759	71.12
392.984	81.12
393.208	95.12
393.433	106.12
393.658	91.12
393.882	91.12
394.107	100.12
394.331	89.12
394.556	79.12
394.78	95.12
395.005	79.12
395.229	98.12
395.454	89.12
395.678	101.12
395.903	86.12
396.127	93.12
396.352	91.12
396.576	105.12
396.801	96.12
397.025	100.12
397.249	85.12
397.474	87.12
397.698	91.12
397.922	88.12
398.147	99.12
398.371	82.12
398.595	79.12
398.82	85.12
399.044	91.12
399.268	79.12
399.492	106.12
399.717	91.12
399.941	85.12
400.165	87.12
400.389	86.12
400.613	99.12
400.837	97.12
401.062	97.12
401.286	92.12
401.51	89.12
401.734	98.12
401.958	100.12
402.182	124.12
402.406	149.12
402.63	111.12
402.854	93.12
403.078	99.12
403.302	86.12
403.526	102.12
403.75	85.12
403.974	77.12
404.198	83.12
404.422	85.12
404.645	83.12
404.869	84.12
405.093	91.12
405.317	89.12
405.541	98.12
405.765	94.12
405.988	116.12
406.212	158.12
406.436	200.12
406.66	128.12
406.883	96.12
407.107	97.12
407.331	103.12
407.555	93.12
407.778	106.12
408.002	89.12
408.226	89.12
408.449	89.12
408.673	91.12
408.896	93.12
409.12	86.12
409.344	93.12
409.567	103.12
409.791	84.12
410.014	100.12
410.238	94.12
410.461	97.12
410.685	114.12
410.908	98.12
411.132	104.12
411.355	96.12
411.578	74.12
411.802	89.12
412.025	85.12
412.249	90.12
412.472	86.12
412.695	98.12
412.919	91.12
413.142	92.12
413.365	95.12
413.589	95.12
413.812	93.12
414.035	88.12
414.258	91.12
414.482	104.12
414.705	87.12
414.928	93.12
415.151	77.12
415.374	89.12
415.597	98.12
415.821	94.12
416.044	78.12
416.267	94.12
416.49	85.12
416.713	98.12
416.936	102.12
417.159	101.12
417.382	87.12
417.605	98.12
417.828	97.12
418.051	91.12
418.274	93.12
418.497	85.12
418.72	89.12
418.943	98.12
419.166	82.12
419.389	93.12
419.611	85.12
419.834	80.12
420.057	92.12
420.28	82.12
420.503	77.12
420.726	94.12
420.948	93.12
421.171	100.12
421.394	103.12
421.617	83.12
421.839	105.12
422.062	88.12
422.285	100.12
422.507	97.12
422.73	98.12
422.953	84.12
423.175	96.12
423.398	85.12
423.621	89.12
423.843	86.12
424.066	93.12
424.288	90.12
424.511	92.12
424.733	103.12
424.956	101.12
425.178	106.12
425.401	93.12
425.623	94.12
425.846	89.12
426.068	95.12
426.291	96.12
426.513	95.12
426.735	82.12
426.958	96.12
427.18	95.12
427.402	117.12
427.625	157.12
427.847	133.12
428.069	96.12
428.292	97.12
428.514	88.12
428.736	79.12
428.958	103.12
429.181	90.12
429.403	93.12
429.625	90.12
429.847	85.12
430.069	93.12
430.292	101.12
430.514	86.12
430.736	90.12
430.958	101.12
431.18	88.12
431.402	102.12
431.624	97.12
431.846	95.12
432.068	90.12
432.29	78.12
432.512	86.12
432.734	92.12
432.956	82.12
433.178	102.12
433.4	102.12
433.622	99.12
433.844	91.12
434.066	84.12
434.287	89.12
434.509	93.12
434.731	90.12
434.953	85.12
435.175	89.12
435.397	92.12
435.618	88.12
435.84	113.12
436.062	112.12
436.284	117.12
436.505	104.12
436.727	115.12
436.949	93.12
437.17	89.12
437.392	93.12
437.614	90.12
437.835	99.12
438.057	118.12
438.278	108.12
438.5	110.12
438.721	117.12
438.943	103.12
439.165	95.12
439.386	100.12
439.608	93.12
439.829	100.12
440.05	111.12
440.272	114.12
440.493	99.12
440.715	105.12
440.936	93.12
441.158	102.12
441.379	100.12
441.6	100.12
441.822	102.12
442.043	97.12
442.264	95.12
442.486	94.12
442.707	103.12
442.928	94.12
443.149	127.12
443.371	138.12
443.592	122.12
443.813	101.12
444.034	106.12
444.255	99.12
444.476	91.12
444.698	87.12
444.919	81.12
445.14	134.12
445.361	109.12
445.582	115.12
445.803	112.12
446.024	132.12
446.245	121.12
446.466	123.12
446.687	104.12
446.908	91.12
447.129	78.12
447.35	78.12
447.571	91.12
447.792	78.12
448.013	101.12
448.234	91.12
448.455	101.12
448.675	117.12
448.896	113.12
449.117	102.12
449.338	87.12
449.559	121.12
449.779	132.12
450	99.12
450.221	111.12
450.442	90.12
450.662	91.12
450.883	110.12
451.104	117.12
451.324	95.12
451.545	90.12
451.766	76.12
451.986	90.12
452.207	102.12
452.428	91.12
452.648	108.12
452.869	97.12
453.089	118.12
453.31	111.12
453.53	83.12
453.751	102.12
453.971	108.12
454.192	106.12
454.412	79.12
454.633	92.12
454.853	74.12
455.073	92.12
455.294	88.12
455.514	108.12
455.734	96.12
455.955	97.12
456.175	89.12
456.395	86.12
456.616	102.12
456.836	92.12
457.056	89.12
457.276	78.12
457.497	89.12
457.717	99.12
457.937	84.12
458.157	93.12
458.377	90.12
458.598	116.12
458.818	140.12
459.038	145.12
459.258	110.12
459.478	87.12
459.698	91.12
459.918	99.12
460.138	102.12
460.358	101.12
460.578	97.12
460.798	89.12
461.018	91.12
461.238	98.12
461.458	84.12
461.678	88.12
461.898	109.12
462.118	85.12
462.338	86.12
462.558	73.12
462.777	93.12
462.997	92.12
463.217	70.12
463.437	93.12
463.657	89.12
463.876	89.12
464.096	95.12
464.316	88.12
464.536	90.12
464.755	99.12
464.975	112.12
465.195	133.12
465.414	141.12
465.634	92.12
465.854	109.12
466.073	106.12
466.293	90.12
466.512	92.12
466.732	84.12
466.951	94.12
467.171	106.12
467.391	104.12
467.61	101.12
467.829	100.12
468.049	95.12
468.268	99.12
468.488	89.12
468.707	84.12
468.927	93.12
469.146	94.12
469.365	97.12
469.585	81.12
469.804	89.12
470.023	104.12
470.243	93.12
470.462	103.12
470.681	81.12
470.901	78.12
471.12	102.12
471.339	92.12
471.558	86.12
471.777	82.12
471.997	76.12
472.216	115.12
472.435	112.12
472.654	103.12
472.873	85.12
473.092	87.12
473.311	102.12
473.53	83.12
473.749	96.12
473.968	104.12
474.187	91.12
474.406	97.12
474.625	88.12
474.844	83.12
475.063	87.12
475.282	98.12
475.501	96.12
475.72	93.12
475.939	101.12
476.158	105.12
476.377	91.12
476.596	86.12
476.814	83.12
477.033	97.12
477.252	93.12
477.471	87.12
477.69	101.12
477.908	85.12
478.127	99.12
478.346	96.12
478.564	103.12
478.783	102.12
479.002	96.12
479.22	90.12
479.439	91.12
479.658	104.12
479.876	92.12
480.095	90.12
480.313	78.12
480.532	105.12
480.751	94.12
480.969	98.12
481.188	126.12
481.406	117.12
481.624	91.12
481.843	95.12
482.061	86.12
482.28	89.12
482.498	97.12
482.717	70.12
482.935	95.12
483.153	99.12
483.372	87.12
483.59	95.12
483.808	115.12
484.027	95.12
484.245	85.12
484.463	89.12
484.681	78.12
484.9	93.12
485.118	95.12
485.336	94.12
485.554	98.12
485.772	99.12
485.99	105.12
486.209	104.12
486.427	109.12
486.645	117.12
486.863	110.12
487.081	107.12
487.299	98.12
487.517	97.12
487.735	93.12
487.953	88.12
488.171	94.12
488.389	95.12
488.607	93.12
488.825	97.12
489.043	89.12
489.261	90.12
489.479	86.12
489.696	103.12
489.914	94.12
490.132	92.12
490.35	115.12
490.568	96.12
490.786	93.12
491.003	88.12
491.221	86.12
491.439	93.12
491.657	96.12
491.874	87.12
492.092	101.12
492.31	106.12
492.527	85.12
492.745	104.12
492.963	93.12
493.18	101.12
493.398	89.12
493.615	90.12
493.833	110.12
494.05	89.12
494.268	86.12
494.485	88.12
494.703	85.12
494.92	95.12
495.138	92.12
495.355	85.12
495.573	111.12
495.79	83.12
496.008	104.12
496.225	109.12
496.442	101.12
496.66	94.12
496.877	89.12
497.094	99.12
497.312	108.12
497.529	81.12
497.746	89.12
497.963	89.12
498.181	94.12
498.398	95.12
498.615	119.12
498.832	103.12
499.049	91.12
499.267	102.12
499.484	102.12
499.701	100.12
499.918	73.12
500.135	96.12
500.352	102.12
500.569	102.12
500.786	89.12
501.003	95.12
501.22	100.12
501.437	105.12
501.654	92.12
501.871	113.12
502.088	95.12
502.305	95.12
502.522	93.12
502.739	101.12
502.956	102.12
503.172	102.12
503.389	101.12
503.606	107.12
503.823	100.12
504.04	88.12
504.256	85.12
504.473	77.12
504.69	81.12
504.907	93.12
505.123	94.12
505.34	97.12
505.557	97.12
505.773	89.12
505.99	87.12
506.207	90.12
506.423	96.12
506.64	92.12
506.856	92.12
507.073	89.12
507.289	99.12
507.506	82.12
507.722	111.12
507.939	103.12
508.155	90.12
508.372	95.12
508.588	86.12
508.805	102.12
509.021	103.12
509.238	107.12
509.454	102.12
509.67	107.12
509.887	103.12
510.103	134.12
510.319	211.12
510.536	715.12
510.752	2147.12
510.968	585.12
511.184	141.12
511.401	119.12
511.617	108.12
511.833	91.12
512.049	107.12
512.265	92.12
512.481	98.12
512.698	94.12
512.914	91.12
513.13	104.12
513.346	99.12
513.562	100.12
513.778	97.12
513.994	92.12
514.21	114.12
514.426	120.12
514.642	137.12
