Data from Uncirc_1985_H10_HRD10591_00045.txt Node
Date: Wed Jan 03 12:18:26 EST 2024
User: Yrep
Spectrometer: HR+D1059
Trigger mode: 1
Integration Time (sec): 1.000000E-1
Scans to average: 1
Electric dark correction enabled: true
Nonlinearity correction enabled: false
Boxcar width: 0
XAxis mode: Wavelengths
Number of Pixels in Spectrum: 2048
>>>>>Begin Spectral Data<<<<<
223.165	-21
223.4	-21
223.635	-21
223.869	-30
224.104	-19
224.338	-18
224.573	-11
224.808	-5
225.042	0
225.277	-5
225.511	1
225.746	9
225.98	17
226.215	15
226.449	5
226.683	6
226.918	26
227.152	30
227.387	42
227.621	44
227.856	49
228.09	43
228.324	50
228.559	68
228.793	72
229.027	64
229.262	66
229.496	92
229.73	86
229.964	82
230.199	67
230.433	88
230.667	84
230.901	75
231.136	74
231.37	86
231.604	68
231.838	82
232.072	89
232.306	77
232.541	86
232.775	81
233.009	88
233.243	81
233.477	68
233.711	102
233.945	75
234.179	91
234.413	83
234.647	66
234.881	83
235.115	83
235.349	88
235.583	72
235.817	75
236.051	84
236.285	76
236.519	80
236.753	54
236.987	81
237.221	75
237.455	99
237.689	74
237.922	80
238.156	83
238.39	71
238.624	89
238.858	70
239.091	86
239.325	83
239.559	89
239.793	77
240.027	84
240.26	66
240.494	77
240.728	98
240.961	75
241.195	78
241.429	88
241.662	86
241.896	92
242.13	89
242.363	92
242.597	84
242.83	77
243.064	82
243.298	80
243.531	66
243.765	92
243.998	78
244.232	72
244.465	88
244.699	85
244.932	92
245.166	81
245.399	80
245.633	77
245.866	83
246.099	82
246.333	68
246.566	82
246.8	85
247.033	85
247.266	78
247.5	84
247.733	81
247.966	90
248.2	90
248.433	79
248.666	81
248.899	87
249.133	92
249.366	93
249.599	99
249.832	75
250.066	80
250.299	93
250.532	88
250.765	88
250.998	80
251.231	73
251.465	96
251.698	74
251.931	94
252.164	88
252.397	67
252.63	75
252.863	88
253.096	92
253.329	89
253.562	87
253.795	73
254.028	86
254.261	89
254.494	80
254.727	77
254.96	92
255.193	84
255.426	73
255.659	78
255.892	90
256.124	82
256.357	91
256.59	90
256.823	89
257.056	90
257.289	96
257.521	66
257.754	86
257.987	76
258.22	90
258.452	80
258.685	87
258.918	86
259.151	80
259.383	82
259.616	75
259.849	71
260.081	91
260.314	84
260.547	82
260.779	89
261.012	80
261.244	90
261.477	96
261.71	110
261.942	110
262.175	122
262.407	84
262.64	93
262.872	82
263.105	90
263.337	93
263.57	77
263.802	84
264.035	90
264.267	91
264.499	77
264.732	88
264.964	84
265.197	77
265.429	81
265.661	94
265.894	79
266.126	80
266.358	88
266.591	83
266.823	95
267.055	82
267.287	86
267.52	82
267.752	77
267.984	74
268.216	84
268.448	84
268.681	87
268.913	93
269.145	94
269.377	90
269.609	84
269.841	74
270.073	83
270.306	96
270.538	97
270.77	88
271.002	70
271.234	89
271.466	92
271.698	87
271.93	91
272.162	85
272.394	81
272.626	83
272.858	85
273.09	81
273.322	98
273.553	73
273.785	84
274.017	85
274.249	72
274.481	88
274.713	89
274.945	91
275.176	83
275.408	97
275.64	86
275.872	89
276.104	88
276.335	84
276.567	102
276.799	108
277.031	110
277.262	90
277.494	88
277.726	89
277.957	78
278.189	76
278.421	76
278.652	106
278.884	80
279.115	82
279.347	92
279.579	93
279.81	94
280.042	69
280.273	99
280.505	93
280.736	85
280.968	100
281.199	85
281.431	101
281.662	90
281.894	88
282.125	98
282.356	120
282.588	142
282.819	106
283.051	93
283.282	98
283.513	82
283.745	102
283.976	77
284.207	76
284.439	73
284.67	93
284.901	93
285.132	105
285.364	100
285.595	82
285.826	74
286.057	101
286.288	94
286.52	81
286.751	80
286.982	93
287.213	85
287.444	90
287.675	89
287.906	91
288.138	89
288.369	92
288.6	99
288.831	77
289.062	82
289.293	92
289.524	89
289.755	86
289.986	91
290.217	92
290.448	89
290.679	101
290.91	87
291.141	91
291.371	104
291.602	86
291.833	73
292.064	88
292.295	101
292.526	86
292.757	90
292.987	90
293.218	94
293.449	99
293.68	87
293.91	74
294.141	90
294.372	90
294.603	84
294.833	90
295.064	81
295.295	106
295.525	92
295.756	105
295.987	100
296.217	124
296.448	128
296.679	103
296.909	91
297.14	84
297.37	77
297.601	84
297.831	82
298.062	97
298.292	86
298.523	94
298.753	86
298.984	83
299.214	92
299.445	97
299.675	81
299.905	107
300.136	80
300.366	89
300.597	86
300.827	100
301.057	110
301.288	122
301.518	77
301.748	96
301.979	111
302.209	86
302.439	92
302.669	86
302.9	93
303.13	101
303.36	100
303.59	112
303.82	100
304.051	94
304.281	85
304.511	101
304.741	87
304.971	89
305.201	80
305.431	98
305.661	85
305.891	91
306.121	96
306.352	100
306.582	100
306.812	88
307.042	99
307.272	94
307.502	92
307.731	107
307.961	86
308.191	83
308.421	90
308.651	108
308.881	85
309.111	93
309.341	78
309.571	95
309.8	90
310.03	105
310.26	105
310.49	101
310.72	114
310.949	115
311.179	98
311.409	88
311.639	98
311.868	93
312.098	102
312.328	97
312.557	95
312.787	110
313.017	111
313.246	98
313.476	96
313.706	90
313.935	87
314.165	102
314.394	110
314.624	81
314.853	96
315.083	93
315.312	90
315.542	85
315.771	96
316.001	94
316.23	86
316.46	84
316.689	96
316.919	96
317.148	97
317.377	91
317.607	96
317.836	94
318.065	98
318.295	81
318.524	86
318.753	113
318.983	83
319.212	114
319.441	119
319.67	95
319.9	100
320.129	83
320.358	92
320.587	92
320.816	107
321.046	100
321.275	108
321.504	84
321.733	91
321.962	109
322.191	104
322.42	107
322.649	119
322.878	112
323.108	111
323.337	118
323.566	131
323.795	157
324.024	205
324.253	390
324.482	898
324.71	1847
324.939	2439
325.168	876
325.397	259
325.626	168
325.855	130
326.084	129
326.313	135
326.542	174
326.77	246
326.999	478
327.228	1028
327.457	1917
327.686	1496
327.914	395
328.143	179
328.372	160
328.6	140
328.829	117
329.058	129
329.287	127
329.515	115
329.744	110
329.972	92
330.201	114
330.43	150
330.658	130
330.887	156
331.115	118
331.344	108
331.572	113
331.801	100
332.03	98
332.258	99
332.486	102
332.715	89
332.943	89
333.172	98
333.4	108
333.629	113
333.857	132
334.085	127
334.314	118
334.542	133
334.771	141
334.999	104
335.227	82
335.455	100
335.684	100
335.912	106
336.14	96
336.369	98
336.597	89
336.825	91
337.053	97
337.281	100
337.51	100
337.738	92
337.966	100
338.194	108
338.422	89
338.65	94
338.878	92
339.106	92
339.334	101
339.562	98
339.79	88
340.018	103
340.246	89
340.474	88
340.702	77
340.93	91
341.158	76
341.386	90
341.614	99
341.842	103
342.07	93
342.298	90
342.526	95
342.754	98
342.981	89
343.209	100
343.437	100
343.665	104
343.893	91
344.12	99
344.348	95
344.576	92
344.804	98
345.031	88
345.259	108
345.487	97
345.714	93
345.942	96
346.17	84
346.397	101
346.625	96
346.853	109
347.08	104
347.308	90
347.535	99
347.763	91
347.99	110
348.218	102
348.445	116
348.673	104
348.9	94
349.128	82
349.355	94
349.583	106
349.81	101
350.037	94
350.265	88
350.492	107
350.72	84
350.947	98
351.174	106
351.402	113
351.629	103
351.856	100
352.083	95
352.311	105
352.538	121
352.765	129
352.992	115
353.22	97
353.447	103
353.674	109
353.901	99
354.128	108
354.355	80
354.583	115
354.81	99
355.037	98
355.264	96
355.491	116
355.718	101
355.945	97
356.172	94
356.399	103
356.626	101
356.853	107
357.08	92
357.307	102
357.534	91
357.761	86
357.988	97
358.215	88
358.441	96
358.668	89
358.895	80
359.122	80
359.349	105
359.576	89
359.802	89
360.029	124
360.256	121
360.483	108
360.709	98
360.936	93
361.163	92
361.39	91
361.616	99
361.843	91
362.07	110
362.296	93
362.523	89
362.749	69
362.976	93
363.203	91
363.429	105
363.656	100
363.882	77
364.109	102
364.335	96
364.562	93
364.788	86
365.015	94
365.241	99
365.468	108
365.694	105
365.92	98
366.147	100
366.373	89
366.599	93
366.826	96
367.052	88
367.278	98
367.505	84
367.731	92
367.957	90
368.184	98
368.41	90
368.636	130
368.862	119
369.089	109
369.315	100
369.541	91
369.767	106
369.993	80
370.219	93
370.445	80
370.672	93
370.898	94
371.124	105
371.35	83
371.576	98
371.802	90
372.028	80
372.254	94
372.48	91
372.706	87
372.932	105
373.158	101
373.384	95
373.61	84
373.835	92
374.061	94
374.287	89
374.513	92
374.739	85
374.965	75
375.191	93
375.416	97
375.642	80
375.868	92
376.094	99
376.319	83
376.545	93
376.771	73
376.997	89
377.222	94
377.448	87
377.674	91
377.899	93
378.125	94
378.35	91
378.576	86
378.802	91
379.027	94
379.253	91
379.478	84
379.704	82
379.929	92
380.155	100
380.38	86
380.606	94
380.831	95
381.057	91
381.282	94
381.507	92
381.733	98
381.958	105
382.184	103
382.409	109
382.634	99
382.86	92
383.085	92
383.31	105
383.535	109
383.761	96
383.986	98
384.211	105
384.436	106
384.662	102
384.887	89
385.112	103
385.337	93
385.562	92
385.787	88
386.013	115
386.238	105
386.463	108
386.688	121
386.913	94
387.138	103
387.363	88
387.588	89
387.813	81
388.038	89
388.263	95
388.488	109
388.713	91
388.938	100
389.163	104
389.387	93
389.612	102
389.837	108
390.062	93
390.287	90
390.512	85
390.736	90
390.961	84
391.186	90
391.411	98
391.636	84
391.86	94
392.085	88
392.31	96
392.534	75
392.759	88
392.984	80
393.208	91
393.433	88
393.658	84
393.882	93
394.107	90
394.331	93
394.556	84
394.78	96
395.005	91
395.229	94
395.454	80
395.678	89
395.903	90
396.127	88
396.352	92
396.576	74
396.801	101
397.025	107
397.249	99
397.474	88
397.698	89
397.922	85
398.147	86
398.371	90
398.595	104
398.82	94
399.044	96
399.268	100
399.492	95
399.717	101
399.941	99
400.165	112
400.389	77
400.613	91
400.837	92
401.062	91
401.286	86
401.51	97
401.734	105
401.958	101
402.182	128
402.406	171
402.63	109
402.854	88
403.078	84
403.302	78
403.526	92
403.75	98
403.974	100
404.198	93
404.422	86
404.645	96
404.869	82
405.093	97
405.317	99
405.541	96
405.765	103
405.988	115
406.212	176
406.436	238
406.66	155
406.883	106
407.107	100
407.331	104
407.555	97
407.778	94
408.002	100
408.226	74
408.449	90
408.673	110
408.896	106
409.12	103
409.344	101
409.567	96
409.791	100
410.014	92
410.238	87
410.461	99
410.685	107
410.908	102
411.132	110
411.355	89
411.578	93
411.802	93
412.025	97
412.249	88
412.472	90
412.695	95
412.919	93
413.142	74
413.365	99
413.589	98
413.812	88
414.035	98
414.258	87
414.482	86
414.705	104
414.928	89
415.151	82
415.374	91
415.597	104
415.821	95
416.044	99
416.267	77
416.49	86
416.713	88
416.936	100
417.159	97
417.382	103
417.605	92
417.828	91
418.051	107
418.274	97
418.497	90
418.72	97
418.943	89
419.166	80
419.389	89
419.611	89
419.834	84
420.057	88
420.28	81
420.503	84
420.726	98
420.948	88
421.171	94
421.394	90
421.617	89
421.839	96
422.062	82
422.285	86
422.507	99
422.73	113
422.953	92
423.175	95
423.398	88
423.621	74
423.843	82
424.066	90
424.288	91
424.511	85
424.733	99
424.956	124
425.178	105
425.401	94
425.623	101
425.846	99
426.068	96
426.291	97
426.513	90
426.735	104
426.958	103
427.18	113
427.402	133
427.625	172
427.847	127
428.069	107
428.292	91
428.514	97
428.736	100
428.958	97
429.181	80
429.403	82
429.625	96
429.847	96
430.069	100
430.292	78
430.514	99
430.736	92
430.958	73
431.18	98
431.402	85
431.624	84
431.846	78
432.068	84
432.29	87
432.512	101
432.734	103
432.956	98
433.178	107
433.4	101
433.622	101
433.844	93
434.066	91
434.287	89
434.509	94
434.731	82
434.953	90
435.175	100
435.397	97
435.618	99
435.84	95
436.062	116
436.284	136
436.505	97
436.727	97
436.949	102
437.17	94
437.392	69
437.614	96
437.835	114
438.057	137
438.278	123
438.5	116
438.721	104
438.943	97
439.165	88
439.386	92
439.608	77
439.829	105
440.05	126
440.272	156
440.493	95
440.715	100
440.936	92
441.158	90
441.379	85
441.6	89
441.822	90
442.043	101
442.264	120
442.486	90
442.707	98
442.928	125
443.149	139
443.371	129
443.592	100
443.813	122
444.034	116
444.255	95
444.476	88
444.698	97
444.919	85
445.14	133
445.361	128
445.582	115
445.803	158
446.024	133
446.245	137
446.466	114
446.687	85
446.908	97
447.129	112
447.35	86
447.571	98
447.792	100
448.013	102
448.234	97
448.455	106
448.675	120
448.896	106
449.117	90
449.338	102
449.559	140
449.779	139
450	112
450.221	96
450.442	96
450.662	97
450.883	100
451.104	118
451.324	86
451.545	93
451.766	99
451.986	102
452.207	99
452.428	91
452.648	101
452.869	121
453.089	102
453.31	121
453.53	98
453.751	96
453.971	109
454.192	113
454.412	100
454.633	96
454.853	89
455.073	83
455.294	92
455.514	110
455.734	84
455.955	96
456.175	95
456.395	82
456.616	95
456.836	85
457.056	83
457.276	94
457.497	97
457.717	97
457.937	102
458.157	83
458.377	94
458.598	111
458.818	168
459.038	153
459.258	120
459.478	89
459.698	83
459.918	87
460.138	104
460.358	89
460.578	99
460.798	85
461.018	99
461.238	94
461.458	76
461.678	90
461.898	90
462.118	89
462.338	91
462.558	100
462.777	85
462.997	89
463.217	84
463.437	91
463.657	92
463.876	89
464.096	85
464.316	90
464.536	95
464.755	106
464.975	112
465.195	177
465.414	157
465.634	101
465.854	89
466.073	86
466.293	93
466.512	86
466.732	81
466.951	86
467.171	99
467.391	96
467.61	104
467.829	105
468.049	98
468.268	89
468.488	87
468.707	100
468.927	89
469.146	95
469.365	90
469.585	91
469.804	101
470.023	113
470.243	102
470.462	108
470.681	110
470.901	91
471.12	83
471.339	98
471.558	94
471.777	115
471.997	106
472.216	118
472.435	141
472.654	110
472.873	93
473.092	99
473.311	82
473.53	91
473.749	95
473.968	89
474.187	109
474.406	108
474.625	97
474.844	88
475.063	97
475.282	92
475.501	102
475.72	93
475.939	82
476.158	88
476.377	92
476.596	89
476.814	91
477.033	99
477.252	94
477.471	93
477.69	97
477.908	105
478.127	93
478.346	103
478.564	96
478.783	109
479.002	112
479.22	85
479.439	100
479.658	103
479.876	99
480.095	105
480.313	94
480.532	98
480.751	104
480.969	102
481.188	196
481.406	151
481.624	89
481.843	94
482.061	90
482.28	84
482.498	80
482.717	94
482.935	90
483.153	98
483.372	83
483.59	79
483.808	88
484.027	84
484.245	87
484.463	85
484.681	96
484.9	104
485.118	100
485.336	90
485.554	106
485.772	102
485.99	116
486.209	100
486.427	112
486.645	114
486.863	116
487.081	98
487.299	88
487.517	94
487.735	108
487.953	97
488.171	91
488.389	104
488.607	92
488.825	101
489.043	101
489.261	99
489.479	84
489.696	88
489.914	85
490.132	100
490.35	93
490.568	97
490.786	100
491.003	90
491.221	86
491.439	93
491.657	109
491.874	112
492.092	86
492.31	88
492.527	94
492.745	105
492.963	92
493.18	88
493.398	80
493.615	108
493.833	105
494.05	91
494.268	105
494.485	85
494.703	89
494.92	81
495.138	98
495.355	84
495.573	98
495.79	82
496.008	90
496.225	91
496.442	101
496.66	102
496.877	93
497.094	96
497.312	94
497.529	92
497.746	98
497.963	78
498.181	82
498.398	96
498.615	111
498.832	107
499.049	100
499.267	98
499.484	107
499.701	96
499.918	90
500.135	85
500.352	97
500.569	102
500.786	99
501.003	83
501.22	72
501.437	93
501.654	94
501.871	114
502.088	101
502.305	88
502.522	92
502.739	89
502.956	90
503.172	85
503.389	86
503.606	96
503.823	107
504.04	98
504.256	96
504.473	83
504.69	87
504.907	106
505.123	93
505.34	81
505.557	91
505.773	96
505.99	85
506.207	98
506.423	85
506.64	84
506.856	96
507.073	112
507.289	94
507.506	104
507.722	125
507.939	122
508.155	96
508.372	86
508.588	109
508.805	100
509.021	114
509.238	98
509.454	102
509.67	114
509.887	101
510.103	147
510.319	219
510.536	834
510.752	2665
510.968	710
511.184	167
511.401	112
511.617	110
511.833	98
512.049	97
512.265	99
512.481	104
512.698	101
512.914	100
513.13	107
513.346	106
513.562	86
513.778	106
513.994	104
514.21	116
514.426	117
514.642	139
514.858	133
515.074	187
515.29	476
515.506	1639
515.721	590
515.937	173
516.153	109
516.369	89
516.585	90
516.801	102
517.016	100
517.232	110
517.448	99
517.664	97
517.879	89
518.095	97
518.311	99
518.527	100
518.742	108
518.958	90
519.173	93
519.389	86
519.605	98
519.82	100
520.036	104
520.251	126
520.467	121
520.682	112
520.898	117
521.113	114
521.329	157
521.544	219
521.76	628
521.975	2722
522.19	1574
522.406	323
522.621	130
522.836	106
523.052	98
523.267	106
523.482	106
523.698	114
523.913	130
524.128	114
524.343	107
524.559	100
524.774	87
524.989	100
525.204	109
525.419	108
525.634	90
525.849	98
526.064	90
526.28	90
526.495	108
526.71	105
526.925	92
527.14	96
527.355	93
527.57	98
527.785	96
527.999	96
528.214	83
528.429	97
528.644	101
528.859	89
529.074	96
529.289	131
529.503	195
529.718	106
529.933	78
530.148	97
530.363	91
530.577	78
530.792	88
531.007	96
531.221	90
531.436	93
531.651	88
531.865	86
532.08	94
532.295	97
532.509	99
532.724	98
532.938	103
533.153	100
533.367	85
533.582	94
533.796	99
534.011	95
534.225	92
534.44	82
534.654	91
534.868	84
535.083	88
535.297	91
535.511	104
535.726	106
535.94	102
536.154	96
536.369	98
536.583	94
536.797	86
537.011	100
537.225	92
537.44	91
537.654	103
537.868	91
538.082	96
538.296	93
538.51	84
538.724	90
538.938	93
539.153	86
539.367	116
539.581	98
539.795	107
540.009	92
540.222	87
540.436	86
540.65	84
540.864	91
541.078	107
541.292	95
541.506	100
541.72	94
541.934	96
542.147	95
542.361	85
542.575	89
542.789	88
543.002	91
543.216	97
543.43	114
543.644	94
543.857	99
544.071	95
544.285	101
544.498	95
544.712	104
544.925	88
545.139	85
545.352	85
545.566	98
545.779	91
545.993	99
546.206	76
546.42	84
546.633	97
546.847	100
547.06	94
547.274	84
547.487	97
547.7	90
547.914	82
548.127	81
548.34	97
548.554	97
548.767	99
548.98	88
549.193	103
549.407	72
549.62	82
549.833	90
550.046	100
550.259	95
550.473	88
550.686	80
550.899	89
551.112	110
551.325	84
551.538	83
551.751	101
551.964	100
552.177	83
552.39	100
552.603	79
552.816	96
553.029	101
553.242	87
553.455	94
553.667	117
553.88	101
554.093	83
554.306	98
554.519	94
554.732	83
554.944	95
555.157	90
555.37	110
555.583	89
555.795	94
556.008	96
556.221	81
556.433	101
556.646	88
556.859	102
557.071	109
557.284	94
557.496	93
557.709	86
557.921	87
558.134	100
558.346	96
558.559	93
558.771	82
558.984	108
559.196	91
559.409	90
559.621	83
559.833	61
560.046	94
560.258	85
560.47	91
560.683	96
560.895	93
561.107	88
561.32	92
561.532	85
561.744	91
561.956	84
562.168	74
562.381	86
562.593	101
562.805	97
563.017	99
563.229	89
563.441	82
563.653	85
563.865	85
564.077	99
564.289	85
564.501	81
564.713	99
564.925	96
565.137	90
565.349	92
565.561	89
565.773	88
565.985	82
566.197	76
566.408	84
566.62	97
566.832	94
567.044	107
567.255	99
567.467	86
567.679	76
567.891	97
568.102	86
568.314	84
568.526	98
568.737	84
568.949	98
569.161	100
569.372	91
569.584	92
569.795	92
570.007	121
570.218	249
570.43	136
570.641	94
570.853	80
571.064	91
571.276	82
571.487	93
571.698	85
571.91	78
572.121	100
572.333	102
572.544	99
572.755	86
572.966	89
573.178	101
573.389	88
573.6	89
573.811	85
574.023	85
574.234	81
574.445	82
574.656	91
574.867	98
575.078	94
575.289	92
575.501	95
575.712	90
575.923	93
576.134	87
576.345	86
576.556	93
576.767	88
576.978	98
577.188	84
577.399	96
577.61	85
577.821	104
578.032	119
578.243	285
578.454	858
578.665	241
578.875	108
579.086	85
579.297	89
579.508	87
579.718	86
579.929	91
580.14	61
580.35	80
580.561	85
580.772	93
580.982	110
581.193	93
581.403	98
581.614	93
581.825	92
582.035	93
582.246	100
582.456	94
