Data from Uncirc_1985_H10_HRD10591_00069.txt Node
Date: Wed Jan 03 12:18:31 EST 2024
User: Yrep
Spectrometer: HR+D1059
Trigger mode: 1
Integration Time (sec): 1.000000E-1
Scans to average: 1
Electric dark correction enabled: true
Nonlinearity correction enabled: false
Boxcar width: 0
XAxis mode: Wavelengths
Number of Pixels in Spectrum: 2048
>>>>>Begin Spectral Data<<<<<
223.165	-9.19
223.4	-9.19
223.635	-9.19
223.869	-23.19
224.104	-10.19
224.338	-15.19
224.573	-19.19
224.808	-15.19
225.042	-4.19
225.277	-13.19
225.511	-1.19
225.746	8.81
225.98	10.81
226.215	10.81
226.449	9.81
226.683	15.81
226.918	23.81
227.152	30.81
227.387	44.81
227.621	46.81
227.856	45.81
228.09	45.81
228.324	51.81
228.559	67.81
228.793	45.81
229.027	61.81
229.262	63.81
229.496	71.81
229.73	75.81
229.964	92.81
230.199	80.81
230.433	61.81
230.667	79.81
230.901	72.81
231.136	82.81
231.37	82.81
231.604	101.81
231.838	75.81
232.072	76.81
232.306	84.81
232.541	79.81
232.775	78.81
233.009	84.81
233.243	80.81
233.477	81.81
233.711	67.81
233.945	65.81
234.179	79.81
234.413	80.81
234.647	82.81
234.881	75.81
235.115	75.81
235.349	79.81
235.583	78.81
235.817	84.81
236.051	81.81
236.285	84.81
236.519	84.81
236.753	71.81
236.987	82.81
237.221	89.81
237.455	78.81
237.689	77.81
237.922	97.81
238.156	75.81
238.39	63.81
238.624	82.81
238.858	84.81
239.091	92.81
239.325	82.81
239.559	79.81
239.793	70.81
240.027	78.81
240.26	79.81
240.494	65.81
240.728	84.81
240.961	80.81
241.195	80.81
241.429	71.81
241.662	58.81
241.896	67.81
242.13	71.81
242.363	79.81
242.597	62.81
242.83	90.81
243.064	72.81
243.298	78.81
243.531	84.81
243.765	67.81
243.998	87.81
244.232	80.81
244.465	81.81
244.699	83.81
244.932	102.81
245.166	78.81
245.399	68.81
245.633	80.81
245.866	78.81
246.099	74.81
246.333	86.81
246.566	68.81
246.8	82.81
247.033	71.81
247.266	80.81
247.5	69.81
247.733	94.81
247.966	82.81
248.2	86.81
248.433	80.81
248.666	71.81
248.899	84.81
249.133	89.81
249.366	96.81
249.599	85.81
249.832	76.81
250.066	78.81
250.299	75.81
250.532	78.81
250.765	75.81
250.998	72.81
251.231	70.81
251.465	86.81
251.698	79.81
251.931	88.81
252.164	79.81
252.397	93.81
252.63	87.81
252.863	92.81
253.096	78.81
253.329	83.81
253.562	88.81
253.795	72.81
254.028	81.81
254.261	72.81
254.494	97.81
254.727	71.81
254.96	91.81
255.193	83.81
255.426	87.81
255.659	86.81
255.892	87.81
256.124	63.81
256.357	75.81
256.59	75.81
256.823	66.81
257.056	75.81
257.289	88.81
257.521	92.81
257.754	85.81
257.987	84.81
258.22	99.81
258.452	80.81
258.685	82.81
258.918	79.81
259.151	91.81
259.383	95.81
259.616	78.81
259.849	82.81
260.081	78.81
260.314	87.81
260.547	81.81
260.779	78.81
261.012	75.81
261.244	74.81
261.477	88.81
261.71	89.81
261.942	118.81
262.175	119.81
262.407	99.81
262.64	87.81
262.872	79.81
263.105	87.81
263.337	84.81
263.57	83.81
263.802	82.81
264.035	85.81
264.267	74.81
264.499	78.81
264.732	86.81
264.964	95.81
265.197	83.81
265.429	70.81
265.661	82.81
265.894	82.81
266.126	82.81
266.358	55.81
266.591	82.81
266.823	96.81
267.055	86.81
267.287	90.81
267.52	88.81
267.752	92.81
267.984	78.81
268.216	81.81
268.448	81.81
268.681	94.81
268.913	88.81
269.145	91.81
269.377	76.81
269.609	93.81
269.841	96.81
270.073	92.81
270.306	97.81
270.538	90.81
270.77	83.81
271.002	86.81
271.234	89.81
271.466	93.81
271.698	90.81
271.93	90.81
272.162	74.81
272.394	84.81
272.626	82.81
272.858	97.81
273.09	71.81
273.322	88.81
273.553	74.81
273.785	90.81
274.017	74.81
274.249	82.81
274.481	80.81
274.713	92.81
274.945	71.81
275.176	90.81
275.408	86.81
275.64	91.81
275.872	81.81
276.104	74.81
276.335	92.81
276.567	94.81
276.799	123.81
277.031	110.81
277.262	95.81
277.494	92.81
277.726	86.81
277.957	88.81
278.189	91.81
278.421	84.81
278.652	84.81
278.884	84.81
279.115	88.81
279.347	97.81
279.579	78.81
279.81	85.81
280.042	87.81
280.273	92.81
280.505	91.81
280.736	94.81
280.968	90.81
281.199	83.81
281.431	79.81
281.662	93.81
281.894	83.81
282.125	99.81
282.356	113.81
282.588	161.81
282.819	122.81
283.051	94.81
283.282	89.81
283.513	94.81
283.745	74.81
283.976	87.81
284.207	87.81
284.439	85.81
284.67	90.81
284.901	74.81
285.132	76.81
285.364	95.81
285.595	82.81
285.826	81.81
286.057	78.81
286.288	86.81
286.52	96.81
286.751	82.81
286.982	81.81
287.213	88.81
287.444	92.81
287.675	81.81
287.906	86.81
288.138	105.81
288.369	99.81
288.6	102.81
288.831	84.81
289.062	80.81
289.293	98.81
289.524	68.81
289.755	92.81
289.986	87.81
290.217	89.81
290.448	88.81
290.679	82.81
290.91	87.81
291.141	90.81
291.371	92.81
291.602	90.81
291.833	91.81
292.064	86.81
292.295	86.81
292.526	78.81
292.757	79.81
292.987	75.81
293.218	72.81
293.449	78.81
293.68	95.81
293.91	88.81
294.141	86.81
294.372	84.81
294.603	68.81
294.833	75.81
295.064	78.81
295.295	90.81
295.525	99.81
295.756	102.81
295.987	128.81
296.217	147.81
296.448	132.81
296.679	91.81
296.909	82.81
297.14	97.81
297.37	82.81
297.601	78.81
297.831	95.81
298.062	95.81
298.292	86.81
298.523	78.81
298.753	82.81
298.984	69.81
299.214	82.81
299.445	86.81
299.675	76.81
299.905	100.81
300.136	93.81
300.366	78.81
300.597	90.81
300.827	95.81
301.057	94.81
301.288	111.81
301.518	88.81
301.748	80.81
301.979	122.81
302.209	99.81
302.439	94.81
302.669	85.81
302.9	100.81
303.13	88.81
303.36	91.81
303.59	112.81
303.82	115.81
304.051	91.81
304.281	81.81
304.511	97.81
304.741	74.81
304.971	87.81
305.201	106.81
305.431	83.81
305.661	88.81
305.891	99.81
306.121	102.81
306.352	108.81
306.582	101.81
306.812	100.81
307.042	92.81
307.272	102.81
307.502	107.81
307.731	99.81
307.961	96.81
308.191	92.81
308.421	95.81
308.651	92.81
308.881	94.81
309.111	86.81
309.341	106.81
309.571	110.81
309.8	104.81
310.03	97.81
310.26	97.81
310.49	89.81
310.72	89.81
310.949	113.81
311.179	118.81
311.409	92.81
311.639	110.81
311.868	102.81
312.098	97.81
312.328	101.81
312.557	121.81
312.787	118.81
313.017	91.81
313.246	91.81
313.476	82.81
313.706	96.81
313.935	100.81
314.165	95.81
314.394	95.81
314.624	97.81
314.853	96.81
315.083	97.81
315.312	86.81
315.542	90.81
315.771	95.81
316.001	100.81
316.23	91.81
316.46	90.81
316.689	98.81
316.919	86.81
317.148	96.81
317.377	89.81
317.607	104.81
317.836	96.81
318.065	103.81
318.295	78.81
318.524	86.81
318.753	102.81
318.983	95.81
319.212	96.81
319.441	91.81
319.67	112.81
319.9	86.81
320.129	99.81
320.358	88.81
320.587	102.81
320.816	101.81
321.046	118.81
321.275	102.81
321.504	102.81
321.733	91.81
321.962	93.81
322.191	93.81
322.42	108.81
322.649	114.81
322.878	114.81
323.108	123.81
323.337	135.81
323.566	142.81
323.795	174.81
324.024	226.81
324.253	446.81
324.482	996.81
324.71	2100.81
324.939	2795.81
325.168	988.81
325.397	286.81
325.626	165.81
325.855	131.81
326.084	131.81
326.313	152.81
326.542	168.81
326.77	254.81
326.999	529.81
327.228	1116.81
327.457	2034.81
327.686	1647.81
327.914	453.81
328.143	218.81
328.372	180.81
328.6	150.81
328.829	137.81
329.058	136.81
329.287	164.81
329.515	129.81
329.744	120.81
329.972	135.81
330.201	137.81
330.43	165.81
330.658	150.81
330.887	175.81
331.115	147.81
331.344	107.81
331.572	107.81
331.801	105.81
332.03	133.81
332.258	102.81
332.486	100.81
332.715	92.81
332.943	105.81
333.172	87.81
333.4	105.81
333.629	119.81
333.857	114.81
334.085	119.81
334.314	139.81
334.542	176.81
334.771	164.81
334.999	99.81
335.227	95.81
335.455	90.81
335.684	87.81
335.912	99.81
336.14	94.81
336.369	106.81
336.597	95.81
336.825	105.81
337.053	82.81
337.281	97.81
337.51	88.81
337.738	107.81
337.966	86.81
338.194	93.81
338.422	98.81
338.65	86.81
338.878	98.81
339.106	90.81
339.334	97.81
339.562	91.81
339.79	93.81
340.018	92.81
340.246	101.81
340.474	94.81
340.702	86.81
340.93	89.81
341.158	86.81
341.386	92.81
341.614	94.81
341.842	96.81
342.07	96.81
342.298	108.81
342.526	84.81
342.754	93.81
342.981	87.81
343.209	82.81
343.437	100.81
343.665	93.81
343.893	93.81
344.12	92.81
344.348	99.81
344.576	92.81
344.804	102.81
345.031	97.81
345.259	102.81
345.487	93.81
345.714	90.81
345.942	94.81
346.17	94.81
346.397	94.81
346.625	106.81
346.853	105.81
347.08	96.81
347.308	112.81
347.535	103.81
347.763	108.81
347.99	83.81
348.218	108.81
348.445	100.81
348.673	95.81
348.9	88.81
349.128	90.81
349.355	91.81
349.583	89.81
349.81	83.81
350.037	90.81
350.265	81.81
350.492	102.81
350.72	107.81
350.947	98.81
351.174	123.81
351.402	120.81
351.629	94.81
351.856	120.81
352.083	107.81
352.311	113.81
352.538	120.81
352.765	103.81
352.992	119.81
353.22	107.81
353.447	110.81
353.674	97.81
353.901	108.81
354.128	109.81
354.355	80.81
354.583	89.81
354.81	112.81
355.037	110.81
355.264	95.81
355.491	89.81
355.718	87.81
355.945	89.81
356.172	88.81
356.399	91.81
356.626	88.81
356.853	91.81
357.08	91.81
357.307	75.81
357.534	77.81
357.761	88.81
357.988	88.81
358.215	87.81
358.441	80.81
358.668	76.81
358.895	85.81
359.122	86.81
359.349	90.81
359.576	99.81
359.802	105.81
360.029	140.81
360.256	105.81
360.483	99.81
360.709	98.81
360.936	99.81
361.163	98.81
361.39	96.81
361.616	101.81
361.843	91.81
362.07	90.81
362.296	110.81
362.523	101.81
362.749	98.81
362.976	84.81
363.203	88.81
363.429	90.81
363.656	93.81
363.882	103.81
364.109	80.81
364.335	86.81
364.562	94.81
364.788	90.81
365.015	94.81
365.241	99.81
365.468	106.81
365.694	97.81
365.92	92.81
366.147	84.81
366.373	90.81
366.599	83.81
366.826	102.81
367.052	94.81
367.278	84.81
367.505	91.81
367.731	100.81
367.957	86.81
368.184	100.81
368.41	90.81
368.636	117.81
368.862	118.81
369.089	117.81
369.315	95.81
369.541	102.81
369.767	100.81
369.993	91.81
370.219	105.81
370.445	78.81
370.672	88.81
370.898	84.81
371.124	85.81
371.35	78.81
371.576	94.81
371.802	84.81
372.028	76.81
372.254	91.81
372.48	92.81
372.706	98.81
372.932	89.81
373.158	87.81
373.384	86.81
373.61	88.81
373.835	95.81
374.061	98.81
374.287	107.81
374.513	89.81
374.739	93.81
374.965	90.81
375.191	85.81
375.416	90.81
375.642	82.81
375.868	89.81
376.094	76.81
376.319	90.81
376.545	95.81
376.771	92.81
376.997	94.81
377.222	90.81
377.448	99.81
377.674	69.81
377.899	101.81
378.125	96.81
378.35	84.81
378.576	87.81
378.802	73.81
379.027	91.81
379.253	76.81
379.478	92.81
379.704	96.81
379.929	95.81
380.155	82.81
380.38	91.81
380.606	91.81
380.831	96.81
381.057	103.81
381.282	106.81
381.507	87.81
381.733	82.81
381.958	95.81
382.184	103.81
382.409	103.81
382.634	92.81
382.86	87.81
383.085	83.81
383.31	89.81
383.535	99.81
383.761	96.81
383.986	101.81
384.211	87.81
384.436	96.81
384.662	100.81
384.887	98.81
385.112	92.81
385.337	95.81
385.562	106.81
385.787	107.81
386.013	104.81
386.238	105.81
386.463	96.81
386.688	97.81
386.913	108.81
387.138	111.81
387.363	93.81
387.588	98.81
387.813	91.81
388.038	104.81
388.263	106.81
388.488	99.81
388.713	88.81
388.938	88.81
389.163	94.81
389.387	92.81
389.612	79.81
389.837	94.81
390.062	85.81
390.287	88.81
390.512	102.81
390.736	88.81
390.961	85.81
391.186	87.81
391.411	97.81
391.636	91.81
391.86	84.81
392.085	74.81
392.31	79.81
392.534	90.81
392.759	79.81
392.984	82.81
393.208	74.81
393.433	86.81
393.658	100.81
393.882	103.81
394.107	82.81
394.331	86.81
394.556	80.81
394.78	88.81
395.005	86.81
395.229	87.81
395.454	76.81
395.678	82.81
395.903	94.81
396.127	95.81
396.352	97.81
396.576	81.81
396.801	89.81
397.025	72.81
397.249	84.81
397.474	91.81
397.698	103.81
397.922	99.81
398.147	91.81
398.371	80.81
398.595	89.81
398.82	84.81
399.044	92.81
399.268	94.81
399.492	98.81
399.717	85.81
399.941	83.81
400.165	88.81
400.389	107.81
400.613	80.81
400.837	98.81
401.062	91.81
401.286	86.81
401.51	87.81
401.734	103.81
401.958	112.81
402.182	136.81
402.406	168.81
402.63	120.81
402.854	89.81
403.078	87.81
403.302	87.81
403.526	90.81
403.75	87.81
403.974	91.81
404.198	103.81
404.422	95.81
404.645	88.81
404.869	97.81
405.093	94.81
405.317	112.81
405.541	101.81
405.765	124.81
405.988	128.81
406.212	195.81
406.436	283.81
406.66	176.81
406.883	108.81
407.107	110.81
407.331	104.81
407.555	101.81
407.778	101.81
408.002	91.81
408.226	97.81
408.449	93.81
408.673	80.81
408.896	110.81
409.12	101.81
409.344	81.81
409.567	82.81
409.791	99.81
410.014	90.81
410.238	95.81
410.461	76.81
410.685	101.81
410.908	116.81
411.132	123.81
411.355	110.81
411.578	97.81
411.802	89.81
412.025	84.81
412.249	89.81
412.472	79.81
412.695	99.81
412.919	97.81
413.142	97.81
413.365	76.81
413.589	82.81
413.812	96.81
414.035	95.81
414.258	91.81
414.482	103.81
414.705	96.81
414.928	79.81
415.151	88.81
415.374	97.81
415.597	84.81
415.821	99.81
416.044	88.81
416.267	87.81
416.49	99.81
416.713	89.81
416.936	80.81
417.159	84.81
417.382	81.81
417.605	92.81
417.828	99.81
418.051	99.81
418.274	87.81
418.497	83.81
418.72	94.81
418.943	86.81
419.166	84.81
419.389	96.81
419.611	104.81
419.834	84.81
420.057	91.81
420.28	97.81
420.503	96.81
420.726	84.81
420.948	89.81
421.171	100.81
421.394	102.81
421.617	100.81
421.839	80.81
422.062	76.81
422.285	108.81
422.507	90.81
422.73	90.81
422.953	98.81
423.175	95.81
423.398	94.81
423.621	88.81
423.843	96.81
424.066	88.81
424.288	84.81
424.511	103.81
424.733	96.81
424.956	115.81
425.178	111.81
425.401	79.81
425.623	107.81
425.846	83.81
426.068	105.81
426.291	98.81
426.513	80.81
426.735	96.81
426.958	103.81
427.18	108.81
427.402	142.81
427.625	202.81
427.847	131.81
428.069	105.81
428.292	102.81
428.514	94.81
428.736	75.81
428.958	81.81
429.181	87.81
429.403	87.81
429.625	90.81
429.847	100.81
430.069	99.81
430.292	108.81
430.514	87.81
430.736	95.81
430.958	88.81
431.18	87.81
431.402	91.81
431.624	95.81
431.846	89.81
432.068	98.81
432.29	81.81
432.512	89.81
432.734	79.81
432.956	96.81
433.178	100.81
433.4	109.81
433.622	107.81
433.844	86.81
434.066	95.81
434.287	80.81
434.509	91.81
434.731	82.81
434.953	101.81
435.175	91.81
435.397	90.81
435.618	99.81
435.84	103.81
436.062	130.81
436.284	107.81
436.505	82.81
436.727	91.81
436.949	88.81
437.17	92.81
437.392	82.81
437.614	98.81
437.835	119.81
438.057	133.81
438.278	119.81
438.5	106.81
438.721	130.81
438.943	114.81
439.165	99.81
439.386	101.81
439.608	105.81
439.829	90.81
440.05	117.81
440.272	163.81
440.493	106.81
440.715	105.81
440.936	89.81
441.158	87.81
441.379	110.81
441.6	114.81
441.822	99.81
442.043	104.81
442.264	124.81
442.486	101.81
442.707	96.81
442.928	114.81
443.149	153.81
443.371	137.81
443.592	106.81
443.813	111.81
444.034	106.81
444.255	88.81
444.476	99.81
444.698	102.81
444.919	91.81
445.14	132.81
445.361	135.81
445.582	136.81
445.803	165.81
446.024	161.81
446.245	152.81
446.466	124.81
446.687	87.81
446.908	91.81
447.129	84.81
447.35	90.81
447.571	85.81
447.792	99.81
448.013	114.81
448.234	102.81
448.455	99.81
448.675	116.81
448.896	131.81
449.117	110.81
449.338	105.81
449.559	149.81
449.779	129.81
450	96.81
450.221	86.81
450.442	90.81
450.662	91.81
450.883	102.81
451.104	126.81
451.324	107.81
451.545	96.81
451.766	86.81
451.986	92.81
452.207	90.81
452.428	83.81
452.648	115.81
452.869	116.81
453.089	136.81
453.31	136.81
453.53	94.81
453.751	91.81
453.971	119.81
454.192	121.81
454.412	83.81
454.633	82.81
454.853	91.81
455.073	87.81
455.294	98.81
455.514	103.81
455.734	87.81
455.955	82.81
456.175	94.81
456.395	101.81
456.616	93.81
456.836	82.81
457.056	84.81
457.276	75.81
457.497	84.81
457.717	100.81
457.937	93.81
458.157	84.81
458.377	97.81
458.598	116.81
458.818	166.81
459.038	184.81
459.258	135.81
459.478	96.81
459.698	78.81
459.918	78.81
460.138	82.81
460.358	89.81
460.578	98.81
460.798	90.81
461.018	83.81
461.238	83.81
461.458	79.81
461.678	81.81
461.898	90.81
462.118	89.81
462.338	105.81
462.558	86.81
462.777	95.81
462.997	86.81
463.217	84.81
463.437	87.81
463.657	98.81
463.876	95.81
464.096	86.81
464.316	95.81
464.536	100.81
464.755	99.81
464.975	125.81
465.195	222.81
465.414	182.81
465.634	110.81
465.854	91.81
466.073	69.81
466.293	81.81
466.512	96.81
466.732	80.81
466.951	90.81
467.171	91.81
467.391	91.81
467.61	108.81
467.829	103.81
468.049	114.81
468.268	122.81
468.488	97.81
468.707	92.81
468.927	93.81
469.146	85.81
469.365	92.81
469.585	104.81
469.804	107.81
470.023	102.81
470.243	96.81
470.462	119.81
470.681	125.81
470.901	96.81
471.12	85.81
471.339	99.81
471.558	80.81
471.777	102.81
471.997	107.81
472.216	131.81
472.435	197.81
472.654	103.81
472.873	100.81
473.092	91.81
473.311	89.81
473.53	91.81
473.749	104.81
473.968	118.81
474.187	122.81
474.406	111.81
474.625	103.81
474.844	94.81
475.063	95.81
475.282	96.81
475.501	101.81
475.72	89.81
475.939	89.81
476.158	82.81
476.377	82.81
476.596	86.81
476.814	97.81
477.033	98.81
477.252	98.81
477.471	94.81
477.69	83.81
477.908	80.81
478.127	99.81
478.346	90.81
478.564	88.81
478.783	103.81
479.002	84.81
479.22	103.81
479.439	100.81
479.658	116.81
479.876	93.81
480.095	88.81
480.313	112.81
480.532	100.81
480.751	116.81
480.969	148.81
481.188	295.81
481.406	199.81
481.624	101.81
481.843	105.81
482.061	106.81
482.28	97.81
482.498	75.81
482.717	71.81
482.935	80.81
483.153	94.81
483.372	79.81
483.59	89.81
483.808	99.81
484.027	86.81
484.245	92.81
484.463	99.81
484.681	112.81
484.9	98.81
485.118	88.81
485.336	83.81
485.554	84.81
485.772	84.81
485.99	111.81
486.209	102.81
486.427	108.81
486.645	126.81
486.863	109.81
487.081	88.81
487.299	94.81
487.517	90.81
487.735	87.81
487.953	96.81
488.171	105.81
488.389	99.81
488.607	101.81
488.825	94.81
489.043	106.81
489.261	87.81
489.479	91.81
489.696	99.81
489.914	94.81
490.132	86.81
490.35	96.81
490.568	80.81
490.786	96.81
491.003	84.81
491.221	96.81
491.439	93.81
491.657	99.81
491.874	83.81
492.092	102.81
492.31	82.81
492.527	71.81
492.745	86.81
492.963	101.81
493.18	82.81
493.398	87.81
493.615	99.81
493.833	100.81
494.05	87.81
494.268	102.81
494.485	101.81
494.703	96.81
494.92	97.81
495.138	63.81
495.355	100.81
495.573	102.81
495.79	93.81
496.008	83.81
496.225	93.81
496.442	99.81
496.66	93.81
496.877	95.81
497.094	89.81
497.312	87.81
497.529	105.81
497.746	101.81
497.963	84.81
498.181	75.81
498.398	94.81
498.615	114.81
498.832	116.81
499.049	106.81
499.267	102.81
499.484	108.81
499.701	88.81
499.918	83.81
500.135	96.81
500.352	89.81
500.569	92.81
500.786	92.81
501.003	91.81
501.22	79.81
501.437	100.81
501.654	102.81
501.871	116.81
502.088	99.81
502.305	98.81
502.522	96.81
502.739	94.81
502.956	90.81
503.172	105.81
503.389	104.81
503.606	108.81
503.823	95.81
504.04	97.81
504.256	98.81
504.473	96.81
504.69	88.81
504.907	98.81
505.123	89.81
505.34	87.81
505.557	91.81
505.773	102.81
505.99	95.81
506.207	93.81
506.423	90.81
506.64	94.81
506.856	84.81
507.073	98.81
507.289	102.81
507.506	102.81
507.722	123.81
507.939	110.81
508.155	91.81
508.372	89.81
508.588	105.81
508.805	95.81
509.021	90.81
509.238	94.81
509.454	83.81
509.67	107.81
509.887	110.81
510.103	137.81
510.319	222.81
510.536	914.81
510.752	3014.81
510.968	795.81
511.184	170.81
511.401	114.81
511.617	97.81
511.833	99.81
512.049	107.81
512.265	82.81
512.481	98.81
512.698	96.81
512.914	99.81
513.13	87.81
513.346	85.81
513.562	84.81
513.778	106.81
513.994	101.81
514.21	101.81
514.426	123.81
514.642	170.81
514.858	123.81
