Data from Uncirc_1985_H10_HRD10591_00072.txt Node
Date: Wed Jan 03 12:18:31 EST 2024
User: Yrep
Spectrometer: HR+D1059
Trigger mode: 1
Integration Time (sec): 1.000000E-1
Scans to average: 1
Electric dark correction enabled: true
Nonlinearity correction enabled: false
Boxcar width: 0
XAxis mode: Wavelengths
Number of Pixels in Spectrum: 2048
>>>>>Begin Spectral Data<<<<<
223.165	-20.19
223.4	-20.19
223.635	-20.19
223.869	-12.19
224.104	-16.19
224.338	-11.19
224.573	-25.19
224.808	-32.19
225.042	-17.19
225.277	-1.19
225.511	2.81
225.746	4.81
225.98	6.81
226.215	18.81
226.449	14.81
226.683	21.81
226.918	27.81
227.152	37.81
227.387	41.81
227.621	46.81
227.856	45.81
228.09	51.81
228.324	64.81
228.559	59.81
228.793	64.81
229.027	66.81
229.262	74.81
229.496	74.81
229.73	80.81
229.964	74.81
230.199	77.81
230.433	77.81
230.667	87.81
230.901	70.81
231.136	77.81
231.37	74.81
231.604	87.81
231.838	68.81
232.072	71.81
232.306	72.81
232.541	79.81
232.775	81.81
233.009	66.81
233.243	70.81
233.477	83.81
233.711	81.81
233.945	56.81
234.179	89.81
234.413	73.81
234.647	93.81
234.881	71.81
235.115	74.81
235.349	79.81
235.583	85.81
235.817	82.81
236.051	79.81
236.285	82.81
236.519	79.81
236.753	82.81
236.987	72.81
237.221	85.81
237.455	86.81
237.689	74.81
237.922	83.81
238.156	77.81
238.39	75.81
238.624	90.81
238.858	81.81
239.091	87.81
239.325	66.81
239.559	85.81
239.793	90.81
240.027	79.81
240.26	69.81
240.494	79.81
240.728	78.81
240.961	75.81
241.195	86.81
241.429	75.81
241.662	68.81
241.896	63.81
242.13	87.81
242.363	83.81
242.597	70.81
242.83	85.81
243.064	79.81
243.298	71.81
243.531	68.81
243.765	78.81
243.998	75.81
244.232	79.81
244.465	81.81
244.699	78.81
244.932	81.81
245.166	76.81
245.399	81.81
245.633	77.81
245.866	81.81
246.099	73.81
246.333	87.81
246.566	83.81
246.8	89.81
247.033	72.81
247.266	85.81
247.5	65.81
247.733	82.81
247.966	89.81
248.2	79.81
248.433	67.81
248.666	70.81
248.899	72.81
249.133	83.81
249.366	82.81
249.599	106.81
249.832	94.81
250.066	83.81
250.299	72.81
250.532	75.81
250.765	81.81
250.998	74.81
251.231	74.81
251.465	74.81
251.698	74.81
251.931	83.81
252.164	66.81
252.397	76.81
252.63	83.81
252.863	81.81
253.096	70.81
253.329	94.81
253.562	84.81
253.795	93.81
254.028	73.81
254.261	77.81
254.494	82.81
254.727	77.81
254.96	80.81
255.193	89.81
255.426	84.81
255.659	72.81
255.892	77.81
256.124	86.81
256.357	90.81
256.59	80.81
256.823	71.81
257.056	89.81
257.289	89.81
257.521	91.81
257.754	89.81
257.987	79.81
258.22	83.81
258.452	78.81
258.685	73.81
258.918	67.81
259.151	68.81
259.383	75.81
259.616	74.81
259.849	81.81
260.081	72.81
260.314	82.81
260.547	86.81
260.779	75.81
261.012	95.81
261.244	97.81
261.477	89.81
261.71	88.81
261.942	112.81
262.175	103.81
262.407	81.81
262.64	73.81
262.872	86.81
263.105	81.81
263.337	78.81
263.57	75.81
263.802	80.81
264.035	81.81
264.267	79.81
264.499	68.81
264.732	83.81
264.964	77.81
265.197	75.81
265.429	85.81
265.661	82.81
265.894	79.81
266.126	82.81
266.358	84.81
266.591	70.81
266.823	77.81
267.055	86.81
267.287	88.81
267.52	89.81
267.752	88.81
267.984	86.81
268.216	89.81
268.448	81.81
268.681	75.81
268.913	73.81
269.145	79.81
269.377	77.81
269.609	79.81
269.841	78.81
270.073	80.81
270.306	88.81
270.538	73.81
270.77	81.81
271.002	75.81
271.234	86.81
271.466	69.81
271.698	72.81
271.93	94.81
272.162	89.81
272.394	86.81
272.626	91.81
272.858	86.81
273.09	83.81
273.322	77.81
273.553	78.81
273.785	86.81
274.017	83.81
274.249	81.81
274.481	79.81
274.713	86.81
274.945	90.81
275.176	84.81
275.408	88.81
275.64	70.81
275.872	96.81
276.104	88.81
276.335	88.81
276.567	105.81
276.799	104.81
277.031	92.81
277.262	82.81
277.494	85.81
277.726	106.81
277.957	90.81
278.189	72.81
278.421	86.81
278.652	85.81
278.884	101.81
279.115	81.81
279.347	91.81
279.579	80.81
279.81	88.81
280.042	83.81
280.273	105.81
280.505	93.81
280.736	89.81
280.968	72.81
281.199	66.81
281.431	71.81
281.662	79.81
281.894	94.81
282.125	105.81
282.356	129.81
282.588	133.81
282.819	126.81
283.051	92.81
283.282	93.81
283.513	93.81
283.745	102.81
283.976	89.81
284.207	87.81
284.439	77.81
284.67	94.81
284.901	79.81
285.132	90.81
285.364	83.81
285.595	94.81
285.826	85.81
286.057	90.81
286.288	78.81
286.52	82.81
286.751	72.81
286.982	82.81
287.213	79.81
287.444	100.81
287.675	102.81
287.906	98.81
288.138	98.81
288.369	88.81
288.6	84.81
288.831	78.81
289.062	86.81
289.293	95.81
289.524	82.81
289.755	96.81
289.986	79.81
290.217	94.81
290.448	94.81
290.679	90.81
290.91	64.81
291.141	86.81
291.371	89.81
291.602	83.81
291.833	85.81
292.064	86.81
292.295	79.81
292.526	92.81
292.757	86.81
292.987	99.81
293.218	87.81
293.449	90.81
293.68	95.81
293.91	91.81
294.141	86.81
294.372	89.81
294.603	102.81
294.833	88.81
295.064	91.81
295.295	92.81
295.525	86.81
295.756	97.81
295.987	118.81
296.217	142.81
296.448	111.81
296.679	100.81
296.909	85.81
297.14	72.81
297.37	99.81
297.601	91.81
297.831	95.81
298.062	109.81
298.292	92.81
298.523	93.81
298.753	91.81
298.984	86.81
299.214	96.81
299.445	80.81
299.675	96.81
299.905	91.81
300.136	86.81
300.366	85.81
300.597	85.81
300.827	89.81
301.057	88.81
301.288	98.81
301.518	98.81
301.748	99.81
301.979	91.81
302.209	87.81
302.439	87.81
302.669	81.81
302.9	88.81
303.13	94.81
303.36	88.81
303.59	79.81
303.82	94.81
304.051	81.81
304.281	92.81
304.511	77.81
304.741	90.81
304.971	79.81
305.201	93.81
305.431	81.81
305.661	88.81
305.891	88.81
306.121	90.81
306.352	99.81
306.582	81.81
306.812	84.81
307.042	87.81
307.272	100.81
307.502	97.81
307.731	94.81
307.961	88.81
308.191	85.81
308.421	85.81
308.651	82.81
308.881	87.81
309.111	89.81
309.341	74.81
309.571	93.81
309.8	83.81
310.03	99.81
310.26	94.81
310.49	84.81
310.72	89.81
310.949	99.81
311.179	100.81
311.409	83.81
311.639	77.81
311.868	96.81
312.098	91.81
312.328	94.81
312.557	109.81
312.787	94.81
313.017	107.81
313.246	89.81
313.476	96.81
313.706	74.81
313.935	89.81
314.165	91.81
314.394	91.81
314.624	93.81
314.853	89.81
315.083	88.81
315.312	106.81
315.542	86.81
315.771	86.81
316.001	83.81
316.23	88.81
316.46	83.81
316.689	103.81
316.919	104.81
317.148	83.81
317.377	87.81
317.607	91.81
317.836	97.81
318.065	82.81
318.295	87.81
318.524	106.81
318.753	85.81
318.983	98.81
319.212	102.81
319.441	107.81
319.67	114.81
319.9	98.81
320.129	83.81
320.358	87.81
320.587	104.81
320.816	104.81
321.046	93.81
321.275	86.81
321.504	93.81
321.733	99.81
321.962	99.81
322.191	100.81
322.42	97.81
322.649	118.81
322.878	109.81
323.108	114.81
323.337	109.81
323.566	130.81
323.795	152.81
324.024	200.81
324.253	383.81
324.482	815.81
324.71	1653.81
324.939	2213.81
325.168	806.81
325.397	239.81
325.626	129.81
325.855	119.81
326.084	113.81
326.313	132.81
326.542	155.81
326.77	214.81
326.999	423.81
327.228	886.81
327.457	1663.81
327.686	1313.81
327.914	363.81
328.143	191.81
328.372	155.81
328.6	125.81
328.829	113.81
329.058	116.81
329.287	123.81
329.515	107.81
329.744	106.81
329.972	111.81
330.201	119.81
330.43	160.81
330.658	114.81
330.887	129.81
331.115	129.81
331.344	97.81
331.572	86.81
331.801	114.81
332.03	85.81
332.258	96.81
332.486	87.81
332.715	99.81
332.943	105.81
333.172	106.81
333.4	83.81
333.629	105.81
333.857	112.81
334.085	123.81
334.314	118.81
334.542	157.81
334.771	139.81
334.999	100.81
335.227	87.81
335.455	90.81
335.684	110.81
335.912	96.81
336.14	94.81
336.369	101.81
336.597	107.81
336.825	88.81
337.053	95.81
337.281	93.81
337.51	98.81
337.738	89.81
337.966	89.81
338.194	86.81
338.422	102.81
338.65	92.81
338.878	89.81
339.106	79.81
339.334	95.81
339.562	94.81
339.79	88.81
340.018	84.81
340.246	73.81
340.474	94.81
340.702	89.81
340.93	91.81
341.158	92.81
341.386	77.81
341.614	69.81
341.842	95.81
342.07	93.81
342.298	100.81
342.526	76.81
342.754	82.81
342.981	79.81
343.209	89.81
343.437	103.81
343.665	91.81
343.893	89.81
344.12	92.81
344.348	77.81
344.576	102.81
344.804	97.81
345.031	101.81
345.259	89.81
345.487	84.81
345.714	101.81
345.942	89.81
346.17	87.81
346.397	99.81
346.625	89.81
346.853	95.81
347.08	82.81
347.308	97.81
347.535	88.81
347.763	108.81
347.99	84.81
348.218	99.81
348.445	95.81
348.673	95.81
348.9	103.81
349.128	96.81
349.355	81.81
349.583	99.81
349.81	98.81
350.037	92.81
350.265	97.81
350.492	90.81
350.72	92.81
350.947	102.81
351.174	114.81
351.402	106.81
351.629	84.81
351.856	101.81
352.083	85.81
352.311	107.81
352.538	109.81
352.765	107.81
352.992	108.81
353.22	109.81
353.447	103.81
353.674	97.81
353.901	98.81
354.128	79.81
354.355	91.81
354.583	95.81
354.81	95.81
355.037	91.81
355.264	93.81
355.491	81.81
355.718	89.81
355.945	84.81
356.172	95.81
356.399	98.81
356.626	94.81
356.853	80.81
357.08	88.81
357.307	90.81
357.534	86.81
357.761	94.81
357.988	93.81
358.215	95.81
358.441	93.81
358.668	89.81
358.895	78.81
359.122	91.81
359.349	90.81
359.576	100.81
359.802	96.81
360.029	119.81
360.256	96.81
360.483	97.81
360.709	79.81
360.936	86.81
361.163	85.81
361.39	97.81
361.616	88.81
361.843	81.81
362.07	96.81
362.296	89.81
362.523	92.81
362.749	82.81
362.976	85.81
363.203	77.81
363.429	91.81
363.656	86.81
363.882	89.81
364.109	85.81
364.335	83.81
364.562	75.81
364.788	93.81
365.015	91.81
365.241	101.81
365.468	113.81
365.694	95.81
365.92	89.81
366.147	83.81
366.373	82.81
366.599	72.81
366.826	93.81
367.052	78.81
367.278	89.81
367.505	94.81
367.731	86.81
367.957	87.81
368.184	81.81
368.41	98.81
368.636	111.81
368.862	121.81
369.089	104.81
369.315	91.81
369.541	102.81
369.767	92.81
369.993	86.81
370.219	97.81
370.445	78.81
370.672	74.81
370.898	83.81
371.124	89.81
371.35	86.81
371.576	84.81
371.802	80.81
372.028	90.81
372.254	79.81
372.48	87.81
372.706	97.81
372.932	86.81
373.158	86.81
373.384	77.81
373.61	74.81
373.835	86.81
374.061	87.81
374.287	97.81
374.513	87.81
374.739	89.81
374.965	101.81
375.191	83.81
375.416	83.81
375.642	90.81
375.868	81.81
376.094	86.81
376.319	66.81
376.545	89.81
376.771	88.81
376.997	92.81
377.222	83.81
377.448	94.81
377.674	82.81
377.899	83.81
378.125	81.81
378.35	77.81
378.576	90.81
378.802	81.81
379.027	95.81
379.253	94.81
379.478	81.81
379.704	85.81
379.929	84.81
380.155	88.81
380.38	99.81
380.606	86.81
380.831	89.81
381.057	89.81
381.282	103.81
381.507	80.81
381.733	91.81
381.958	88.81
382.184	103.81
382.409	102.81
382.634	80.81
382.86	106.81
383.085	101.81
383.31	94.81
383.535	104.81
383.761	84.81
383.986	94.81
384.211	84.81
384.436	99.81
384.662	97.81
384.887	104.81
385.112	96.81
385.337	110.81
385.562	106.81
385.787	99.81
386.013	105.81
386.238	112.81
386.463	83.81
386.688	95.81
386.913	100.81
387.138	97.81
387.363	93.81
387.588	107.81
387.813	81.81
388.038	88.81
388.263	96.81
388.488	106.81
388.713	94.81
388.938	93.81
389.163	96.81
389.387	101.81
389.612	93.81
389.837	88.81
390.062	97.81
390.287	81.81
390.512	74.81
390.736	79.81
390.961	87.81
391.186	108.81
391.411	97.81
391.636	87.81
391.86	87.81
392.085	91.81
392.31	80.81
392.534	111.81
392.759	90.81
392.984	82.81
393.208	84.81
393.433	75.81
393.658	83.81
393.882	69.81
394.107	78.81
394.331	81.81
394.556	77.81
394.78	90.81
395.005	81.81
395.229	67.81
395.454	81.81
395.678	89.81
395.903	74.81
396.127	97.81
396.352	72.81
396.576	89.81
396.801	85.81
397.025	93.81
397.249	93.81
397.474	91.81
397.698	81.81
397.922	91.81
398.147	88.81
398.371	86.81
398.595	65.81
398.82	83.81
399.044	87.81
399.268	80.81
399.492	93.81
399.717	98.81
399.941	95.81
400.165	74.81
400.389	91.81
400.613	84.81
400.837	78.81
401.062	98.81
401.286	92.81
401.51	79.81
401.734	84.81
401.958	90.81
402.182	112.81
402.406	148.81
402.63	109.81
402.854	97.81
403.078	75.81
403.302	90.81
403.526	83.81
403.75	90.81
403.974	94.81
404.198	92.81
404.422	67.81
404.645	102.81
404.869	87.81
405.093	110.81
405.317	89.81
405.541	98.81
405.765	91.81
405.988	118.81
406.212	180.81
406.436	230.81
406.66	138.81
406.883	98.81
407.107	89.81
407.331	99.81
407.555	102.81
407.778	104.81
408.002	67.81
408.226	85.81
408.449	87.81
408.673	101.81
408.896	92.81
409.12	93.81
409.344	76.81
409.567	93.81
409.791	93.81
410.014	99.81
410.238	88.81
410.461	85.81
410.685	101.81
410.908	84.81
411.132	100.81
411.355	80.81
411.578	91.81
411.802	86.81
412.025	89.81
412.249	95.81
412.472	97.81
412.695	96.81
412.919	97.81
413.142	95.81
413.365	74.81
413.589	89.81
413.812	93.81
414.035	83.81
414.258	85.81
414.482	80.81
414.705	93.81
414.928	83.81
415.151	93.81
415.374	94.81
415.597	97.81
415.821	88.81
416.044	90.81
416.267	87.81
416.49	81.81
416.713	99.81
416.936	88.81
417.159	87.81
417.382	98.81
417.605	77.81
417.828	90.81
418.051	97.81
418.274	85.81
418.497	95.81
418.72	82.81
418.943	87.81
419.166	88.81
419.389	91.81
419.611	80.81
419.834	68.81
420.057	94.81
420.28	87.81
420.503	72.81
420.726	82.81
420.948	79.81
421.171	98.81
421.394	98.81
421.617	97.81
421.839	86.81
422.062	91.81
422.285	87.81
422.507	92.81
422.73	103.81
422.953	77.81
423.175	88.81
423.398	99.81
423.621	97.81
423.843	86.81
424.066	91.81
424.288	80.81
424.511	86.81
424.733	103.81
424.956	101.81
425.178	93.81
425.401	99.81
425.623	97.81
425.846	87.81
426.068	109.81
426.291	86.81
426.513	89.81
426.735	91.81
426.958	90.81
427.18	83.81
427.402	135.81
427.625	150.81
427.847	127.81
428.069	113.81
428.292	80.81
428.514	96.81
428.736	83.81
428.958	81.81
429.181	97.81
429.403	80.81
429.625	96.81
429.847	95.81
430.069	110.81
430.292	89.81
430.514	85.81
430.736	74.81
430.958	90.81
431.18	76.81
431.402	89.81
431.624	83.81
431.846	83.81
432.068	91.81
432.29	90.81
432.512	82.81
432.734	97.81
432.956	83.81
433.178	86.81
433.4	99.81
433.622	94.81
433.844	86.81
434.066	97.81
434.287	84.81
434.509	84.81
434.731	82.81
434.953	86.81
435.175	73.81
435.397	94.81
435.618	87.81
435.84	114.81
436.062	115.81
436.284	106.81
436.505	101.81
436.727	99.81
436.949	93.81
437.17	94.81
437.392	89.81
437.614	103.81
437.835	100.81
438.057	95.81
438.278	106.81
438.5	95.81
438.721	116.81
438.943	100.81
439.165	96.81
439.386	98.81
439.608	97.81
439.829	103.81
440.05	113.81
440.272	141.81
440.493	101.81
440.715	101.81
440.936	93.81
441.158	69.81
441.379	91.81
441.6	79.81
441.822	97.81
442.043	86.81
442.264	86.81
442.486	104.81
442.707	89.81
442.928	105.81
443.149	131.81
443.371	131.81
443.592	122.81
443.813	106.81
444.034	102.81
444.255	87.81
444.476	77.81
444.698	81.81
444.919	94.81
445.14	128.81
445.361	137.81
445.582	112.81
445.803	142.81
446.024	124.81
446.245	119.81
446.466	122.81
446.687	80.81
446.908	76.81
447.129	72.81
447.35	93.81
447.571	93.81
447.792	103.81
448.013	90.81
448.234	115.81
448.455	106.81
448.675	107.81
448.896	111.81
449.117	97.81
449.338	83.81
449.559	125.81
449.779	119.81
450	84.81
450.221	90.81
450.442	86.81
450.662	109.81
450.883	98.81
451.104	107.81
451.324	85.81
451.545	84.81
451.766	88.81
451.986	89.81
452.207	90.81
452.428	78.81
452.648	86.81
452.869	109.81
453.089	129.81
453.31	122.81
453.53	93.81
453.751	86.81
453.971	92.81
454.192	108.81
454.412	75.81
454.633	93.81
454.853	91.81
455.073	83.81
455.294	85.81
455.514	100.81
455.734	89.81
455.955	91.81
456.175	83.81
456.395	84.81
456.616	81.81
456.836	91.81
457.056	86.81
457.276	82.81
457.497	79.81
457.717	80.81
457.937	79.81
458.157	78.81
458.377	93.81
458.598	104.81
458.818	148.81
459.038	161.81
459.258	111.81
459.478	89.81
459.698	75.81
459.918	81.81
460.138	82.81
460.358	79.81
460.578	77.81
460.798	92.81
461.018	98.81
461.238	96.81
461.458	86.81
461.678	82.81
461.898	94.81
462.118	58.81
462.338	87.81
462.558	83.81
462.777	77.81
462.997	93.81
463.217	81.81
463.437	94.81
463.657	93.81
463.876	89.81
464.096	91.81
464.316	97.81
464.536	98.81
464.755	90.81
464.975	112.81
465.195	147.81
465.414	153.81
465.634	100.81
465.854	72.81
466.073	81.81
466.293	87.81
466.512	90.81
466.732	89.81
466.951	82.81
467.171	90.81
467.391	96.81
467.61	96.81
467.829	104.81
468.049	122.81
468.268	117.81
468.488	93.81
468.707	79.81
468.927	77.81
469.146	86.81
469.365	79.81
469.585	94.81
469.804	101.81
470.023	83.81
470.243	92.81
470.462	114.81
470.681	107.81
470.901	91.81
471.12	86.81
471.339	78.81
471.558	91.81
471.777	100.81
471.997	97.81
472.216	137.81
472.435	187.81
472.654	107.81
472.873	101.81
473.092	85.81
473.311	75.81
473.53	87.81
473.749	84.81
473.968	94.81
474.187	103.81
474.406	94.81
474.625	89.81
474.844	79.81
475.063	82.81
475.282	84.81
475.501	81.81
475.72	96.81
475.939	95.81
476.158	102.81
476.377	82.81
476.596	86.81
476.814	89.81
477.033	104.81
477.252	72.81
477.471	75.81
477.69	85.81
477.908	70.81
478.127	85.81
478.346	97.81
478.564	87.81
478.783	106.81
479.002	94.81
479.22	97.81
479.439	102.81
479.658	87.81
479.876	90.81
480.095	96.81
480.313	89.81
480.532	89.81
480.751	95.81
480.969	126.81
481.188	287.81
481.406	195.81
481.624	89.81
481.843	85.81
482.061	85.81
482.28	89.81
482.498	94.81
482.717	95.81
482.935	94.81
483.153	82.81
483.372	97.81
483.59	91.81
483.808	77.81
484.027	80.81
484.245	88.81
484.463	94.81
484.681	97.81
484.9	87.81
485.118	81.81
485.336	95.81
485.554	100.81
485.772	99.81
485.99	83.81
486.209	106.81
486.427	103.81
486.645	107.81
486.863	113.81
487.081	95.81
487.299	91.81
487.517	86.81
487.735	70.81
487.953	97.81
488.171	101.81
488.389	89.81
488.607	97.81
488.825	101.81
489.043	82.81
489.261	99.81
489.479	73.81
489.696	80.81
489.914	98.81
490.132	87.81
490.35	86.81
490.568	82.81
490.786	83.81
491.003	94.81
491.221	99.81
491.439	103.81
491.657	85.81
491.874	107.81
492.092	92.81
492.31	67.81
492.527	82.81
492.745	86.81
492.963	77.81
493.18	91.81
493.398	90.81
493.615	91.81
493.833	80.81
494.05	101.81
494.268	89.81
494.485	81.81
494.703	87.81
494.92	84.81
495.138	90.81
495.355	78.81
495.573	89.81
495.79	81.81
496.008	89.81
496.225	93.81
496.442	80.81
496.66	99.81
496.877	89.81
497.094	85.81
497.312	89.81
497.529	102.81
497.746	99.81
497.963	90.81
498.181	70.81
498.398	98.81
498.615	118.81
498.832	102.81
499.049	75.81
499.267	73.81
499.484	85.81
499.701	100.81
499.918	96.81
500.135	96.81
500.352	81.81
500.569	87.81
500.786	85.81
501.003	88.81
501.22	82.81
501.437	73.81
501.654	79.81
501.871	97.81
502.088	95.81
502.305	96.81
502.522	82.81
502.739	99.81
502.956	71.81
503.172	95.81
503.389	85.81
503.606	104.81
503.823	107.81
504.04	96.81
504.256	104.81
504.473	81.81
504.69	86.81
504.907	88.81
505.123	87.81
505.34	81.81
505.557	101.81
505.773	106.81
505.99	99.81
506.207	83.81
506.423	84.81
506.64	86.81
506.856	91.81
507.073	100.81
507.289	100.81
507.506	97.81
507.722	104.81
507.939	114.81
508.155	99.81
508.372	86.81
508.588	88.81
508.805	81.81
509.021	87.81
509.238	106.81
509.454	100.81
509.67	91.81
509.887	105.81
510.103	136.81
510.319	222.81
510.536	801.81
510.752	2564.81
510.968	694.81
511.184	158.81
511.401	117.81
511.617	101.81
511.833	97.81
512.049	84.81
512.265	106.81
512.481	97.81
512.698	97.81
512.914	85.81
513.13	104.81
513.346	93.81
513.562	88.81
513.778	102.81
513.994	93.81
514.21	104.81
514.426	117.81
514.642	122.81
514.858	116.81
515.074	162.81
515.29	461.81
515.506	1555.81
515.721	545.81
515.937	172.81
516.153	116.81
