Data from Uncirc_1985_H10_HRD10591_00065.txt Node
Date: Wed Jan 03 12:18:30 EST 2024
User: Yrep
Spectrometer: HR+D1059
Trigger mode: 1
Integration Time (sec): 1.000000E-1
Scans to average: 1
Electric dark correction enabled: true
Nonlinearity correction enabled: false
Boxcar width: 0
XAxis mode: Wavelengths
Number of Pixels in Spectrum: 2048
>>>>>Begin Spectral Data<<<<<
223.165	-3.44
223.4	-3.44
223.635	-3.44
223.869	-29.44
224.104	-26.44
224.338	-12.44
224.573	-13.44
224.808	-17.44
225.042	-23.44
225.277	-2.44
225.511	-3.44
225.746	8.56
225.98	11.56
226.215	14.56
226.449	14.56
226.683	29.56
226.918	26.56
227.152	26.56
227.387	26.56
227.621	44.56
227.856	47.56
228.09	44.56
228.324	49.56
228.559	49.56
228.793	53.56
229.027	53.56
229.262	56.56
229.496	61.56
229.73	95.56
229.964	90.56
230.199	69.56
230.433	61.56
230.667	81.56
230.901	83.56
231.136	71.56
231.37	83.56
231.604	90.56
231.838	78.56
232.072	84.56
232.306	81.56
232.541	97.56
232.775	92.56
233.009	75.56
233.243	82.56
233.477	93.56
233.711	88.56
233.945	88.56
234.179	57.56
234.413	73.56
234.647	85.56
234.881	76.56
235.115	76.56
235.349	74.56
235.583	87.56
235.817	86.56
236.051	80.56
236.285	71.56
236.519	61.56
236.753	70.56
236.987	84.56
237.221	74.56
237.455	96.56
237.689	80.56
237.922	73.56
238.156	86.56
238.39	73.56
238.624	82.56
238.858	88.56
239.091	85.56
239.325	78.56
239.559	78.56
239.793	88.56
240.027	78.56
240.26	77.56
240.494	77.56
240.728	82.56
240.961	77.56
241.195	80.56
241.429	86.56
241.662	86.56
241.896	71.56
242.13	69.56
242.363	75.56
242.597	77.56
242.83	96.56
243.064	94.56
243.298	82.56
243.531	86.56
243.765	81.56
243.998	82.56
244.232	88.56
244.465	89.56
244.699	79.56
244.932	71.56
245.166	64.56
245.399	68.56
245.633	82.56
245.866	82.56
246.099	78.56
246.333	78.56
246.566	80.56
246.8	84.56
247.033	76.56
247.266	84.56
247.5	82.56
247.733	80.56
247.966	97.56
248.2	85.56
248.433	80.56
248.666	80.56
248.899	72.56
249.133	89.56
249.366	93.56
249.599	106.56
249.832	90.56
250.066	77.56
250.299	94.56
250.532	73.56
250.765	77.56
250.998	89.56
251.231	87.56
251.465	75.56
251.698	80.56
251.931	86.56
252.164	93.56
252.397	94.56
252.63	101.56
252.863	88.56
253.096	75.56
253.329	94.56
253.562	78.56
253.795	73.56
254.028	60.56
254.261	88.56
254.494	87.56
254.727	79.56
254.96	75.56
255.193	74.56
255.426	76.56
255.659	94.56
255.892	87.56
256.124	82.56
256.357	78.56
256.59	81.56
256.823	91.56
257.056	87.56
257.289	99.56
257.521	84.56
257.754	94.56
257.987	75.56
258.22	94.56
258.452	96.56
258.685	104.56
258.918	84.56
259.151	74.56
259.383	98.56
259.616	78.56
259.849	76.56
260.081	62.56
260.314	88.56
260.547	96.56
260.779	81.56
261.012	89.56
261.244	99.56
261.477	89.56
261.71	109.56
261.942	114.56
262.175	130.56
262.407	102.56
262.64	89.56
262.872	86.56
263.105	86.56
263.337	100.56
263.57	81.56
263.802	80.56
264.035	88.56
264.267	100.56
264.499	90.56
264.732	84.56
264.964	101.56
265.197	87.56
265.429	68.56
265.661	96.56
265.894	95.56
266.126	65.56
266.358	82.56
266.591	87.56
266.823	85.56
267.055	94.56
267.287	96.56
267.52	77.56
267.752	81.56
267.984	85.56
268.216	76.56
268.448	90.56
268.681	75.56
268.913	86.56
269.145	77.56
269.377	84.56
269.609	93.56
269.841	91.56
270.073	60.56
270.306	80.56
270.538	98.56
270.77	88.56
271.002	80.56
271.234	88.56
271.466	91.56
271.698	90.56
271.93	84.56
272.162	81.56
272.394	94.56
272.626	85.56
272.858	107.56
273.09	82.56
273.322	94.56
273.553	87.56
273.785	97.56
274.017	88.56
274.249	83.56
274.481	69.56
274.713	87.56
274.945	96.56
275.176	94.56
275.408	98.56
275.64	84.56
275.872	94.56
276.104	84.56
276.335	89.56
276.567	110.56
276.799	112.56
277.031	88.56
277.262	95.56
277.494	100.56
277.726	98.56
277.957	86.56
278.189	108.56
278.421	83.56
278.652	92.56
278.884	102.56
279.115	92.56
279.347	94.56
279.579	86.56
279.81	85.56
280.042	100.56
280.273	90.56
280.505	74.56
280.736	73.56
280.968	81.56
281.199	88.56
281.431	92.56
281.662	87.56
281.894	89.56
282.125	107.56
282.356	132.56
282.588	145.56
282.819	130.56
283.051	106.56
283.282	93.56
283.513	91.56
283.745	99.56
283.976	91.56
284.207	85.56
284.439	92.56
284.67	80.56
284.901	77.56
285.132	98.56
285.364	82.56
285.595	105.56
285.826	78.56
286.057	98.56
286.288	93.56
286.52	88.56
286.751	82.56
286.982	86.56
287.213	91.56
287.444	76.56
287.675	94.56
287.906	88.56
288.138	100.56
288.369	99.56
288.6	97.56
288.831	81.56
289.062	98.56
289.293	101.56
289.524	100.56
289.755	95.56
289.986	81.56
290.217	89.56
290.448	78.56
290.679	70.56
290.91	84.56
291.141	84.56
291.371	74.56
291.602	92.56
291.833	90.56
292.064	83.56
292.295	93.56
292.526	93.56
292.757	94.56
292.987	91.56
293.218	82.56
293.449	91.56
293.68	99.56
293.91	94.56
294.141	80.56
294.372	74.56
294.603	80.56
294.833	96.56
295.064	79.56
295.295	84.56
295.525	101.56
295.756	105.56
295.987	120.56
296.217	168.56
296.448	137.56
296.679	88.56
296.909	87.56
297.14	89.56
297.37	87.56
297.601	92.56
297.831	91.56
298.062	100.56
298.292	99.56
298.523	93.56
298.753	80.56
298.984	84.56
299.214	89.56
299.445	108.56
299.675	90.56
299.905	100.56
300.136	86.56
300.366	106.56
300.597	88.56
300.827	96.56
301.057	105.56
301.288	100.56
301.518	94.56
301.748	89.56
301.979	104.56
302.209	96.56
302.439	96.56
302.669	95.56
302.9	84.56
303.13	102.56
303.36	101.56
303.59	107.56
303.82	116.56
304.051	89.56
304.281	93.56
304.511	94.56
304.741	99.56
304.971	83.56
305.201	90.56
305.431	95.56
305.661	88.56
305.891	90.56
306.121	89.56
306.352	118.56
306.582	104.56
306.812	102.56
307.042	88.56
307.272	92.56
307.502	105.56
307.731	92.56
307.961	85.56
308.191	86.56
308.421	85.56
308.651	82.56
308.881	99.56
309.111	96.56
309.341	95.56
309.571	93.56
309.8	92.56
310.03	91.56
310.26	100.56
310.49	97.56
310.72	107.56
310.949	106.56
311.179	88.56
311.409	85.56
311.639	87.56
311.868	96.56
312.098	102.56
312.328	107.56
312.557	92.56
312.787	105.56
313.017	110.56
313.246	105.56
313.476	83.56
313.706	90.56
313.935	108.56
314.165	94.56
314.394	122.56
314.624	105.56
314.853	94.56
315.083	85.56
315.312	89.56
315.542	93.56
315.771	89.56
316.001	92.56
316.23	85.56
316.46	98.56
316.689	84.56
316.919	86.56
317.148	104.56
317.377	91.56
317.607	100.56
317.836	105.56
318.065	101.56
318.295	105.56
318.524	107.56
318.753	93.56
318.983	88.56
319.212	110.56
319.441	116.56
319.67	114.56
319.9	96.56
320.129	97.56
320.358	101.56
320.587	95.56
320.816	105.56
321.046	108.56
321.275	98.56
321.504	93.56
321.733	96.56
321.962	100.56
322.191	104.56
322.42	109.56
322.649	111.56
322.878	119.56
323.108	126.56
323.337	132.56
323.566	142.56
323.795	170.56
324.024	249.56
324.253	457.56
324.482	1030.56
324.71	2117.56
324.939	2940.56
325.168	1011.56
325.397	273.56
325.626	169.56
325.855	133.56
326.084	146.56
326.313	150.56
326.542	184.56
326.77	278.56
326.999	534.56
327.228	1150.56
327.457	2174.56
327.686	1743.56
327.914	453.56
328.143	227.56
328.372	184.56
328.6	135.56
328.829	139.56
329.058	138.56
329.287	130.56
329.515	108.56
329.744	112.56
329.972	110.56
330.201	114.56
330.43	150.56
330.658	131.56
330.887	171.56
331.115	139.56
331.344	124.56
331.572	108.56
331.801	104.56
332.03	114.56
332.258	118.56
332.486	103.56
332.715	94.56
332.943	94.56
333.172	99.56
333.4	94.56
333.629	109.56
333.857	106.56
334.085	119.56
334.314	116.56
334.542	166.56
334.771	149.56
334.999	114.56
335.227	91.56
335.455	104.56
335.684	102.56
335.912	101.56
336.14	99.56
336.369	117.56
336.597	115.56
336.825	111.56
337.053	98.56
337.281	81.56
337.51	97.56
337.738	100.56
337.966	93.56
338.194	123.56
338.422	111.56
338.65	102.56
338.878	85.56
339.106	78.56
339.334	103.56
339.562	91.56
339.79	85.56
340.018	89.56
340.246	100.56
340.474	96.56
340.702	97.56
340.93	100.56
341.158	85.56
341.386	103.56
341.614	99.56
341.842	94.56
342.07	112.56
342.298	94.56
342.526	99.56
342.754	95.56
342.981	88.56
343.209	88.56
343.437	105.56
343.665	91.56
343.893	86.56
344.12	81.56
344.348	97.56
344.576	82.56
344.804	88.56
345.031	104.56
345.259	95.56
345.487	88.56
345.714	109.56
345.942	96.56
346.17	92.56
346.397	97.56
346.625	113.56
346.853	99.56
347.08	107.56
347.308	96.56
347.535	100.56
347.763	112.56
347.99	96.56
348.218	102.56
348.445	126.56
348.673	92.56
348.9	101.56
349.128	85.56
349.355	94.56
349.583	88.56
349.81	86.56
350.037	97.56
350.265	102.56
350.492	88.56
350.72	91.56
350.947	93.56
351.174	116.56
351.402	120.56
351.629	110.56
351.856	106.56
352.083	119.56
352.311	107.56
352.538	105.56
352.765	108.56
352.992	117.56
353.22	127.56
353.447	98.56
353.674	104.56
353.901	99.56
354.128	96.56
354.355	96.56
354.583	88.56
354.81	82.56
355.037	100.56
355.264	98.56
355.491	102.56
355.718	94.56
355.945	92.56
356.172	102.56
356.399	101.56
356.626	90.56
356.853	96.56
357.08	89.56
357.307	109.56
357.534	89.56
357.761	104.56
357.988	99.56
358.215	98.56
358.441	84.56
358.668	105.56
358.895	101.56
359.122	89.56
359.349	97.56
359.576	93.56
359.802	117.56
360.029	127.56
360.256	123.56
360.483	107.56
360.709	76.56
360.936	100.56
361.163	100.56
361.39	107.56
361.616	90.56
361.843	87.56
362.07	93.56
362.296	103.56
362.523	93.56
362.749	107.56
362.976	99.56
363.203	104.56
363.429	86.56
363.656	91.56
363.882	108.56
364.109	109.56
364.335	96.56
364.562	106.56
364.788	104.56
365.015	111.56
365.241	98.56
365.468	117.56
365.694	101.56
365.92	89.56
366.147	100.56
366.373	98.56
366.599	86.56
366.826	86.56
367.052	103.56
367.278	101.56
367.505	90.56
367.731	102.56
367.957	92.56
368.184	103.56
368.41	100.56
368.636	118.56
368.862	138.56
369.089	118.56
369.315	98.56
369.541	100.56
369.767	107.56
369.993	93.56
370.219	103.56
370.445	81.56
370.672	83.56
370.898	88.56
371.124	92.56
371.35	91.56
371.576	95.56
371.802	94.56
372.028	80.56
372.254	88.56
372.48	92.56
372.706	96.56
372.932	86.56
373.158	99.56
373.384	76.56
373.61	91.56
373.835	89.56
374.061	101.56
374.287	97.56
374.513	93.56
374.739	96.56
374.965	85.56
375.191	98.56
375.416	92.56
375.642	88.56
375.868	92.56
376.094	94.56
376.319	99.56
376.545	98.56
376.771	93.56
376.997	92.56
377.222	118.56
377.448	85.56
377.674	83.56
377.899	85.56
378.125	84.56
378.35	96.56
378.576	82.56
378.802	100.56
379.027	93.56
379.253	102.56
379.478	95.56
379.704	102.56
379.929	91.56
380.155	100.56
380.38	98.56
380.606	95.56
380.831	99.56
381.057	96.56
381.282	96.56
381.507	88.56
381.733	77.56
381.958	100.56
382.184	104.56
382.409	103.56
382.634	110.56
382.86	103.56
383.085	87.56
383.31	99.56
383.535	97.56
383.761	105.56
383.986	102.56
384.211	99.56
384.436	98.56
384.662	118.56
384.887	87.56
385.112	91.56
385.337	102.56
385.562	108.56
385.787	105.56
386.013	112.56
386.238	117.56
386.463	107.56
386.688	107.56
386.913	101.56
387.138	103.56
387.363	103.56
387.588	105.56
387.813	99.56
388.038	96.56
388.263	99.56
388.488	97.56
388.713	102.56
388.938	80.56
389.163	97.56
389.387	87.56
389.612	103.56
389.837	96.56
390.062	86.56
390.287	99.56
390.512	74.56
390.736	80.56
390.961	93.56
391.186	85.56
391.411	97.56
391.636	87.56
391.86	83.56
392.085	89.56
392.31	82.56
392.534	96.56
392.759	84.56
392.984	83.56
393.208	93.56
393.433	92.56
393.658	98.56
393.882	82.56
394.107	87.56
394.331	85.56
394.556	94.56
394.78	93.56
395.005	86.56
395.229	84.56
395.454	95.56
395.678	84.56
395.903	94.56
396.127	102.56
396.352	82.56
396.576	72.56
396.801	75.56
397.025	91.56
397.249	87.56
397.474	92.56
397.698	86.56
397.922	84.56
398.147	69.56
398.371	85.56
398.595	88.56
398.82	87.56
399.044	97.56
399.268	84.56
399.492	86.56
399.717	94.56
399.941	91.56
400.165	89.56
400.389	93.56
400.613	80.56
400.837	82.56
401.062	92.56
401.286	86.56
401.51	82.56
401.734	110.56
401.958	109.56
402.182	140.56
402.406	185.56
402.63	105.56
402.854	100.56
403.078	91.56
403.302	78.56
403.526	101.56
403.75	89.56
403.974	103.56
404.198	105.56
404.422	102.56
404.645	77.56
404.869	94.56
405.093	91.56
405.317	102.56
405.541	101.56
405.765	109.56
405.988	118.56
406.212	195.56
406.436	281.56
406.66	173.56
406.883	113.56
407.107	108.56
407.331	109.56
407.555	110.56
407.778	110.56
408.002	91.56
408.226	94.56
408.449	103.56
408.673	92.56
408.896	75.56
409.12	93.56
409.344	92.56
409.567	100.56
409.791	105.56
410.014	89.56
410.238	104.56
410.461	94.56
410.685	95.56
410.908	86.56
411.132	104.56
411.355	114.56
411.578	93.56
411.802	89.56
412.025	92.56
412.249	89.56
412.472	118.56
412.695	98.56
412.919	68.56
413.142	96.56
413.365	86.56
413.589	97.56
413.812	86.56
414.035	103.56
414.258	81.56
414.482	88.56
414.705	95.56
414.928	85.56
415.151	99.56
415.374	104.56
415.597	85.56
415.821	82.56
416.044	95.56
416.267	101.56
416.49	97.56
416.713	88.56
416.936	92.56
417.159	88.56
417.382	92.56
417.605	91.56
417.828	107.56
418.051	101.56
418.274	97.56
418.497	98.56
418.72	89.56
418.943	96.56
419.166	98.56
419.389	97.56
419.611	73.56
419.834	87.56
420.057	97.56
420.28	78.56
420.503	90.56
420.726	85.56
420.948	96.56
421.171	99.56
421.394	93.56
421.617	81.56
421.839	84.56
422.062	94.56
422.285	99.56
422.507	83.56
422.73	111.56
422.953	97.56
423.175	79.56
423.398	97.56
423.621	90.56
423.843	98.56
424.066	91.56
424.288	96.56
424.511	97.56
424.733	115.56
424.956	113.56
425.178	85.56
425.401	118.56
425.623	112.56
425.846	89.56
426.068	109.56
426.291	99.56
426.513	85.56
426.735	90.56
426.958	99.56
427.18	111.56
427.402	139.56
427.625	187.56
427.847	146.56
428.069	122.56
428.292	91.56
428.514	99.56
428.736	97.56
428.958	101.56
429.181	90.56
429.403	100.56
429.625	79.56
429.847	96.56
430.069	110.56
430.292	114.56
430.514	76.56
430.736	75.56
430.958	92.56
431.18	93.56
431.402	89.56
431.624	92.56
431.846	89.56
432.068	100.56
432.29	85.56
432.512	101.56
432.734	85.56
432.956	102.56
433.178	93.56
433.4	98.56
433.622	106.56
433.844	105.56
434.066	93.56
434.287	89.56
434.509	82.56
434.731	90.56
434.953	84.56
435.175	78.56
435.397	99.56
435.618	93.56
435.84	109.56
436.062	135.56
436.284	122.56
436.505	106.56
436.727	104.56
436.949	98.56
437.17	94.56
437.392	90.56
437.614	101.56
437.835	114.56
438.057	126.56
438.278	114.56
438.5	101.56
438.721	107.56
438.943	102.56
439.165	97.56
439.386	105.56
439.608	93.56
439.829	105.56
440.05	129.56
440.272	149.56
440.493	100.56
440.715	80.56
440.936	73.56
441.158	86.56
441.379	77.56
441.6	90.56
441.822	105.56
442.043	98.56
442.264	114.56
442.486	107.56
442.707	100.56
442.928	109.56
443.149	158.56
443.371	144.56
443.592	127.56
443.813	111.56
444.034	117.56
444.255	101.56
444.476	77.56
444.698	100.56
444.919	90.56
445.14	136.56
445.361	132.56
445.582	128.56
445.803	166.56
446.024	151.56
446.245	144.56
446.466	112.56
446.687	98.56
446.908	93.56
447.129	86.56
447.35	88.56
447.571	97.56
447.792	87.56
448.013	84.56
448.234	113.56
448.455	99.56
448.675	121.56
448.896	116.56
449.117	100.56
449.338	90.56
449.559	136.56
449.779	130.56
450	98.56
450.221	93.56
450.442	98.56
450.662	84.56
450.883	109.56
451.104	138.56
451.324	101.56
451.545	94.56
451.766	81.56
451.986	81.56
452.207	69.56
452.428	102.56
452.648	94.56
452.869	121.56
453.089	136.56
453.31	124.56
453.53	112.56
453.751	98.56
453.971	120.56
454.192	114.56
454.412	93.56
454.633	89.56
454.853	90.56
455.073	99.56
455.294	87.56
455.514	104.56
455.734	98.56
455.955	67.56
456.175	77.56
456.395	81.56
456.616	74.56
456.836	91.56
457.056	84.56
457.276	100.56
457.497	92.56
457.717	94.56
457.937	86.56
458.157	87.56
458.377	92.56
458.598	108.56
458.818	171.56
459.038	181.56
459.258	130.56
459.478	93.56
459.698	98.56
459.918	88.56
460.138	97.56
460.358	96.56
460.578	91.56
460.798	95.56
461.018	85.56
461.238	80.56
461.458	85.56
461.678	89.56
461.898	77.56
462.118	92.56
462.338	82.56
462.558	84.56
462.777	83.56
462.997	94.56
463.217	81.56
463.437	94.56
463.657	97.56
463.876	102.56
464.096	83.56
464.316	104.56
464.536	81.56
464.755	96.56
464.975	133.56
465.195	203.56
465.414	174.56
465.634	105.56
465.854	93.56
466.073	91.56
466.293	95.56
466.512	84.56
466.732	72.56
466.951	103.56
467.171	103.56
467.391	105.56
467.61	104.56
467.829	89.56
468.049	103.56
468.268	113.56
468.488	100.56
468.707	90.56
468.927	90.56
469.146	97.56
469.365	84.56
469.585	108.56
469.804	112.56
470.023	108.56
470.243	93.56
470.462	114.56
470.681	114.56
470.901	106.56
471.12	93.56
471.339	75.56
471.558	88.56
471.777	97.56
471.997	98.56
472.216	126.56
472.435	170.56
472.654	110.56
472.873	93.56
473.092	93.56
473.311	70.56
473.53	90.56
473.749	92.56
473.968	97.56
474.187	96.56
474.406	109.56
474.625	76.56
474.844	93.56
475.063	96.56
475.282	84.56
475.501	93.56
475.72	93.56
475.939	92.56
476.158	87.56
476.377	101.56
476.596	84.56
476.814	104.56
477.033	117.56
477.252	98.56
477.471	97.56
477.69	86.56
477.908	84.56
478.127	94.56
478.346	89.56
478.564	84.56
478.783	100.56
479.002	91.56
479.22	88.56
479.439	99.56
479.658	104.56
479.876	109.56
480.095	99.56
480.313	101.56
480.532	96.56
480.751	89.56
480.969	128.56
481.188	243.56
481.406	180.56
481.624	96.56
481.843	98.56
482.061	98.56
482.28	99.56
482.498	87.56
482.717	85.56
482.935	91.56
483.153	117.56
483.372	94.56
483.59	98.56
483.808	90.56
484.027	90.56
484.245	118.56
484.463	95.56
484.681	92.56
484.9	88.56
485.118	82.56
485.336	103.56
485.554	95.56
485.772	90.56
485.99	105.56
486.209	102.56
486.427	103.56
486.645	101.56
486.863	114.56
487.081	96.56
487.299	97.56
487.517	100.56
487.735	96.56
487.953	88.56
488.171	73.56
488.389	100.56
488.607	107.56
488.825	84.56
489.043	85.56
489.261	97.56
489.479	97.56
489.696	78.56
489.914	88.56
490.132	93.56
490.35	99.56
490.568	80.56
490.786	83.56
491.003	81.56
491.221	85.56
491.439	100.56
491.657	87.56
491.874	85.56
492.092	92.56
492.31	96.56
492.527	102.56
492.745	108.56
492.963	90.56
493.18	89.56
493.398	81.56
493.615	79.56
493.833	102.56
494.05	88.56
494.268	84.56
494.485	76.56
494.703	94.56
494.92	87.56
495.138	87.56
495.355	91.56
495.573	100.56
495.79	84.56
496.008	93.56
496.225	83.56
496.442	84.56
496.66	91.56
496.877	80.56
497.094	82.56
497.312	86.56
497.529	102.56
497.746	93.56
497.963	98.56
498.181	96.56
498.398	87.56
498.615	119.56
498.832	93.56
499.049	91.56
499.267	81.56
499.484	100.56
499.701	98.56
499.918	87.56
500.135	87.56
500.352	97.56
500.569	97.56
500.786	105.56
501.003	103.56
501.22	92.56
501.437	103.56
501.654	101.56
501.871	120.56
502.088	90.56
502.305	88.56
502.522	104.56
502.739	112.56
502.956	102.56
503.172	88.56
503.389	94.56
503.606	134.56
503.823	88.56
504.04	90.56
504.256	80.56
504.473	80.56
504.69	93.56
504.907	97.56
505.123	104.56
505.34	101.56
505.557	94.56
505.773	106.56
505.99	91.56
506.207	85.56
506.423	91.56
506.64	107.56
506.856	104.56
507.073	92.56
507.289	95.56
507.506	108.56
507.722	125.56
507.939	110.56
508.155	111.56
508.372	95.56
508.588	103.56
508.805	104.56
509.021	109.56
509.238	99.56
509.454	104.56
509.67	96.56
509.887	121.56
510.103	145.56
510.319	235.56
510.536	927.56
510.752	3009.56
510.968	782.56
511.184	171.56
511.401	113.56
511.617	93.56
511.833	103.56
512.049	87.56
512.265	83.56
512.481	99.56
512.698	94.56
512.914	81.56
513.13	88.56
513.346	106.56
513.562	89.56
513.778	95.56
513.994	104.56
