Data from Uncirc_1985_H10_HRD10591_00014.txt Node
Date: Wed Jan 03 12:18:20 EST 2024
User: Yrep
Spectrometer: HR+D1059
Trigger mode: 1
Integration Time (sec): 1.000000E-1
Scans to average: 1
Electric dark correction enabled: true
Nonlinearity correction enabled: false
Boxcar width: 0
XAxis mode: Wavelengths
Number of Pixels in Spectrum: 2048
>>>>>Begin Spectral Data<<<<<
223.165	-7.94
223.4	-7.94
223.635	-7.94
223.869	-14.94
224.104	-15.94
224.338	-18.94
224.573	-13.94
224.808	-13.94
225.042	-13.94
225.277	0.06
225.511	-11.94
225.746	8.06
225.98	4.06
226.215	2.06
226.449	21.06
226.683	13.06
226.918	29.06
227.152	34.06
227.387	31.06
227.621	46.06
227.856	52.06
228.09	60.06
228.324	49.06
228.559	49.06
228.793	58.06
229.027	70.06
229.262	66.06
229.496	62.06
229.73	60.06
229.964	76.06
230.199	63.06
230.433	72.06
230.667	74.06
230.901	80.06
231.136	76.06
231.37	72.06
231.604	70.06
231.838	69.06
232.072	69.06
232.306	83.06
232.541	69.06
232.775	79.06
233.009	78.06
233.243	78.06
233.477	76.06
233.711	68.06
233.945	73.06
234.179	80.06
234.413	73.06
234.647	93.06
234.881	72.06
235.115	78.06
235.349	70.06
235.583	86.06
235.817	82.06
236.051	81.06
236.285	70.06
236.519	76.06
236.753	62.06
236.987	76.06
237.221	66.06
237.455	61.06
237.689	57.06
237.922	70.06
238.156	77.06
238.39	82.06
238.624	72.06
238.858	79.06
239.091	78.06
239.325	99.06
239.559	85.06
239.793	68.06
240.027	87.06
240.26	88.06
240.494	70.06
240.728	76.06
240.961	89.06
241.195	82.06
241.429	81.06
241.662	81.06
241.896	71.06
242.13	60.06
242.363	65.06
242.597	80.06
242.83	66.06
243.064	77.06
243.298	66.06
243.531	68.06
243.765	82.06
243.998	87.06
244.232	90.06
244.465	90.06
244.699	72.06
244.932	72.06
245.166	79.06
245.399	70.06
245.633	94.06
245.866	71.06
246.099	70.06
246.333	73.06
246.566	65.06
246.8	90.06
247.033	63.06
247.266	85.06
247.5	56.06
247.733	65.06
247.966	78.06
248.2	76.06
248.433	93.06
248.666	90.06
248.899	81.06
249.133	64.06
249.366	82.06
249.599	81.06
249.832	85.06
250.066	81.06
250.299	80.06
250.532	65.06
250.765	68.06
250.998	69.06
251.231	75.06
251.465	76.06
251.698	69.06
251.931	66.06
252.164	72.06
252.397	63.06
252.63	71.06
252.863	88.06
253.096	81.06
253.329	85.06
253.562	77.06
253.795	82.06
254.028	83.06
254.261	79.06
254.494	69.06
254.727	58.06
254.96	67.06
255.193	71.06
255.426	90.06
255.659	86.06
255.892	86.06
256.124	69.06
256.357	70.06
256.59	72.06
256.823	86.06
257.056	82.06
257.289	86.06
257.521	81.06
257.754	76.06
257.987	87.06
258.22	97.06
258.452	72.06
258.685	78.06
258.918	59.06
259.151	84.06
259.383	82.06
259.616	70.06
259.849	82.06
260.081	84.06
260.314	72.06
260.547	87.06
260.779	97.06
261.012	66.06
261.244	80.06
261.477	78.06
261.71	98.06
261.942	99.06
262.175	105.06
262.407	78.06
262.64	86.06
262.872	83.06
263.105	83.06
263.337	83.06
263.57	83.06
263.802	78.06
264.035	79.06
264.267	77.06
264.499	101.06
264.732	87.06
264.964	84.06
265.197	78.06
265.429	86.06
265.661	76.06
265.894	94.06
266.126	78.06
266.358	79.06
266.591	73.06
266.823	80.06
267.055	86.06
267.287	77.06
267.52	79.06
267.752	68.06
267.984	85.06
268.216	90.06
268.448	74.06
268.681	81.06
268.913	83.06
269.145	72.06
269.377	79.06
269.609	72.06
269.841	72.06
270.073	90.06
270.306	78.06
270.538	112.06
270.77	98.06
271.002	71.06
271.234	69.06
271.466	86.06
271.698	82.06
271.93	71.06
272.162	88.06
272.394	91.06
272.626	89.06
272.858	79.06
273.09	68.06
273.322	77.06
273.553	80.06
273.785	76.06
274.017	85.06
274.249	83.06
274.481	80.06
274.713	80.06
274.945	84.06
275.176	94.06
275.408	84.06
275.64	76.06
275.872	73.06
276.104	75.06
276.335	85.06
276.567	90.06
276.799	97.06
277.031	93.06
277.262	83.06
277.494	89.06
277.726	81.06
277.957	80.06
278.189	73.06
278.421	86.06
278.652	80.06
278.884	82.06
279.115	73.06
279.347	80.06
279.579	71.06
279.81	82.06
280.042	98.06
280.273	82.06
280.505	88.06
280.736	87.06
280.968	73.06
281.199	88.06
281.431	89.06
281.662	77.06
281.894	79.06
282.125	86.06
282.356	99.06
282.588	110.06
282.819	110.06
283.051	77.06
283.282	85.06
283.513	83.06
283.745	85.06
283.976	72.06
284.207	85.06
284.439	87.06
284.67	84.06
284.901	82.06
285.132	81.06
285.364	76.06
285.595	72.06
285.826	92.06
286.057	99.06
286.288	87.06
286.52	79.06
286.751	85.06
286.982	76.06
287.213	87.06
287.444	91.06
287.675	96.06
287.906	89.06
288.138	89.06
288.369	103.06
288.6	88.06
288.831	98.06
289.062	92.06
289.293	89.06
289.524	90.06
289.755	83.06
289.986	92.06
290.217	93.06
290.448	82.06
290.679	90.06
290.91	93.06
291.141	81.06
291.371	80.06
291.602	84.06
291.833	81.06
292.064	68.06
292.295	84.06
292.526	87.06
292.757	71.06
292.987	85.06
293.218	75.06
293.449	77.06
293.68	78.06
293.91	71.06
294.141	83.06
294.372	92.06
294.603	91.06
294.833	81.06
295.064	76.06
295.295	76.06
295.525	93.06
295.756	93.06
295.987	102.06
296.217	119.06
296.448	119.06
296.679	87.06
296.909	87.06
297.14	82.06
297.37	101.06
297.601	90.06
297.831	94.06
298.062	82.06
298.292	99.06
298.523	96.06
298.753	81.06
298.984	84.06
299.214	94.06
299.445	91.06
299.675	82.06
299.905	88.06
300.136	103.06
300.366	92.06
300.597	67.06
300.827	93.06
301.057	90.06
301.288	85.06
301.518	97.06
301.748	85.06
301.979	82.06
302.209	82.06
302.439	87.06
302.669	80.06
302.9	88.06
303.13	94.06
303.36	95.06
303.59	94.06
303.82	90.06
304.051	94.06
304.281	86.06
304.511	96.06
304.741	77.06
304.971	80.06
305.201	85.06
305.431	78.06
305.661	84.06
305.891	86.06
306.121	84.06
306.352	97.06
306.582	98.06
306.812	80.06
307.042	80.06
307.272	77.06
307.502	95.06
307.731	93.06
307.961	68.06
308.191	102.06
308.421	91.06
308.651	92.06
308.881	86.06
309.111	95.06
309.341	84.06
309.571	104.06
309.8	98.06
310.03	89.06
310.26	81.06
310.49	96.06
310.72	106.06
310.949	97.06
311.179	93.06
311.409	88.06
311.639	80.06
311.868	97.06
312.098	101.06
312.328	93.06
312.557	90.06
312.787	87.06
313.017	102.06
313.246	82.06
313.476	105.06
313.706	80.06
313.935	80.06
314.165	85.06
314.394	90.06
314.624	95.06
314.853	101.06
315.083	99.06
315.312	97.06
315.542	97.06
315.771	87.06
316.001	84.06
316.23	91.06
316.46	80.06
316.689	78.06
316.919	82.06
317.148	94.06
317.377	96.06
317.607	98.06
317.836	88.06
318.065	96.06
318.295	86.06
318.524	72.06
318.753	94.06
318.983	95.06
319.212	94.06
319.441	100.06
319.67	94.06
319.9	82.06
320.129	86.06
320.358	84.06
320.587	100.06
320.816	99.06
321.046	96.06
321.275	92.06
321.504	100.06
321.733	96.06
321.962	89.06
322.191	96.06
322.42	89.06
322.649	82.06
322.878	112.06
323.108	101.06
323.337	114.06
323.566	134.06
323.795	134.06
324.024	177.06
324.253	344.06
324.482	733.06
324.71	1456.06
324.939	1909.06
325.168	708.06
325.397	226.06
325.626	153.06
325.855	115.06
326.084	124.06
326.313	115.06
326.542	138.06
326.77	193.06
326.999	420.06
327.228	834.06
327.457	1522.06
327.686	1186.06
327.914	334.06
328.143	169.06
328.372	135.06
328.6	129.06
328.829	125.06
329.058	117.06
329.287	119.06
329.515	88.06
329.744	86.06
329.972	101.06
330.201	78.06
330.43	115.06
330.658	112.06
330.887	125.06
331.115	121.06
331.344	97.06
331.572	101.06
331.801	93.06
332.03	102.06
332.258	90.06
332.486	82.06
332.715	81.06
332.943	80.06
333.172	101.06
333.4	99.06
333.629	101.06
333.857	95.06
334.085	106.06
334.314	86.06
334.542	109.06
334.771	104.06
334.999	104.06
335.227	101.06
335.455	81.06
335.684	88.06
335.912	95.06
336.14	95.06
336.369	96.06
336.597	108.06
336.825	100.06
337.053	94.06
337.281	95.06
337.51	90.06
337.738	81.06
337.966	90.06
338.194	80.06
338.422	77.06
338.65	98.06
338.878	97.06
339.106	71.06
339.334	83.06
339.562	88.06
339.79	88.06
340.018	95.06
340.246	95.06
340.474	86.06
340.702	88.06
340.93	89.06
341.158	89.06
341.386	97.06
341.614	89.06
341.842	94.06
342.07	85.06
342.298	66.06
342.526	81.06
342.754	87.06
342.981	86.06
343.209	86.06
343.437	99.06
343.665	96.06
343.893	88.06
344.12	96.06
344.348	103.06
344.576	83.06
344.804	87.06
345.031	105.06
345.259	107.06
345.487	92.06
345.714	95.06
345.942	77.06
346.17	89.06
346.397	93.06
346.625	100.06
346.853	93.06
347.08	92.06
347.308	76.06
347.535	100.06
347.763	96.06
347.99	92.06
348.218	87.06
348.445	97.06
348.673	98.06
348.9	93.06
349.128	88.06
349.355	102.06
349.583	104.06
349.81	96.06
350.037	82.06
350.265	87.06
350.492	86.06
350.72	93.06
350.947	98.06
351.174	100.06
351.402	96.06
351.629	88.06
351.856	113.06
352.083	87.06
352.311	104.06
352.538	102.06
352.765	101.06
352.992	101.06
353.22	98.06
353.447	93.06
353.674	81.06
353.901	90.06
354.128	95.06
354.355	96.06
354.583	88.06
354.81	100.06
355.037	100.06
355.264	103.06
355.491	77.06
355.718	87.06
355.945	90.06
356.172	90.06
356.399	93.06
356.626	96.06
356.853	88.06
357.08	78.06
357.307	96.06
357.534	104.06
357.761	89.06
357.988	89.06
358.215	92.06
358.441	95.06
358.668	101.06
358.895	86.06
359.122	84.06
359.349	97.06
359.576	96.06
359.802	90.06
360.029	112.06
360.256	104.06
360.483	92.06
360.709	79.06
360.936	76.06
361.163	81.06
361.39	94.06
361.616	105.06
361.843	87.06
362.07	102.06
362.296	95.06
362.523	83.06
362.749	100.06
362.976	84.06
363.203	98.06
363.429	85.06
363.656	103.06
363.882	63.06
364.109	86.06
364.335	95.06
364.562	89.06
364.788	76.06
365.015	89.06
365.241	90.06
365.468	102.06
365.694	98.06
365.92	90.06
366.147	92.06
366.373	78.06
366.599	88.06
366.826	103.06
367.052	80.06
367.278	89.06
367.505	84.06
367.731	94.06
367.957	86.06
368.184	74.06
368.41	93.06
368.636	96.06
368.862	102.06
369.089	103.06
369.315	101.06
369.541	84.06
369.767	89.06
369.993	79.06
370.219	68.06
370.445	89.06
370.672	78.06
370.898	92.06
371.124	93.06
371.35	86.06
371.576	89.06
371.802	85.06
372.028	72.06
372.254	84.06
372.48	89.06
372.706	96.06
372.932	92.06
373.158	89.06
373.384	90.06
373.61	95.06
373.835	85.06
374.061	86.06
374.287	83.06
374.513	80.06
374.739	84.06
374.965	90.06
375.191	84.06
375.416	97.06
375.642	74.06
375.868	70.06
376.094	92.06
376.319	90.06
376.545	100.06
376.771	84.06
376.997	94.06
377.222	98.06
377.448	93.06
377.674	83.06
377.899	80.06
378.125	83.06
378.35	89.06
378.576	82.06
378.802	77.06
379.027	80.06
379.253	97.06
379.478	96.06
379.704	95.06
379.929	83.06
380.155	101.06
380.38	98.06
380.606	101.06
380.831	76.06
381.057	99.06
381.282	82.06
381.507	94.06
381.733	105.06
381.958	98.06
382.184	84.06
382.409	93.06
382.634	100.06
382.86	84.06
383.085	101.06
383.31	92.06
383.535	84.06
383.761	91.06
383.986	90.06
384.211	93.06
384.436	104.06
384.662	109.06
384.887	97.06
385.112	96.06
385.337	101.06
385.562	88.06
385.787	102.06
386.013	99.06
386.238	101.06
386.463	119.06
386.688	92.06
386.913	108.06
387.138	89.06
387.363	94.06
387.588	98.06
387.813	96.06
388.038	96.06
388.263	119.06
388.488	98.06
388.713	96.06
388.938	89.06
389.163	108.06
389.387	96.06
389.612	94.06
389.837	102.06
390.062	88.06
390.287	94.06
390.512	95.06
390.736	80.06
390.961	93.06
391.186	88.06
391.411	97.06
391.636	90.06
391.86	86.06
392.085	88.06
392.31	81.06
392.534	106.06
392.759	97.06
392.984	94.06
393.208	95.06
393.433	92.06
393.658	106.06
393.882	82.06
394.107	80.06
394.331	77.06
394.556	73.06
394.78	83.06
395.005	90.06
395.229	80.06
395.454	75.06
395.678	101.06
395.903	81.06
396.127	86.06
396.352	78.06
396.576	72.06
396.801	87.06
397.025	87.06
397.249	94.06
397.474	95.06
397.698	78.06
397.922	107.06
398.147	82.06
398.371	85.06
398.595	93.06
398.82	82.06
399.044	79.06
399.268	74.06
399.492	88.06
399.717	76.06
399.941	71.06
400.165	89.06
400.389	80.06
400.613	71.06
400.837	82.06
401.062	91.06
401.286	79.06
401.51	86.06
401.734	93.06
401.958	93.06
402.182	113.06
402.406	140.06
402.63	114.06
402.854	85.06
403.078	90.06
403.302	77.06
403.526	97.06
403.75	90.06
403.974	72.06
404.198	80.06
404.422	79.06
404.645	98.06
404.869	98.06
405.093	101.06
405.317	104.06
405.541	87.06
405.765	81.06
405.988	104.06
406.212	143.06
406.436	184.06
406.66	125.06
406.883	94.06
407.107	82.06
407.331	82.06
407.555	93.06
407.778	89.06
408.002	86.06
408.226	98.06
408.449	80.06
408.673	81.06
408.896	92.06
409.12	103.06
409.344	91.06
409.567	83.06
409.791	87.06
410.014	97.06
410.238	96.06
410.461	80.06
410.685	85.06
410.908	86.06
411.132	92.06
411.355	87.06
411.578	98.06
411.802	98.06
412.025	76.06
412.249	85.06
412.472	100.06
412.695	87.06
412.919	95.06
413.142	84.06
413.365	77.06
413.589	78.06
413.812	79.06
414.035	72.06
414.258	94.06
414.482	87.06
414.705	78.06
414.928	92.06
415.151	97.06
415.374	86.06
415.597	88.06
415.821	97.06
416.044	91.06
416.267	70.06
416.49	81.06
416.713	77.06
416.936	83.06
417.159	83.06
417.382	82.06
417.605	92.06
417.828	84.06
418.051	86.06
418.274	92.06
418.497	76.06
418.72	80.06
418.943	94.06
419.166	74.06
419.389	92.06
419.611	92.06
419.834	96.06
420.057	82.06
420.28	95.06
420.503	85.06
420.726	88.06
420.948	82.06
421.171	81.06
421.394	91.06
421.617	94.06
421.839	77.06
422.062	82.06
422.285	87.06
422.507	107.06
422.73	82.06
422.953	89.06
423.175	71.06
423.398	96.06
423.621	73.06
423.843	88.06
424.066	102.06
424.288	85.06
424.511	92.06
424.733	105.06
424.956	93.06
425.178	104.06
425.401	96.06
425.623	92.06
425.846	73.06
426.068	78.06
426.291	82.06
426.513	89.06
426.735	96.06
426.958	92.06
427.18	98.06
427.402	105.06
427.625	127.06
427.847	107.06
428.069	114.06
428.292	85.06
428.514	78.06
428.736	72.06
428.958	66.06
429.181	92.06
429.403	84.06
429.625	86.06
429.847	89.06
430.069	108.06
430.292	91.06
430.514	85.06
430.736	97.06
430.958	84.06
431.18	100.06
431.402	80.06
431.624	86.06
431.846	103.06
432.068	81.06
432.29	90.06
432.512	80.06
432.734	95.06
432.956	92.06
433.178	109.06
433.4	95.06
433.622	105.06
433.844	85.06
434.066	95.06
434.287	90.06
434.509	84.06
434.731	87.06
434.953	94.06
435.175	83.06
435.397	88.06
435.618	85.06
435.84	85.06
436.062	111.06
436.284	99.06
436.505	98.06
436.727	94.06
436.949	82.06
437.17	96.06
437.392	82.06
437.614	87.06
437.835	98.06
438.057	107.06
438.278	89.06
438.5	92.06
438.721	122.06
438.943	101.06
439.165	99.06
439.386	90.06
439.608	81.06
439.829	85.06
440.05	100.06
440.272	119.06
440.493	92.06
440.715	84.06
440.936	89.06
441.158	73.06
441.379	78.06
441.6	89.06
441.822	95.06
442.043	73.06
442.264	96.06
442.486	93.06
442.707	96.06
442.928	93.06
443.149	109.06
443.371	129.06
443.592	92.06
443.813	115.06
444.034	102.06
444.255	99.06
444.476	81.06
444.698	87.06
444.919	92.06
445.14	136.06
445.361	116.06
445.582	103.06
445.803	118.06
446.024	125.06
446.245	121.06
446.466	115.06
446.687	77.06
446.908	88.06
447.129	89.06
447.35	99.06
447.571	84.06
447.792	80.06
448.013	84.06
448.234	89.06
448.455	105.06
448.675	101.06
448.896	105.06
449.117	109.06
449.338	89.06
449.559	101.06
449.779	133.06
450	97.06
450.221	82.06
450.442	93.06
450.662	84.06
450.883	109.06
451.104	88.06
451.324	99.06
451.545	79.06
451.766	78.06
451.986	84.06
452.207	98.06
452.428	81.06
452.648	96.06
452.869	94.06
453.089	103.06
453.31	98.06
453.53	100.06
453.751	94.06
453.971	88.06
454.192	100.06
454.412	87.06
454.633	80.06
454.853	86.06
455.073	83.06
455.294	90.06
455.514	106.06
455.734	82.06
455.955	92.06
456.175	85.06
456.395	81.06
456.616	62.06
456.836	78.06
457.056	74.06
457.276	78.06
457.497	89.06
457.717	93.06
457.937	83.06
458.157	79.06
458.377	92.06
458.598	104.06
458.818	127.06
459.038	136.06
459.258	103.06
459.478	98.06
459.698	84.06
459.918	83.06
460.138	88.06
460.358	80.06
460.578	81.06
460.798	86.06
461.018	92.06
461.238	83.06
461.458	79.06
461.678	88.06
461.898	77.06
462.118	85.06
462.338	93.06
462.558	90.06
462.777	74.06
462.997	90.06
463.217	97.06
463.437	93.06
463.657	79.06
463.876	87.06
464.096	78.06
464.316	87.06
464.536	94.06
464.755	88.06
464.975	105.06
465.195	145.06
465.414	132.06
465.634	101.06
465.854	84.06
466.073	90.06
466.293	64.06
466.512	87.06
466.732	84.06
466.951	76.06
467.171	84.06
467.391	92.06
467.61	85.06
467.829	93.06
468.049	102.06
468.268	94.06
468.488	81.06
468.707	80.06
468.927	88.06
469.146	90.06
469.365	85.06
469.585	86.06
469.804	103.06
470.023	93.06
470.243	92.06
470.462	101.06
470.681	96.06
470.901	91.06
471.12	85.06
471.339	95.06
471.558	78.06
471.777	76.06
471.997	76.06
472.216	85.06
472.435	98.06
472.654	83.06
472.873	94.06
473.092	86.06
473.311	84.06
473.53	74.06
473.749	81.06
473.968	81.06
474.187	81.06
474.406	88.06
474.625	71.06
474.844	77.06
475.063	84.06
475.282	78.06
475.501	73.06
475.72	89.06
475.939	93.06
476.158	84.06
476.377	68.06
476.596	98.06
476.814	76.06
477.033	78.06
477.252	95.06
477.471	95.06
477.69	86.06
477.908	84.06
478.127	69.06
478.346	85.06
478.564	78.06
478.783	92.06
479.002	85.06
479.22	87.06
479.439	102.06
479.658	88.06
479.876	77.06
480.095	73.06
480.313	96.06
480.532	95.06
480.751	81.06
480.969	96.06
481.188	109.06
481.406	104.06
481.624	84.06
481.843	95.06
482.061	76.06
482.28	76.06
482.498	77.06
482.717	87.06
482.935	94.06
483.153	96.06
483.372	82.06
483.59	86.06
483.808	86.06
484.027	80.06
484.245	101.06
484.463	101.06
484.681	88.06
484.9	76.06
485.118	82.06
485.336	97.06
485.554	81.06
485.772	104.06
485.99	88.06
486.209	90.06
486.427	106.06
486.645	93.06
486.863	105.06
487.081	95.06
487.299	105.06
487.517	84.06
487.735	90.06
487.953	81.06
488.171	83.06
488.389	110.06
488.607	103.06
488.825	86.06
489.043	87.06
489.261	84.06
489.479	92.06
489.696	92.06
489.914	85.06
490.132	81.06
490.35	80.06
490.568	79.06
490.786	93.06
491.003	84.06
491.221	83.06
491.439	80.06
491.657	71.06
491.874	91.06
492.092	87.06
492.31	100.06
492.527	101.06
492.745	80.06
492.963	95.06
493.18	97.06
493.398	93.06
493.615	108.06
493.833	103.06
494.05	92.06
494.268	97.06
494.485	90.06
494.703	87.06
494.92	90.06
495.138	92.06
495.355	78.06
495.573	87.06
495.79	96.06
496.008	92.06
496.225	80.06
496.442	96.06
496.66	88.06
496.877	70.06
497.094	78.06
497.312	71.06
497.529	88.06
497.746	76.06
497.963	103.06
498.181	89.06
498.398	80.06
498.615	98.06
498.832	94.06
499.049	104.06
499.267	83.06
499.484	92.06
499.701	86.06
499.918	89.06
500.135	81.06
500.352	77.06
500.569	85.06
500.786	92.06
501.003	88.06
501.22	76.06
501.437	94.06
501.654	94.06
501.871	96.06
502.088	94.06
502.305	79.06
502.522	98.06
502.739	85.06
502.956	96.06
503.172	73.06
503.389	95.06
503.606	93.06
503.823	78.06
504.04	78.06
504.256	91.06
504.473	74.06
504.69	84.06
504.907	77.06
505.123	93.06
505.34	86.06
505.557	93.06
505.773	104.06
505.99	82.06
506.207	90.06
506.423	84.06
506.64	80.06
506.856	89.06
507.073	92.06
507.289	87.06
507.506	93.06
507.722	112.06
507.939	115.06
508.155	109.06
508.372	92.06
508.588	90.06
508.805	89.06
509.021	81.06
509.238	100.06
509.454	97.06
509.67	104.06
509.887	76.06
510.103	101.06
510.319	188.06
510.536	669.06
510.752	2013.06
510.968	562.06
511.184	126.06
511.401	107.06
511.617	92.06
511.833	102.06
512.049	76.06
512.265	87.06
512.481	85.06
512.698	77.06
512.914	81.06
513.13	88.06
513.346	76.06
513.562	92.06
513.778	83.06
513.994	96.06
514.21	99.06
514.426	95.06
514.642	99.06
514.858	105.06
515.074	143.06
515.29	376.06
515.506	1151.06
515.721	435.06
515.937	140.06
516.153	98.06
516.369	82.06
516.585	87.06
516.801	87.06
517.016	101.06
