Data from Uncirc_1985_H10_HRD10591_00095.txt Node
Date: Wed Jan 03 12:18:36 EST 2024
User: Yrep
Spectrometer: HR+D1059
Trigger mode: 1
Integration Time (sec): 1.000000E-1
Scans to average: 1
Electric dark correction enabled: true
Nonlinearity correction enabled: false
Boxcar width: 0
XAxis mode: Wavelengths
Number of Pixels in Spectrum: 2048
>>>>>Begin Spectral Data<<<<<
223.165	-2.38
223.4	-2.38
223.635	-2.38
223.869	-23.38
224.104	-28.38
224.338	-22.38
224.573	-5.38
224.808	-14.38
225.042	-6.38
225.277	-10.38
225.511	8.62
225.746	4.62
225.98	-2.38
226.215	-2.38
226.449	12.62
226.683	22.62
226.918	34.62
227.152	34.62
227.387	53.62
227.621	36.62
227.856	40.62
228.09	45.62
228.324	46.62
228.559	49.62
228.793	51.62
229.027	69.62
229.262	64.62
229.496	74.62
229.73	82.62
229.964	90.62
230.199	64.62
230.433	68.62
230.667	84.62
230.901	65.62
231.136	72.62
231.37	98.62
231.604	85.62
231.838	68.62
232.072	77.62
232.306	66.62
232.541	93.62
232.775	91.62
233.009	86.62
233.243	82.62
233.477	77.62
233.711	61.62
233.945	73.62
234.179	92.62
234.413	61.62
234.647	80.62
234.881	76.62
235.115	59.62
235.349	78.62
235.583	96.62
235.817	83.62
236.051	82.62
236.285	73.62
236.519	80.62
236.753	71.62
236.987	73.62
237.221	74.62
237.455	86.62
237.689	78.62
237.922	89.62
238.156	74.62
238.39	82.62
238.624	84.62
238.858	73.62
239.091	81.62
239.325	80.62
239.559	82.62
239.793	67.62
240.027	80.62
240.26	67.62
240.494	68.62
240.728	77.62
240.961	93.62
241.195	74.62
241.429	83.62
241.662	64.62
241.896	84.62
242.13	70.62
242.363	69.62
242.597	64.62
242.83	80.62
243.064	70.62
243.298	79.62
243.531	81.62
243.765	82.62
243.998	78.62
244.232	89.62
244.465	88.62
244.699	72.62
244.932	78.62
245.166	88.62
245.399	90.62
245.633	74.62
245.866	85.62
246.099	82.62
246.333	80.62
246.566	69.62
246.8	82.62
247.033	79.62
247.266	71.62
247.5	80.62
247.733	101.62
247.966	65.62
248.2	92.62
248.433	73.62
248.666	80.62
248.899	74.62
249.133	92.62
249.366	98.62
249.599	84.62
249.832	90.62
250.066	92.62
250.299	74.62
250.532	90.62
250.765	88.62
250.998	82.62
251.231	80.62
251.465	89.62
251.698	107.62
251.931	68.62
252.164	69.62
252.397	82.62
252.63	80.62
252.863	72.62
253.096	86.62
253.329	96.62
253.562	88.62
253.795	70.62
254.028	88.62
254.261	82.62
254.494	83.62
254.727	96.62
254.96	82.62
255.193	91.62
255.426	86.62
255.659	99.62
255.892	91.62
256.124	88.62
256.357	72.62
256.59	86.62
256.823	92.62
257.056	84.62
257.289	82.62
257.521	92.62
257.754	83.62
257.987	81.62
258.22	90.62
258.452	92.62
258.685	83.62
258.918	96.62
259.151	78.62
259.383	89.62
259.616	75.62
259.849	87.62
260.081	83.62
260.314	94.62
260.547	91.62
260.779	75.62
261.012	101.62
261.244	77.62
261.477	81.62
261.71	75.62
261.942	116.62
262.175	112.62
262.407	92.62
262.64	76.62
262.872	73.62
263.105	76.62
263.337	77.62
263.57	90.62
263.802	83.62
264.035	89.62
264.267	84.62
264.499	84.62
264.732	90.62
264.964	105.62
265.197	88.62
265.429	87.62
265.661	85.62
265.894	91.62
266.126	86.62
266.358	86.62
266.591	90.62
266.823	82.62
267.055	88.62
267.287	93.62
267.52	74.62
267.752	92.62
267.984	100.62
268.216	91.62
268.448	90.62
268.681	80.62
268.913	77.62
269.145	87.62
269.377	88.62
269.609	80.62
269.841	81.62
270.073	80.62
270.306	72.62
270.538	74.62
270.77	82.62
271.002	93.62
271.234	77.62
271.466	89.62
271.698	86.62
271.93	92.62
272.162	83.62
272.394	93.62
272.626	86.62
272.858	83.62
273.09	84.62
273.322	92.62
273.553	80.62
273.785	97.62
274.017	82.62
274.249	72.62
274.481	93.62
274.713	90.62
274.945	90.62
275.176	87.62
275.408	91.62
275.64	97.62
275.872	82.62
276.104	87.62
276.335	102.62
276.567	98.62
276.799	113.62
277.031	96.62
277.262	88.62
277.494	85.62
277.726	88.62
277.957	83.62
278.189	78.62
278.421	82.62
278.652	70.62
278.884	92.62
279.115	85.62
279.347	86.62
279.579	87.62
279.81	82.62
280.042	92.62
280.273	101.62
280.505	96.62
280.736	107.62
280.968	88.62
281.199	91.62
281.431	93.62
281.662	86.62
281.894	96.62
282.125	103.62
282.356	115.62
282.588	140.62
282.819	112.62
283.051	85.62
283.282	92.62
283.513	105.62
283.745	86.62
283.976	88.62
284.207	91.62
284.439	86.62
284.67	84.62
284.901	84.62
285.132	93.62
285.364	95.62
285.595	95.62
285.826	87.62
286.057	93.62
286.288	90.62
286.52	93.62
286.751	86.62
286.982	89.62
287.213	96.62
287.444	80.62
287.675	98.62
287.906	87.62
288.138	96.62
288.369	93.62
288.6	106.62
288.831	97.62
289.062	90.62
289.293	110.62
289.524	89.62
289.755	95.62
289.986	89.62
290.217	80.62
290.448	96.62
290.679	95.62
290.91	101.62
291.141	103.62
291.371	80.62
291.602	86.62
291.833	84.62
292.064	90.62
292.295	81.62
292.526	95.62
292.757	80.62
292.987	92.62
293.218	86.62
293.449	93.62
293.68	98.62
293.91	80.62
294.141	100.62
294.372	104.62
294.603	89.62
294.833	85.62
295.064	86.62
295.295	107.62
295.525	85.62
295.756	90.62
295.987	116.62
296.217	130.62
296.448	119.62
296.679	98.62
296.909	100.62
297.14	93.62
297.37	88.62
297.601	77.62
297.831	94.62
298.062	95.62
298.292	93.62
298.523	106.62
298.753	91.62
298.984	86.62
299.214	84.62
299.445	92.62
299.675	91.62
299.905	100.62
300.136	95.62
300.366	93.62
300.597	100.62
300.827	90.62
301.057	96.62
301.288	106.62
301.518	95.62
301.748	91.62
301.979	91.62
302.209	81.62
302.439	91.62
302.669	89.62
302.9	93.62
303.13	92.62
303.36	84.62
303.59	98.62
303.82	101.62
304.051	105.62
304.281	86.62
304.511	86.62
304.741	96.62
304.971	104.62
305.201	81.62
305.431	78.62
305.661	102.62
305.891	93.62
306.121	87.62
306.352	96.62
306.582	110.62
306.812	104.62
307.042	69.62
307.272	94.62
307.502	102.62
307.731	95.62
307.961	90.62
308.191	102.62
308.421	83.62
308.651	85.62
308.881	85.62
309.111	95.62
309.341	118.62
309.571	99.62
309.8	92.62
310.03	96.62
310.26	96.62
310.49	84.62
310.72	106.62
310.949	108.62
311.179	96.62
311.409	82.62
311.639	99.62
311.868	92.62
312.098	95.62
312.328	108.62
312.557	103.62
312.787	116.62
313.017	97.62
313.246	95.62
313.476	94.62
313.706	105.62
313.935	87.62
314.165	84.62
314.394	100.62
314.624	88.62
314.853	86.62
315.083	98.62
315.312	102.62
315.542	92.62
315.771	88.62
316.001	103.62
316.23	93.62
316.46	91.62
316.689	96.62
316.919	96.62
317.148	105.62
317.377	113.62
317.607	86.62
317.836	86.62
318.065	91.62
318.295	99.62
318.524	86.62
318.753	84.62
318.983	92.62
319.212	108.62
319.441	98.62
319.67	101.62
319.9	94.62
320.129	89.62
320.358	82.62
320.587	87.62
320.816	97.62
321.046	84.62
321.275	92.62
321.504	89.62
321.733	89.62
321.962	92.62
322.191	101.62
322.42	95.62
322.649	89.62
322.878	93.62
323.108	116.62
323.337	124.62
323.566	116.62
323.795	135.62
324.024	187.62
324.253	337.62
324.482	702.62
324.71	1464.62
324.939	1921.62
325.168	728.62
325.397	224.62
325.626	148.62
325.855	124.62
326.084	119.62
326.313	127.62
326.542	150.62
326.77	204.62
326.999	389.62
327.228	791.62
327.457	1497.62
327.686	1182.62
327.914	333.62
328.143	197.62
328.372	160.62
328.6	139.62
328.829	122.62
329.058	117.62
329.287	99.62
329.515	104.62
329.744	110.62
329.972	110.62
330.201	148.62
330.43	156.62
330.658	134.62
330.887	136.62
331.115	123.62
331.344	101.62
331.572	93.62
331.801	104.62
332.03	105.62
332.258	97.62
332.486	83.62
332.715	108.62
332.943	93.62
333.172	94.62
333.4	97.62
333.629	102.62
333.857	117.62
334.085	122.62
334.314	138.62
334.542	188.62
334.771	177.62
334.999	101.62
335.227	93.62
335.455	104.62
335.684	98.62
335.912	97.62
336.14	84.62
336.369	96.62
336.597	106.62
336.825	97.62
337.053	99.62
337.281	102.62
337.51	91.62
337.738	86.62
337.966	91.62
338.194	96.62
338.422	101.62
338.65	97.62
338.878	105.62
339.106	98.62
339.334	98.62
339.562	96.62
339.79	88.62
340.018	85.62
340.246	74.62
340.474	112.62
340.702	77.62
340.93	103.62
341.158	102.62
341.386	102.62
341.614	107.62
341.842	100.62
342.07	94.62
342.298	92.62
342.526	89.62
342.754	83.62
342.981	91.62
343.209	88.62
343.437	97.62
343.665	83.62
343.893	95.62
344.12	82.62
344.348	88.62
344.576	91.62
344.804	96.62
345.031	89.62
345.259	88.62
345.487	86.62
345.714	84.62
345.942	89.62
346.17	92.62
346.397	94.62
346.625	111.62
346.853	99.62
347.08	84.62
347.308	77.62
347.535	94.62
347.763	106.62
347.99	108.62
348.218	112.62
348.445	108.62
348.673	91.62
348.9	86.62
349.128	114.62
349.355	109.62
349.583	96.62
349.81	86.62
350.037	92.62
350.265	93.62
350.492	92.62
350.72	94.62
350.947	105.62
351.174	109.62
351.402	106.62
351.629	112.62
351.856	100.62
352.083	98.62
352.311	108.62
352.538	116.62
352.765	106.62
352.992	118.62
353.22	113.62
353.447	105.62
353.674	110.62
353.901	89.62
354.128	88.62
354.355	90.62
354.583	95.62
354.81	100.62
355.037	95.62
355.264	103.62
355.491	98.62
355.718	97.62
355.945	89.62
356.172	98.62
356.399	111.62
356.626	88.62
356.853	92.62
357.08	94.62
357.307	92.62
357.534	93.62
357.761	104.62
357.988	93.62
358.215	96.62
358.441	92.62
358.668	89.62
358.895	100.62
359.122	100.62
359.349	93.62
359.576	95.62
359.802	102.62
360.029	110.62
360.256	106.62
360.483	108.62
360.709	88.62
360.936	80.62
361.163	102.62
361.39	94.62
361.616	92.62
361.843	96.62
362.07	77.62
362.296	77.62
362.523	102.62
362.749	97.62
362.976	95.62
363.203	83.62
363.429	94.62
363.656	100.62
363.882	93.62
364.109	102.62
364.335	72.62
364.562	93.62
364.788	85.62
365.015	105.62
365.241	92.62
365.468	100.62
365.694	102.62
365.92	94.62
366.147	103.62
366.373	102.62
366.599	106.62
366.826	83.62
367.052	84.62
367.278	98.62
367.505	96.62
367.731	92.62
367.957	88.62
368.184	97.62
368.41	100.62
368.636	104.62
368.862	123.62
369.089	88.62
369.315	99.62
369.541	107.62
369.767	93.62
369.993	87.62
370.219	87.62
370.445	85.62
370.672	93.62
370.898	93.62
371.124	101.62
371.35	86.62
371.576	72.62
371.802	82.62
372.028	91.62
372.254	84.62
372.48	87.62
372.706	93.62
372.932	86.62
373.158	91.62
373.384	100.62
373.61	86.62
373.835	87.62
374.061	103.62
374.287	105.62
374.513	93.62
374.739	98.62
374.965	103.62
375.191	103.62
375.416	90.62
375.642	99.62
375.868	100.62
376.094	87.62
376.319	92.62
376.545	84.62
376.771	86.62
376.997	91.62
377.222	103.62
377.448	89.62
377.674	84.62
377.899	88.62
378.125	88.62
378.35	91.62
378.576	84.62
378.802	90.62
379.027	96.62
379.253	101.62
379.478	80.62
379.704	84.62
379.929	92.62
380.155	87.62
380.38	88.62
380.606	96.62
380.831	91.62
381.057	107.62
381.282	93.62
381.507	73.62
381.733	94.62
381.958	110.62
382.184	94.62
382.409	90.62
382.634	93.62
382.86	105.62
383.085	104.62
383.31	91.62
383.535	101.62
383.761	106.62
383.986	92.62
384.211	94.62
384.436	91.62
384.662	85.62
384.887	92.62
385.112	88.62
385.337	103.62
385.562	102.62
385.787	94.62
386.013	104.62
386.238	100.62
386.463	101.62
386.688	108.62
386.913	101.62
387.138	109.62
387.363	83.62
387.588	101.62
387.813	93.62
388.038	100.62
388.263	98.62
388.488	100.62
388.713	98.62
388.938	106.62
389.163	90.62
389.387	71.62
389.612	92.62
389.837	103.62
390.062	110.62
390.287	95.62
390.512	102.62
390.736	84.62
390.961	96.62
391.186	90.62
391.411	84.62
391.636	88.62
391.86	89.62
392.085	88.62
392.31	97.62
392.534	95.62
392.759	86.62
392.984	92.62
393.208	92.62
393.433	88.62
393.658	75.62
393.882	92.62
394.107	91.62
394.331	86.62
394.556	88.62
394.78	94.62
395.005	97.62
395.229	80.62
395.454	94.62
395.678	81.62
395.903	91.62
396.127	87.62
396.352	96.62
396.576	76.62
396.801	85.62
397.025	92.62
397.249	92.62
397.474	91.62
397.698	104.62
397.922	88.62
398.147	84.62
398.371	80.62
398.595	90.62
398.82	80.62
399.044	84.62
399.268	95.62
399.492	101.62
399.717	95.62
399.941	93.62
400.165	100.62
400.389	96.62
400.613	96.62
400.837	84.62
401.062	80.62
401.286	81.62
401.51	107.62
401.734	107.62
401.958	111.62
402.182	113.62
402.406	156.62
402.63	111.62
402.854	95.62
403.078	92.62
403.302	80.62
403.526	88.62
403.75	94.62
403.974	81.62
404.198	93.62
404.422	98.62
404.645	93.62
404.869	80.62
405.093	86.62
405.317	92.62
405.541	76.62
405.765	105.62
405.988	110.62
406.212	149.62
406.436	200.62
406.66	141.62
406.883	96.62
407.107	91.62
407.331	84.62
407.555	86.62
407.778	92.62
408.002	97.62
408.226	88.62
408.449	96.62
408.673	94.62
408.896	98.62
409.12	90.62
409.344	96.62
409.567	86.62
409.791	88.62
410.014	74.62
410.238	89.62
410.461	87.62
410.685	90.62
410.908	99.62
411.132	94.62
411.355	100.62
411.578	100.62
411.802	93.62
412.025	76.62
412.249	82.62
412.472	95.62
412.695	96.62
412.919	92.62
413.142	91.62
413.365	85.62
413.589	86.62
413.812	84.62
414.035	75.62
414.258	98.62
414.482	98.62
414.705	90.62
414.928	105.62
415.151	95.62
415.374	100.62
415.597	85.62
415.821	97.62
416.044	81.62
416.267	77.62
416.49	82.62
416.713	96.62
416.936	77.62
417.159	112.62
417.382	88.62
417.605	84.62
417.828	82.62
418.051	91.62
418.274	96.62
418.497	98.62
418.72	82.62
418.943	92.62
419.166	89.62
419.389	107.62
419.611	94.62
419.834	81.62
420.057	93.62
420.28	88.62
420.503	94.62
420.726	93.62
420.948	86.62
421.171	100.62
421.394	71.62
421.617	90.62
421.839	101.62
422.062	84.62
422.285	88.62
422.507	111.62
422.73	97.62
422.953	95.62
423.175	89.62
423.398	100.62
423.621	82.62
423.843	97.62
424.066	73.62
424.288	89.62
424.511	80.62
424.733	83.62
424.956	98.62
425.178	99.62
425.401	113.62
425.623	103.62
425.846	98.62
426.068	88.62
426.291	87.62
426.513	94.62
426.735	94.62
426.958	81.62
427.18	110.62
427.402	133.62
427.625	131.62
427.847	145.62
428.069	115.62
428.292	95.62
428.514	81.62
428.736	89.62
428.958	84.62
429.181	76.62
429.403	94.62
429.625	86.62
429.847	90.62
430.069	103.62
430.292	94.62
430.514	92.62
430.736	90.62
430.958	89.62
431.18	94.62
431.402	87.62
431.624	89.62
431.846	98.62
432.068	89.62
432.29	97.62
432.512	92.62
432.734	98.62
432.956	93.62
433.178	97.62
433.4	98.62
433.622	91.62
433.844	97.62
434.066	86.62
434.287	88.62
434.509	92.62
434.731	110.62
434.953	93.62
435.175	98.62
435.397	102.62
435.618	114.62
435.84	109.62
436.062	120.62
436.284	108.62
436.505	94.62
436.727	112.62
436.949	96.62
437.17	82.62
437.392	80.62
437.614	81.62
437.835	104.62
438.057	108.62
438.278	96.62
438.5	109.62
438.721	114.62
438.943	99.62
439.165	91.62
439.386	96.62
439.608	88.62
439.829	98.62
440.05	113.62
440.272	139.62
440.493	128.62
440.715	90.62
440.936	86.62
441.158	92.62
441.379	85.62
441.6	100.62
441.822	99.62
442.043	97.62
442.264	91.62
442.486	103.62
442.707	92.62
442.928	100.62
443.149	135.62
443.371	108.62
443.592	106.62
443.813	102.62
444.034	101.62
444.255	84.62
444.476	97.62
444.698	90.62
444.919	105.62
445.14	123.62
445.361	108.62
445.582	99.62
445.803	145.62
446.024	117.62
446.245	126.62
446.466	115.62
446.687	98.62
446.908	93.62
447.129	80.62
447.35	85.62
447.571	79.62
447.792	86.62
448.013	89.62
448.234	102.62
448.455	104.62
448.675	106.62
448.896	112.62
449.117	87.62
449.338	104.62
449.559	126.62
449.779	132.62
450	101.62
450.221	90.62
450.442	74.62
450.662	82.62
450.883	100.62
451.104	102.62
451.324	94.62
451.545	92.62
451.766	97.62
451.986	92.62
452.207	103.62
452.428	92.62
452.648	94.62
452.869	101.62
453.089	105.62
453.31	102.62
453.53	91.62
453.751	114.62
453.971	114.62
454.192	101.62
454.412	92.62
454.633	92.62
454.853	103.62
455.073	83.62
455.294	93.62
455.514	107.62
455.734	101.62
455.955	81.62
456.175	89.62
456.395	82.62
456.616	89.62
456.836	82.62
457.056	96.62
457.276	87.62
457.497	86.62
457.717	80.62
457.937	91.62
458.157	95.62
458.377	80.62
458.598	104.62
458.818	125.62
459.038	129.62
459.258	99.62
459.478	97.62
459.698	96.62
459.918	69.62
460.138	78.62
460.358	85.62
460.578	84.62
460.798	94.62
461.018	80.62
461.238	86.62
461.458	93.62
461.678	89.62
461.898	88.62
462.118	88.62
462.338	85.62
462.558	82.62
462.777	102.62
462.997	94.62
463.217	93.62
463.437	81.62
463.657	94.62
463.876	89.62
464.096	103.62
464.316	89.62
464.536	101.62
464.755	91.62
464.975	106.62
465.195	149.62
465.414	164.62
465.634	94.62
465.854	88.62
466.073	96.62
466.293	83.62
466.512	76.62
466.732	86.62
466.951	93.62
467.171	87.62
467.391	98.62
467.61	108.62
467.829	109.62
468.049	109.62
468.268	113.62
468.488	96.62
468.707	87.62
468.927	89.62
469.146	83.62
469.365	88.62
469.585	89.62
469.804	94.62
470.023	101.62
470.243	98.62
470.462	87.62
470.681	106.62
470.901	99.62
471.12	84.62
471.339	87.62
471.558	96.62
471.777	94.62
471.997	109.62
472.216	142.62
472.435	216.62
472.654	120.62
472.873	102.62
473.092	84.62
473.311	86.62
473.53	85.62
473.749	89.62
473.968	104.62
474.187	100.62
474.406	98.62
474.625	98.62
474.844	70.62
475.063	78.62
475.282	102.62
475.501	88.62
475.72	76.62
475.939	78.62
476.158	93.62
476.377	85.62
476.596	93.62
476.814	88.62
477.033	81.62
477.252	85.62
477.471	101.62
477.69	93.62
477.908	94.62
478.127	99.62
478.346	88.62
478.564	91.62
478.783	94.62
479.002	97.62
479.22	93.62
479.439	115.62
479.658	94.62
479.876	93.62
480.095	106.62
480.313	102.62
480.532	101.62
480.751	101.62
480.969	157.62
481.188	318.62
481.406	217.62
481.624	106.62
481.843	89.62
482.061	87.62
482.28	75.62
482.498	102.62
482.717	102.62
482.935	105.62
483.153	102.62
483.372	102.62
483.59	84.62
483.808	87.62
484.027	91.62
484.245	86.62
484.463	92.62
484.681	93.62
484.9	92.62
485.118	104.62
485.336	92.62
485.554	85.62
485.772	109.62
485.99	117.62
486.209	108.62
486.427	109.62
486.645	100.62
486.863	110.62
487.081	105.62
487.299	99.62
487.517	82.62
487.735	66.62
487.953	77.62
488.171	88.62
488.389	103.62
488.607	93.62
488.825	98.62
489.043	90.62
489.261	88.62
489.479	90.62
489.696	89.62
489.914	101.62
490.132	83.62
490.35	90.62
490.568	83.62
490.786	87.62
491.003	98.62
491.221	83.62
491.439	85.62
491.657	94.62
491.874	88.62
492.092	78.62
492.31	103.62
492.527	99.62
492.745	95.62
492.963	99.62
493.18	94.62
493.398	94.62
493.615	93.62
493.833	83.62
494.05	101.62
494.268	84.62
494.485	76.62
494.703	93.62
494.92	98.62
495.138	88.62
495.355	87.62
495.573	92.62
495.79	94.62
496.008	100.62
496.225	88.62
496.442	89.62
496.66	90.62
496.877	100.62
497.094	100.62
497.312	89.62
497.529	97.62
497.746	103.62
497.963	105.62
498.181	102.62
498.398	94.62
498.615	96.62
498.832	109.62
499.049	86.62
499.267	84.62
499.484	102.62
499.701	90.62
499.918	84.62
500.135	92.62
500.352	110.62
500.569	84.62
500.786	87.62
501.003	95.62
501.22	91.62
501.437	95.62
501.654	102.62
501.871	106.62
502.088	87.62
502.305	82.62
502.522	98.62
502.739	89.62
502.956	90.62
503.172	89.62
503.389	88.62
503.606	100.62
503.823	117.62
504.04	92.62
504.256	84.62
504.473	94.62
504.69	99.62
504.907	89.62
505.123	90.62
505.34	90.62
505.557	86.62
505.773	101.62
505.99	88.62
506.207	87.62
506.423	87.62
506.64	96.62
506.856	98.62
507.073	100.62
507.289	82.62
507.506	100.62
507.722	118.62
507.939	112.62
508.155	101.62
508.372	86.62
508.588	90.62
508.805	88.62
509.021	99.62
509.238	102.62
509.454	98.62
509.67	90.62
509.887	118.62
510.103	144.62
510.319	197.62
510.536	671.62
510.752	2060.62
510.968	580.62
511.184	144.62
511.401	106.62
511.617	100.62
511.833	90.62
512.049	81.62
512.265	92.62
512.481	93.62
512.698	97.62
512.914	93.62
513.13	93.62
513.346	76.62
513.562	91.62
513.778	101.62
513.994	90.62
514.21	105.62
514.426	121.62
514.642	119.62
514.858	123.62
515.074	158.62
