Data from Uncirc_1985_H10_HRD10591_00078.txt Node
Date: Wed Jan 03 12:18:33 EST 2024
User: Yrep
Spectrometer: HR+D1059
Trigger mode: 1
Integration Time (sec): 1.000000E-1
Scans to average: 1
Electric dark correction enabled: true
Nonlinearity correction enabled: false
Boxcar width: 0
XAxis mode: Wavelengths
Number of Pixels in Spectrum: 2048
>>>>>Begin Spectral Data<<<<<
223.165	-6.75
223.4	-6.75
223.635	-6.75
223.869	-22.75
224.104	-24.75
224.338	-4.75
224.573	-14.75
224.808	-15.75
225.042	-13.75
225.277	2.25
225.511	-2.75
225.746	-14.75
225.98	10.25
226.215	18.25
226.449	6.25
226.683	26.25
226.918	25.25
227.152	32.25
227.387	45.25
227.621	33.25
227.856	37.25
228.09	40.25
228.324	48.25
228.559	49.25
228.793	64.25
229.027	56.25
229.262	60.25
229.496	62.25
229.73	80.25
229.964	80.25
230.199	68.25
230.433	76.25
230.667	83.25
230.901	78.25
231.136	69.25
231.37	88.25
231.604	69.25
231.838	66.25
232.072	70.25
232.306	83.25
232.541	73.25
232.775	93.25
233.009	78.25
233.243	75.25
233.477	92.25
233.711	73.25
233.945	74.25
234.179	86.25
234.413	72.25
234.647	81.25
234.881	74.25
235.115	80.25
235.349	82.25
235.583	74.25
235.817	68.25
236.051	89.25
236.285	84.25
236.519	65.25
236.753	78.25
236.987	72.25
237.221	83.25
237.455	82.25
237.689	82.25
237.922	71.25
238.156	93.25
238.39	70.25
238.624	63.25
238.858	84.25
239.091	87.25
239.325	82.25
239.559	75.25
239.793	81.25
240.027	77.25
240.26	74.25
240.494	76.25
240.728	78.25
240.961	79.25
241.195	75.25
241.429	84.25
241.662	85.25
241.896	77.25
242.13	85.25
242.363	76.25
242.597	71.25
242.83	58.25
243.064	80.25
243.298	88.25
243.531	78.25
243.765	64.25
243.998	70.25
244.232	81.25
244.465	84.25
244.699	94.25
244.932	71.25
245.166	84.25
245.399	74.25
245.633	71.25
245.866	71.25
246.099	70.25
246.333	85.25
246.566	89.25
246.8	73.25
247.033	62.25
247.266	63.25
247.5	79.25
247.733	76.25
247.966	67.25
248.2	74.25
248.433	85.25
248.666	72.25
248.899	85.25
249.133	87.25
249.366	91.25
249.599	101.25
249.832	84.25
250.066	73.25
250.299	76.25
250.532	75.25
250.765	66.25
250.998	75.25
251.231	76.25
251.465	71.25
251.698	82.25
251.931	92.25
252.164	79.25
252.397	68.25
252.63	79.25
252.863	72.25
253.096	77.25
253.329	86.25
253.562	89.25
253.795	93.25
254.028	66.25
254.261	73.25
254.494	87.25
254.727	73.25
254.96	72.25
255.193	93.25
255.426	81.25
255.659	77.25
255.892	78.25
256.124	88.25
256.357	77.25
256.59	69.25
256.823	82.25
257.056	82.25
257.289	67.25
257.521	78.25
257.754	77.25
257.987	86.25
258.22	81.25
258.452	69.25
258.685	77.25
258.918	80.25
259.151	76.25
259.383	79.25
259.616	83.25
259.849	63.25
260.081	68.25
260.314	78.25
260.547	71.25
260.779	78.25
261.012	90.25
261.244	82.25
261.477	91.25
261.71	100.25
261.942	100.25
262.175	117.25
262.407	84.25
262.64	89.25
262.872	92.25
263.105	85.25
263.337	76.25
263.57	60.25
263.802	84.25
264.035	82.25
264.267	70.25
264.499	80.25
264.732	87.25
264.964	90.25
265.197	73.25
265.429	78.25
265.661	82.25
265.894	80.25
266.126	81.25
266.358	68.25
266.591	64.25
266.823	78.25
267.055	84.25
267.287	79.25
267.52	84.25
267.752	81.25
267.984	72.25
268.216	84.25
268.448	65.25
268.681	76.25
268.913	73.25
269.145	82.25
269.377	77.25
269.609	75.25
269.841	87.25
270.073	89.25
270.306	75.25
270.538	91.25
270.77	85.25
271.002	80.25
271.234	90.25
271.466	116.25
271.698	85.25
271.93	78.25
272.162	87.25
272.394	85.25
272.626	64.25
272.858	71.25
273.09	81.25
273.322	89.25
273.553	79.25
273.785	85.25
274.017	88.25
274.249	89.25
274.481	78.25
274.713	84.25
274.945	76.25
275.176	81.25
275.408	86.25
275.64	76.25
275.872	85.25
276.104	72.25
276.335	86.25
276.567	84.25
276.799	102.25
277.031	96.25
277.262	71.25
277.494	96.25
277.726	76.25
277.957	77.25
278.189	85.25
278.421	77.25
278.652	83.25
278.884	85.25
279.115	89.25
279.347	86.25
279.579	72.25
279.81	87.25
280.042	97.25
280.273	89.25
280.505	85.25
280.736	80.25
280.968	77.25
281.199	78.25
281.431	82.25
281.662	90.25
281.894	90.25
282.125	101.25
282.356	111.25
282.588	155.25
282.819	113.25
283.051	79.25
283.282	76.25
283.513	85.25
283.745	87.25
283.976	80.25
284.207	101.25
284.439	70.25
284.67	88.25
284.901	80.25
285.132	73.25
285.364	80.25
285.595	82.25
285.826	83.25
286.057	92.25
286.288	81.25
286.52	72.25
286.751	88.25
286.982	93.25
287.213	90.25
287.444	85.25
287.675	83.25
287.906	97.25
288.138	85.25
288.369	100.25
288.6	77.25
288.831	72.25
289.062	84.25
289.293	91.25
289.524	81.25
289.755	80.25
289.986	88.25
290.217	83.25
290.448	96.25
290.679	89.25
290.91	84.25
291.141	80.25
291.371	74.25
291.602	84.25
291.833	68.25
292.064	78.25
292.295	80.25
292.526	89.25
292.757	80.25
292.987	84.25
293.218	75.25
293.449	78.25
293.68	70.25
293.91	86.25
294.141	81.25
294.372	77.25
294.603	80.25
294.833	94.25
295.064	92.25
295.295	86.25
295.525	86.25
295.756	90.25
295.987	123.25
296.217	132.25
296.448	107.25
296.679	90.25
296.909	83.25
297.14	93.25
297.37	99.25
297.601	84.25
297.831	92.25
298.062	80.25
298.292	87.25
298.523	84.25
298.753	96.25
298.984	89.25
299.214	76.25
299.445	94.25
299.675	92.25
299.905	99.25
300.136	81.25
300.366	82.25
300.597	89.25
300.827	91.25
301.057	98.25
301.288	94.25
301.518	105.25
301.748	83.25
301.979	101.25
302.209	86.25
302.439	85.25
302.669	92.25
302.9	90.25
303.13	88.25
303.36	74.25
303.59	87.25
303.82	100.25
304.051	96.25
304.281	88.25
304.511	87.25
304.741	87.25
304.971	85.25
305.201	81.25
305.431	87.25
305.661	82.25
305.891	92.25
306.121	103.25
306.352	82.25
306.582	98.25
306.812	86.25
307.042	88.25
307.272	89.25
307.502	100.25
307.731	88.25
307.961	91.25
308.191	76.25
308.421	88.25
308.651	88.25
308.881	77.25
309.111	97.25
309.341	109.25
309.571	112.25
309.8	80.25
310.03	85.25
310.26	104.25
310.49	105.25
310.72	100.25
310.949	97.25
311.179	97.25
311.409	90.25
311.639	100.25
311.868	106.25
312.098	89.25
312.328	97.25
312.557	101.25
312.787	97.25
313.017	86.25
313.246	94.25
313.476	81.25
313.706	86.25
313.935	87.25
314.165	93.25
314.394	102.25
314.624	93.25
314.853	101.25
315.083	96.25
315.312	79.25
315.542	89.25
315.771	104.25
316.001	84.25
316.23	84.25
316.46	82.25
316.689	82.25
316.919	88.25
317.148	104.25
317.377	100.25
317.607	88.25
317.836	88.25
318.065	97.25
318.295	78.25
318.524	90.25
318.753	87.25
318.983	80.25
319.212	98.25
319.441	107.25
319.67	97.25
319.9	95.25
320.129	85.25
320.358	87.25
320.587	83.25
320.816	104.25
321.046	85.25
321.275	100.25
321.504	91.25
321.733	92.25
321.962	88.25
322.191	96.25
322.42	96.25
322.649	104.25
322.878	100.25
323.108	119.25
323.337	114.25
323.566	116.25
323.795	138.25
324.024	201.25
324.253	363.25
324.482	744.25
324.71	1505.25
324.939	2004.25
325.168	762.25
325.397	237.25
325.626	120.25
325.855	127.25
326.084	112.25
326.313	120.25
326.542	147.25
326.77	216.25
326.999	417.25
327.228	865.25
327.457	1551.25
327.686	1213.25
327.914	348.25
328.143	182.25
328.372	158.25
328.6	113.25
328.829	118.25
329.058	115.25
329.287	120.25
329.515	103.25
329.744	93.25
329.972	109.25
330.201	140.25
330.43	146.25
330.658	136.25
330.887	135.25
331.115	100.25
331.344	92.25
331.572	94.25
331.801	97.25
332.03	97.25
332.258	84.25
332.486	84.25
332.715	88.25
332.943	88.25
333.172	86.25
333.4	97.25
333.629	103.25
333.857	105.25
334.085	110.25
334.314	122.25
334.542	161.25
334.771	179.25
334.999	110.25
335.227	98.25
335.455	85.25
335.684	91.25
335.912	94.25
336.14	92.25
336.369	95.25
336.597	98.25
336.825	91.25
337.053	93.25
337.281	85.25
337.51	99.25
337.738	94.25
337.966	92.25
338.194	92.25
338.422	89.25
338.65	101.25
338.878	108.25
339.106	96.25
339.334	87.25
339.562	88.25
339.79	96.25
340.018	96.25
340.246	96.25
340.474	85.25
340.702	95.25
340.93	96.25
341.158	92.25
341.386	105.25
341.614	79.25
341.842	82.25
342.07	97.25
342.298	87.25
342.526	98.25
342.754	93.25
342.981	94.25
343.209	71.25
343.437	106.25
343.665	74.25
343.893	83.25
344.12	84.25
344.348	81.25
344.576	86.25
344.804	81.25
345.031	94.25
345.259	92.25
345.487	101.25
345.714	83.25
345.942	89.25
346.17	94.25
346.397	100.25
346.625	93.25
346.853	84.25
347.08	112.25
347.308	104.25
347.535	96.25
347.763	84.25
347.99	94.25
348.218	93.25
348.445	109.25
348.673	96.25
348.9	104.25
349.128	83.25
349.355	76.25
349.583	94.25
349.81	70.25
350.037	91.25
350.265	97.25
350.492	86.25
350.72	103.25
350.947	103.25
351.174	116.25
351.402	95.25
351.629	94.25
351.856	90.25
352.083	96.25
352.311	97.25
352.538	91.25
352.765	103.25
352.992	119.25
353.22	100.25
353.447	73.25
353.674	97.25
353.901	102.25
354.128	92.25
354.355	93.25
354.583	97.25
354.81	95.25
355.037	100.25
355.264	98.25
355.491	99.25
355.718	89.25
355.945	89.25
356.172	94.25
356.399	80.25
356.626	93.25
356.853	83.25
357.08	72.25
357.307	86.25
357.534	82.25
357.761	89.25
357.988	78.25
358.215	85.25
358.441	98.25
358.668	76.25
358.895	78.25
359.122	73.25
359.349	74.25
359.576	91.25
359.802	90.25
360.029	106.25
360.256	96.25
360.483	93.25
360.709	89.25
360.936	101.25
361.163	82.25
361.39	96.25
361.616	87.25
361.843	90.25
362.07	82.25
362.296	82.25
362.523	86.25
362.749	84.25
362.976	89.25
363.203	105.25
363.429	86.25
363.656	78.25
363.882	82.25
364.109	86.25
364.335	89.25
364.562	81.25
364.788	96.25
365.015	82.25
365.241	77.25
365.468	103.25
365.694	90.25
365.92	91.25
366.147	96.25
366.373	96.25
366.599	95.25
366.826	84.25
367.052	86.25
367.278	78.25
367.505	88.25
367.731	88.25
367.957	92.25
368.184	95.25
368.41	90.25
368.636	124.25
368.862	105.25
369.089	85.25
369.315	88.25
369.541	91.25
369.767	96.25
369.993	77.25
370.219	92.25
370.445	93.25
370.672	86.25
370.898	84.25
371.124	103.25
371.35	80.25
371.576	88.25
371.802	75.25
372.028	71.25
372.254	87.25
372.48	83.25
372.706	86.25
372.932	90.25
373.158	82.25
373.384	72.25
373.61	86.25
373.835	100.25
374.061	90.25
374.287	95.25
374.513	87.25
374.739	95.25
374.965	94.25
375.191	79.25
375.416	71.25
375.642	98.25
375.868	84.25
376.094	82.25
376.319	94.25
376.545	82.25
376.771	87.25
376.997	83.25
377.222	69.25
377.448	89.25
377.674	100.25
377.899	87.25
378.125	89.25
378.35	103.25
378.576	87.25
378.802	91.25
379.027	90.25
379.253	90.25
379.478	88.25
379.704	83.25
379.929	92.25
380.155	86.25
380.38	101.25
380.606	91.25
380.831	104.25
381.057	98.25
381.282	86.25
381.507	73.25
381.733	78.25
381.958	92.25
382.184	97.25
382.409	95.25
382.634	106.25
382.86	84.25
383.085	78.25
383.31	95.25
383.535	69.25
383.761	83.25
383.986	96.25
384.211	83.25
384.436	100.25
384.662	91.25
384.887	82.25
385.112	105.25
385.337	98.25
385.562	87.25
385.787	100.25
386.013	109.25
386.238	97.25
386.463	102.25
386.688	88.25
386.913	95.25
387.138	88.25
387.363	114.25
387.588	85.25
387.813	105.25
388.038	105.25
388.263	103.25
388.488	101.25
388.713	88.25
388.938	82.25
389.163	85.25
389.387	94.25
389.612	96.25
389.837	92.25
390.062	89.25
390.287	80.25
390.512	85.25
390.736	94.25
390.961	93.25
391.186	94.25
391.411	80.25
391.636	93.25
391.86	79.25
392.085	81.25
392.31	93.25
392.534	100.25
392.759	87.25
392.984	83.25
393.208	76.25
393.433	83.25
393.658	75.25
393.882	88.25
394.107	89.25
394.331	81.25
394.556	84.25
394.78	79.25
395.005	72.25
395.229	89.25
395.454	87.25
395.678	85.25
395.903	89.25
396.127	93.25
396.352	80.25
396.576	96.25
396.801	89.25
397.025	83.25
397.249	83.25
397.474	89.25
397.698	94.25
397.922	88.25
398.147	79.25
398.371	94.25
398.595	90.25
398.82	90.25
399.044	83.25
399.268	88.25
399.492	87.25
399.717	76.25
399.941	81.25
400.165	91.25
400.389	92.25
400.613	89.25
400.837	78.25
401.062	86.25
401.286	79.25
401.51	96.25
401.734	76.25
401.958	80.25
402.182	102.25
402.406	144.25
402.63	109.25
402.854	96.25
403.078	85.25
403.302	80.25
403.526	90.25
403.75	77.25
403.974	82.25
404.198	88.25
404.422	88.25
404.645	81.25
404.869	95.25
405.093	84.25
405.317	98.25
405.541	95.25
405.765	96.25
405.988	109.25
406.212	157.25
406.436	210.25
406.66	148.25
406.883	94.25
407.107	76.25
407.331	89.25
407.555	102.25
407.778	92.25
408.002	103.25
408.226	72.25
408.449	98.25
408.673	78.25
408.896	90.25
409.12	93.25
409.344	87.25
409.567	78.25
409.791	98.25
410.014	92.25
410.238	76.25
410.461	101.25
410.685	93.25
410.908	85.25
411.132	103.25
411.355	94.25
411.578	100.25
411.802	83.25
412.025	81.25
412.249	82.25
412.472	76.25
412.695	100.25
412.919	87.25
413.142	86.25
413.365	78.25
413.589	71.25
413.812	92.25
414.035	94.25
414.258	91.25
414.482	93.25
414.705	82.25
414.928	89.25
415.151	66.25
415.374	81.25
415.597	89.25
415.821	81.25
416.044	96.25
416.267	73.25
416.49	82.25
416.713	89.25
416.936	82.25
417.159	83.25
417.382	83.25
417.605	84.25
417.828	87.25
418.051	82.25
418.274	86.25
418.497	90.25
418.72	90.25
418.943	92.25
419.166	93.25
419.389	88.25
419.611	81.25
419.834	80.25
420.057	94.25
420.28	87.25
420.503	69.25
420.726	84.25
420.948	76.25
421.171	84.25
421.394	82.25
421.617	86.25
421.839	102.25
422.062	91.25
422.285	100.25
422.507	88.25
422.73	104.25
422.953	62.25
423.175	80.25
423.398	76.25
423.621	98.25
423.843	85.25
424.066	71.25
424.288	94.25
424.511	83.25
424.733	97.25
424.956	99.25
425.178	102.25
425.401	91.25
425.623	99.25
425.846	86.25
426.068	97.25
426.291	108.25
426.513	85.25
426.735	82.25
426.958	59.25
427.18	94.25
427.402	124.25
427.625	158.25
427.847	127.25
428.069	113.25
428.292	76.25
428.514	85.25
428.736	78.25
428.958	86.25
429.181	90.25
429.403	80.25
429.625	81.25
429.847	76.25
430.069	103.25
430.292	76.25
430.514	73.25
430.736	81.25
430.958	76.25
431.18	82.25
431.402	88.25
431.624	73.25
431.846	89.25
432.068	88.25
432.29	94.25
432.512	87.25
432.734	78.25
432.956	82.25
433.178	110.25
433.4	98.25
433.622	103.25
433.844	103.25
434.066	80.25
434.287	88.25
434.509	84.25
434.731	92.25
434.953	98.25
435.175	80.25
435.397	96.25
435.618	86.25
435.84	101.25
436.062	110.25
436.284	105.25
436.505	80.25
436.727	105.25
436.949	94.25
437.17	64.25
437.392	76.25
437.614	86.25
437.835	90.25
438.057	108.25
438.278	93.25
438.5	90.25
438.721	99.25
438.943	94.25
439.165	79.25
439.386	103.25
439.608	76.25
439.829	88.25
440.05	99.25
440.272	140.25
440.493	86.25
440.715	81.25
440.936	74.25
441.158	92.25
441.379	78.25
441.6	92.25
441.822	85.25
442.043	90.25
442.264	100.25
442.486	87.25
442.707	96.25
442.928	92.25
443.149	118.25
443.371	116.25
443.592	109.25
443.813	103.25
444.034	111.25
444.255	96.25
444.476	67.25
444.698	82.25
444.919	86.25
445.14	116.25
445.361	115.25
445.582	108.25
445.803	117.25
446.024	123.25
446.245	127.25
446.466	115.25
446.687	81.25
446.908	85.25
447.129	88.25
447.35	89.25
447.571	95.25
447.792	88.25
448.013	87.25
448.234	101.25
448.455	86.25
448.675	103.25
448.896	115.25
449.117	94.25
449.338	100.25
449.559	126.25
449.779	103.25
450	89.25
450.221	81.25
450.442	72.25
450.662	76.25
450.883	108.25
451.104	94.25
451.324	85.25
451.545	70.25
451.766	99.25
451.986	86.25
452.207	92.25
452.428	78.25
452.648	92.25
452.869	105.25
453.089	114.25
453.31	112.25
453.53	86.25
453.751	87.25
453.971	100.25
454.192	106.25
454.412	83.25
454.633	70.25
454.853	84.25
455.073	72.25
455.294	77.25
455.514	105.25
455.734	78.25
455.955	81.25
456.175	72.25
456.395	64.25
456.616	93.25
456.836	80.25
457.056	85.25
457.276	91.25
457.497	83.25
457.717	84.25
457.937	77.25
458.157	82.25
458.377	66.25
458.598	97.25
458.818	123.25
459.038	141.25
459.258	123.25
459.478	76.25
459.698	81.25
459.918	85.25
460.138	94.25
460.358	86.25
460.578	97.25
460.798	96.25
461.018	90.25
461.238	81.25
461.458	81.25
461.678	87.25
461.898	77.25
462.118	92.25
462.338	80.25
462.558	86.25
462.777	87.25
462.997	93.25
463.217	82.25
463.437	86.25
463.657	81.25
463.876	86.25
464.096	83.25
464.316	87.25
464.536	100.25
464.755	90.25
464.975	93.25
465.195	162.25
465.414	136.25
465.634	84.25
465.854	84.25
466.073	87.25
466.293	87.25
466.512	86.25
466.732	82.25
466.951	94.25
467.171	84.25
467.391	81.25
467.61	104.25
467.829	98.25
468.049	114.25
468.268	121.25
468.488	90.25
468.707	71.25
468.927	89.25
469.146	103.25
469.365	86.25
469.585	82.25
469.804	97.25
470.023	82.25
470.243	98.25
470.462	92.25
470.681	87.25
470.901	89.25
471.12	85.25
471.339	69.25
471.558	87.25
471.777	84.25
471.997	93.25
472.216	129.25
472.435	184.25
472.654	98.25
472.873	78.25
473.092	88.25
473.311	82.25
473.53	87.25
473.749	86.25
473.968	98.25
474.187	90.25
474.406	99.25
474.625	88.25
474.844	108.25
475.063	64.25
475.282	93.25
475.501	83.25
475.72	71.25
475.939	88.25
476.158	92.25
476.377	76.25
476.596	96.25
476.814	82.25
477.033	101.25
477.252	78.25
477.471	93.25
477.69	80.25
477.908	88.25
478.127	78.25
478.346	77.25
478.564	88.25
478.783	80.25
479.002	85.25
479.22	76.25
479.439	96.25
479.658	96.25
479.876	83.25
480.095	99.25
480.313	101.25
480.532	100.25
480.751	106.25
480.969	135.25
481.188	283.25
481.406	200.25
481.624	104.25
481.843	79.25
482.061	80.25
482.28	90.25
482.498	83.25
482.717	90.25
482.935	84.25
483.153	71.25
483.372	79.25
483.59	89.25
483.808	81.25
484.027	92.25
484.245	88.25
484.463	78.25
484.681	97.25
484.9	99.25
485.118	90.25
485.336	92.25
485.554	104.25
485.772	82.25
485.99	100.25
486.209	99.25
486.427	103.25
486.645	98.25
486.863	94.25
487.081	84.25
487.299	103.25
487.517	93.25
487.735	92.25
487.953	95.25
488.171	90.25
488.389	87.25
488.607	100.25
488.825	82.25
489.043	86.25
489.261	90.25
489.479	84.25
489.696	90.25
489.914	82.25
490.132	78.25
490.35	84.25
490.568	92.25
490.786	82.25
491.003	71.25
491.221	88.25
491.439	82.25
491.657	84.25
491.874	98.25
492.092	101.25
492.31	82.25
492.527	92.25
492.745	76.25
492.963	77.25
493.18	103.25
493.398	77.25
493.615	94.25
493.833	99.25
494.05	83.25
494.268	89.25
494.485	94.25
494.703	89.25
494.92	96.25
495.138	70.25
495.355	89.25
495.573	82.25
495.79	90.25
496.008	82.25
496.225	80.25
496.442	86.25
496.66	91.25
496.877	86.25
497.094	76.25
497.312	57.25
497.529	84.25
497.746	85.25
497.963	103.25
498.181	82.25
498.398	90.25
498.615	121.25
498.832	101.25
499.049	93.25
499.267	86.25
499.484	101.25
499.701	86.25
499.918	90.25
500.135	89.25
500.352	68.25
500.569	82.25
500.786	86.25
501.003	85.25
501.22	96.25
501.437	90.25
501.654	97.25
501.871	114.25
502.088	102.25
502.305	92.25
502.522	76.25
502.739	95.25
502.956	98.25
503.172	89.25
503.389	110.25
503.606	93.25
503.823	93.25
504.04	91.25
504.256	81.25
504.473	81.25
504.69	89.25
504.907	100.25
505.123	84.25
505.34	96.25
505.557	85.25
505.773	84.25
505.99	90.25
506.207	87.25
506.423	88.25
506.64	100.25
506.856	97.25
507.073	85.25
507.289	82.25
507.506	94.25
507.722	103.25
507.939	111.25
508.155	88.25
508.372	90.25
508.588	84.25
508.805	95.25
509.021	91.25
509.238	83.25
509.454	80.25
509.67	97.25
509.887	105.25
510.103	133.25
510.319	200.25
510.536	766.25
510.752	2301.25
510.968	615.25
511.184	152.25
511.401	109.25
511.617	103.25
511.833	89.25
512.049	85.25
512.265	88.25
512.481	100.25
512.698	92.25
512.914	83.25
513.13	84.25
513.346	86.25
513.562	87.25
513.778	104.25
513.994	104.25
514.21	110.25
514.426	106.25
514.642	140.25
514.858	114.25
515.074	166.25
515.29	406.25
515.506	1356.25
515.721	492.25
515.937	154.25
516.153	100.25
516.369	85.25
516.585	81.25
