Data from Uncirc_1985_H10_HRD10591_00024.txt Node
Date: Wed Jan 03 12:18:22 EST 2024
User: Yrep
Spectrometer: HR+D1059
Trigger mode: 1
Integration Time (sec): 1.000000E-1
Scans to average: 1
Electric dark correction enabled: true
Nonlinearity correction enabled: false
Boxcar width: 0
XAxis mode: Wavelengths
Number of Pixels in Spectrum: 2048
>>>>>Begin Spectral Data<<<<<
223.165	-21.81
223.4	-21.81
223.635	-21.81
223.869	-18.81
224.104	-16.81
224.338	-24.81
224.573	-15.81
224.808	-13.81
225.042	0.19
225.277	-19.81
225.511	1.19
225.746	-6.81
225.98	7.19
226.215	20.19
226.449	23.19
226.683	25.19
226.918	39.19
227.152	22.19
227.387	21.19
227.621	45.19
227.856	26.19
228.09	35.19
228.324	60.19
228.559	65.19
228.793	57.19
229.027	66.19
229.262	61.19
229.496	73.19
229.73	68.19
229.964	72.19
230.199	85.19
230.433	79.19
230.667	74.19
230.901	75.19
231.136	86.19
231.37	73.19
231.604	81.19
231.838	84.19
232.072	78.19
232.306	71.19
232.541	80.19
232.775	85.19
233.009	82.19
233.243	93.19
233.477	66.19
233.711	84.19
233.945	86.19
234.179	84.19
234.413	79.19
234.647	95.19
234.881	69.19
235.115	71.19
235.349	87.19
235.583	78.19
235.817	81.19
236.051	87.19
236.285	82.19
236.519	90.19
236.753	70.19
236.987	82.19
237.221	72.19
237.455	89.19
237.689	68.19
237.922	74.19
238.156	72.19
238.39	64.19
238.624	80.19
238.858	64.19
239.091	87.19
239.325	86.19
239.559	74.19
239.793	69.19
240.027	85.19
240.26	73.19
240.494	73.19
240.728	83.19
240.961	81.19
241.195	80.19
241.429	82.19
241.662	74.19
241.896	72.19
242.13	73.19
242.363	75.19
242.597	80.19
242.83	80.19
243.064	76.19
243.298	75.19
243.531	64.19
243.765	72.19
243.998	83.19
244.232	80.19
244.465	87.19
244.699	72.19
244.932	70.19
245.166	97.19
245.399	83.19
245.633	87.19
245.866	88.19
246.099	79.19
246.333	85.19
246.566	73.19
246.8	84.19
247.033	90.19
247.266	100.19
247.5	70.19
247.733	80.19
247.966	79.19
248.2	79.19
248.433	74.19
248.666	91.19
248.899	85.19
249.133	90.19
249.366	80.19
249.599	89.19
249.832	96.19
250.066	63.19
250.299	77.19
250.532	81.19
250.765	72.19
250.998	93.19
251.231	78.19
251.465	84.19
251.698	80.19
251.931	90.19
252.164	73.19
252.397	77.19
252.63	95.19
252.863	79.19
253.096	78.19
253.329	73.19
253.562	78.19
253.795	77.19
254.028	78.19
254.261	80.19
254.494	86.19
254.727	75.19
254.96	85.19
255.193	85.19
255.426	96.19
255.659	81.19
255.892	92.19
256.124	67.19
256.357	79.19
256.59	85.19
256.823	98.19
257.056	85.19
257.289	87.19
257.521	87.19
257.754	68.19
257.987	93.19
258.22	82.19
258.452	69.19
258.685	89.19
258.918	90.19
259.151	86.19
259.383	82.19
259.616	90.19
259.849	92.19
260.081	65.19
260.314	81.19
260.547	93.19
260.779	93.19
261.012	88.19
261.244	74.19
261.477	89.19
261.71	85.19
261.942	103.19
262.175	107.19
262.407	90.19
262.64	91.19
262.872	84.19
263.105	64.19
263.337	90.19
263.57	83.19
263.802	84.19
264.035	86.19
264.267	97.19
264.499	79.19
264.732	91.19
264.964	86.19
265.197	77.19
265.429	81.19
265.661	80.19
265.894	82.19
266.126	84.19
266.358	86.19
266.591	82.19
266.823	71.19
267.055	82.19
267.287	77.19
267.52	81.19
267.752	98.19
267.984	95.19
268.216	79.19
268.448	85.19
268.681	77.19
268.913	90.19
269.145	83.19
269.377	100.19
269.609	81.19
269.841	77.19
270.073	71.19
270.306	83.19
270.538	101.19
270.77	77.19
271.002	86.19
271.234	94.19
271.466	88.19
271.698	85.19
271.93	82.19
272.162	85.19
272.394	80.19
272.626	82.19
272.858	82.19
273.09	75.19
273.322	81.19
273.553	81.19
273.785	81.19
274.017	79.19
274.249	100.19
274.481	69.19
274.713	77.19
274.945	74.19
275.176	82.19
275.408	91.19
275.64	93.19
275.872	71.19
276.104	90.19
276.335	85.19
276.567	91.19
276.799	94.19
277.031	107.19
277.262	87.19
277.494	97.19
277.726	96.19
277.957	85.19
278.189	95.19
278.421	93.19
278.652	74.19
278.884	77.19
279.115	94.19
279.347	90.19
279.579	83.19
279.81	88.19
280.042	69.19
280.273	81.19
280.505	71.19
280.736	73.19
280.968	81.19
281.199	99.19
281.431	98.19
281.662	81.19
281.894	91.19
282.125	99.19
282.356	110.19
282.588	134.19
282.819	100.19
283.051	87.19
283.282	101.19
283.513	99.19
283.745	87.19
283.976	97.19
284.207	86.19
284.439	89.19
284.67	94.19
284.901	85.19
285.132	95.19
285.364	89.19
285.595	86.19
285.826	85.19
286.057	84.19
286.288	88.19
286.52	84.19
286.751	95.19
286.982	81.19
287.213	83.19
287.444	74.19
287.675	89.19
287.906	78.19
288.138	87.19
288.369	98.19
288.6	111.19
288.831	90.19
289.062	70.19
289.293	75.19
289.524	94.19
289.755	83.19
289.986	87.19
290.217	73.19
290.448	81.19
290.679	88.19
290.91	73.19
291.141	88.19
291.371	87.19
291.602	83.19
291.833	86.19
292.064	72.19
292.295	101.19
292.526	90.19
292.757	85.19
292.987	105.19
293.218	87.19
293.449	103.19
293.68	95.19
293.91	103.19
294.141	83.19
294.372	94.19
294.603	86.19
294.833	90.19
295.064	92.19
295.295	95.19
295.525	80.19
295.756	85.19
295.987	110.19
296.217	106.19
296.448	128.19
296.679	92.19
296.909	92.19
297.14	81.19
297.37	87.19
297.601	87.19
297.831	82.19
298.062	98.19
298.292	80.19
298.523	94.19
298.753	83.19
298.984	93.19
299.214	83.19
299.445	86.19
299.675	87.19
299.905	100.19
300.136	93.19
300.366	83.19
300.597	94.19
300.827	75.19
301.057	69.19
301.288	114.19
301.518	93.19
301.748	99.19
301.979	93.19
302.209	93.19
302.439	77.19
302.669	91.19
302.9	93.19
303.13	87.19
303.36	95.19
303.59	91.19
303.82	111.19
304.051	95.19
304.281	90.19
304.511	88.19
304.741	91.19
304.971	86.19
305.201	83.19
305.431	97.19
305.661	85.19
305.891	80.19
306.121	88.19
306.352	101.19
306.582	88.19
306.812	75.19
307.042	82.19
307.272	96.19
307.502	79.19
307.731	103.19
307.961	75.19
308.191	87.19
308.421	85.19
308.651	88.19
308.881	101.19
309.111	85.19
309.341	84.19
309.571	93.19
309.8	89.19
310.03	98.19
310.26	84.19
310.49	91.19
310.72	92.19
310.949	93.19
311.179	94.19
311.409	89.19
311.639	99.19
311.868	84.19
312.098	97.19
312.328	98.19
312.557	91.19
312.787	92.19
313.017	102.19
313.246	93.19
313.476	89.19
313.706	100.19
313.935	87.19
314.165	89.19
314.394	98.19
314.624	93.19
314.853	97.19
315.083	88.19
315.312	87.19
315.542	100.19
315.771	88.19
316.001	90.19
316.23	90.19
316.46	85.19
316.689	98.19
316.919	83.19
317.148	75.19
317.377	93.19
317.607	84.19
317.836	90.19
318.065	93.19
318.295	96.19
318.524	85.19
318.753	101.19
318.983	87.19
319.212	89.19
319.441	99.19
319.67	108.19
319.9	93.19
320.129	102.19
320.358	102.19
320.587	89.19
320.816	107.19
321.046	92.19
321.275	87.19
321.504	103.19
321.733	78.19
321.962	89.19
322.191	109.19
322.42	107.19
322.649	120.19
322.878	127.19
323.108	110.19
323.337	98.19
323.566	115.19
323.795	130.19
324.024	175.19
324.253	348.19
324.482	729.19
324.71	1550.19
324.939	1975.19
325.168	727.19
325.397	223.19
325.626	142.19
325.855	119.19
326.084	130.19
326.313	123.19
326.542	162.19
326.77	204.19
326.999	422.19
327.228	850.19
327.457	1562.19
327.686	1226.19
327.914	315.19
328.143	169.19
328.372	122.19
328.6	105.19
328.829	108.19
329.058	108.19
329.287	115.19
329.515	112.19
329.744	99.19
329.972	91.19
330.201	105.19
330.43	102.19
330.658	113.19
330.887	131.19
331.115	98.19
331.344	96.19
331.572	97.19
331.801	109.19
332.03	102.19
332.258	90.19
332.486	93.19
332.715	93.19
332.943	87.19
333.172	91.19
333.4	107.19
333.629	104.19
333.857	103.19
334.085	97.19
334.314	101.19
334.542	102.19
334.771	100.19
334.999	93.19
335.227	97.19
335.455	89.19
335.684	89.19
335.912	99.19
336.14	106.19
336.369	105.19
336.597	100.19
336.825	97.19
337.053	78.19
337.281	95.19
337.51	88.19
337.738	86.19
337.966	91.19
338.194	88.19
338.422	94.19
338.65	87.19
338.878	105.19
339.106	83.19
339.334	91.19
339.562	99.19
339.79	89.19
340.018	87.19
340.246	95.19
340.474	86.19
340.702	101.19
340.93	90.19
341.158	80.19
341.386	90.19
341.614	105.19
341.842	89.19
342.07	109.19
342.298	104.19
342.526	96.19
342.754	85.19
342.981	93.19
343.209	102.19
343.437	94.19
343.665	91.19
343.893	99.19
344.12	77.19
344.348	82.19
344.576	94.19
344.804	79.19
345.031	95.19
345.259	88.19
345.487	84.19
345.714	92.19
345.942	86.19
346.17	85.19
346.397	92.19
346.625	90.19
346.853	85.19
347.08	77.19
347.308	87.19
347.535	98.19
347.763	88.19
347.99	92.19
348.218	93.19
348.445	98.19
348.673	94.19
348.9	95.19
349.128	101.19
349.355	92.19
349.583	86.19
349.81	79.19
350.037	90.19
350.265	91.19
350.492	102.19
350.72	93.19
350.947	77.19
351.174	86.19
351.402	94.19
351.629	101.19
351.856	115.19
352.083	90.19
352.311	98.19
352.538	97.19
352.765	105.19
352.992	112.19
353.22	105.19
353.447	98.19
353.674	81.19
353.901	85.19
354.128	101.19
354.355	101.19
354.583	103.19
354.81	108.19
355.037	101.19
355.264	93.19
355.491	96.19
355.718	87.19
355.945	100.19
356.172	99.19
356.399	102.19
356.626	93.19
356.853	87.19
357.08	91.19
357.307	85.19
357.534	88.19
357.761	95.19
357.988	89.19
358.215	85.19
358.441	88.19
358.668	98.19
358.895	96.19
359.122	93.19
359.349	88.19
359.576	83.19
359.802	84.19
360.029	98.19
360.256	90.19
360.483	96.19
360.709	76.19
360.936	93.19
361.163	91.19
361.39	91.19
361.616	93.19
361.843	89.19
362.07	72.19
362.296	68.19
362.523	90.19
362.749	96.19
362.976	91.19
363.203	107.19
363.429	94.19
363.656	94.19
363.882	93.19
364.109	89.19
364.335	90.19
364.562	98.19
364.788	84.19
365.015	93.19
365.241	107.19
365.468	84.19
365.694	90.19
365.92	105.19
366.147	99.19
366.373	96.19
366.599	83.19
366.826	80.19
367.052	87.19
367.278	81.19
367.505	79.19
367.731	90.19
367.957	87.19
368.184	88.19
368.41	104.19
368.636	95.19
368.862	98.19
369.089	112.19
369.315	100.19
369.541	97.19
369.767	91.19
369.993	97.19
370.219	85.19
370.445	97.19
370.672	88.19
370.898	94.19
371.124	90.19
371.35	81.19
371.576	76.19
371.802	97.19
372.028	94.19
372.254	98.19
372.48	86.19
372.706	88.19
372.932	85.19
373.158	94.19
373.384	82.19
373.61	90.19
373.835	87.19
374.061	81.19
374.287	97.19
374.513	89.19
374.739	82.19
374.965	99.19
375.191	97.19
375.416	96.19
375.642	82.19
375.868	88.19
376.094	72.19
376.319	88.19
376.545	83.19
376.771	85.19
376.997	74.19
377.222	86.19
377.448	82.19
377.674	99.19
377.899	90.19
378.125	98.19
378.35	90.19
378.576	87.19
378.802	91.19
379.027	82.19
379.253	101.19
379.478	66.19
379.704	95.19
379.929	85.19
380.155	103.19
380.38	99.19
380.606	93.19
380.831	106.19
381.057	78.19
381.282	85.19
381.507	94.19
381.733	85.19
381.958	92.19
382.184	88.19
382.409	88.19
382.634	84.19
382.86	90.19
383.085	92.19
383.31	92.19
383.535	94.19
383.761	86.19
383.986	89.19
384.211	92.19
384.436	103.19
384.662	89.19
384.887	98.19
385.112	101.19
385.337	101.19
385.562	110.19
385.787	97.19
386.013	98.19
386.238	86.19
386.463	98.19
386.688	102.19
386.913	97.19
387.138	93.19
387.363	98.19
387.588	101.19
387.813	101.19
388.038	108.19
388.263	99.19
388.488	95.19
388.713	94.19
388.938	91.19
389.163	88.19
389.387	73.19
389.612	80.19
389.837	89.19
390.062	91.19
390.287	86.19
390.512	83.19
390.736	83.19
390.961	91.19
391.186	98.19
391.411	85.19
391.636	93.19
391.86	86.19
392.085	90.19
392.31	88.19
392.534	83.19
392.759	83.19
392.984	83.19
393.208	101.19
393.433	81.19
393.658	90.19
393.882	87.19
394.107	85.19
394.331	81.19
394.556	91.19
394.78	85.19
395.005	85.19
395.229	83.19
395.454	81.19
395.678	82.19
395.903	78.19
396.127	98.19
396.352	93.19
396.576	83.19
396.801	77.19
397.025	82.19
397.249	88.19
397.474	88.19
397.698	92.19
397.922	89.19
398.147	82.19
398.371	87.19
398.595	88.19
398.82	83.19
399.044	83.19
399.268	90.19
399.492	91.19
399.717	87.19
399.941	90.19
400.165	89.19
400.389	85.19
400.613	103.19
400.837	95.19
401.062	95.19
401.286	82.19
401.51	93.19
401.734	90.19
401.958	91.19
402.182	111.19
402.406	130.19
402.63	109.19
402.854	94.19
403.078	85.19
403.302	87.19
403.526	98.19
403.75	89.19
403.974	73.19
404.198	88.19
404.422	83.19
404.645	100.19
404.869	86.19
405.093	85.19
405.317	75.19
405.541	87.19
405.765	93.19
405.988	107.19
406.212	162.19
406.436	190.19
406.66	124.19
406.883	79.19
407.107	71.19
407.331	93.19
407.555	89.19
407.778	98.19
408.002	81.19
408.226	101.19
408.449	85.19
408.673	87.19
408.896	94.19
409.12	79.19
409.344	65.19
409.567	85.19
409.791	90.19
410.014	85.19
410.238	81.19
410.461	89.19
410.685	91.19
410.908	81.19
411.132	95.19
411.355	108.19
411.578	87.19
411.802	70.19
412.025	90.19
412.249	90.19
412.472	89.19
412.695	88.19
412.919	74.19
413.142	82.19
413.365	97.19
413.589	103.19
413.812	81.19
414.035	81.19
414.258	75.19
414.482	94.19
414.705	91.19
414.928	94.19
415.151	83.19
415.374	92.19
415.597	89.19
415.821	86.19
416.044	95.19
416.267	83.19
416.49	88.19
416.713	72.19
416.936	89.19
417.159	89.19
417.382	100.19
417.605	89.19
417.828	89.19
418.051	84.19
418.274	75.19
418.497	83.19
418.72	89.19
418.943	91.19
419.166	69.19
419.389	79.19
419.611	90.19
419.834	74.19
420.057	97.19
420.28	82.19
420.503	76.19
420.726	87.19
420.948	78.19
421.171	82.19
421.394	98.19
421.617	72.19
421.839	77.19
422.062	73.19
422.285	73.19
422.507	101.19
422.73	117.19
422.953	85.19
423.175	87.19
423.398	75.19
423.621	78.19
423.843	103.19
424.066	77.19
424.288	81.19
424.511	80.19
424.733	78.19
424.956	101.19
425.178	90.19
425.401	112.19
425.623	102.19
425.846	90.19
426.068	98.19
426.291	85.19
426.513	85.19
426.735	89.19
426.958	86.19
427.18	100.19
427.402	118.19
427.625	138.19
427.847	113.19
428.069	102.19
428.292	84.19
428.514	82.19
428.736	90.19
428.958	67.19
429.181	89.19
429.403	84.19
429.625	81.19
429.847	78.19
430.069	89.19
430.292	105.19
430.514	69.19
430.736	84.19
430.958	79.19
431.18	83.19
431.402	81.19
431.624	79.19
431.846	70.19
432.068	88.19
432.29	85.19
432.512	96.19
432.734	85.19
432.956	93.19
433.178	100.19
433.4	100.19
433.622	82.19
433.844	89.19
434.066	94.19
434.287	92.19
434.509	91.19
434.731	80.19
434.953	75.19
435.175	88.19
435.397	85.19
435.618	92.19
435.84	98.19
436.062	116.19
436.284	96.19
436.505	99.19
436.727	91.19
436.949	80.19
437.17	99.19
437.392	81.19
437.614	86.19
437.835	87.19
438.057	99.19
438.278	99.19
438.5	82.19
438.721	100.19
438.943	104.19
439.165	91.19
439.386	82.19
439.608	92.19
439.829	85.19
440.05	115.19
440.272	133.19
440.493	110.19
440.715	93.19
440.936	93.19
441.158	82.19
441.379	81.19
441.6	88.19
441.822	85.19
442.043	102.19
442.264	87.19
442.486	92.19
442.707	88.19
442.928	88.19
443.149	108.19
443.371	119.19
443.592	104.19
443.813	106.19
444.034	97.19
444.255	98.19
444.476	98.19
444.698	65.19
444.919	79.19
445.14	112.19
445.361	110.19
445.582	105.19
445.803	120.19
446.024	122.19
446.245	118.19
446.466	99.19
446.687	88.19
446.908	81.19
447.129	88.19
447.35	82.19
447.571	95.19
447.792	96.19
448.013	91.19
448.234	91.19
448.455	95.19
448.675	93.19
448.896	107.19
449.117	101.19
449.338	90.19
449.559	122.19
449.779	141.19
450	72.19
450.221	87.19
450.442	98.19
450.662	85.19
450.883	95.19
451.104	89.19
451.324	90.19
451.545	86.19
451.766	74.19
451.986	93.19
452.207	91.19
452.428	85.19
452.648	77.19
452.869	102.19
453.089	93.19
453.31	107.19
453.53	95.19
453.751	90.19
453.971	98.19
454.192	106.19
454.412	89.19
454.633	75.19
454.853	91.19
455.073	86.19
455.294	81.19
455.514	91.19
455.734	107.19
455.955	94.19
456.175	83.19
456.395	76.19
456.616	90.19
456.836	77.19
457.056	97.19
457.276	104.19
457.497	87.19
457.717	79.19
457.937	75.19
458.157	86.19
458.377	88.19
458.598	88.19
458.818	130.19
459.038	144.19
459.258	112.19
459.478	96.19
459.698	85.19
459.918	89.19
460.138	84.19
460.358	93.19
460.578	79.19
460.798	89.19
461.018	86.19
461.238	91.19
461.458	91.19
461.678	92.19
461.898	93.19
462.118	89.19
462.338	84.19
462.558	88.19
462.777	81.19
462.997	98.19
463.217	82.19
463.437	63.19
463.657	87.19
463.876	89.19
464.096	82.19
464.316	96.19
464.536	95.19
464.755	98.19
464.975	96.19
465.195	145.19
465.414	144.19
465.634	86.19
465.854	89.19
466.073	83.19
466.293	88.19
466.512	91.19
466.732	71.19
466.951	74.19
467.171	85.19
467.391	89.19
467.61	104.19
467.829	95.19
468.049	91.19
468.268	94.19
468.488	87.19
468.707	84.19
468.927	84.19
469.146	106.19
469.365	88.19
469.585	78.19
469.804	87.19
470.023	95.19
470.243	87.19
470.462	86.19
470.681	84.19
470.901	85.19
471.12	79.19
471.339	89.19
471.558	89.19
471.777	83.19
471.997	98.19
472.216	81.19
472.435	127.19
472.654	97.19
472.873	89.19
473.092	100.19
473.311	89.19
473.53	93.19
473.749	101.19
473.968	99.19
474.187	95.19
474.406	91.19
474.625	88.19
474.844	87.19
475.063	88.19
475.282	93.19
475.501	93.19
475.72	98.19
475.939	74.19
476.158	84.19
476.377	81.19
476.596	95.19
476.814	97.19
477.033	83.19
477.252	90.19
477.471	92.19
477.69	96.19
477.908	92.19
478.127	75.19
478.346	96.19
478.564	86.19
478.783	89.19
479.002	108.19
479.22	71.19
479.439	102.19
479.658	104.19
479.876	88.19
480.095	86.19
480.313	79.19
480.532	99.19
480.751	94.19
480.969	102.19
481.188	128.19
481.406	117.19
481.624	103.19
481.843	85.19
482.061	94.19
482.28	95.19
482.498	90.19
482.717	85.19
482.935	83.19
483.153	78.19
483.372	73.19
483.59	79.19
483.808	77.19
484.027	100.19
484.245	84.19
484.463	81.19
484.681	110.19
484.9	98.19
485.118	110.19
485.336	87.19
485.554	84.19
485.772	108.19
485.99	89.19
486.209	110.19
486.427	100.19
486.645	116.19
486.863	102.19
487.081	105.19
487.299	79.19
487.517	105.19
487.735	97.19
487.953	84.19
488.171	101.19
488.389	90.19
488.607	91.19
488.825	83.19
489.043	79.19
489.261	85.19
489.479	95.19
489.696	90.19
489.914	95.19
490.132	83.19
490.35	79.19
490.568	86.19
490.786	88.19
491.003	74.19
491.221	79.19
491.439	89.19
491.657	100.19
491.874	93.19
492.092	96.19
492.31	106.19
492.527	86.19
492.745	95.19
492.963	93.19
493.18	87.19
493.398	99.19
493.615	103.19
493.833	95.19
494.05	96.19
494.268	95.19
494.485	93.19
494.703	90.19
494.92	91.19
495.138	84.19
495.355	99.19
495.573	83.19
495.79	104.19
496.008	91.19
496.225	90.19
496.442	98.19
496.66	98.19
496.877	94.19
497.094	90.19
497.312	92.19
497.529	91.19
497.746	82.19
497.963	86.19
498.181	99.19
498.398	94.19
498.615	106.19
498.832	116.19
499.049	90.19
499.267	90.19
499.484	95.19
499.701	87.19
499.918	99.19
500.135	82.19
500.352	95.19
500.569	98.19
500.786	83.19
501.003	87.19
501.22	87.19
501.437	72.19
501.654	95.19
501.871	97.19
502.088	99.19
502.305	93.19
502.522	93.19
502.739	91.19
502.956	104.19
503.172	93.19
503.389	70.19
503.606	113.19
503.823	111.19
504.04	87.19
504.256	93.19
504.473	83.19
504.69	88.19
504.907	92.19
505.123	103.19
505.34	97.19
505.557	97.19
505.773	81.19
505.99	85.19
506.207	97.19
506.423	85.19
506.64	82.19
506.856	85.19
507.073	85.19
507.289	83.19
507.506	92.19
507.722	106.19
507.939	96.19
508.155	106.19
508.372	82.19
508.588	101.19
508.805	82.19
509.021	104.19
509.238	85.19
509.454	93.19
509.67	84.19
509.887	99.19
510.103	144.19
510.319	177.19
510.536	653.19
510.752	1951.19
510.968	553.19
511.184	136.19
511.401	111.19
511.617	115.19
511.833	93.19
512.049	85.19
512.265	70.19
512.481	81.19
512.698	89.19
512.914	88.19
513.13	85.19
513.346	98.19
513.562	99.19
513.778	81.19
513.994	94.19
514.21	107.19
514.426	121.19
514.642	120.19
514.858	117.19
515.074	148.19
515.29	375.19
515.506	1138.19
515.721	427.19
515.937	153.19
516.153	117.19
516.369	103.19
516.585	110.19
516.801	90.19
