Data from Uncirc_1985_H10_HRD10591_00039.txt Node
Date: Wed Jan 03 12:18:25 EST 2024
User: Yrep
Spectrometer: HR+D1059
Trigger mode: 1
Integration Time (sec): 1.000000E-1
Scans to average: 1
Electric dark correction enabled: true
Nonlinearity correction enabled: false
Boxcar width: 0
XAxis mode: Wavelengths
Number of Pixels in Spectrum: 2048
>>>>>Begin Spectral Data<<<<<
223.165	-7.19
223.4	-7.19
223.635	-7.19
223.869	-21.19
224.104	-20.19
224.338	-20.19
224.573	-8.19
224.808	-15.19
225.042	-10.19
225.277	-9.19
225.511	-6.19
225.746	1.81
225.98	3.81
226.215	18.81
226.449	3.81
226.683	28.81
226.918	26.81
227.152	33.81
227.387	34.81
227.621	52.81
227.856	50.81
228.09	48.81
228.324	48.81
228.559	56.81
228.793	50.81
229.027	71.81
229.262	54.81
229.496	78.81
229.73	85.81
229.964	78.81
230.199	64.81
230.433	67.81
230.667	64.81
230.901	82.81
231.136	77.81
231.37	74.81
231.604	86.81
231.838	82.81
232.072	75.81
232.306	86.81
232.541	78.81
232.775	78.81
233.009	74.81
233.243	84.81
233.477	85.81
233.711	86.81
233.945	86.81
234.179	83.81
234.413	80.81
234.647	84.81
234.881	80.81
235.115	90.81
235.349	74.81
235.583	70.81
235.817	78.81
236.051	73.81
236.285	66.81
236.519	75.81
236.753	63.81
236.987	82.81
237.221	68.81
237.455	81.81
237.689	78.81
237.922	64.81
238.156	66.81
238.39	76.81
238.624	81.81
238.858	90.81
239.091	75.81
239.325	66.81
239.559	84.81
239.793	79.81
240.027	66.81
240.26	75.81
240.494	76.81
240.728	80.81
240.961	74.81
241.195	82.81
241.429	82.81
241.662	80.81
241.896	80.81
242.13	59.81
242.363	78.81
242.597	68.81
242.83	58.81
243.064	73.81
243.298	75.81
243.531	79.81
243.765	73.81
243.998	68.81
244.232	76.81
244.465	78.81
244.699	72.81
244.932	83.81
245.166	71.81
245.399	74.81
245.633	67.81
245.866	67.81
246.099	73.81
246.333	68.81
246.566	60.81
246.8	74.81
247.033	66.81
247.266	78.81
247.5	75.81
247.733	79.81
247.966	86.81
248.2	74.81
248.433	77.81
248.666	85.81
248.899	83.81
249.133	70.81
249.366	96.81
249.599	93.81
249.832	78.81
250.066	70.81
250.299	71.81
250.532	65.81
250.765	69.81
250.998	69.81
251.231	75.81
251.465	76.81
251.698	76.81
251.931	68.81
252.164	79.81
252.397	89.81
252.63	73.81
252.863	78.81
253.096	84.81
253.329	85.81
253.562	78.81
253.795	79.81
254.028	69.81
254.261	84.81
254.494	70.81
254.727	72.81
254.96	81.81
255.193	66.81
255.426	75.81
255.659	88.81
255.892	87.81
256.124	90.81
256.357	85.81
256.59	86.81
256.823	84.81
257.056	90.81
257.289	67.81
257.521	81.81
257.754	80.81
257.987	83.81
258.22	88.81
258.452	76.81
258.685	66.81
258.918	97.81
259.151	82.81
259.383	71.81
259.616	96.81
259.849	83.81
260.081	94.81
260.314	91.81
260.547	83.81
260.779	78.81
261.012	82.81
261.244	71.81
261.477	86.81
261.71	94.81
261.942	108.81
262.175	101.81
262.407	86.81
262.64	86.81
262.872	91.81
263.105	87.81
263.337	74.81
263.57	80.81
263.802	82.81
264.035	67.81
264.267	78.81
264.499	80.81
264.732	95.81
264.964	80.81
265.197	88.81
265.429	86.81
265.661	80.81
265.894	87.81
266.126	85.81
266.358	95.81
266.591	81.81
266.823	74.81
267.055	86.81
267.287	78.81
267.52	75.81
267.752	91.81
267.984	78.81
268.216	96.81
268.448	89.81
268.681	72.81
268.913	86.81
269.145	88.81
269.377	93.81
269.609	83.81
269.841	87.81
270.073	96.81
270.306	67.81
270.538	80.81
270.77	82.81
271.002	95.81
271.234	80.81
271.466	82.81
271.698	88.81
271.93	89.81
272.162	73.81
272.394	73.81
272.626	80.81
272.858	95.81
273.09	82.81
273.322	78.81
273.553	84.81
273.785	92.81
274.017	81.81
274.249	78.81
274.481	85.81
274.713	81.81
274.945	87.81
275.176	78.81
275.408	79.81
275.64	72.81
275.872	69.81
276.104	89.81
276.335	95.81
276.567	72.81
276.799	98.81
277.031	86.81
277.262	86.81
277.494	85.81
277.726	96.81
277.957	81.81
278.189	92.81
278.421	74.81
278.652	88.81
278.884	94.81
279.115	88.81
279.347	71.81
279.579	78.81
279.81	73.81
280.042	82.81
280.273	79.81
280.505	88.81
280.736	75.81
280.968	98.81
281.199	82.81
281.431	84.81
281.662	91.81
281.894	100.81
282.125	98.81
282.356	112.81
282.588	138.81
282.819	107.81
283.051	81.81
283.282	68.81
283.513	82.81
283.745	82.81
283.976	90.81
284.207	92.81
284.439	91.81
284.67	96.81
284.901	84.81
285.132	79.81
285.364	79.81
285.595	76.81
285.826	80.81
286.057	98.81
286.288	80.81
286.52	80.81
286.751	92.81
286.982	78.81
287.213	83.81
287.444	87.81
287.675	86.81
287.906	93.81
288.138	96.81
288.369	70.81
288.6	90.81
288.831	92.81
289.062	85.81
289.293	93.81
289.524	82.81
289.755	90.81
289.986	94.81
290.217	87.81
290.448	92.81
290.679	90.81
290.91	92.81
291.141	81.81
291.371	92.81
291.602	82.81
291.833	91.81
292.064	89.81
292.295	99.81
292.526	92.81
292.757	98.81
292.987	107.81
293.218	88.81
293.449	78.81
293.68	83.81
293.91	85.81
294.141	88.81
294.372	80.81
294.603	96.81
294.833	103.81
295.064	94.81
295.295	87.81
295.525	86.81
295.756	112.81
295.987	108.81
296.217	114.81
296.448	115.81
296.679	83.81
296.909	80.81
297.14	86.81
297.37	102.81
297.601	77.81
297.831	100.81
298.062	101.81
298.292	106.81
298.523	95.81
298.753	87.81
298.984	95.81
299.214	87.81
299.445	94.81
299.675	84.81
299.905	100.81
300.136	75.81
300.366	83.81
300.597	80.81
300.827	83.81
301.057	109.81
301.288	109.81
301.518	95.81
301.748	76.81
301.979	102.81
302.209	102.81
302.439	101.81
302.669	86.81
302.9	96.81
303.13	85.81
303.36	91.81
303.59	83.81
303.82	102.81
304.051	87.81
304.281	107.81
304.511	103.81
304.741	93.81
304.971	90.81
305.201	90.81
305.431	89.81
305.661	99.81
305.891	87.81
306.121	80.81
306.352	93.81
306.582	105.81
306.812	103.81
307.042	92.81
307.272	84.81
307.502	106.81
307.731	89.81
307.961	83.81
308.191	82.81
308.421	85.81
308.651	108.81
308.881	89.81
309.111	98.81
309.341	74.81
309.571	88.81
309.8	95.81
310.03	105.81
310.26	98.81
310.49	96.81
310.72	103.81
310.949	97.81
311.179	84.81
311.409	90.81
311.639	100.81
311.868	100.81
312.098	111.81
312.328	93.81
312.557	102.81
312.787	95.81
313.017	89.81
313.246	105.81
313.476	108.81
313.706	103.81
313.935	92.81
314.165	108.81
314.394	107.81
314.624	111.81
314.853	96.81
315.083	94.81
315.312	94.81
315.542	92.81
315.771	94.81
316.001	110.81
316.23	92.81
316.46	73.81
316.689	81.81
316.919	100.81
317.148	88.81
317.377	98.81
317.607	84.81
317.836	102.81
318.065	96.81
318.295	88.81
318.524	94.81
318.753	87.81
318.983	95.81
319.212	97.81
319.441	117.81
319.67	113.81
319.9	75.81
320.129	74.81
320.358	93.81
320.587	96.81
320.816	110.81
321.046	92.81
321.275	95.81
321.504	97.81
321.733	86.81
321.962	81.81
322.191	90.81
322.42	91.81
322.649	99.81
322.878	107.81
323.108	106.81
323.337	123.81
323.566	137.81
323.795	149.81
324.024	186.81
324.253	345.81
324.482	743.81
324.71	1528.81
324.939	2013.81
325.168	755.81
325.397	226.81
325.626	154.81
325.855	122.81
326.084	127.81
326.313	127.81
326.542	153.81
326.77	216.81
326.999	420.81
327.228	887.81
327.457	1557.81
327.686	1256.81
327.914	348.81
328.143	190.81
328.372	127.81
328.6	119.81
328.829	119.81
329.058	111.81
329.287	127.81
329.515	91.81
329.744	104.81
329.972	100.81
330.201	101.81
330.43	127.81
330.658	113.81
330.887	120.81
331.115	114.81
331.344	104.81
331.572	90.81
331.801	107.81
332.03	90.81
332.258	92.81
332.486	87.81
332.715	105.81
332.943	87.81
333.172	100.81
333.4	102.81
333.629	105.81
333.857	114.81
334.085	117.81
334.314	105.81
334.542	126.81
334.771	124.81
334.999	103.81
335.227	100.81
335.455	95.81
335.684	90.81
335.912	87.81
336.14	114.81
336.369	108.81
336.597	99.81
336.825	104.81
337.053	101.81
337.281	88.81
337.51	100.81
337.738	107.81
337.966	102.81
338.194	104.81
338.422	98.81
338.65	92.81
338.878	102.81
339.106	93.81
339.334	73.81
339.562	91.81
339.79	86.81
340.018	94.81
340.246	92.81
340.474	98.81
340.702	100.81
340.93	92.81
341.158	96.81
341.386	91.81
341.614	107.81
341.842	97.81
342.07	82.81
342.298	83.81
342.526	84.81
342.754	76.81
342.981	96.81
343.209	89.81
343.437	109.81
343.665	95.81
343.893	95.81
344.12	92.81
344.348	82.81
344.576	84.81
344.804	88.81
345.031	82.81
345.259	90.81
345.487	96.81
345.714	74.81
345.942	88.81
346.17	85.81
346.397	78.81
346.625	88.81
346.853	89.81
347.08	95.81
347.308	97.81
347.535	97.81
347.763	102.81
347.99	103.81
348.218	100.81
348.445	94.81
348.673	99.81
348.9	100.81
349.128	75.81
349.355	77.81
349.583	100.81
349.81	88.81
350.037	102.81
350.265	86.81
350.492	94.81
350.72	106.81
350.947	97.81
351.174	101.81
351.402	118.81
351.629	96.81
351.856	102.81
352.083	96.81
352.311	108.81
352.538	76.81
352.765	102.81
352.992	103.81
353.22	111.81
353.447	106.81
353.674	100.81
353.901	96.81
354.128	116.81
354.355	112.81
354.583	91.81
354.81	97.81
355.037	98.81
355.264	104.81
355.491	91.81
355.718	91.81
355.945	106.81
356.172	86.81
356.399	91.81
356.626	89.81
356.853	92.81
357.08	104.81
357.307	98.81
357.534	98.81
357.761	108.81
357.988	95.81
358.215	101.81
358.441	93.81
358.668	95.81
358.895	95.81
359.122	89.81
359.349	103.81
359.576	90.81
359.802	107.81
360.029	102.81
360.256	104.81
360.483	96.81
360.709	83.81
360.936	87.81
361.163	98.81
361.39	90.81
361.616	90.81
361.843	84.81
362.07	97.81
362.296	95.81
362.523	74.81
362.749	91.81
362.976	96.81
363.203	91.81
363.429	96.81
363.656	92.81
363.882	83.81
364.109	70.81
364.335	86.81
364.562	75.81
364.788	94.81
365.015	93.81
365.241	106.81
365.468	123.81
365.694	103.81
365.92	90.81
366.147	96.81
366.373	82.81
366.599	90.81
366.826	94.81
367.052	88.81
367.278	98.81
367.505	98.81
367.731	91.81
367.957	95.81
368.184	76.81
368.41	90.81
368.636	88.81
368.862	103.81
369.089	113.81
369.315	94.81
369.541	83.81
369.767	106.81
369.993	95.81
370.219	90.81
370.445	84.81
370.672	81.81
370.898	83.81
371.124	92.81
371.35	88.81
371.576	87.81
371.802	78.81
372.028	93.81
372.254	91.81
372.48	96.81
372.706	80.81
372.932	95.81
373.158	98.81
373.384	90.81
373.61	90.81
373.835	86.81
374.061	77.81
374.287	83.81
374.513	94.81
374.739	76.81
374.965	91.81
375.191	86.81
375.416	86.81
375.642	93.81
375.868	77.81
376.094	92.81
376.319	95.81
376.545	82.81
376.771	73.81
376.997	102.81
377.222	96.81
377.448	92.81
377.674	101.81
377.899	96.81
378.125	83.81
378.35	86.81
378.576	106.81
378.802	100.81
379.027	90.81
379.253	83.81
379.478	76.81
379.704	83.81
379.929	96.81
380.155	91.81
380.38	85.81
380.606	96.81
380.831	102.81
381.057	103.81
381.282	89.81
381.507	100.81
381.733	91.81
381.958	85.81
382.184	104.81
382.409	92.81
382.634	98.81
382.86	100.81
383.085	95.81
383.31	99.81
383.535	105.81
383.761	90.81
383.986	85.81
384.211	87.81
384.436	102.81
384.662	97.81
384.887	101.81
385.112	94.81
385.337	91.81
385.562	96.81
385.787	96.81
386.013	95.81
386.238	106.81
386.463	98.81
386.688	88.81
386.913	94.81
387.138	99.81
387.363	97.81
387.588	107.81
387.813	90.81
388.038	95.81
388.263	98.81
388.488	107.81
388.713	76.81
388.938	81.81
389.163	101.81
389.387	91.81
389.612	89.81
389.837	105.81
390.062	89.81
390.287	85.81
390.512	87.81
390.736	89.81
390.961	90.81
391.186	87.81
391.411	99.81
391.636	91.81
391.86	68.81
392.085	85.81
392.31	82.81
392.534	86.81
392.759	82.81
392.984	77.81
393.208	89.81
393.433	96.81
393.658	97.81
393.882	91.81
394.107	75.81
394.331	85.81
394.556	91.81
394.78	86.81
395.005	86.81
395.229	87.81
395.454	88.81
395.678	77.81
395.903	89.81
396.127	77.81
396.352	79.81
396.576	84.81
396.801	89.81
397.025	90.81
397.249	81.81
397.474	87.81
397.698	85.81
397.922	88.81
398.147	90.81
398.371	94.81
398.595	87.81
398.82	91.81
399.044	83.81
399.268	82.81
399.492	88.81
399.717	90.81
399.941	95.81
400.165	102.81
400.389	98.81
400.613	87.81
400.837	82.81
401.062	89.81
401.286	99.81
401.51	101.81
401.734	85.81
401.958	83.81
402.182	127.81
402.406	142.81
402.63	98.81
402.854	91.81
403.078	82.81
403.302	75.81
403.526	97.81
403.75	88.81
403.974	86.81
404.198	99.81
404.422	88.81
404.645	92.81
404.869	87.81
405.093	81.81
405.317	94.81
405.541	88.81
405.765	87.81
405.988	105.81
406.212	136.81
406.436	202.81
406.66	138.81
406.883	107.81
407.107	90.81
407.331	89.81
407.555	105.81
407.778	89.81
408.002	80.81
408.226	78.81
408.449	86.81
408.673	77.81
408.896	90.81
409.12	91.81
409.344	101.81
409.567	80.81
409.791	86.81
410.014	98.81
410.238	90.81
410.461	92.81
410.685	89.81
410.908	94.81
411.132	95.81
411.355	94.81
411.578	98.81
411.802	87.81
412.025	87.81
412.249	91.81
412.472	83.81
412.695	92.81
412.919	102.81
413.142	94.81
413.365	80.81
413.589	105.81
413.812	89.81
414.035	97.81
414.258	93.81
414.482	83.81
414.705	90.81
414.928	80.81
415.151	101.81
415.374	80.81
415.597	91.81
415.821	84.81
416.044	86.81
416.267	83.81
416.49	84.81
416.713	86.81
416.936	86.81
417.159	84.81
417.382	82.81
417.605	104.81
417.828	83.81
418.051	99.81
418.274	78.81
418.497	82.81
418.72	75.81
418.943	107.81
419.166	80.81
419.389	82.81
419.611	91.81
419.834	83.81
420.057	88.81
420.28	89.81
420.503	81.81
420.726	95.81
420.948	89.81
421.171	91.81
421.394	69.81
421.617	83.81
421.839	77.81
422.062	96.81
422.285	88.81
422.507	91.81
422.73	104.81
422.953	75.81
423.175	102.81
423.398	84.81
423.621	78.81
423.843	95.81
424.066	94.81
424.288	85.81
424.511	95.81
424.733	93.81
424.956	101.81
425.178	99.81
425.401	90.81
425.623	98.81
425.846	91.81
426.068	87.81
426.291	94.81
426.513	95.81
426.735	91.81
426.958	93.81
427.18	98.81
427.402	149.81
427.625	154.81
427.847	127.81
428.069	103.81
428.292	88.81
428.514	78.81
428.736	94.81
428.958	79.81
429.181	85.81
429.403	80.81
429.625	81.81
429.847	92.81
430.069	116.81
430.292	109.81
430.514	86.81
430.736	76.81
430.958	99.81
431.18	95.81
431.402	91.81
431.624	83.81
431.846	89.81
432.068	81.81
432.29	89.81
432.512	92.81
432.734	87.81
432.956	85.81
433.178	91.81
433.4	86.81
433.622	94.81
433.844	79.81
434.066	98.81
434.287	100.81
434.509	102.81
434.731	76.81
434.953	90.81
435.175	87.81
435.397	86.81
435.618	82.81
435.84	95.81
436.062	102.81
436.284	115.81
436.505	104.81
436.727	88.81
436.949	104.81
437.17	84.81
437.392	79.81
437.614	86.81
437.835	101.81
438.057	118.81
438.278	102.81
438.5	109.81
438.721	106.81
438.943	102.81
439.165	90.81
439.386	92.81
439.608	104.81
439.829	115.81
440.05	115.81
440.272	134.81
440.493	88.81
440.715	84.81
440.936	80.81
441.158	85.81
441.379	81.81
441.6	78.81
441.822	92.81
442.043	87.81
442.264	85.81
442.486	95.81
442.707	76.81
442.928	101.81
443.149	129.81
443.371	117.81
443.592	120.81
443.813	104.81
444.034	98.81
444.255	78.81
444.476	78.81
444.698	74.81
444.919	82.81
445.14	131.81
445.361	120.81
445.582	111.81
445.803	134.81
446.024	129.81
446.245	133.81
446.466	95.81
446.687	87.81
446.908	84.81
447.129	92.81
447.35	89.81
447.571	102.81
447.792	86.81
448.013	95.81
448.234	105.81
448.455	105.81
448.675	101.81
448.896	101.81
449.117	100.81
449.338	101.81
449.559	123.81
449.779	124.81
450	96.81
450.221	81.81
450.442	95.81
450.662	97.81
450.883	100.81
451.104	106.81
451.324	92.81
451.545	89.81
451.766	87.81
451.986	91.81
452.207	73.81
452.428	99.81
452.648	92.81
452.869	104.81
453.089	106.81
453.31	107.81
453.53	95.81
453.751	98.81
453.971	108.81
454.192	106.81
454.412	93.81
454.633	78.81
454.853	78.81
455.073	83.81
455.294	88.81
455.514	100.81
455.734	86.81
455.955	86.81
456.175	87.81
456.395	85.81
456.616	77.81
456.836	84.81
457.056	95.81
457.276	87.81
457.497	89.81
457.717	64.81
457.937	82.81
458.157	100.81
458.377	101.81
458.598	112.81
458.818	115.81
459.038	149.81
459.258	118.81
459.478	80.81
459.698	80.81
459.918	92.81
460.138	91.81
460.358	84.81
460.578	88.81
460.798	80.81
461.018	81.81
461.238	82.81
461.458	73.81
461.678	85.81
461.898	97.81
462.118	90.81
462.338	78.81
462.558	90.81
462.777	81.81
462.997	87.81
463.217	92.81
463.437	94.81
463.657	78.81
463.876	83.81
464.096	90.81
464.316	87.81
464.536	88.81
464.755	87.81
464.975	92.81
465.195	155.81
465.414	146.81
465.634	104.81
465.854	74.81
466.073	80.81
466.293	106.81
466.512	84.81
466.732	87.81
466.951	82.81
467.171	91.81
467.391	99.81
467.61	102.81
467.829	103.81
468.049	96.81
468.268	88.81
468.488	93.81
468.707	85.81
468.927	94.81
469.146	79.81
469.365	95.81
469.585	103.81
469.804	78.81
470.023	90.81
470.243	90.81
470.462	102.81
470.681	108.81
470.901	90.81
471.12	78.81
471.339	83.81
471.558	91.81
471.777	91.81
471.997	91.81
472.216	112.81
472.435	111.81
472.654	79.81
472.873	97.81
473.092	104.81
473.311	98.81
473.53	67.81
473.749	85.81
473.968	88.81
474.187	93.81
474.406	91.81
474.625	89.81
474.844	83.81
475.063	80.81
475.282	82.81
475.501	81.81
475.72	83.81
475.939	84.81
476.158	88.81
476.377	102.81
476.596	74.81
476.814	84.81
477.033	84.81
477.252	95.81
477.471	83.81
477.69	86.81
477.908	97.81
478.127	88.81
478.346	98.81
478.564	93.81
478.783	85.81
479.002	100.81
479.22	91.81
479.439	94.81
479.658	99.81
479.876	87.81
480.095	88.81
480.313	102.81
480.532	96.81
480.751	95.81
480.969	92.81
481.188	161.81
481.406	129.81
481.624	97.81
481.843	81.81
482.061	73.81
482.28	72.81
482.498	70.81
482.717	70.81
482.935	87.81
483.153	86.81
483.372	87.81
483.59	89.81
483.808	90.81
484.027	94.81
484.245	82.81
484.463	85.81
484.681	104.81
484.9	98.81
485.118	100.81
485.336	106.81
485.554	92.81
485.772	102.81
485.99	92.81
486.209	83.81
486.427	96.81
486.645	93.81
486.863	83.81
487.081	96.81
487.299	98.81
487.517	97.81
487.735	92.81
487.953	96.81
488.171	98.81
488.389	97.81
488.607	89.81
488.825	94.81
489.043	82.81
489.261	87.81
489.479	79.81
489.696	78.81
489.914	94.81
490.132	97.81
490.35	102.81
490.568	80.81
490.786	83.81
491.003	80.81
491.221	84.81
491.439	91.81
491.657	95.81
491.874	82.81
492.092	84.81
492.31	99.81
492.527	95.81
492.745	92.81
492.963	98.81
493.18	90.81
493.398	92.81
493.615	101.81
493.833	92.81
494.05	90.81
494.268	96.81
494.485	94.81
494.703	98.81
494.92	83.81
495.138	95.81
495.355	85.81
495.573	79.81
495.79	103.81
496.008	108.81
496.225	89.81
496.442	98.81
496.66	94.81
496.877	82.81
497.094	101.81
497.312	96.81
497.529	85.81
497.746	96.81
497.963	78.81
498.181	83.81
498.398	95.81
498.615	101.81
498.832	95.81
499.049	80.81
499.267	87.81
499.484	86.81
499.701	92.81
499.918	81.81
500.135	97.81
500.352	86.81
500.569	85.81
500.786	96.81
501.003	88.81
501.22	88.81
501.437	83.81
501.654	92.81
501.871	107.81
502.088	98.81
502.305	90.81
502.522	82.81
502.739	99.81
502.956	73.81
503.172	90.81
503.389	96.81
503.606	109.81
503.823	92.81
504.04	102.81
504.256	75.81
504.473	92.81
504.69	91.81
504.907	93.81
505.123	98.81
505.34	87.81
505.557	100.81
505.773	93.81
505.99	79.81
506.207	88.81
506.423	90.81
506.64	91.81
506.856	86.81
507.073	94.81
507.289	98.81
507.506	78.81
507.722	103.81
507.939	119.81
508.155	93.81
508.372	82.81
508.588	89.81
508.805	108.81
509.021	92.81
509.238	104.81
509.454	88.81
509.67	103.81
509.887	96.81
510.103	124.81
510.319	189.81
510.536	674.81
510.752	2089.81
510.968	594.81
511.184	134.81
511.401	107.81
511.617	98.81
511.833	88.81
512.049	98.81
512.265	87.81
512.481	90.81
512.698	89.81
512.914	88.81
513.13	92.81
513.346	95.81
513.562	98.81
513.778	88.81
513.994	92.81
514.21	97.81
514.426	100.81
514.642	134.81
514.858	120.81
515.074	145.81
515.29	385.81
515.506	1271.81
515.721	479.81
515.937	155.81
516.153	95.81
