Data from Uncirc_1985_H10_HRD10591_00021.txt Node
Date: Wed Jan 03 12:18:21 EST 2024
User: Yrep
Spectrometer: HR+D1059
Trigger mode: 1
Integration Time (sec): 1.000000E-1
Scans to average: 1
Electric dark correction enabled: true
Nonlinearity correction enabled: false
Boxcar width: 0
XAxis mode: Wavelengths
Number of Pixels in Spectrum: 2048
>>>>>Begin Spectral Data<<<<<
223.165	-24.69
223.4	-24.69
223.635	-24.69
223.869	-15.69
224.104	-21.69
224.338	-18.69
224.573	-22.69
224.808	-9.69
225.042	-11.69
225.277	-6.69
225.511	1.31
225.746	7.31
225.98	0.31
226.215	10.31
226.449	19.31
226.683	32.31
226.918	17.31
227.152	43.31
227.387	20.31
227.621	36.31
227.856	43.31
228.09	38.31
228.324	50.31
228.559	50.31
228.793	54.31
229.027	58.31
229.262	66.31
229.496	73.31
229.73	77.31
229.964	78.31
230.199	84.31
230.433	78.31
230.667	79.31
230.901	67.31
231.136	70.31
231.37	78.31
231.604	80.31
231.838	78.31
232.072	84.31
232.306	79.31
232.541	89.31
232.775	92.31
233.009	74.31
233.243	87.31
233.477	65.31
233.711	85.31
233.945	90.31
234.179	86.31
234.413	77.31
234.647	82.31
234.881	72.31
235.115	80.31
235.349	72.31
235.583	65.31
235.817	66.31
236.051	78.31
236.285	73.31
236.519	101.31
236.753	67.31
236.987	79.31
237.221	76.31
237.455	97.31
237.689	62.31
237.922	69.31
238.156	54.31
238.39	71.31
238.624	66.31
238.858	84.31
239.091	87.31
239.325	69.31
239.559	84.31
239.793	87.31
240.027	63.31
240.26	84.31
240.494	86.31
240.728	76.31
240.961	69.31
241.195	84.31
241.429	75.31
241.662	54.31
241.896	78.31
242.13	74.31
242.363	74.31
242.597	67.31
242.83	77.31
243.064	78.31
243.298	69.31
243.531	60.31
243.765	93.31
243.998	73.31
244.232	76.31
244.465	85.31
244.699	80.31
244.932	66.31
245.166	70.31
245.399	71.31
245.633	88.31
245.866	84.31
246.099	78.31
246.333	71.31
246.566	71.31
246.8	86.31
247.033	77.31
247.266	80.31
247.5	74.31
247.733	80.31
247.966	78.31
248.2	85.31
248.433	76.31
248.666	70.31
248.899	85.31
249.133	84.31
249.366	83.31
249.599	82.31
249.832	78.31
250.066	90.31
250.299	69.31
250.532	84.31
250.765	73.31
250.998	63.31
251.231	58.31
251.465	68.31
251.698	75.31
251.931	92.31
252.164	89.31
252.397	90.31
252.63	87.31
252.863	81.31
253.096	72.31
253.329	72.31
253.562	73.31
253.795	83.31
254.028	85.31
254.261	68.31
254.494	82.31
254.727	84.31
254.96	75.31
255.193	90.31
255.426	80.31
255.659	80.31
255.892	74.31
256.124	96.31
256.357	69.31
256.59	60.31
256.823	89.31
257.056	74.31
257.289	86.31
257.521	92.31
257.754	92.31
257.987	77.31
258.22	79.31
258.452	86.31
258.685	67.31
258.918	76.31
259.151	92.31
259.383	89.31
259.616	88.31
259.849	89.31
260.081	67.31
260.314	82.31
260.547	80.31
260.779	63.31
261.012	77.31
261.244	84.31
261.477	74.31
261.71	86.31
261.942	91.31
262.175	106.31
262.407	74.31
262.64	89.31
262.872	79.31
263.105	66.31
263.337	87.31
263.57	71.31
263.802	86.31
264.035	68.31
264.267	73.31
264.499	82.31
264.732	87.31
264.964	65.31
265.197	94.31
265.429	78.31
265.661	88.31
265.894	87.31
266.126	90.31
266.358	80.31
266.591	74.31
266.823	70.31
267.055	87.31
267.287	84.31
267.52	73.31
267.752	72.31
267.984	81.31
268.216	92.31
268.448	82.31
268.681	74.31
268.913	80.31
269.145	86.31
269.377	99.31
269.609	78.31
269.841	88.31
270.073	76.31
270.306	98.31
270.538	80.31
270.77	85.31
271.002	95.31
271.234	77.31
271.466	82.31
271.698	81.31
271.93	87.31
272.162	96.31
272.394	93.31
272.626	86.31
272.858	86.31
273.09	84.31
273.322	88.31
273.553	79.31
273.785	84.31
274.017	84.31
274.249	89.31
274.481	82.31
274.713	81.31
274.945	84.31
275.176	91.31
275.408	72.31
275.64	73.31
275.872	83.31
276.104	89.31
276.335	88.31
276.567	101.31
276.799	109.31
277.031	83.31
277.262	81.31
277.494	85.31
277.726	71.31
277.957	68.31
278.189	78.31
278.421	93.31
278.652	84.31
278.884	92.31
279.115	86.31
279.347	89.31
279.579	90.31
279.81	89.31
280.042	93.31
280.273	103.31
280.505	74.31
280.736	87.31
280.968	73.31
281.199	86.31
281.431	81.31
281.662	87.31
281.894	89.31
282.125	95.31
282.356	99.31
282.588	127.31
282.819	109.31
283.051	87.31
283.282	80.31
283.513	82.31
283.745	91.31
283.976	62.31
284.207	86.31
284.439	93.31
284.67	81.31
284.901	90.31
285.132	69.31
285.364	90.31
285.595	82.31
285.826	89.31
286.057	84.31
286.288	86.31
286.52	86.31
286.751	92.31
286.982	86.31
287.213	87.31
287.444	83.31
287.675	92.31
287.906	100.31
288.138	84.31
288.369	95.31
288.6	89.31
288.831	76.31
289.062	94.31
289.293	88.31
289.524	85.31
289.755	93.31
289.986	77.31
290.217	83.31
290.448	90.31
290.679	84.31
290.91	93.31
291.141	99.31
291.371	94.31
291.602	68.31
291.833	83.31
292.064	71.31
292.295	80.31
292.526	68.31
292.757	88.31
292.987	92.31
293.218	95.31
293.449	77.31
293.68	75.31
293.91	98.31
294.141	90.31
294.372	93.31
294.603	91.31
294.833	100.31
295.064	88.31
295.295	89.31
295.525	92.31
295.756	100.31
295.987	96.31
296.217	115.31
296.448	115.31
296.679	99.31
296.909	80.31
297.14	84.31
297.37	74.31
297.601	77.31
297.831	94.31
298.062	101.31
298.292	85.31
298.523	85.31
298.753	76.31
298.984	86.31
299.214	82.31
299.445	85.31
299.675	84.31
299.905	85.31
300.136	91.31
300.366	68.31
300.597	80.31
300.827	85.31
301.057	90.31
301.288	95.31
301.518	92.31
301.748	98.31
301.979	105.31
302.209	90.31
302.439	94.31
302.669	101.31
302.9	96.31
303.13	92.31
303.36	74.31
303.59	97.31
303.82	94.31
304.051	93.31
304.281	84.31
304.511	95.31
304.741	93.31
304.971	72.31
305.201	97.31
305.431	84.31
305.661	78.31
305.891	90.31
306.121	86.31
306.352	108.31
306.582	99.31
306.812	80.31
307.042	103.31
307.272	93.31
307.502	74.31
307.731	82.31
307.961	83.31
308.191	93.31
308.421	95.31
308.651	83.31
308.881	95.31
309.111	87.31
309.341	94.31
309.571	103.31
309.8	78.31
310.03	90.31
310.26	84.31
310.49	99.31
310.72	90.31
310.949	92.31
311.179	91.31
311.409	86.31
311.639	97.31
311.868	101.31
312.098	100.31
312.328	93.31
312.557	92.31
312.787	96.31
313.017	85.31
313.246	85.31
313.476	86.31
313.706	88.31
313.935	89.31
314.165	87.31
314.394	94.31
314.624	99.31
314.853	88.31
315.083	74.31
315.312	98.31
315.542	103.31
315.771	110.31
316.001	97.31
316.23	79.31
316.46	87.31
316.689	82.31
316.919	101.31
317.148	78.31
317.377	81.31
317.607	92.31
317.836	88.31
318.065	81.31
318.295	86.31
318.524	86.31
318.753	86.31
318.983	90.31
319.212	103.31
319.441	98.31
319.67	102.31
319.9	97.31
320.129	80.31
320.358	83.31
320.587	96.31
320.816	88.31
321.046	94.31
321.275	92.31
321.504	96.31
321.733	95.31
321.962	92.31
322.191	101.31
322.42	100.31
322.649	89.31
322.878	108.31
323.108	112.31
323.337	106.31
323.566	116.31
323.795	136.31
324.024	198.31
324.253	354.31
324.482	750.31
324.71	1524.31
324.939	1977.31
325.168	702.31
325.397	234.31
325.626	148.31
325.855	115.31
326.084	129.31
326.313	115.31
326.542	137.31
326.77	213.31
326.999	406.31
327.228	854.31
327.457	1553.31
327.686	1225.31
327.914	312.31
328.143	168.31
328.372	129.31
328.6	121.31
328.829	111.31
329.058	106.31
329.287	112.31
329.515	88.31
329.744	82.31
329.972	107.31
330.201	105.31
330.43	111.31
330.658	95.31
330.887	111.31
331.115	118.31
331.344	96.31
331.572	97.31
331.801	97.31
332.03	87.31
332.258	77.31
332.486	80.31
332.715	92.31
332.943	101.31
333.172	66.31
333.4	91.31
333.629	102.31
333.857	104.31
334.085	102.31
334.314	104.31
334.542	107.31
334.771	94.31
334.999	97.31
335.227	109.31
335.455	86.31
335.684	84.31
335.912	98.31
336.14	93.31
336.369	104.31
336.597	103.31
336.825	107.31
337.053	92.31
337.281	78.31
337.51	78.31
337.738	84.31
337.966	93.31
338.194	81.31
338.422	81.31
338.65	82.31
338.878	81.31
339.106	84.31
339.334	95.31
339.562	77.31
339.79	83.31
340.018	98.31
340.246	95.31
340.474	91.31
340.702	81.31
340.93	85.31
341.158	97.31
341.386	92.31
341.614	104.31
341.842	90.31
342.07	88.31
342.298	95.31
342.526	89.31
342.754	80.31
342.981	100.31
343.209	83.31
343.437	98.31
343.665	87.31
343.893	93.31
344.12	95.31
344.348	92.31
344.576	78.31
344.804	78.31
345.031	88.31
345.259	94.31
345.487	89.31
345.714	77.31
345.942	95.31
346.17	90.31
346.397	92.31
346.625	78.31
346.853	96.31
347.08	103.31
347.308	92.31
347.535	102.31
347.763	84.31
347.99	92.31
348.218	94.31
348.445	100.31
348.673	98.31
348.9	86.31
349.128	97.31
349.355	98.31
349.583	90.31
349.81	102.31
350.037	101.31
350.265	105.31
350.492	92.31
350.72	87.31
350.947	93.31
351.174	105.31
351.402	100.31
351.629	110.31
351.856	100.31
352.083	86.31
352.311	110.31
352.538	111.31
352.765	86.31
352.992	115.31
353.22	101.31
353.447	97.31
353.674	101.31
353.901	97.31
354.128	84.31
354.355	97.31
354.583	82.31
354.81	92.31
355.037	93.31
355.264	87.31
355.491	93.31
355.718	93.31
355.945	93.31
356.172	91.31
356.399	94.31
356.626	84.31
356.853	90.31
357.08	90.31
357.307	100.31
357.534	109.31
357.761	97.31
357.988	89.31
358.215	95.31
358.441	83.31
358.668	95.31
358.895	85.31
359.122	70.31
359.349	73.31
359.576	87.31
359.802	94.31
360.029	115.31
360.256	96.31
360.483	86.31
360.709	93.31
360.936	83.31
361.163	92.31
361.39	96.31
361.616	83.31
361.843	85.31
362.07	101.31
362.296	94.31
362.523	89.31
362.749	89.31
362.976	102.31
363.203	100.31
363.429	83.31
363.656	81.31
363.882	82.31
364.109	84.31
364.335	88.31
364.562	89.31
364.788	66.31
365.015	90.31
365.241	82.31
365.468	99.31
365.694	101.31
365.92	92.31
366.147	88.31
366.373	90.31
366.599	91.31
366.826	90.31
367.052	80.31
367.278	98.31
367.505	80.31
367.731	82.31
367.957	73.31
368.184	77.31
368.41	82.31
368.636	100.31
368.862	113.31
369.089	94.31
369.315	70.31
369.541	86.31
369.767	79.31
369.993	90.31
370.219	82.31
370.445	90.31
370.672	87.31
370.898	93.31
371.124	90.31
371.35	92.31
371.576	86.31
371.802	85.31
372.028	86.31
372.254	79.31
372.48	83.31
372.706	77.31
372.932	82.31
373.158	95.31
373.384	86.31
373.61	95.31
373.835	88.31
374.061	79.31
374.287	89.31
374.513	93.31
374.739	80.31
374.965	88.31
375.191	92.31
375.416	88.31
375.642	96.31
375.868	86.31
376.094	64.31
376.319	90.31
376.545	78.31
376.771	85.31
376.997	96.31
377.222	98.31
377.448	72.31
377.674	76.31
377.899	94.31
378.125	86.31
378.35	93.31
378.576	89.31
378.802	90.31
379.027	72.31
379.253	93.31
379.478	79.31
379.704	81.31
379.929	101.31
380.155	69.31
380.38	93.31
380.606	102.31
380.831	86.31
381.057	101.31
381.282	104.31
381.507	98.31
381.733	92.31
381.958	94.31
382.184	92.31
382.409	103.31
382.634	110.31
382.86	93.31
383.085	93.31
383.31	117.31
383.535	92.31
383.761	105.31
383.986	99.31
384.211	90.31
384.436	82.31
384.662	96.31
384.887	112.31
385.112	109.31
385.337	89.31
385.562	108.31
385.787	80.31
386.013	90.31
386.238	115.31
386.463	99.31
386.688	86.31
386.913	106.31
387.138	93.31
387.363	97.31
387.588	103.31
387.813	91.31
388.038	101.31
388.263	105.31
388.488	101.31
388.713	102.31
388.938	99.31
389.163	92.31
389.387	101.31
389.612	93.31
389.837	78.31
390.062	90.31
390.287	80.31
390.512	94.31
390.736	96.31
390.961	92.31
391.186	93.31
391.411	98.31
391.636	93.31
391.86	89.31
392.085	80.31
392.31	85.31
392.534	87.31
392.759	94.31
392.984	98.31
393.208	98.31
393.433	98.31
393.658	84.31
393.882	80.31
394.107	87.31
394.331	89.31
394.556	89.31
394.78	71.31
395.005	83.31
395.229	80.31
395.454	70.31
395.678	82.31
395.903	70.31
396.127	88.31
396.352	98.31
396.576	80.31
396.801	89.31
397.025	93.31
397.249	83.31
397.474	88.31
397.698	78.31
397.922	92.31
398.147	81.31
398.371	86.31
398.595	96.31
398.82	84.31
399.044	85.31
399.268	64.31
399.492	97.31
399.717	87.31
399.941	93.31
400.165	101.31
400.389	76.31
400.613	80.31
400.837	82.31
401.062	80.31
401.286	69.31
401.51	72.31
401.734	92.31
401.958	87.31
402.182	113.31
402.406	125.31
402.63	96.31
402.854	90.31
403.078	85.31
403.302	76.31
403.526	82.31
403.75	84.31
403.974	90.31
404.198	90.31
404.422	95.31
404.645	85.31
404.869	89.31
405.093	87.31
405.317	92.31
405.541	93.31
405.765	82.31
405.988	111.31
406.212	132.31
406.436	174.31
406.66	119.31
406.883	90.31
407.107	99.31
407.331	100.31
407.555	84.31
407.778	81.31
408.002	86.31
408.226	86.31
408.449	88.31
408.673	103.31
408.896	96.31
409.12	74.31
409.344	96.31
409.567	84.31
409.791	79.31
410.014	81.31
410.238	90.31
410.461	92.31
410.685	94.31
410.908	83.31
411.132	94.31
411.355	90.31
411.578	88.31
411.802	107.31
412.025	81.31
412.249	76.31
412.472	96.31
412.695	82.31
412.919	100.31
413.142	98.31
413.365	91.31
413.589	90.31
413.812	79.31
414.035	84.31
414.258	72.31
414.482	86.31
414.705	77.31
414.928	85.31
415.151	83.31
415.374	77.31
415.597	81.31
415.821	100.31
416.044	80.31
416.267	94.31
416.49	96.31
416.713	90.31
416.936	83.31
417.159	84.31
417.382	79.31
417.605	90.31
417.828	88.31
418.051	90.31
418.274	92.31
418.497	90.31
418.72	87.31
418.943	80.31
419.166	92.31
419.389	78.31
419.611	89.31
419.834	102.31
420.057	88.31
420.28	70.31
420.503	81.31
420.726	70.31
420.948	97.31
421.171	95.31
421.394	97.31
421.617	89.31
421.839	78.31
422.062	82.31
422.285	82.31
422.507	86.31
422.73	84.31
422.953	95.31
423.175	97.31
423.398	88.31
423.621	76.31
423.843	78.31
424.066	78.31
424.288	101.31
424.511	80.31
424.733	96.31
424.956	91.31
425.178	80.31
425.401	112.31
425.623	105.31
425.846	94.31
426.068	87.31
426.291	83.31
426.513	85.31
426.735	94.31
426.958	87.31
427.18	108.31
427.402	120.31
427.625	122.31
427.847	108.31
428.069	110.31
428.292	89.31
428.514	83.31
428.736	83.31
428.958	89.31
429.181	78.31
429.403	87.31
429.625	85.31
429.847	99.31
430.069	102.31
430.292	84.31
430.514	77.31
430.736	77.31
430.958	89.31
431.18	64.31
431.402	94.31
431.624	82.31
431.846	83.31
432.068	78.31
432.29	96.31
432.512	96.31
432.734	95.31
432.956	81.31
433.178	82.31
433.4	101.31
433.622	83.31
433.844	84.31
434.066	78.31
434.287	88.31
434.509	76.31
434.731	88.31
434.953	91.31
435.175	84.31
435.397	78.31
435.618	80.31
435.84	96.31
436.062	110.31
436.284	104.31
436.505	96.31
436.727	110.31
436.949	108.31
437.17	86.31
437.392	90.31
437.614	84.31
437.835	81.31
438.057	92.31
438.278	106.31
438.5	93.31
438.721	109.31
438.943	100.31
439.165	85.31
439.386	78.31
439.608	90.31
439.829	90.31
440.05	113.31
440.272	108.31
440.493	109.31
440.715	89.31
440.936	83.31
441.158	70.31
441.379	90.31
441.6	88.31
441.822	80.31
442.043	88.31
442.264	106.31
442.486	98.31
442.707	97.31
442.928	93.31
443.149	107.31
443.371	119.31
443.592	96.31
443.813	89.31
444.034	92.31
444.255	88.31
444.476	104.31
444.698	103.31
444.919	83.31
445.14	117.31
445.361	120.31
445.582	104.31
445.803	124.31
446.024	129.31
446.245	129.31
446.466	100.31
446.687	80.31
446.908	79.31
447.129	86.31
447.35	92.31
447.571	92.31
447.792	84.31
448.013	86.31
448.234	97.31
448.455	92.31
448.675	94.31
448.896	102.31
449.117	101.31
449.338	94.31
449.559	115.31
449.779	114.31
450	93.31
450.221	94.31
450.442	85.31
450.662	87.31
450.883	100.31
451.104	84.31
451.324	74.31
451.545	84.31
451.766	94.31
451.986	91.31
452.207	66.31
452.428	97.31
452.648	80.31
452.869	107.31
453.089	102.31
453.31	116.31
453.53	101.31
453.751	94.31
453.971	94.31
454.192	101.31
454.412	101.31
454.633	87.31
454.853	90.31
455.073	91.31
455.294	90.31
455.514	98.31
455.734	80.31
455.955	91.31
456.175	83.31
456.395	96.31
456.616	78.31
456.836	81.31
457.056	91.31
457.276	78.31
457.497	76.31
457.717	79.31
457.937	81.31
458.157	91.31
458.377	86.31
458.598	82.31
458.818	120.31
459.038	150.31
459.258	109.31
459.478	84.31
459.698	81.31
459.918	78.31
460.138	74.31
460.358	81.31
460.578	82.31
460.798	84.31
461.018	83.31
461.238	84.31
461.458	84.31
461.678	86.31
461.898	89.31
462.118	96.31
462.338	92.31
462.558	78.31
462.777	88.31
462.997	84.31
463.217	81.31
463.437	83.31
463.657	76.31
463.876	89.31
464.096	78.31
464.316	80.31
464.536	81.31
464.755	97.31
464.975	96.31
465.195	126.31
465.414	129.31
465.634	81.31
465.854	92.31
466.073	71.31
466.293	80.31
466.512	87.31
466.732	93.31
466.951	83.31
467.171	90.31
467.391	79.31
467.61	106.31
467.829	89.31
468.049	103.31
468.268	101.31
468.488	83.31
468.707	74.31
468.927	85.31
469.146	70.31
469.365	84.31
469.585	89.31
469.804	90.31
470.023	101.31
470.243	91.31
470.462	98.31
470.681	102.31
470.901	102.31
471.12	88.31
471.339	97.31
471.558	88.31
471.777	84.31
471.997	81.31
472.216	90.31
472.435	104.31
472.654	90.31
472.873	79.31
473.092	90.31
473.311	86.31
473.53	88.31
473.749	88.31
473.968	88.31
474.187	104.31
474.406	88.31
474.625	78.31
474.844	76.31
475.063	85.31
475.282	81.31
475.501	82.31
475.72	84.31
475.939	74.31
476.158	83.31
476.377	74.31
476.596	80.31
476.814	85.31
477.033	86.31
477.252	83.31
477.471	78.31
477.69	83.31
477.908	82.31
478.127	80.31
478.346	92.31
478.564	78.31
478.783	96.31
479.002	92.31
479.22	87.31
479.439	89.31
479.658	80.31
479.876	87.31
480.095	75.31
480.313	79.31
480.532	78.31
480.751	85.31
480.969	93.31
481.188	118.31
481.406	110.31
481.624	80.31
481.843	87.31
482.061	83.31
482.28	87.31
482.498	94.31
482.717	77.31
482.935	89.31
483.153	92.31
483.372	82.31
483.59	89.31
483.808	77.31
484.027	82.31
484.245	88.31
484.463	93.31
484.681	94.31
484.9	95.31
485.118	76.31
485.336	94.31
485.554	77.31
485.772	99.31
485.99	85.31
486.209	105.31
486.427	89.31
486.645	98.31
486.863	97.31
487.081	110.31
487.299	87.31
487.517	85.31
487.735	78.31
487.953	80.31
488.171	109.31
488.389	89.31
488.607	100.31
488.825	86.31
489.043	78.31
489.261	84.31
489.479	83.31
489.696	88.31
489.914	81.31
490.132	85.31
490.35	87.31
490.568	91.31
490.786	88.31
491.003	97.31
491.221	94.31
491.439	98.31
491.657	90.31
491.874	81.31
492.092	90.31
492.31	88.31
492.527	100.31
492.745	86.31
492.963	82.31
493.18	90.31
493.398	103.31
493.615	90.31
493.833	104.31
494.05	90.31
494.268	100.31
494.485	74.31
494.703	80.31
494.92	81.31
495.138	97.31
495.355	91.31
495.573	81.31
495.79	93.31
496.008	93.31
496.225	96.31
496.442	85.31
496.66	87.31
496.877	91.31
497.094	82.31
497.312	81.31
497.529	90.31
497.746	86.31
497.963	85.31
498.181	90.31
498.398	87.31
498.615	104.31
498.832	86.31
499.049	73.31
499.267	90.31
499.484	97.31
499.701	86.31
499.918	106.31
500.135	90.31
500.352	96.31
500.569	79.31
500.786	87.31
501.003	86.31
501.22	94.31
501.437	71.31
501.654	89.31
501.871	108.31
502.088	87.31
502.305	81.31
502.522	92.31
502.739	94.31
502.956	96.31
503.172	101.31
503.389	81.31
503.606	85.31
503.823	93.31
504.04	108.31
504.256	86.31
504.473	93.31
504.69	99.31
504.907	88.31
505.123	82.31
505.34	81.31
505.557	99.31
505.773	102.31
505.99	101.31
506.207	94.31
506.423	105.31
506.64	94.31
506.856	88.31
507.073	91.31
507.289	101.31
507.506	101.31
507.722	100.31
507.939	103.31
508.155	85.31
508.372	92.31
508.588	84.31
508.805	80.31
509.021	93.31
509.238	84.31
509.454	87.31
509.67	93.31
509.887	114.31
510.103	120.31
510.319	197.31
510.536	668.31
510.752	1967.31
510.968	567.31
511.184	142.31
511.401	110.31
511.617	103.31
511.833	95.31
512.049	93.31
512.265	97.31
512.481	95.31
512.698	88.31
512.914	96.31
513.13	97.31
513.346	106.31
513.562	95.31
513.778	106.31
513.994	96.31
514.21	106.31
514.426	97.31
514.642	113.31
514.858	110.31
515.074	141.31
515.29	363.31
515.506	1138.31
515.721	418.31
515.937	135.31
516.153	107.31
516.369	88.31
516.585	82.31
516.801	93.31
