Data from Uncirc_1985_H10_HRD10591_00040.txt Node
Date: Wed Jan 03 12:18:25 EST 2024
User: Yrep
Spectrometer: HR+D1059
Trigger mode: 1
Integration Time (sec): 1.000000E-1
Scans to average: 1
Electric dark correction enabled: true
Nonlinearity correction enabled: false
Boxcar width: 0
XAxis mode: Wavelengths
Number of Pixels in Spectrum: 2048
>>>>>Begin Spectral Data<<<<<
223.165	-10
223.4	-10
223.635	-10
223.869	-18
224.104	-30
224.338	-18
224.573	-10
224.808	-15
225.042	-5
225.277	-3
225.511	3
225.746	19
225.98	4
226.215	14
226.449	22
226.683	6
226.918	18
227.152	23
227.387	46
227.621	50
227.856	37
228.09	40
228.324	53
228.559	59
228.793	74
229.027	58
229.262	82
229.496	70
229.73	77
229.964	76
230.199	84
230.433	92
230.667	78
230.901	85
231.136	91
231.37	75
231.604	77
231.838	82
232.072	82
232.306	87
232.541	75
232.775	85
233.009	89
233.243	87
233.477	83
233.711	88
233.945	76
234.179	81
234.413	73
234.647	81
234.881	74
235.115	83
235.349	87
235.583	84
235.817	85
236.051	88
236.285	88
236.519	91
236.753	80
236.987	76
237.221	86
237.455	72
237.689	87
237.922	86
238.156	70
238.39	83
238.624	61
238.858	86
239.091	75
239.325	73
239.559	87
239.793	78
240.027	75
240.26	74
240.494	74
240.728	78
240.961	78
241.195	85
241.429	74
241.662	69
241.896	94
242.13	85
242.363	91
242.597	79
242.83	77
243.064	75
243.298	71
243.531	84
243.765	85
243.998	94
244.232	83
244.465	96
244.699	90
244.932	62
245.166	94
245.399	67
245.633	90
245.866	86
246.099	81
246.333	76
246.566	68
246.8	71
247.033	92
247.266	66
247.5	85
247.733	85
247.966	77
248.2	75
248.433	66
248.666	75
248.899	99
249.133	91
249.366	97
249.599	79
249.832	89
250.066	89
250.299	73
250.532	67
250.765	93
250.998	78
251.231	89
251.465	81
251.698	91
251.931	83
252.164	92
252.397	82
252.63	101
252.863	74
253.096	76
253.329	85
253.562	93
253.795	76
254.028	97
254.261	76
254.494	92
254.727	108
254.96	75
255.193	78
255.426	83
255.659	83
255.892	105
256.124	81
256.357	78
256.59	91
256.823	86
257.056	76
257.289	81
257.521	64
257.754	76
257.987	76
258.22	79
258.452	79
258.685	63
258.918	71
259.151	76
259.383	83
259.616	81
259.849	91
260.081	97
260.314	79
260.547	83
260.779	100
261.012	92
261.244	77
261.477	78
261.71	87
261.942	110
262.175	104
262.407	89
262.64	80
262.872	81
263.105	90
263.337	85
263.57	79
263.802	83
264.035	89
264.267	87
264.499	84
264.732	86
264.964	96
265.197	83
265.429	77
265.661	57
265.894	89
266.126	76
266.358	86
266.591	92
266.823	73
267.055	77
267.287	86
267.52	91
267.752	85
267.984	81
268.216	87
268.448	87
268.681	92
268.913	91
269.145	95
269.377	75
269.609	93
269.841	79
270.073	93
270.306	97
270.538	89
270.77	83
271.002	97
271.234	78
271.466	85
271.698	79
271.93	75
272.162	77
272.394	90
272.626	75
272.858	83
273.09	85
273.322	75
273.553	77
273.785	88
274.017	85
274.249	82
274.481	76
274.713	83
274.945	78
275.176	98
275.408	117
275.64	75
275.872	77
276.104	91
276.335	92
276.567	93
276.799	85
277.031	90
277.262	93
277.494	84
277.726	90
277.957	92
278.189	85
278.421	90
278.652	89
278.884	83
279.115	84
279.347	77
279.579	96
279.81	90
280.042	95
280.273	100
280.505	89
280.736	93
280.968	75
281.199	90
281.431	87
281.662	76
281.894	91
282.125	113
282.356	119
282.588	128
282.819	104
283.051	90
283.282	95
283.513	94
283.745	90
283.976	85
284.207	83
284.439	95
284.67	90
284.901	79
285.132	82
285.364	87
285.595	97
285.826	89
286.057	87
286.288	77
286.52	100
286.751	81
286.982	96
287.213	94
287.444	87
287.675	83
287.906	95
288.138	81
288.369	85
288.6	95
288.831	82
289.062	89
289.293	82
289.524	101
289.755	89
289.986	98
290.217	99
290.448	79
290.679	85
290.91	89
291.141	74
291.371	93
291.602	83
291.833	81
292.064	90
292.295	76
292.526	85
292.757	93
292.987	103
293.218	101
293.449	89
293.68	85
293.91	87
294.141	78
294.372	85
294.603	81
294.833	86
295.064	102
295.295	91
295.525	78
295.756	106
295.987	110
296.217	153
296.448	121
296.679	92
296.909	79
297.14	89
297.37	76
297.601	85
297.831	83
298.062	103
298.292	82
298.523	96
298.753	96
298.984	94
299.214	87
299.445	101
299.675	98
299.905	104
300.136	95
300.366	90
300.597	99
300.827	82
301.057	96
301.288	109
301.518	99
301.748	88
301.979	91
302.209	95
302.439	104
302.669	94
302.9	92
303.13	92
303.36	92
303.59	99
303.82	99
304.051	90
304.281	81
304.511	89
304.741	91
304.971	93
305.201	82
305.431	87
305.661	104
305.891	100
306.121	87
306.352	89
306.582	108
306.812	91
307.042	103
307.272	86
307.502	107
307.731	108
307.961	94
308.191	105
308.421	83
308.651	106
308.881	97
309.111	90
309.341	95
309.571	105
309.8	116
310.03	86
310.26	103
310.49	94
310.72	102
310.949	107
311.179	103
311.409	90
311.639	105
311.868	99
312.098	97
312.328	97
312.557	101
312.787	110
313.017	105
313.246	90
313.476	88
313.706	103
313.935	87
314.165	96
314.394	104
314.624	92
314.853	98
315.083	94
315.312	97
315.542	97
315.771	97
316.001	82
316.23	95
316.46	99
316.689	85
316.919	92
317.148	100
317.377	93
317.607	104
317.836	94
318.065	78
318.295	85
318.524	103
318.753	113
318.983	105
319.212	114
319.441	111
319.67	97
319.9	95
320.129	99
320.358	89
320.587	103
320.816	100
321.046	100
321.275	98
321.504	99
321.733	91
321.962	94
322.191	93
322.42	107
322.649	103
322.878	91
323.108	116
323.337	121
323.566	122
323.795	148
324.024	194
324.253	363
324.482	732
324.71	1477
324.939	1967
325.168	728
325.397	212
325.626	145
325.855	115
326.084	121
326.313	147
326.542	150
326.77	229
326.999	421
327.228	847
327.457	1550
327.686	1222
327.914	331
328.143	187
328.372	142
328.6	115
328.829	113
329.058	113
329.287	127
329.515	121
329.744	102
329.972	110
330.201	116
330.43	132
330.658	114
330.887	138
331.115	104
331.344	94
331.572	101
331.801	112
332.03	98
332.258	98
332.486	94
332.715	90
332.943	88
333.172	107
333.4	104
333.629	99
333.857	113
334.085	106
334.314	119
334.542	110
334.771	116
334.999	106
335.227	95
335.455	97
335.684	103
335.912	112
336.14	99
336.369	88
336.597	109
336.825	98
337.053	90
337.281	112
337.51	87
337.738	98
337.966	89
338.194	82
338.422	99
338.65	91
338.878	82
339.106	104
339.334	95
339.562	86
339.79	101
340.018	104
340.246	99
340.474	87
340.702	88
340.93	96
341.158	99
341.386	103
341.614	95
341.842	93
342.07	90
342.298	84
342.526	91
342.754	99
342.981	102
343.209	95
343.437	96
343.665	111
343.893	101
344.12	92
344.348	84
344.576	98
344.804	85
345.031	87
345.259	107
345.487	88
345.714	99
345.942	90
346.17	94
346.397	89
346.625	90
346.853	98
347.08	102
347.308	98
347.535	86
347.763	107
347.99	109
348.218	92
348.445	98
348.673	91
348.9	89
349.128	97
349.355	96
349.583	112
349.81	93
350.037	96
350.265	83
350.492	88
350.72	98
350.947	89
351.174	111
351.402	110
351.629	97
351.856	98
352.083	99
352.311	107
352.538	93
352.765	109
352.992	106
353.22	100
353.447	107
353.674	109
353.901	116
354.128	93
354.355	90
354.583	91
354.81	107
355.037	89
355.264	95
355.491	105
355.718	113
355.945	97
356.172	85
356.399	94
356.626	92
356.853	101
357.08	95
357.307	90
357.534	87
357.761	90
357.988	87
358.215	101
358.441	103
358.668	107
358.895	94
359.122	97
359.349	101
359.576	91
359.802	99
360.029	110
360.256	113
360.483	79
360.709	81
360.936	87
361.163	94
361.39	91
361.616	97
361.843	86
362.07	93
362.296	86
362.523	91
362.749	85
362.976	108
363.203	84
363.429	106
363.656	83
363.882	85
364.109	92
364.335	87
364.562	85
364.788	86
365.015	86
365.241	98
365.468	113
365.694	100
365.92	100
366.147	103
366.373	91
366.599	88
366.826	101
367.052	91
367.278	91
367.505	105
367.731	82
367.957	93
368.184	84
368.41	97
368.636	99
368.862	110
369.089	97
369.315	102
369.541	102
369.767	82
369.993	94
370.219	97
370.445	92
370.672	82
370.898	78
371.124	92
371.35	77
371.576	79
371.802	93
372.028	85
372.254	94
372.48	78
372.706	79
372.932	94
373.158	85
373.384	106
373.61	92
373.835	100
374.061	101
374.287	88
374.513	86
374.739	77
374.965	89
375.191	90
375.416	92
375.642	88
375.868	86
376.094	100
376.319	93
376.545	89
376.771	84
376.997	97
377.222	87
377.448	95
377.674	105
377.899	95
378.125	81
378.35	91
378.576	83
378.802	89
379.027	91
379.253	71
379.478	89
379.704	109
379.929	106
380.155	102
380.38	99
380.606	94
380.831	90
381.057	103
381.282	99
381.507	95
381.733	93
381.958	103
382.184	104
382.409	110
382.634	101
382.86	102
383.085	91
383.31	108
383.535	102
383.761	105
383.986	100
384.211	99
384.436	100
384.662	105
384.887	106
385.112	97
385.337	88
385.562	111
385.787	92
386.013	105
386.238	100
386.463	96
386.688	102
386.913	104
387.138	98
387.363	112
387.588	100
387.813	90
388.038	104
388.263	103
388.488	107
388.713	93
388.938	104
389.163	94
389.387	105
389.612	101
389.837	105
390.062	101
390.287	102
390.512	71
390.736	99
390.961	83
391.186	92
391.411	103
391.636	99
391.86	96
392.085	90
392.31	98
392.534	75
392.759	83
392.984	89
393.208	79
393.433	105
393.658	92
393.882	105
394.107	95
394.331	93
394.556	76
394.78	102
395.005	65
395.229	81
395.454	91
395.678	97
395.903	106
396.127	85
396.352	90
396.576	93
396.801	109
397.025	93
397.249	86
397.474	84
397.698	83
397.922	85
398.147	87
398.371	87
398.595	81
398.82	88
399.044	99
399.268	92
399.492	89
399.717	93
399.941	94
400.165	93
400.389	97
400.613	97
400.837	76
401.062	85
401.286	87
401.51	99
401.734	85
401.958	90
402.182	114
402.406	145
402.63	121
402.854	93
403.078	69
403.302	89
403.526	89
403.75	94
403.974	90
404.198	86
404.422	78
404.645	86
404.869	82
405.093	97
405.317	98
405.541	101
405.765	108
405.988	114
406.212	153
406.436	201
406.66	130
406.883	107
407.107	107
407.331	96
407.555	97
407.778	93
408.002	90
408.226	87
408.449	89
408.673	107
408.896	103
409.12	104
409.344	77
409.567	92
409.791	92
410.014	102
410.238	96
410.461	101
410.685	102
410.908	105
411.132	109
411.355	102
411.578	77
411.802	87
412.025	88
412.249	88
412.472	76
412.695	99
412.919	71
413.142	80
413.365	87
413.589	82
413.812	89
414.035	94
414.258	100
414.482	100
414.705	84
414.928	101
415.151	100
415.374	95
415.597	77
415.821	85
416.044	77
416.267	85
416.49	90
416.713	101
416.936	98
417.159	103
417.382	85
417.605	83
417.828	97
418.051	95
418.274	90
418.497	84
418.72	104
418.943	91
419.166	90
419.389	82
419.611	93
419.834	86
420.057	96
420.28	84
420.503	91
420.726	78
420.948	114
421.171	97
421.394	90
421.617	101
421.839	90
422.062	113
422.285	103
422.507	83
422.73	99
422.953	92
423.175	85
423.398	101
423.621	102
423.843	96
424.066	85
424.288	83
424.511	82
424.733	85
424.956	92
425.178	94
425.401	107
425.623	98
425.846	93
426.068	93
426.291	87
426.513	90
426.735	94
426.958	86
427.18	117
427.402	122
427.625	134
427.847	110
428.069	111
428.292	89
428.514	85
428.736	97
428.958	79
429.181	78
429.403	98
429.625	91
429.847	97
430.069	90
430.292	90
430.514	98
430.736	96
430.958	77
431.18	84
431.402	93
431.624	82
431.846	86
432.068	91
432.29	79
432.512	82
432.734	87
432.956	98
433.178	97
433.4	98
433.622	86
433.844	82
434.066	93
434.287	102
434.509	98
434.731	88
434.953	89
435.175	84
435.397	102
435.618	90
435.84	94
436.062	117
436.284	98
436.505	100
436.727	86
436.949	99
437.17	99
437.392	102
437.614	86
437.835	100
438.057	95
438.278	109
438.5	102
438.721	104
438.943	93
439.165	97
439.386	88
439.608	99
439.829	97
440.05	131
440.272	127
440.493	94
440.715	101
440.936	81
441.158	86
441.379	85
441.6	109
441.822	101
442.043	82
442.264	106
442.486	97
442.707	91
442.928	106
443.149	130
443.371	122
443.592	108
443.813	102
444.034	97
444.255	96
444.476	107
444.698	78
444.919	88
445.14	128
445.361	138
445.582	102
445.803	123
446.024	115
446.245	110
446.466	105
446.687	87
446.908	100
447.129	99
447.35	93
447.571	107
447.792	94
448.013	89
448.234	96
448.455	108
448.675	114
448.896	110
449.117	97
449.338	100
449.559	101
449.779	111
450	97
450.221	91
450.442	106
450.662	107
450.883	91
451.104	102
451.324	85
451.545	96
451.766	87
451.986	83
452.207	94
452.428	97
452.648	87
452.869	121
453.089	109
453.31	107
453.53	93
453.751	87
453.971	103
454.192	102
454.412	96
454.633	87
454.853	85
455.073	86
455.294	81
455.514	97
455.734	91
455.955	85
456.175	91
456.395	84
456.616	91
456.836	98
457.056	101
457.276	98
457.497	94
457.717	83
457.937	72
458.157	85
458.377	108
458.598	99
458.818	126
459.038	139
459.258	109
459.478	94
459.698	87
459.918	89
460.138	86
460.358	98
460.578	90
460.798	91
461.018	94
461.238	94
461.458	103
461.678	104
461.898	100
462.118	86
462.338	85
462.558	87
462.777	73
462.997	83
463.217	85
463.437	91
463.657	90
463.876	84
464.096	97
464.316	92
464.536	91
464.755	90
464.975	101
465.195	139
465.414	136
465.634	97
465.854	97
466.073	90
466.293	88
466.512	81
466.732	88
466.951	78
467.171	94
467.391	89
467.61	102
467.829	86
468.049	92
468.268	100
468.488	89
468.707	101
468.927	86
469.146	92
469.365	95
469.585	108
469.804	103
470.023	78
470.243	95
470.462	85
470.681	114
470.901	84
471.12	81
471.339	104
471.558	90
471.777	85
471.997	108
472.216	95
472.435	119
472.654	106
472.873	81
473.092	91
473.311	96
473.53	100
473.749	95
473.968	97
474.187	91
474.406	95
474.625	86
474.844	98
475.063	79
475.282	80
475.501	85
475.72	106
475.939	91
476.158	82
476.377	88
476.596	104
476.814	103
477.033	99
477.252	98
477.471	101
477.69	88
477.908	83
478.127	90
478.346	89
478.564	93
478.783	93
479.002	107
479.22	98
479.439	110
479.658	104
479.876	95
480.095	83
480.313	86
480.532	89
480.751	101
480.969	99
481.188	170
481.406	146
481.624	107
481.843	97
482.061	80
482.28	97
482.498	83
482.717	70
482.935	98
483.153	89
483.372	85
483.59	86
483.808	87
484.027	96
484.245	98
484.463	103
484.681	98
484.9	102
485.118	94
485.336	93
485.554	110
485.772	102
485.99	101
486.209	104
486.427	101
486.645	101
486.863	101
487.081	104
487.299	97
487.517	96
487.735	93
487.953	100
488.171	101
488.389	89
488.607	106
488.825	96
489.043	89
489.261	97
489.479	93
489.696	90
489.914	99
490.132	89
490.35	85
490.568	105
490.786	93
491.003	81
491.221	101
491.439	107
491.657	97
491.874	111
492.092	94
492.31	90
492.527	86
492.745	83
492.963	88
493.18	96
493.398	90
493.615	97
493.833	101
494.05	81
494.268	83
494.485	90
494.703	94
494.92	89
495.138	88
495.355	91
495.573	105
495.79	97
496.008	90
496.225	76
496.442	104
496.66	85
496.877	101
497.094	94
497.312	81
497.529	94
497.746	96
497.963	104
498.181	106
498.398	117
498.615	113
498.832	112
499.049	77
499.267	84
499.484	83
499.701	86
499.918	97
500.135	91
500.352	95
500.569	90
500.786	95
501.003	90
501.22	76
501.437	94
501.654	89
501.871	104
502.088	97
502.305	105
502.522	99
502.739	102
502.956	100
503.172	87
503.389	101
503.606	103
503.823	105
504.04	99
504.256	77
504.473	84
504.69	103
504.907	99
505.123	90
505.34	97
505.557	96
505.773	101
505.99	97
506.207	93
506.423	98
506.64	91
506.856	97
507.073	88
507.289	81
507.506	87
507.722	112
507.939	102
508.155	90
508.372	107
508.588	93
508.805	89
509.021	101
509.238	102
509.454	89
509.67	109
509.887	119
510.103	141
510.319	200
510.536	687
510.752	2068
510.968	569
511.184	144
511.401	107
511.617	108
511.833	99
512.049	104
512.265	100
512.481	87
512.698	89
512.914	107
513.13	101
513.346	87
513.562	108
513.778	100
513.994	94
514.21	87
514.426	112
514.642	125
514.858	124
515.074	153
515.29	385
515.506	1186
515.721	445
515.937	134
516.153	94
516.369	94
516.585	98
516.801	104
517.016	106
517.232	99
517.448	81
517.664	101
517.879	105
518.095	115
518.311	100
518.527	103
518.742	92
518.958	94
519.173	90
519.389	117
519.605	85
519.82	84
520.036	94
520.251	107
520.467	111
520.682	114
520.898	116
521.113	124
521.329	139
521.544	183
521.76	496
521.975	1987
522.19	1166
522.406	275
522.621	126
522.836	102
523.052	118
523.267	98
523.482	107
523.698	109
523.913	117
524.128	105
524.343	89
524.559	85
524.774	85
524.989	98
525.204	115
525.419	91
525.634	104
525.849	88
526.064	92
526.28	86
526.495	95
526.71	96
526.925	102
527.14	97
527.355	81
527.57	85
527.785	88
527.999	90
528.214	94
528.429	101
528.644	96
528.859	87
529.074	91
529.289	127
529.503	173
529.718	99
529.933	93
530.148	99
530.363	93
530.577	84
530.792	90
531.007	103
531.221	96
531.436	105
531.651	89
531.865	98
532.08	101
532.295	109
532.509	94
532.724	107
532.938	109
533.153	94
533.367	97
533.582	82
533.796	83
534.011	105
534.225	98
534.44	86
534.654	97
534.868	98
535.083	94
535.297	96
535.511	96
535.726	102
535.94	111
536.154	109
536.369	113
536.583	101
536.797	103
537.011	88
537.225	91
537.44	81
537.654	92
537.868	90
538.082	95
538.296	90
538.51	107
538.724	103
538.938	94
539.153	103
539.367	98
539.581	100
539.795	99
540.009	92
540.222	88
540.436	84
540.65	99
540.864	93
541.078	96
541.292	90
541.506	95
541.72	103
541.934	90
542.147	92
542.361	93
542.575	81
542.789	89
543.002	88
543.216	91
543.43	91
543.644	98
543.857	85
544.071	79
544.285	85
544.498	102
544.712	92
544.925	87
545.139	93
545.352	91
545.566	98
545.779	98
545.993	102
546.206	81
546.42	106
546.633	89
546.847	90
547.06	107
547.274	97
547.487	92
547.7	99
547.914	98
548.127	88
548.34	97
548.554	86
548.767	97
548.98	91
549.193	92
549.407	86
549.62	98
549.833	81
550.046	91
550.259	87
550.473	79
550.686	90
550.899	99
551.112	101
551.325	99
551.538	105
551.751	89
551.964	101
552.177	103
552.39	96
552.603	86
552.816	91
553.029	93
553.242	93
553.455	107
553.667	94
553.88	98
554.093	74
554.306	95
554.519	102
554.732	85
554.944	105
555.157	92
555.37	92
555.583	83
555.795	86
556.008	85
556.221	108
556.433	84
556.646	95
556.859	91
557.071	85
557.284	102
557.496	108
557.709	85
557.921	104
558.134	93
558.346	99
558.559	93
558.771	92
558.984	81
559.196	99
559.409	95
559.621	96
559.833	90
560.046	86
560.258	82
560.47	92
560.683	82
560.895	98
561.107	97
561.32	89
561.532	89
561.744	99
561.956	82
562.168	87
562.381	80
562.593	97
562.805	92
563.017	93
563.229	92
563.441	85
563.653	91
563.865	86
564.077	85
564.289	76
564.501	89
564.713	83
564.925	91
565.137	90
565.349	86
565.561	105
565.773	97
565.985	85
566.197	87
566.408	87
566.62	87
566.832	84
567.044	78
567.255	82
567.467	88
567.679	103
567.891	91
568.102	95
568.314	86
568.526	82
568.737	78
568.949	92
569.161	92
569.372	90
569.584	86
569.795	87
570.007	125
570.218	218
570.43	131
570.641	92
570.853	91
571.064	81
571.276	96
571.487	87
571.698	99
571.91	90
572.121	105
572.333	85
572.544	103
572.755	96
572.966	93
573.178	88
573.389	89
573.6	88
573.811	103
574.023	91
574.234	79
574.445	94
574.656	99
574.867	85
575.078	90
575.289	96
575.501	89
575.712	92
575.923	91
576.134	101
576.345	92
576.556	88
576.767	84
576.978	93
577.188	104
577.399	99
577.61	105
577.821	88
578.032	117
578.243	236
578.454	686
578.665	198
578.875	91
579.086	105
579.297	92
579.508	99
579.718	79
579.929	99
580.14	95
580.35	97
580.561	95
580.772	97
580.982	95
581.193	79
581.403	91
581.614	92
581.825	86
582.035	94
582.246	84
582.456	93
582.667	92
582.877	81
