Data from Uncirc_1985_H10_HRD10591_00018.txt Node
Date: Wed Jan 03 12:18:21 EST 2024
User: Yrep
Spectrometer: HR+D1059
Trigger mode: 1
Integration Time (sec): 1.000000E-1
Scans to average: 1
Electric dark correction enabled: true
Nonlinearity correction enabled: false
Boxcar width: 0
XAxis mode: Wavelengths
Number of Pixels in Spectrum: 2048
>>>>>Begin Spectral Data<<<<<
223.165	-10.75
223.4	-10.75
223.635	-10.75
223.869	-20.75
224.104	-29.75
224.338	-7.75
224.573	-8.75
224.808	1.25
225.042	1.25
225.277	-5.75
225.511	6.25
225.746	-6.75
225.98	-0.75
226.215	7.25
226.449	15.25
226.683	26.25
226.918	8.25
227.152	25.25
227.387	28.25
227.621	29.25
227.856	56.25
228.09	41.25
228.324	57.25
228.559	59.25
228.793	59.25
229.027	71.25
229.262	66.25
229.496	54.25
229.73	70.25
229.964	65.25
230.199	83.25
230.433	73.25
230.667	98.25
230.901	86.25
231.136	66.25
231.37	74.25
231.604	67.25
231.838	67.25
232.072	98.25
232.306	78.25
232.541	86.25
232.775	87.25
233.009	72.25
233.243	74.25
233.477	67.25
233.711	77.25
233.945	73.25
234.179	70.25
234.413	66.25
234.647	78.25
234.881	83.25
235.115	90.25
235.349	62.25
235.583	67.25
235.817	84.25
236.051	63.25
236.285	78.25
236.519	81.25
236.753	98.25
236.987	76.25
237.221	78.25
237.455	89.25
237.689	79.25
237.922	72.25
238.156	84.25
238.39	65.25
238.624	75.25
238.858	71.25
239.091	62.25
239.325	87.25
239.559	67.25
239.793	84.25
240.027	89.25
240.26	71.25
240.494	71.25
240.728	62.25
240.961	73.25
241.195	76.25
241.429	74.25
241.662	73.25
241.896	75.25
242.13	73.25
242.363	82.25
242.597	85.25
242.83	75.25
243.064	80.25
243.298	74.25
243.531	73.25
243.765	82.25
243.998	75.25
244.232	83.25
244.465	80.25
244.699	71.25
244.932	71.25
245.166	80.25
245.399	79.25
245.633	80.25
245.866	66.25
246.099	79.25
246.333	78.25
246.566	74.25
246.8	80.25
247.033	69.25
247.266	71.25
247.5	90.25
247.733	86.25
247.966	73.25
248.2	74.25
248.433	72.25
248.666	71.25
248.899	86.25
249.133	87.25
249.366	89.25
249.599	96.25
249.832	84.25
250.066	76.25
250.299	73.25
250.532	80.25
250.765	80.25
250.998	76.25
251.231	86.25
251.465	78.25
251.698	74.25
251.931	85.25
252.164	70.25
252.397	84.25
252.63	100.25
252.863	78.25
253.096	84.25
253.329	81.25
253.562	83.25
253.795	76.25
254.028	83.25
254.261	70.25
254.494	65.25
254.727	74.25
254.96	80.25
255.193	62.25
255.426	67.25
255.659	78.25
255.892	94.25
256.124	75.25
256.357	78.25
256.59	68.25
256.823	80.25
257.056	73.25
257.289	89.25
257.521	76.25
257.754	64.25
257.987	67.25
258.22	91.25
258.452	66.25
258.685	73.25
258.918	91.25
259.151	90.25
259.383	78.25
259.616	74.25
259.849	83.25
260.081	87.25
260.314	94.25
260.547	80.25
260.779	80.25
261.012	82.25
261.244	78.25
261.477	102.25
261.71	82.25
261.942	101.25
262.175	102.25
262.407	96.25
262.64	79.25
262.872	98.25
263.105	94.25
263.337	88.25
263.57	95.25
263.802	86.25
264.035	69.25
264.267	90.25
264.499	80.25
264.732	89.25
264.964	79.25
265.197	80.25
265.429	92.25
265.661	83.25
265.894	89.25
266.126	90.25
266.358	84.25
266.591	83.25
266.823	89.25
267.055	89.25
267.287	99.25
267.52	84.25
267.752	74.25
267.984	84.25
268.216	87.25
268.448	75.25
268.681	92.25
268.913	80.25
269.145	89.25
269.377	68.25
269.609	76.25
269.841	80.25
270.073	78.25
270.306	86.25
270.538	89.25
270.77	84.25
271.002	88.25
271.234	93.25
271.466	92.25
271.698	94.25
271.93	88.25
272.162	83.25
272.394	91.25
272.626	79.25
272.858	100.25
273.09	92.25
273.322	87.25
273.553	75.25
273.785	74.25
274.017	67.25
274.249	89.25
274.481	75.25
274.713	90.25
274.945	84.25
275.176	83.25
275.408	92.25
275.64	78.25
275.872	108.25
276.104	85.25
276.335	89.25
276.567	97.25
276.799	107.25
277.031	111.25
277.262	80.25
277.494	78.25
277.726	94.25
277.957	75.25
278.189	94.25
278.421	80.25
278.652	84.25
278.884	89.25
279.115	98.25
279.347	71.25
279.579	96.25
279.81	100.25
280.042	72.25
280.273	66.25
280.505	64.25
280.736	87.25
280.968	86.25
281.199	87.25
281.431	94.25
281.662	106.25
281.894	100.25
282.125	98.25
282.356	129.25
282.588	131.25
282.819	108.25
283.051	88.25
283.282	89.25
283.513	95.25
283.745	90.25
283.976	78.25
284.207	85.25
284.439	81.25
284.67	87.25
284.901	84.25
285.132	88.25
285.364	89.25
285.595	90.25
285.826	90.25
286.057	98.25
286.288	92.25
286.52	75.25
286.751	86.25
286.982	101.25
287.213	68.25
287.444	89.25
287.675	92.25
287.906	94.25
288.138	86.25
288.369	95.25
288.6	82.25
288.831	90.25
289.062	84.25
289.293	70.25
289.524	94.25
289.755	87.25
289.986	83.25
290.217	82.25
290.448	83.25
290.679	90.25
290.91	75.25
291.141	99.25
291.371	78.25
291.602	83.25
291.833	90.25
292.064	84.25
292.295	102.25
292.526	83.25
292.757	91.25
292.987	87.25
293.218	84.25
293.449	86.25
293.68	88.25
293.91	105.25
294.141	102.25
294.372	90.25
294.603	83.25
294.833	94.25
295.064	74.25
295.295	95.25
295.525	83.25
295.756	99.25
295.987	112.25
296.217	136.25
296.448	104.25
296.679	74.25
296.909	84.25
297.14	84.25
297.37	92.25
297.601	95.25
297.831	81.25
298.062	96.25
298.292	93.25
298.523	87.25
298.753	88.25
298.984	82.25
299.214	83.25
299.445	90.25
299.675	97.25
299.905	88.25
300.136	92.25
300.366	88.25
300.597	95.25
300.827	92.25
301.057	99.25
301.288	97.25
301.518	93.25
301.748	83.25
301.979	116.25
302.209	98.25
302.439	103.25
302.669	95.25
302.9	90.25
303.13	94.25
303.36	73.25
303.59	96.25
303.82	91.25
304.051	72.25
304.281	82.25
304.511	90.25
304.741	101.25
304.971	90.25
305.201	87.25
305.431	89.25
305.661	77.25
305.891	98.25
306.121	95.25
306.352	90.25
306.582	91.25
306.812	90.25
307.042	91.25
307.272	92.25
307.502	90.25
307.731	84.25
307.961	91.25
308.191	109.25
308.421	107.25
308.651	96.25
308.881	89.25
309.111	79.25
309.341	88.25
309.571	102.25
309.8	98.25
310.03	88.25
310.26	90.25
310.49	90.25
310.72	96.25
310.949	108.25
311.179	86.25
311.409	96.25
311.639	100.25
311.868	102.25
312.098	87.25
312.328	103.25
312.557	102.25
312.787	110.25
313.017	100.25
313.246	90.25
313.476	76.25
313.706	97.25
313.935	103.25
314.165	108.25
314.394	98.25
314.624	107.25
314.853	100.25
315.083	99.25
315.312	90.25
315.542	84.25
315.771	98.25
316.001	100.25
316.23	86.25
316.46	104.25
316.689	91.25
316.919	79.25
317.148	94.25
317.377	82.25
317.607	106.25
317.836	92.25
318.065	83.25
318.295	82.25
318.524	75.25
318.753	83.25
318.983	90.25
319.212	81.25
319.441	91.25
319.67	91.25
319.9	87.25
320.129	87.25
320.358	85.25
320.587	91.25
320.816	104.25
321.046	86.25
321.275	93.25
321.504	95.25
321.733	102.25
321.962	100.25
322.191	96.25
322.42	99.25
322.649	90.25
322.878	110.25
323.108	110.25
323.337	103.25
323.566	125.25
323.795	136.25
324.024	187.25
324.253	354.25
324.482	742.25
324.71	1476.25
324.939	1993.25
325.168	708.25
325.397	215.25
325.626	154.25
325.855	115.25
326.084	108.25
326.313	121.25
326.542	138.25
326.77	218.25
326.999	400.25
327.228	859.25
327.457	1547.25
327.686	1223.25
327.914	319.25
328.143	176.25
328.372	132.25
328.6	102.25
328.829	100.25
329.058	107.25
329.287	138.25
329.515	102.25
329.744	110.25
329.972	104.25
330.201	90.25
330.43	110.25
330.658	109.25
330.887	126.25
331.115	119.25
331.344	98.25
331.572	96.25
331.801	111.25
332.03	106.25
332.258	105.25
332.486	99.25
332.715	102.25
332.943	92.25
333.172	89.25
333.4	91.25
333.629	92.25
333.857	103.25
334.085	108.25
334.314	115.25
334.542	104.25
334.771	96.25
334.999	98.25
335.227	99.25
335.455	92.25
335.684	101.25
335.912	86.25
336.14	107.25
336.369	107.25
336.597	95.25
336.825	82.25
337.053	82.25
337.281	104.25
337.51	92.25
337.738	88.25
337.966	86.25
338.194	93.25
338.422	100.25
338.65	107.25
338.878	84.25
339.106	82.25
339.334	96.25
339.562	78.25
339.79	84.25
340.018	92.25
340.246	88.25
340.474	100.25
340.702	93.25
340.93	91.25
341.158	94.25
341.386	96.25
341.614	95.25
341.842	95.25
342.07	103.25
342.298	90.25
342.526	92.25
342.754	88.25
342.981	92.25
343.209	95.25
343.437	109.25
343.665	79.25
343.893	81.25
344.12	94.25
344.348	83.25
344.576	84.25
344.804	95.25
345.031	90.25
345.259	100.25
345.487	112.25
345.714	100.25
345.942	82.25
346.17	87.25
346.397	86.25
346.625	97.25
346.853	99.25
347.08	85.25
347.308	79.25
347.535	110.25
347.763	80.25
347.99	92.25
348.218	96.25
348.445	96.25
348.673	84.25
348.9	96.25
349.128	82.25
349.355	82.25
349.583	75.25
349.81	60.25
350.037	99.25
350.265	105.25
350.492	103.25
350.72	101.25
350.947	95.25
351.174	103.25
351.402	108.25
351.629	103.25
351.856	114.25
352.083	88.25
352.311	97.25
352.538	102.25
352.765	115.25
352.992	105.25
353.22	112.25
353.447	98.25
353.674	102.25
353.901	85.25
354.128	103.25
354.355	100.25
354.583	91.25
354.81	91.25
355.037	85.25
355.264	105.25
355.491	91.25
355.718	89.25
355.945	98.25
356.172	100.25
356.399	88.25
356.626	97.25
356.853	104.25
357.08	84.25
357.307	80.25
357.534	92.25
357.761	92.25
357.988	76.25
358.215	101.25
358.441	90.25
358.668	106.25
358.895	100.25
359.122	86.25
359.349	94.25
359.576	92.25
359.802	94.25
360.029	97.25
360.256	107.25
360.483	86.25
360.709	89.25
360.936	96.25
361.163	98.25
361.39	93.25
361.616	78.25
361.843	86.25
362.07	95.25
362.296	88.25
362.523	98.25
362.749	94.25
362.976	91.25
363.203	80.25
363.429	88.25
363.656	85.25
363.882	89.25
364.109	100.25
364.335	100.25
364.562	89.25
364.788	102.25
365.015	104.25
365.241	94.25
365.468	114.25
365.694	94.25
365.92	97.25
366.147	88.25
366.373	91.25
366.599	82.25
366.826	78.25
367.052	81.25
367.278	87.25
367.505	84.25
367.731	97.25
367.957	88.25
368.184	81.25
368.41	100.25
368.636	109.25
368.862	100.25
369.089	102.25
369.315	88.25
369.541	90.25
369.767	97.25
369.993	96.25
370.219	87.25
370.445	90.25
370.672	78.25
370.898	82.25
371.124	94.25
371.35	86.25
371.576	86.25
371.802	91.25
372.028	84.25
372.254	96.25
372.48	96.25
372.706	88.25
372.932	84.25
373.158	87.25
373.384	87.25
373.61	87.25
373.835	90.25
374.061	97.25
374.287	84.25
374.513	86.25
374.739	68.25
374.965	90.25
375.191	92.25
375.416	86.25
375.642	82.25
375.868	87.25
376.094	85.25
376.319	91.25
376.545	92.25
376.771	90.25
376.997	91.25
377.222	96.25
377.448	80.25
377.674	91.25
377.899	64.25
378.125	97.25
378.35	93.25
378.576	99.25
378.802	80.25
379.027	91.25
379.253	90.25
379.478	95.25
379.704	88.25
379.929	86.25
380.155	93.25
380.38	86.25
380.606	102.25
380.831	102.25
381.057	92.25
381.282	86.25
381.507	99.25
381.733	99.25
381.958	92.25
382.184	104.25
382.409	99.25
382.634	99.25
382.86	100.25
383.085	109.25
383.31	103.25
383.535	102.25
383.761	102.25
383.986	94.25
384.211	99.25
384.436	92.25
384.662	100.25
384.887	98.25
385.112	106.25
385.337	98.25
385.562	91.25
385.787	104.25
386.013	106.25
386.238	106.25
386.463	107.25
386.688	102.25
386.913	114.25
387.138	111.25
387.363	112.25
387.588	100.25
387.813	103.25
388.038	102.25
388.263	113.25
388.488	107.25
388.713	95.25
388.938	100.25
389.163	94.25
389.387	107.25
389.612	91.25
389.837	90.25
390.062	94.25
390.287	84.25
390.512	90.25
390.736	91.25
390.961	98.25
391.186	113.25
391.411	87.25
391.636	87.25
391.86	81.25
392.085	91.25
392.31	98.25
392.534	78.25
392.759	104.25
392.984	86.25
393.208	88.25
393.433	105.25
393.658	74.25
393.882	80.25
394.107	81.25
394.331	84.25
394.556	83.25
394.78	89.25
395.005	90.25
395.229	78.25
395.454	89.25
395.678	104.25
395.903	82.25
396.127	91.25
396.352	106.25
396.576	71.25
396.801	101.25
397.025	101.25
397.249	91.25
397.474	73.25
397.698	83.25
397.922	78.25
398.147	80.25
398.371	94.25
398.595	89.25
398.82	96.25
399.044	90.25
399.268	85.25
399.492	103.25
399.717	90.25
399.941	95.25
400.165	90.25
400.389	105.25
400.613	82.25
400.837	93.25
401.062	89.25
401.286	86.25
401.51	88.25
401.734	93.25
401.958	92.25
402.182	102.25
402.406	131.25
402.63	104.25
402.854	86.25
403.078	86.25
403.302	85.25
403.526	81.25
403.75	75.25
403.974	72.25
404.198	85.25
404.422	75.25
404.645	82.25
404.869	82.25
405.093	101.25
405.317	102.25
405.541	99.25
405.765	82.25
405.988	109.25
406.212	149.25
406.436	182.25
406.66	136.25
406.883	93.25
407.107	82.25
407.331	83.25
407.555	104.25
407.778	101.25
408.002	90.25
408.226	80.25
408.449	87.25
408.673	74.25
408.896	91.25
409.12	86.25
409.344	87.25
409.567	83.25
409.791	90.25
410.014	87.25
410.238	93.25
410.461	98.25
410.685	98.25
410.908	89.25
411.132	91.25
411.355	92.25
411.578	96.25
411.802	78.25
412.025	91.25
412.249	94.25
412.472	89.25
412.695	86.25
412.919	90.25
413.142	79.25
413.365	77.25
413.589	102.25
413.812	100.25
414.035	95.25
414.258	94.25
414.482	97.25
414.705	83.25
414.928	92.25
415.151	96.25
415.374	91.25
415.597	99.25
415.821	81.25
416.044	84.25
416.267	102.25
416.49	83.25
416.713	98.25
416.936	79.25
417.159	72.25
417.382	82.25
417.605	88.25
417.828	90.25
418.051	91.25
418.274	88.25
418.497	101.25
418.72	89.25
418.943	86.25
419.166	86.25
419.389	98.25
419.611	82.25
419.834	75.25
420.057	86.25
420.28	92.25
420.503	84.25
420.726	99.25
420.948	97.25
421.171	87.25
421.394	98.25
421.617	104.25
421.839	89.25
422.062	83.25
422.285	102.25
422.507	107.25
422.73	79.25
422.953	76.25
423.175	76.25
423.398	94.25
423.621	93.25
423.843	66.25
424.066	88.25
424.288	98.25
424.511	89.25
424.733	87.25
424.956	99.25
425.178	95.25
425.401	79.25
425.623	90.25
425.846	96.25
426.068	91.25
426.291	84.25
426.513	80.25
426.735	99.25
426.958	96.25
427.18	106.25
427.402	117.25
427.625	134.25
427.847	114.25
428.069	100.25
428.292	84.25
428.514	81.25
428.736	81.25
428.958	83.25
429.181	72.25
429.403	86.25
429.625	82.25
429.847	83.25
430.069	98.25
430.292	81.25
430.514	81.25
430.736	86.25
430.958	92.25
431.18	74.25
431.402	95.25
431.624	86.25
431.846	86.25
432.068	84.25
432.29	72.25
432.512	84.25
432.734	92.25
432.956	81.25
433.178	95.25
433.4	83.25
433.622	83.25
433.844	101.25
434.066	104.25
434.287	82.25
434.509	71.25
434.731	80.25
434.953	78.25
435.175	80.25
435.397	89.25
435.618	92.25
435.84	90.25
436.062	121.25
436.284	122.25
436.505	90.25
436.727	94.25
436.949	76.25
437.17	82.25
437.392	81.25
437.614	83.25
437.835	108.25
438.057	102.25
438.278	104.25
438.5	98.25
438.721	122.25
438.943	99.25
439.165	84.25
439.386	80.25
439.608	98.25
439.829	102.25
440.05	91.25
440.272	127.25
440.493	98.25
440.715	90.25
440.936	84.25
441.158	92.25
441.379	99.25
441.6	104.25
441.822	92.25
442.043	90.25
442.264	96.25
442.486	82.25
442.707	82.25
442.928	104.25
443.149	127.25
443.371	116.25
443.592	106.25
443.813	112.25
444.034	102.25
444.255	94.25
444.476	92.25
444.698	84.25
444.919	85.25
445.14	131.25
445.361	121.25
445.582	120.25
445.803	126.25
446.024	135.25
446.245	111.25
446.466	90.25
446.687	86.25
446.908	88.25
447.129	82.25
447.35	75.25
447.571	88.25
447.792	85.25
448.013	89.25
448.234	91.25
448.455	98.25
448.675	94.25
448.896	113.25
449.117	86.25
449.338	90.25
449.559	111.25
449.779	120.25
450	92.25
450.221	86.25
450.442	92.25
450.662	95.25
450.883	121.25
451.104	105.25
451.324	86.25
451.545	74.25
451.766	82.25
451.986	82.25
452.207	90.25
452.428	87.25
452.648	96.25
452.869	100.25
453.089	115.25
453.31	99.25
453.53	82.25
453.751	98.25
453.971	83.25
454.192	85.25
454.412	100.25
454.633	96.25
454.853	95.25
455.073	87.25
455.294	84.25
455.514	95.25
455.734	80.25
455.955	78.25
456.175	68.25
456.395	70.25
456.616	84.25
456.836	95.25
457.056	91.25
457.276	92.25
457.497	89.25
457.717	92.25
457.937	78.25
458.157	75.25
458.377	71.25
458.598	104.25
458.818	130.25
459.038	138.25
459.258	102.25
459.478	84.25
459.698	78.25
459.918	71.25
460.138	93.25
460.358	83.25
460.578	108.25
460.798	82.25
461.018	84.25
461.238	79.25
461.458	88.25
461.678	84.25
461.898	75.25
462.118	86.25
462.338	92.25
462.558	89.25
462.777	98.25
462.997	89.25
463.217	84.25
463.437	85.25
463.657	87.25
463.876	86.25
464.096	93.25
464.316	86.25
464.536	82.25
464.755	102.25
464.975	99.25
465.195	147.25
465.414	129.25
465.634	98.25
465.854	85.25
466.073	104.25
466.293	94.25
466.512	78.25
466.732	80.25
466.951	87.25
467.171	100.25
467.391	75.25
467.61	102.25
467.829	106.25
468.049	84.25
468.268	95.25
468.488	79.25
468.707	96.25
468.927	83.25
469.146	87.25
469.365	84.25
469.585	102.25
469.804	83.25
470.023	95.25
470.243	95.25
470.462	96.25
470.681	96.25
470.901	90.25
471.12	90.25
471.339	87.25
471.558	96.25
471.777	80.25
471.997	75.25
472.216	109.25
472.435	92.25
472.654	80.25
472.873	90.25
473.092	83.25
473.311	80.25
473.53	75.25
473.749	77.25
473.968	91.25
474.187	107.25
474.406	85.25
474.625	96.25
474.844	92.25
475.063	98.25
475.282	79.25
475.501	98.25
475.72	98.25
475.939	69.25
476.158	88.25
476.377	81.25
476.596	94.25
476.814	91.25
477.033	96.25
477.252	86.25
477.471	85.25
477.69	83.25
477.908	89.25
478.127	87.25
478.346	102.25
478.564	81.25
478.783	96.25
479.002	88.25
479.22	89.25
479.439	95.25
479.658	98.25
479.876	97.25
480.095	90.25
480.313	90.25
480.532	92.25
480.751	74.25
480.969	108.25
481.188	131.25
481.406	96.25
481.624	98.25
481.843	77.25
482.061	96.25
482.28	95.25
482.498	83.25
482.717	80.25
482.935	83.25
483.153	78.25
483.372	79.25
483.59	82.25
483.808	80.25
484.027	94.25
484.245	85.25
484.463	111.25
484.681	101.25
484.9	83.25
485.118	90.25
485.336	72.25
485.554	90.25
485.772	88.25
485.99	97.25
486.209	117.25
486.427	89.25
486.645	108.25
486.863	111.25
487.081	94.25
487.299	97.25
487.517	98.25
487.735	84.25
487.953	77.25
488.171	89.25
488.389	85.25
488.607	83.25
488.825	90.25
489.043	103.25
489.261	90.25
489.479	97.25
489.696	108.25
489.914	87.25
490.132	79.25
490.35	82.25
490.568	93.25
490.786	94.25
491.003	92.25
491.221	92.25
491.439	87.25
491.657	96.25
491.874	87.25
492.092	88.25
492.31	105.25
492.527	80.25
492.745	83.25
492.963	91.25
493.18	100.25
493.398	83.25
493.615	94.25
493.833	98.25
494.05	85.25
494.268	82.25
494.485	88.25
494.703	91.25
494.92	86.25
495.138	81.25
495.355	99.25
495.573	88.25
495.79	93.25
496.008	81.25
496.225	76.25
496.442	86.25
496.66	96.25
496.877	94.25
497.094	87.25
497.312	82.25
497.529	93.25
497.746	101.25
497.963	90.25
498.181	99.25
498.398	88.25
498.615	106.25
498.832	102.25
499.049	94.25
499.267	97.25
499.484	99.25
499.701	80.25
499.918	95.25
500.135	85.25
500.352	90.25
500.569	92.25
500.786	97.25
501.003	92.25
501.22	93.25
501.437	98.25
501.654	99.25
501.871	104.25
502.088	86.25
502.305	84.25
502.522	95.25
502.739	90.25
502.956	80.25
503.172	89.25
503.389	100.25
503.606	94.25
503.823	73.25
504.04	88.25
504.256	98.25
504.473	90.25
504.69	83.25
504.907	74.25
505.123	83.25
505.34	88.25
505.557	96.25
505.773	83.25
505.99	95.25
506.207	84.25
506.423	92.25
506.64	90.25
506.856	81.25
507.073	98.25
507.289	89.25
507.506	94.25
507.722	107.25
507.939	102.25
508.155	98.25
508.372	102.25
508.588	99.25
508.805	94.25
509.021	73.25
509.238	94.25
509.454	101.25
509.67	99.25
509.887	114.25
510.103	128.25
510.319	198.25
510.536	723.25
510.752	2106.25
510.968	578.25
511.184	126.25
511.401	106.25
511.617	80.25
511.833	105.25
512.049	85.25
512.265	86.25
512.481	94.25
512.698	94.25
512.914	98.25
513.13	99.25
513.346	102.25
513.562	96.25
513.778	100.25
513.994	91.25
514.21	91.25
514.426	119.25
514.642	132.25
514.858	126.25
515.074	161.25
515.29	384.25
515.506	1221.25
515.721	461.25
515.937	142.25
516.153	104.25
