Data from Uncirc_1985_H10_HRD10591_00098.txt Node
Date: Wed Jan 03 12:18:37 EST 2024
User: Yrep
Spectrometer: HR+D1059
Trigger mode: 1
Integration Time (sec): 1.000000E-1
Scans to average: 1
Electric dark correction enabled: true
Nonlinearity correction enabled: false
Boxcar width: 0
XAxis mode: Wavelengths
Number of Pixels in Spectrum: 2048
>>>>>Begin Spectral Data<<<<<
223.165	-16.75
223.4	-16.75
223.635	-16.75
223.869	-18.75
224.104	-22.75
224.338	-18.75
224.573	-10.75
224.808	-11.75
225.042	-1.75
225.277	3.25
225.511	2.25
225.746	9.25
225.98	-2.75
226.215	11.25
226.449	17.25
226.683	16.25
226.918	16.25
227.152	28.25
227.387	29.25
227.621	41.25
227.856	44.25
228.09	39.25
228.324	41.25
228.559	47.25
228.793	58.25
229.027	63.25
229.262	60.25
229.496	68.25
229.73	81.25
229.964	86.25
230.199	62.25
230.433	60.25
230.667	62.25
230.901	88.25
231.136	77.25
231.37	72.25
231.604	76.25
231.838	63.25
232.072	72.25
232.306	80.25
232.541	75.25
232.775	75.25
233.009	78.25
233.243	71.25
233.477	84.25
233.711	81.25
233.945	75.25
234.179	87.25
234.413	70.25
234.647	76.25
234.881	73.25
235.115	84.25
235.349	69.25
235.583	89.25
235.817	73.25
236.051	73.25
236.285	68.25
236.519	67.25
236.753	76.25
236.987	84.25
237.221	76.25
237.455	73.25
237.689	77.25
237.922	79.25
238.156	76.25
238.39	59.25
238.624	67.25
238.858	69.25
239.091	74.25
239.325	78.25
239.559	82.25
239.793	82.25
240.027	65.25
240.26	72.25
240.494	72.25
240.728	78.25
240.961	72.25
241.195	85.25
241.429	79.25
241.662	77.25
241.896	67.25
242.13	78.25
242.363	79.25
242.597	69.25
242.83	65.25
243.064	60.25
243.298	79.25
243.531	62.25
243.765	87.25
243.998	85.25
244.232	76.25
244.465	87.25
244.699	79.25
244.932	69.25
245.166	91.25
245.399	65.25
245.633	86.25
245.866	77.25
246.099	77.25
246.333	78.25
246.566	76.25
246.8	71.25
247.033	73.25
247.266	67.25
247.5	77.25
247.733	75.25
247.966	80.25
248.2	76.25
248.433	70.25
248.666	79.25
248.899	80.25
249.133	68.25
249.366	100.25
249.599	91.25
249.832	86.25
250.066	75.25
250.299	82.25
250.532	85.25
250.765	75.25
250.998	81.25
251.231	69.25
251.465	69.25
251.698	60.25
251.931	81.25
252.164	83.25
252.397	68.25
252.63	71.25
252.863	63.25
253.096	83.25
253.329	72.25
253.562	75.25
253.795	74.25
254.028	77.25
254.261	76.25
254.494	84.25
254.727	94.25
254.96	80.25
255.193	72.25
255.426	70.25
255.659	63.25
255.892	80.25
256.124	76.25
256.357	92.25
256.59	72.25
256.823	83.25
257.056	67.25
257.289	81.25
257.521	75.25
257.754	78.25
257.987	73.25
258.22	85.25
258.452	76.25
258.685	79.25
258.918	70.25
259.151	77.25
259.383	87.25
259.616	77.25
259.849	68.25
260.081	68.25
260.314	79.25
260.547	84.25
260.779	61.25
261.012	82.25
261.244	89.25
261.477	96.25
261.71	96.25
261.942	102.25
262.175	108.25
262.407	85.25
262.64	76.25
262.872	83.25
263.105	86.25
263.337	84.25
263.57	95.25
263.802	81.25
264.035	78.25
264.267	80.25
264.499	77.25
264.732	81.25
264.964	73.25
265.197	86.25
265.429	77.25
265.661	75.25
265.894	67.25
266.126	75.25
266.358	82.25
266.591	90.25
266.823	84.25
267.055	79.25
267.287	91.25
267.52	79.25
267.752	91.25
267.984	72.25
268.216	83.25
268.448	86.25
268.681	84.25
268.913	84.25
269.145	78.25
269.377	71.25
269.609	62.25
269.841	76.25
270.073	92.25
270.306	83.25
270.538	82.25
270.77	90.25
271.002	87.25
271.234	88.25
271.466	77.25
271.698	82.25
271.93	77.25
272.162	81.25
272.394	69.25
272.626	96.25
272.858	87.25
273.09	77.25
273.322	86.25
273.553	82.25
273.785	97.25
274.017	93.25
274.249	84.25
274.481	81.25
274.713	86.25
274.945	95.25
275.176	86.25
275.408	77.25
275.64	87.25
275.872	95.25
276.104	96.25
276.335	91.25
276.567	92.25
276.799	105.25
277.031	96.25
277.262	86.25
277.494	71.25
277.726	87.25
277.957	81.25
278.189	82.25
278.421	78.25
278.652	75.25
278.884	89.25
279.115	87.25
279.347	89.25
279.579	85.25
279.81	87.25
280.042	96.25
280.273	77.25
280.505	80.25
280.736	84.25
280.968	79.25
281.199	77.25
281.431	100.25
281.662	75.25
281.894	87.25
282.125	92.25
282.356	123.25
282.588	115.25
282.819	94.25
283.051	72.25
283.282	85.25
283.513	94.25
283.745	82.25
283.976	78.25
284.207	86.25
284.439	80.25
284.67	94.25
284.901	100.25
285.132	81.25
285.364	84.25
285.595	93.25
285.826	83.25
286.057	77.25
286.288	96.25
286.52	93.25
286.751	90.25
286.982	92.25
287.213	81.25
287.444	83.25
287.675	94.25
287.906	75.25
288.138	81.25
288.369	87.25
288.6	86.25
288.831	84.25
289.062	99.25
289.293	83.25
289.524	84.25
289.755	87.25
289.986	80.25
290.217	88.25
290.448	74.25
290.679	89.25
290.91	88.25
291.141	94.25
291.371	79.25
291.602	78.25
291.833	78.25
292.064	81.25
292.295	93.25
292.526	94.25
292.757	99.25
292.987	76.25
293.218	81.25
293.449	78.25
293.68	73.25
293.91	79.25
294.141	80.25
294.372	84.25
294.603	88.25
294.833	93.25
295.064	80.25
295.295	91.25
295.525	83.25
295.756	87.25
295.987	101.25
296.217	140.25
296.448	128.25
296.679	89.25
296.909	95.25
297.14	91.25
297.37	95.25
297.601	93.25
297.831	71.25
298.062	85.25
298.292	94.25
298.523	92.25
298.753	75.25
298.984	99.25
299.214	75.25
299.445	93.25
299.675	87.25
299.905	75.25
300.136	96.25
300.366	95.25
300.597	87.25
300.827	93.25
301.057	79.25
301.288	88.25
301.518	99.25
301.748	72.25
301.979	104.25
302.209	92.25
302.439	85.25
302.669	85.25
302.9	80.25
303.13	83.25
303.36	91.25
303.59	93.25
303.82	104.25
304.051	92.25
304.281	95.25
304.511	79.25
304.741	69.25
304.971	72.25
305.201	83.25
305.431	75.25
305.661	76.25
305.891	85.25
306.121	83.25
306.352	98.25
306.582	89.25
306.812	93.25
307.042	94.25
307.272	105.25
307.502	85.25
307.731	76.25
307.961	93.25
308.191	84.25
308.421	86.25
308.651	111.25
308.881	84.25
309.111	86.25
309.341	81.25
309.571	99.25
309.8	103.25
310.03	88.25
310.26	96.25
310.49	94.25
310.72	94.25
310.949	111.25
311.179	92.25
311.409	88.25
311.639	85.25
311.868	96.25
312.098	96.25
312.328	80.25
312.557	95.25
312.787	108.25
313.017	105.25
313.246	90.25
313.476	84.25
313.706	100.25
313.935	80.25
314.165	100.25
314.394	89.25
314.624	90.25
314.853	75.25
315.083	81.25
315.312	73.25
315.542	65.25
315.771	86.25
316.001	90.25
316.23	91.25
316.46	87.25
316.689	86.25
316.919	68.25
317.148	87.25
317.377	90.25
317.607	86.25
317.836	97.25
318.065	91.25
318.295	88.25
318.524	90.25
318.753	83.25
318.983	83.25
319.212	102.25
319.441	98.25
319.67	114.25
319.9	98.25
320.129	89.25
320.358	97.25
320.587	100.25
320.816	85.25
321.046	80.25
321.275	74.25
321.504	86.25
321.733	100.25
321.962	101.25
322.191	109.25
322.42	97.25
322.649	109.25
322.878	106.25
323.108	95.25
323.337	112.25
323.566	119.25
323.795	134.25
324.024	187.25
324.253	360.25
324.482	751.25
324.71	1549.25
324.939	2033.25
325.168	744.25
325.397	221.25
325.626	135.25
325.855	116.25
326.084	114.25
326.313	121.25
326.542	127.25
326.77	233.25
326.999	404.25
327.228	871.25
327.457	1574.25
327.686	1245.25
327.914	327.25
328.143	187.25
328.372	155.25
328.6	125.25
328.829	109.25
329.058	119.25
329.287	99.25
329.515	125.25
329.744	103.25
329.972	104.25
330.201	125.25
330.43	145.25
330.658	126.25
330.887	131.25
331.115	114.25
331.344	99.25
331.572	102.25
331.801	112.25
332.03	93.25
332.258	89.25
332.486	86.25
332.715	85.25
332.943	95.25
333.172	92.25
333.4	105.25
333.629	102.25
333.857	127.25
334.085	129.25
334.314	144.25
334.542	200.25
334.771	194.25
334.999	113.25
335.227	95.25
335.455	87.25
335.684	83.25
335.912	95.25
336.14	100.25
336.369	88.25
336.597	87.25
336.825	89.25
337.053	98.25
337.281	89.25
337.51	89.25
337.738	90.25
337.966	100.25
338.194	79.25
338.422	97.25
338.65	91.25
338.878	94.25
339.106	80.25
339.334	88.25
339.562	80.25
339.79	83.25
340.018	79.25
340.246	92.25
340.474	87.25
340.702	81.25
340.93	98.25
341.158	85.25
341.386	100.25
341.614	87.25
341.842	86.25
342.07	83.25
342.298	98.25
342.526	72.25
342.754	87.25
342.981	91.25
343.209	92.25
343.437	104.25
343.665	91.25
343.893	89.25
344.12	83.25
344.348	85.25
344.576	82.25
344.804	93.25
345.031	85.25
345.259	91.25
345.487	95.25
345.714	93.25
345.942	93.25
346.17	99.25
346.397	84.25
346.625	93.25
346.853	76.25
347.08	69.25
347.308	95.25
347.535	95.25
347.763	89.25
347.99	110.25
348.218	105.25
348.445	94.25
348.673	88.25
348.9	102.25
349.128	88.25
349.355	98.25
349.583	83.25
349.81	92.25
350.037	100.25
350.265	91.25
350.492	96.25
350.72	102.25
350.947	108.25
351.174	103.25
351.402	89.25
351.629	108.25
351.856	102.25
352.083	92.25
352.311	104.25
352.538	98.25
352.765	99.25
352.992	112.25
353.22	111.25
353.447	103.25
353.674	98.25
353.901	101.25
354.128	93.25
354.355	98.25
354.583	74.25
354.81	86.25
355.037	94.25
355.264	101.25
355.491	88.25
355.718	89.25
355.945	87.25
356.172	88.25
356.399	88.25
356.626	84.25
356.853	89.25
357.08	85.25
357.307	85.25
357.534	76.25
357.761	100.25
357.988	95.25
358.215	87.25
358.441	84.25
358.668	91.25
358.895	92.25
359.122	82.25
359.349	85.25
359.576	97.25
359.802	89.25
360.029	114.25
360.256	96.25
360.483	87.25
360.709	100.25
360.936	93.25
361.163	101.25
361.39	95.25
361.616	78.25
361.843	80.25
362.07	91.25
362.296	79.25
362.523	80.25
362.749	96.25
362.976	93.25
363.203	82.25
363.429	79.25
363.656	100.25
363.882	87.25
364.109	84.25
364.335	84.25
364.562	85.25
364.788	76.25
365.015	107.25
365.241	102.25
365.468	120.25
365.694	106.25
365.92	95.25
366.147	72.25
366.373	72.25
366.599	76.25
366.826	91.25
367.052	81.25
367.278	89.25
367.505	71.25
367.731	85.25
367.957	78.25
368.184	88.25
368.41	83.25
368.636	85.25
368.862	113.25
369.089	103.25
369.315	95.25
369.541	81.25
369.767	80.25
369.993	94.25
370.219	90.25
370.445	76.25
370.672	94.25
370.898	95.25
371.124	89.25
371.35	82.25
371.576	94.25
371.802	76.25
372.028	80.25
372.254	89.25
372.48	90.25
372.706	101.25
372.932	94.25
373.158	95.25
373.384	81.25
373.61	80.25
373.835	99.25
374.061	75.25
374.287	94.25
374.513	70.25
374.739	81.25
374.965	85.25
375.191	96.25
375.416	94.25
375.642	91.25
375.868	86.25
376.094	88.25
376.319	84.25
376.545	79.25
376.771	83.25
376.997	81.25
377.222	78.25
377.448	91.25
377.674	105.25
377.899	93.25
378.125	78.25
378.35	92.25
378.576	86.25
378.802	109.25
379.027	85.25
379.253	96.25
379.478	81.25
379.704	84.25
379.929	96.25
380.155	92.25
380.38	94.25
380.606	88.25
380.831	96.25
381.057	93.25
381.282	91.25
381.507	73.25
381.733	87.25
381.958	95.25
382.184	96.25
382.409	94.25
382.634	83.25
382.86	84.25
383.085	84.25
383.31	100.25
383.535	103.25
383.761	87.25
383.986	93.25
384.211	100.25
384.436	93.25
384.662	99.25
384.887	82.25
385.112	96.25
385.337	75.25
385.562	104.25
385.787	85.25
386.013	110.25
386.238	111.25
386.463	91.25
386.688	109.25
386.913	96.25
387.138	108.25
387.363	99.25
387.588	88.25
387.813	80.25
388.038	84.25
388.263	95.25
388.488	107.25
388.713	83.25
388.938	91.25
389.163	90.25
389.387	97.25
389.612	87.25
389.837	94.25
390.062	90.25
390.287	97.25
390.512	95.25
390.736	94.25
390.961	79.25
391.186	93.25
391.411	91.25
391.636	95.25
391.86	84.25
392.085	89.25
392.31	81.25
392.534	80.25
392.759	75.25
392.984	87.25
393.208	76.25
393.433	91.25
393.658	84.25
393.882	83.25
394.107	73.25
394.331	72.25
394.556	75.25
394.78	100.25
395.005	89.25
395.229	85.25
395.454	89.25
395.678	89.25
395.903	84.25
396.127	80.25
396.352	77.25
396.576	95.25
396.801	74.25
397.025	84.25
397.249	88.25
397.474	86.25
397.698	87.25
397.922	92.25
398.147	80.25
398.371	85.25
398.595	84.25
398.82	84.25
399.044	95.25
399.268	84.25
399.492	76.25
399.717	86.25
399.941	80.25
400.165	81.25
400.389	92.25
400.613	93.25
400.837	95.25
401.062	91.25
401.286	77.25
401.51	84.25
401.734	81.25
401.958	95.25
402.182	116.25
402.406	154.25
402.63	115.25
402.854	81.25
403.078	93.25
403.302	72.25
403.526	80.25
403.75	70.25
403.974	91.25
404.198	83.25
404.422	80.25
404.645	89.25
404.869	99.25
405.093	86.25
405.317	93.25
405.541	97.25
405.765	92.25
405.988	107.25
406.212	166.25
406.436	215.25
406.66	121.25
406.883	115.25
407.107	91.25
407.331	95.25
407.555	93.25
407.778	98.25
408.002	81.25
408.226	77.25
408.449	77.25
408.673	97.25
408.896	82.25
409.12	99.25
409.344	85.25
409.567	88.25
409.791	91.25
410.014	86.25
410.238	81.25
410.461	87.25
410.685	88.25
410.908	95.25
411.132	114.25
411.355	87.25
411.578	88.25
411.802	93.25
412.025	84.25
412.249	94.25
412.472	77.25
412.695	89.25
412.919	79.25
413.142	83.25
413.365	80.25
413.589	76.25
413.812	75.25
414.035	81.25
414.258	104.25
414.482	84.25
414.705	76.25
414.928	96.25
415.151	91.25
415.374	80.25
415.597	88.25
415.821	86.25
416.044	88.25
416.267	96.25
416.49	92.25
416.713	73.25
416.936	87.25
417.159	92.25
417.382	79.25
417.605	76.25
417.828	89.25
418.051	96.25
418.274	101.25
418.497	64.25
418.72	84.25
418.943	84.25
419.166	86.25
419.389	91.25
419.611	77.25
419.834	79.25
420.057	78.25
420.28	95.25
420.503	76.25
420.726	70.25
420.948	87.25
421.171	93.25
421.394	91.25
421.617	69.25
421.839	87.25
422.062	96.25
422.285	85.25
422.507	108.25
422.73	84.25
422.953	83.25
423.175	88.25
423.398	83.25
423.621	99.25
423.843	72.25
424.066	85.25
424.288	80.25
424.511	86.25
424.733	100.25
424.956	98.25
425.178	94.25
425.401	96.25
425.623	95.25
425.846	78.25
426.068	85.25
426.291	90.25
426.513	86.25
426.735	77.25
426.958	77.25
427.18	101.25
427.402	126.25
427.625	154.25
427.847	115.25
428.069	115.25
428.292	89.25
428.514	75.25
428.736	85.25
428.958	83.25
429.181	95.25
429.403	94.25
429.625	81.25
429.847	93.25
430.069	89.25
430.292	82.25
430.514	81.25
430.736	87.25
430.958	81.25
431.18	66.25
431.402	89.25
431.624	83.25
431.846	75.25
432.068	92.25
432.29	91.25
432.512	87.25
432.734	96.25
432.956	83.25
433.178	99.25
433.4	87.25
433.622	84.25
433.844	83.25
434.066	89.25
434.287	86.25
434.509	93.25
434.731	88.25
434.953	94.25
435.175	96.25
435.397	79.25
435.618	78.25
435.84	102.25
436.062	113.25
436.284	89.25
436.505	88.25
436.727	89.25
436.949	82.25
437.17	76.25
437.392	78.25
437.614	93.25
437.835	87.25
438.057	102.25
438.278	100.25
438.5	94.25
438.721	120.25
438.943	98.25
439.165	78.25
439.386	81.25
439.608	82.25
439.829	85.25
440.05	83.25
440.272	113.25
440.493	95.25
440.715	89.25
440.936	81.25
441.158	90.25
441.379	83.25
441.6	96.25
441.822	79.25
442.043	72.25
442.264	94.25
442.486	95.25
442.707	92.25
442.928	101.25
443.149	120.25
443.371	104.25
443.592	103.25
443.813	109.25
444.034	98.25
444.255	100.25
444.476	106.25
444.698	90.25
444.919	102.25
445.14	128.25
445.361	129.25
445.582	118.25
445.803	132.25
446.024	127.25
446.245	129.25
446.466	118.25
446.687	76.25
446.908	76.25
447.129	98.25
447.35	71.25
447.571	68.25
447.792	84.25
448.013	100.25
448.234	103.25
448.455	93.25
448.675	109.25
448.896	109.25
449.117	96.25
449.338	87.25
449.559	112.25
449.779	99.25
450	95.25
450.221	92.25
450.442	91.25
450.662	88.25
450.883	85.25
451.104	91.25
451.324	86.25
451.545	67.25
451.766	77.25
451.986	76.25
452.207	93.25
452.428	100.25
452.648	95.25
452.869	117.25
453.089	109.25
453.31	102.25
453.53	93.25
453.751	70.25
453.971	105.25
454.192	103.25
454.412	79.25
454.633	79.25
454.853	81.25
455.073	77.25
455.294	80.25
455.514	96.25
455.734	84.25
455.955	67.25
456.175	86.25
456.395	85.25
456.616	81.25
456.836	94.25
457.056	70.25
457.276	78.25
457.497	75.25
457.717	77.25
457.937	76.25
458.157	93.25
458.377	97.25
458.598	90.25
458.818	135.25
459.038	132.25
459.258	108.25
459.478	98.25
459.698	81.25
459.918	88.25
460.138	83.25
460.358	77.25
460.578	84.25
460.798	84.25
461.018	98.25
461.238	79.25
461.458	79.25
461.678	62.25
461.898	79.25
462.118	80.25
462.338	83.25
462.558	89.25
462.777	68.25
462.997	83.25
463.217	73.25
463.437	81.25
463.657	72.25
463.876	83.25
464.096	79.25
464.316	83.25
464.536	75.25
464.755	79.25
464.975	100.25
465.195	159.25
465.414	140.25
465.634	95.25
465.854	77.25
466.073	92.25
466.293	71.25
466.512	77.25
466.732	82.25
466.951	76.25
467.171	81.25
467.391	93.25
467.61	107.25
467.829	96.25
468.049	106.25
468.268	120.25
468.488	92.25
468.707	77.25
468.927	75.25
469.146	81.25
469.365	83.25
469.585	89.25
469.804	86.25
470.023	95.25
470.243	83.25
470.462	89.25
470.681	94.25
470.901	87.25
471.12	61.25
471.339	79.25
471.558	93.25
471.777	88.25
471.997	93.25
472.216	145.25
472.435	205.25
472.654	117.25
472.873	84.25
473.092	104.25
473.311	95.25
473.53	78.25
473.749	89.25
473.968	79.25
474.187	76.25
474.406	85.25
474.625	102.25
474.844	88.25
475.063	76.25
475.282	93.25
475.501	97.25
475.72	89.25
475.939	75.25
476.158	81.25
476.377	73.25
476.596	75.25
476.814	100.25
477.033	83.25
477.252	75.25
477.471	88.25
477.69	76.25
477.908	85.25
478.127	80.25
478.346	80.25
478.564	87.25
478.783	99.25
479.002	84.25
479.22	81.25
479.439	97.25
479.658	92.25
479.876	100.25
480.095	92.25
480.313	87.25
480.532	89.25
480.751	101.25
480.969	142.25
481.188	325.25
481.406	230.25
481.624	103.25
481.843	85.25
482.061	84.25
482.28	77.25
482.498	87.25
482.717	88.25
482.935	80.25
483.153	73.25
483.372	88.25
483.59	85.25
483.808	85.25
484.027	89.25
484.245	96.25
484.463	90.25
484.681	72.25
484.9	108.25
485.118	79.25
485.336	72.25
485.554	93.25
485.772	96.25
485.99	103.25
486.209	94.25
486.427	89.25
486.645	89.25
486.863	93.25
487.081	87.25
487.299	91.25
487.517	94.25
487.735	102.25
487.953	83.25
488.171	83.25
488.389	86.25
488.607	71.25
488.825	103.25
489.043	84.25
489.261	85.25
489.479	80.25
489.696	79.25
489.914	83.25
490.132	75.25
490.35	103.25
490.568	87.25
490.786	96.25
491.003	85.25
491.221	75.25
491.439	86.25
491.657	74.25
491.874	88.25
492.092	77.25
492.31	72.25
492.527	81.25
492.745	89.25
492.963	91.25
493.18	90.25
493.398	92.25
493.615	92.25
493.833	86.25
494.05	71.25
494.268	89.25
494.485	95.25
494.703	83.25
494.92	82.25
495.138	81.25
495.355	70.25
495.573	87.25
495.79	88.25
496.008	95.25
496.225	79.25
496.442	77.25
496.66	85.25
496.877	100.25
497.094	85.25
497.312	88.25
497.529	95.25
497.746	99.25
497.963	83.25
498.181	84.25
498.398	79.25
498.615	101.25
498.832	95.25
499.049	79.25
499.267	90.25
499.484	87.25
499.701	100.25
499.918	87.25
500.135	102.25
500.352	71.25
500.569	97.25
500.786	78.25
501.003	88.25
501.22	99.25
501.437	79.25
501.654	87.25
501.871	80.25
502.088	100.25
502.305	93.25
502.522	85.25
502.739	72.25
502.956	72.25
503.172	88.25
503.389	85.25
503.606	100.25
503.823	101.25
504.04	87.25
504.256	85.25
504.473	86.25
504.69	86.25
504.907	95.25
505.123	85.25
505.34	87.25
505.557	85.25
505.773	72.25
505.99	86.25
506.207	95.25
506.423	97.25
506.64	77.25
506.856	86.25
507.073	93.25
507.289	95.25
507.506	110.25
507.722	113.25
507.939	126.25
508.155	88.25
508.372	93.25
508.588	95.25
508.805	100.25
509.021	91.25
509.238	87.25
509.454	88.25
509.67	100.25
509.887	99.25
510.103	139.25
510.319	192.25
510.536	756.25
510.752	2253.25
510.968	628.25
511.184	141.25
511.401	91.25
511.617	101.25
511.833	92.25
512.049	80.25
512.265	76.25
512.481	94.25
512.698	91.25
512.914	86.25
513.13	88.25
513.346	76.25
513.562	93.25
513.778	101.25
513.994	100.25
514.21	109.25
514.426	115.25
514.642	127.25
514.858	102.25
515.074	152.25
515.29	420.25
515.506	1346.25
515.721	471.25
515.937	135.25
516.153	105.25
516.369	93.25
516.585	97.25
516.801	85.25
