Data from Uncirc_1985_H10_HRD10591_00055.txt Node
Date: Wed Jan 03 12:18:28 EST 2024
User: Yrep
Spectrometer: HR+D1059
Trigger mode: 1
Integration Time (sec): 1.000000E-1
Scans to average: 1
Electric dark correction enabled: true
Nonlinearity correction enabled: false
Boxcar width: 0
XAxis mode: Wavelengths
Number of Pixels in Spectrum: 2048
>>>>>Begin Spectral Data<<<<<
223.165	-16.94
223.4	-16.94
223.635	-16.94
223.869	-20.94
224.104	-15.94
224.338	-7.94
224.573	-19.94
224.808	-20.94
225.042	-5.94
225.277	2.06
225.511	-6.94
225.746	-0.94
225.98	18.06
226.215	24.06
226.449	13.06
226.683	1.06
226.918	28.06
227.152	30.06
227.387	35.06
227.621	32.06
227.856	49.06
228.09	41.06
228.324	39.06
228.559	54.06
228.793	60.06
229.027	63.06
229.262	64.06
229.496	78.06
229.73	89.06
229.964	78.06
230.199	67.06
230.433	51.06
230.667	79.06
230.901	74.06
231.136	70.06
231.37	72.06
231.604	73.06
231.838	83.06
232.072	88.06
232.306	67.06
232.541	76.06
232.775	79.06
233.009	82.06
233.243	85.06
233.477	76.06
233.711	70.06
233.945	86.06
234.179	76.06
234.413	78.06
234.647	86.06
234.881	71.06
235.115	70.06
235.349	79.06
235.583	77.06
235.817	87.06
236.051	79.06
236.285	72.06
236.519	78.06
236.753	85.06
236.987	80.06
237.221	73.06
237.455	72.06
237.689	76.06
237.922	67.06
238.156	71.06
238.39	67.06
238.624	67.06
238.858	71.06
239.091	78.06
239.325	82.06
239.559	79.06
239.793	69.06
240.027	81.06
240.26	80.06
240.494	85.06
240.728	81.06
240.961	82.06
241.195	76.06
241.429	85.06
241.662	74.06
241.896	66.06
242.13	63.06
242.363	74.06
242.597	81.06
242.83	83.06
243.064	66.06
243.298	85.06
243.531	80.06
243.765	78.06
243.998	75.06
244.232	69.06
244.465	85.06
244.699	72.06
244.932	79.06
245.166	71.06
245.399	72.06
245.633	83.06
245.866	88.06
246.099	76.06
246.333	82.06
246.566	82.06
246.8	85.06
247.033	81.06
247.266	78.06
247.5	68.06
247.733	71.06
247.966	104.06
248.2	73.06
248.433	80.06
248.666	72.06
248.899	86.06
249.133	94.06
249.366	97.06
249.599	91.06
249.832	82.06
250.066	74.06
250.299	80.06
250.532	70.06
250.765	81.06
250.998	71.06
251.231	74.06
251.465	76.06
251.698	74.06
251.931	76.06
252.164	89.06
252.397	78.06
252.63	72.06
252.863	80.06
253.096	92.06
253.329	87.06
253.562	73.06
253.795	84.06
254.028	88.06
254.261	74.06
254.494	68.06
254.727	73.06
254.96	82.06
255.193	83.06
255.426	88.06
255.659	89.06
255.892	83.06
256.124	87.06
256.357	83.06
256.59	82.06
256.823	85.06
257.056	83.06
257.289	78.06
257.521	78.06
257.754	79.06
257.987	80.06
258.22	78.06
258.452	77.06
258.685	73.06
258.918	80.06
259.151	83.06
259.383	81.06
259.616	99.06
259.849	90.06
260.081	83.06
260.314	99.06
260.547	72.06
260.779	94.06
261.012	95.06
261.244	78.06
261.477	75.06
261.71	86.06
261.942	102.06
262.175	108.06
262.407	98.06
262.64	89.06
262.872	82.06
263.105	90.06
263.337	95.06
263.57	90.06
263.802	80.06
264.035	90.06
264.267	81.06
264.499	98.06
264.732	75.06
264.964	77.06
265.197	97.06
265.429	80.06
265.661	82.06
265.894	87.06
266.126	83.06
266.358	78.06
266.591	82.06
266.823	74.06
267.055	94.06
267.287	90.06
267.52	80.06
267.752	100.06
267.984	94.06
268.216	80.06
268.448	87.06
268.681	87.06
268.913	85.06
269.145	64.06
269.377	79.06
269.609	64.06
269.841	95.06
270.073	91.06
270.306	83.06
270.538	79.06
270.77	82.06
271.002	94.06
271.234	79.06
271.466	84.06
271.698	91.06
271.93	73.06
272.162	93.06
272.394	82.06
272.626	80.06
272.858	74.06
273.09	74.06
273.322	73.06
273.553	94.06
273.785	73.06
274.017	99.06
274.249	83.06
274.481	83.06
274.713	74.06
274.945	82.06
275.176	86.06
275.408	82.06
275.64	75.06
275.872	84.06
276.104	88.06
276.335	98.06
276.567	98.06
276.799	91.06
277.031	103.06
277.262	80.06
277.494	71.06
277.726	86.06
277.957	100.06
278.189	68.06
278.421	69.06
278.652	76.06
278.884	90.06
279.115	75.06
279.347	86.06
279.579	78.06
279.81	97.06
280.042	103.06
280.273	87.06
280.505	81.06
280.736	63.06
280.968	93.06
281.199	83.06
281.431	98.06
281.662	74.06
281.894	78.06
282.125	90.06
282.356	118.06
282.588	140.06
282.819	125.06
283.051	81.06
283.282	81.06
283.513	94.06
283.745	81.06
283.976	88.06
284.207	92.06
284.439	78.06
284.67	81.06
284.901	94.06
285.132	82.06
285.364	81.06
285.595	93.06
285.826	87.06
286.057	85.06
286.288	98.06
286.52	88.06
286.751	71.06
286.982	80.06
287.213	86.06
287.444	86.06
287.675	87.06
287.906	95.06
288.138	97.06
288.369	97.06
288.6	78.06
288.831	73.06
289.062	90.06
289.293	89.06
289.524	78.06
289.755	81.06
289.986	80.06
290.217	83.06
290.448	95.06
290.679	83.06
290.91	81.06
291.141	80.06
291.371	84.06
291.602	95.06
291.833	97.06
292.064	91.06
292.295	88.06
292.526	87.06
292.757	87.06
292.987	80.06
293.218	84.06
293.449	87.06
293.68	86.06
293.91	73.06
294.141	91.06
294.372	74.06
294.603	68.06
294.833	86.06
295.064	80.06
295.295	82.06
295.525	84.06
295.756	90.06
295.987	107.06
296.217	138.06
296.448	132.06
296.679	103.06
296.909	87.06
297.14	81.06
297.37	87.06
297.601	101.06
297.831	87.06
298.062	88.06
298.292	84.06
298.523	84.06
298.753	78.06
298.984	89.06
299.214	88.06
299.445	100.06
299.675	83.06
299.905	95.06
300.136	81.06
300.366	86.06
300.597	82.06
300.827	90.06
301.057	120.06
301.288	104.06
301.518	99.06
301.748	87.06
301.979	86.06
302.209	94.06
302.439	94.06
302.669	98.06
302.9	97.06
303.13	94.06
303.36	89.06
303.59	91.06
303.82	108.06
304.051	86.06
304.281	107.06
304.511	81.06
304.741	82.06
304.971	83.06
305.201	101.06
305.431	82.06
305.661	87.06
305.891	80.06
306.121	81.06
306.352	97.06
306.582	93.06
306.812	89.06
307.042	75.06
307.272	100.06
307.502	86.06
307.731	98.06
307.961	89.06
308.191	84.06
308.421	78.06
308.651	84.06
308.881	83.06
309.111	99.06
309.341	99.06
309.571	95.06
309.8	87.06
310.03	106.06
310.26	100.06
310.49	99.06
310.72	111.06
310.949	96.06
311.179	91.06
311.409	100.06
311.639	97.06
311.868	107.06
312.098	91.06
312.328	92.06
312.557	90.06
312.787	109.06
313.017	107.06
313.246	94.06
313.476	100.06
313.706	95.06
313.935	99.06
314.165	109.06
314.394	107.06
314.624	96.06
314.853	99.06
315.083	100.06
315.312	97.06
315.542	87.06
315.771	96.06
316.001	94.06
316.23	92.06
316.46	83.06
316.689	79.06
316.919	93.06
317.148	75.06
317.377	109.06
317.607	100.06
317.836	84.06
318.065	83.06
318.295	103.06
318.524	97.06
318.753	90.06
318.983	105.06
319.212	95.06
319.441	110.06
319.67	105.06
319.9	93.06
320.129	85.06
320.358	89.06
320.587	104.06
320.816	95.06
321.046	111.06
321.275	103.06
321.504	89.06
321.733	101.06
321.962	102.06
322.191	99.06
322.42	92.06
322.649	114.06
322.878	110.06
323.108	97.06
323.337	118.06
323.566	118.06
323.795	155.06
324.024	205.06
324.253	398.06
324.482	856.06
324.71	1728.06
324.939	2345.06
325.168	829.06
325.397	246.06
325.626	152.06
325.855	125.06
326.084	127.06
326.313	122.06
326.542	160.06
326.77	220.06
326.999	456.06
327.228	1002.06
327.457	1770.06
327.686	1396.06
327.914	392.06
328.143	195.06
328.372	156.06
328.6	125.06
328.829	124.06
329.058	120.06
329.287	131.06
329.515	104.06
329.744	107.06
329.972	106.06
330.201	121.06
330.43	131.06
330.658	130.06
330.887	138.06
331.115	112.06
331.344	87.06
331.572	118.06
331.801	97.06
332.03	91.06
332.258	96.06
332.486	101.06
332.715	94.06
332.943	90.06
333.172	97.06
333.4	101.06
333.629	74.06
333.857	101.06
334.085	110.06
334.314	113.06
334.542	120.06
334.771	134.06
334.999	104.06
335.227	97.06
335.455	112.06
335.684	99.06
335.912	82.06
336.14	97.06
336.369	95.06
336.597	98.06
336.825	110.06
337.053	83.06
337.281	90.06
337.51	96.06
337.738	91.06
337.966	100.06
338.194	102.06
338.422	85.06
338.65	91.06
338.878	105.06
339.106	88.06
339.334	86.06
339.562	93.06
339.79	89.06
340.018	69.06
340.246	80.06
340.474	96.06
340.702	102.06
340.93	90.06
341.158	86.06
341.386	98.06
341.614	96.06
341.842	100.06
342.07	99.06
342.298	91.06
342.526	105.06
342.754	95.06
342.981	90.06
343.209	104.06
343.437	103.06
343.665	80.06
343.893	92.06
344.12	75.06
344.348	80.06
344.576	89.06
344.804	78.06
345.031	93.06
345.259	106.06
345.487	91.06
345.714	108.06
345.942	68.06
346.17	100.06
346.397	94.06
346.625	97.06
346.853	102.06
347.08	98.06
347.308	94.06
347.535	109.06
347.763	100.06
347.99	97.06
348.218	115.06
348.445	108.06
348.673	109.06
348.9	88.06
349.128	88.06
349.355	92.06
349.583	106.06
349.81	84.06
350.037	89.06
350.265	98.06
350.492	94.06
350.72	102.06
350.947	114.06
351.174	112.06
351.402	103.06
351.629	104.06
351.856	94.06
352.083	97.06
352.311	111.06
352.538	96.06
352.765	98.06
352.992	102.06
353.22	106.06
353.447	113.06
353.674	112.06
353.901	98.06
354.128	89.06
354.355	91.06
354.583	102.06
354.81	105.06
355.037	88.06
355.264	99.06
355.491	95.06
355.718	94.06
355.945	94.06
356.172	89.06
356.399	96.06
356.626	84.06
356.853	86.06
357.08	115.06
357.307	96.06
357.534	90.06
357.761	89.06
357.988	92.06
358.215	86.06
358.441	101.06
358.668	81.06
358.895	79.06
359.122	96.06
359.349	101.06
359.576	83.06
359.802	90.06
360.029	103.06
360.256	101.06
360.483	109.06
360.709	99.06
360.936	93.06
361.163	74.06
361.39	78.06
361.616	108.06
361.843	89.06
362.07	101.06
362.296	97.06
362.523	88.06
362.749	92.06
362.976	85.06
363.203	89.06
363.429	88.06
363.656	103.06
363.882	99.06
364.109	88.06
364.335	98.06
364.562	74.06
364.788	82.06
365.015	87.06
365.241	97.06
365.468	116.06
365.694	104.06
365.92	97.06
366.147	96.06
366.373	84.06
366.599	103.06
366.826	85.06
367.052	92.06
367.278	92.06
367.505	75.06
367.731	96.06
367.957	86.06
368.184	92.06
368.41	92.06
368.636	107.06
368.862	121.06
369.089	91.06
369.315	87.06
369.541	88.06
369.767	95.06
369.993	84.06
370.219	88.06
370.445	85.06
370.672	106.06
370.898	85.06
371.124	91.06
371.35	82.06
371.576	91.06
371.802	71.06
372.028	82.06
372.254	71.06
372.48	84.06
372.706	98.06
372.932	84.06
373.158	89.06
373.384	74.06
373.61	91.06
373.835	73.06
374.061	80.06
374.287	103.06
374.513	83.06
374.739	106.06
374.965	94.06
375.191	86.06
375.416	94.06
375.642	102.06
375.868	68.06
376.094	86.06
376.319	75.06
376.545	88.06
376.771	95.06
376.997	90.06
377.222	85.06
377.448	84.06
377.674	80.06
377.899	99.06
378.125	90.06
378.35	81.06
378.576	69.06
378.802	59.06
379.027	94.06
379.253	83.06
379.478	87.06
379.704	89.06
379.929	82.06
380.155	94.06
380.38	90.06
380.606	86.06
380.831	85.06
381.057	94.06
381.282	96.06
381.507	91.06
381.733	107.06
381.958	85.06
382.184	92.06
382.409	103.06
382.634	80.06
382.86	85.06
383.085	106.06
383.31	104.06
383.535	98.06
383.761	95.06
383.986	94.06
384.211	82.06
384.436	103.06
384.662	94.06
384.887	94.06
385.112	115.06
385.337	114.06
385.562	105.06
385.787	85.06
386.013	105.06
386.238	118.06
386.463	87.06
386.688	119.06
386.913	112.06
387.138	106.06
387.363	91.06
387.588	105.06
387.813	94.06
388.038	89.06
388.263	105.06
388.488	93.06
388.713	98.06
388.938	94.06
389.163	96.06
389.387	102.06
389.612	91.06
389.837	94.06
390.062	83.06
390.287	99.06
390.512	69.06
390.736	98.06
390.961	95.06
391.186	96.06
391.411	92.06
391.636	94.06
391.86	96.06
392.085	91.06
392.31	73.06
392.534	68.06
392.759	82.06
392.984	90.06
393.208	82.06
393.433	68.06
393.658	72.06
393.882	86.06
394.107	98.06
394.331	82.06
394.556	97.06
394.78	101.06
395.005	89.06
395.229	89.06
395.454	75.06
395.678	79.06
395.903	86.06
396.127	91.06
396.352	90.06
396.576	82.06
396.801	103.06
397.025	96.06
397.249	94.06
397.474	80.06
397.698	96.06
397.922	88.06
398.147	89.06
398.371	83.06
398.595	66.06
398.82	74.06
399.044	85.06
399.268	84.06
399.492	87.06
399.717	80.06
399.941	85.06
400.165	92.06
400.389	84.06
400.613	72.06
400.837	88.06
401.062	87.06
401.286	88.06
401.51	91.06
401.734	90.06
401.958	97.06
402.182	120.06
402.406	146.06
402.63	115.06
402.854	98.06
403.078	96.06
403.302	88.06
403.526	93.06
403.75	79.06
403.974	82.06
404.198	96.06
404.422	90.06
404.645	80.06
404.869	79.06
405.093	91.06
405.317	103.06
405.541	111.06
405.765	92.06
405.988	103.06
406.212	165.06
406.436	214.06
406.66	147.06
406.883	106.06
407.107	94.06
407.331	90.06
407.555	91.06
407.778	84.06
408.002	105.06
408.226	76.06
408.449	85.06
408.673	79.06
408.896	83.06
409.12	85.06
409.344	90.06
409.567	78.06
409.791	77.06
410.014	96.06
410.238	94.06
410.461	95.06
410.685	99.06
410.908	102.06
411.132	112.06
411.355	98.06
411.578	75.06
411.802	92.06
412.025	76.06
412.249	84.06
412.472	87.06
412.695	105.06
412.919	86.06
413.142	83.06
413.365	99.06
413.589	95.06
413.812	86.06
414.035	85.06
414.258	89.06
414.482	82.06
414.705	90.06
414.928	87.06
415.151	96.06
415.374	87.06
415.597	75.06
415.821	90.06
416.044	86.06
416.267	80.06
416.49	80.06
416.713	81.06
416.936	79.06
417.159	80.06
417.382	86.06
417.605	82.06
417.828	106.06
418.051	78.06
418.274	88.06
418.497	81.06
418.72	90.06
418.943	94.06
419.166	81.06
419.389	82.06
419.611	85.06
419.834	105.06
420.057	93.06
420.28	81.06
420.503	94.06
420.726	85.06
420.948	91.06
421.171	74.06
421.394	92.06
421.617	80.06
421.839	78.06
422.062	85.06
422.285	78.06
422.507	93.06
422.73	103.06
422.953	96.06
423.175	90.06
423.398	76.06
423.621	100.06
423.843	99.06
424.066	87.06
424.288	94.06
424.511	82.06
424.733	92.06
424.956	107.06
425.178	92.06
425.401	87.06
425.623	96.06
425.846	91.06
426.068	91.06
426.291	86.06
426.513	94.06
426.735	102.06
426.958	89.06
427.18	118.06
427.402	133.06
427.625	155.06
427.847	130.06
428.069	101.06
428.292	85.06
428.514	90.06
428.736	69.06
428.958	100.06
429.181	102.06
429.403	83.06
429.625	90.06
429.847	91.06
430.069	107.06
430.292	89.06
430.514	81.06
430.736	90.06
430.958	89.06
431.18	94.06
431.402	73.06
431.624	71.06
431.846	85.06
432.068	80.06
432.29	81.06
432.512	88.06
432.734	73.06
432.956	74.06
433.178	97.06
433.4	95.06
433.622	88.06
433.844	86.06
434.066	92.06
434.287	88.06
434.509	76.06
434.731	91.06
434.953	89.06
435.175	89.06
435.397	91.06
435.618	92.06
435.84	99.06
436.062	122.06
436.284	104.06
436.505	98.06
436.727	115.06
436.949	104.06
437.17	72.06
437.392	86.06
437.614	91.06
437.835	98.06
438.057	100.06
438.278	98.06
438.5	96.06
438.721	114.06
438.943	99.06
439.165	92.06
439.386	82.06
439.608	92.06
439.829	90.06
440.05	129.06
440.272	127.06
440.493	99.06
440.715	103.06
440.936	80.06
441.158	92.06
441.379	92.06
441.6	97.06
441.822	100.06
442.043	88.06
442.264	94.06
442.486	94.06
442.707	103.06
442.928	92.06
443.149	108.06
443.371	133.06
443.592	114.06
443.813	103.06
444.034	101.06
444.255	84.06
444.476	73.06
444.698	78.06
444.919	74.06
445.14	118.06
445.361	128.06
445.582	122.06
445.803	132.06
446.024	122.06
446.245	111.06
446.466	97.06
446.687	94.06
446.908	84.06
447.129	94.06
447.35	79.06
447.571	91.06
447.792	72.06
448.013	108.06
448.234	99.06
448.455	95.06
448.675	116.06
448.896	117.06
449.117	100.06
449.338	104.06
449.559	119.06
449.779	121.06
450	98.06
450.221	92.06
450.442	86.06
450.662	93.06
450.883	98.06
451.104	96.06
451.324	90.06
451.545	90.06
451.766	95.06
451.986	84.06
452.207	88.06
452.428	89.06
452.648	91.06
452.869	107.06
453.089	98.06
453.31	116.06
453.53	83.06
453.751	85.06
453.971	98.06
454.192	109.06
454.412	90.06
454.633	84.06
454.853	81.06
455.073	86.06
455.294	99.06
455.514	105.06
455.734	85.06
455.955	73.06
456.175	82.06
456.395	100.06
456.616	86.06
456.836	83.06
457.056	83.06
457.276	83.06
457.497	75.06
457.717	97.06
457.937	91.06
458.157	85.06
458.377	90.06
458.598	104.06
458.818	162.06
459.038	139.06
459.258	112.06
459.478	81.06
459.698	86.06
459.918	83.06
460.138	86.06
460.358	76.06
460.578	78.06
460.798	88.06
461.018	96.06
461.238	87.06
461.458	99.06
461.678	82.06
461.898	78.06
462.118	88.06
462.338	88.06
462.558	74.06
462.777	80.06
462.997	72.06
463.217	95.06
463.437	82.06
463.657	88.06
463.876	92.06
464.096	88.06
464.316	95.06
464.536	103.06
464.755	93.06
464.975	111.06
465.195	160.06
465.414	149.06
465.634	94.06
465.854	81.06
466.073	78.06
466.293	75.06
466.512	90.06
466.732	90.06
466.951	80.06
467.171	105.06
467.391	105.06
467.61	107.06
467.829	102.06
468.049	107.06
468.268	104.06
468.488	86.06
468.707	98.06
468.927	90.06
469.146	87.06
469.365	88.06
469.585	94.06
469.804	89.06
470.023	88.06
470.243	90.06
470.462	106.06
470.681	94.06
470.901	81.06
471.12	74.06
471.339	76.06
471.558	85.06
471.777	87.06
471.997	84.06
472.216	112.06
472.435	164.06
472.654	96.06
472.873	75.06
473.092	96.06
473.311	71.06
473.53	82.06
473.749	78.06
473.968	92.06
474.187	94.06
474.406	92.06
474.625	86.06
474.844	78.06
475.063	87.06
475.282	75.06
475.501	75.06
475.72	92.06
475.939	89.06
476.158	90.06
476.377	81.06
476.596	87.06
476.814	83.06
477.033	83.06
477.252	87.06
477.471	79.06
477.69	86.06
477.908	79.06
478.127	92.06
478.346	82.06
478.564	84.06
478.783	95.06
479.002	87.06
479.22	84.06
479.439	91.06
479.658	94.06
479.876	89.06
480.095	89.06
480.313	85.06
480.532	90.06
480.751	83.06
480.969	117.06
481.188	207.06
481.406	144.06
481.624	91.06
481.843	86.06
482.061	78.06
482.28	81.06
482.498	85.06
482.717	98.06
482.935	79.06
483.153	88.06
483.372	92.06
483.59	90.06
483.808	81.06
484.027	79.06
484.245	93.06
484.463	85.06
484.681	92.06
484.9	90.06
485.118	90.06
485.336	83.06
485.554	89.06
485.772	86.06
485.99	89.06
486.209	96.06
486.427	94.06
486.645	109.06
486.863	114.06
487.081	98.06
487.299	87.06
487.517	106.06
487.735	80.06
487.953	98.06
488.171	93.06
488.389	93.06
488.607	95.06
488.825	96.06
489.043	91.06
489.261	99.06
489.479	81.06
489.696	79.06
489.914	97.06
490.132	86.06
490.35	78.06
490.568	88.06
490.786	86.06
491.003	104.06
491.221	99.06
491.439	84.06
491.657	80.06
491.874	85.06
492.092	91.06
492.31	91.06
492.527	89.06
492.745	83.06
492.963	73.06
493.18	66.06
493.398	88.06
493.615	73.06
493.833	88.06
494.05	96.06
494.268	70.06
494.485	89.06
494.703	100.06
494.92	100.06
495.138	89.06
495.355	85.06
495.573	74.06
495.79	92.06
496.008	90.06
496.225	85.06
496.442	82.06
496.66	95.06
496.877	92.06
497.094	93.06
497.312	84.06
497.529	91.06
497.746	95.06
497.963	86.06
498.181	91.06
498.398	95.06
498.615	112.06
498.832	111.06
499.049	77.06
499.267	91.06
499.484	96.06
499.701	82.06
499.918	87.06
500.135	86.06
500.352	70.06
500.569	97.06
500.786	99.06
501.003	78.06
501.22	87.06
501.437	83.06
501.654	94.06
501.871	116.06
502.088	87.06
502.305	93.06
502.522	83.06
502.739	87.06
502.956	80.06
503.172	87.06
503.389	90.06
503.606	129.06
503.823	92.06
504.04	82.06
504.256	86.06
504.473	103.06
504.69	92.06
504.907	82.06
505.123	86.06
505.34	79.06
505.557	85.06
505.773	72.06
505.99	82.06
506.207	89.06
506.423	83.06
506.64	76.06
506.856	93.06
507.073	86.06
507.289	95.06
507.506	95.06
507.722	98.06
507.939	107.06
508.155	94.06
508.372	92.06
508.588	110.06
508.805	88.06
509.021	92.06
509.238	80.06
509.454	111.06
509.67	99.06
509.887	120.06
510.103	134.06
510.319	212.06
510.536	796.06
510.752	2387.06
510.968	668.06
511.184	163.06
511.401	114.06
511.617	87.06
511.833	98.06
512.049	92.06
512.265	104.06
512.481	87.06
512.698	88.06
512.914	101.06
513.13	105.06
513.346	84.06
513.562	105.06
513.778	97.06
513.994	88.06
514.21	94.06
514.426	122.06
514.642	123.06
514.858	117.06
515.074	144.06
515.29	434.06
515.506	1470.06
515.721	538.06
515.937	145.06
516.153	108.06
