Data from Uncirc_1985_H10_HRD10591_00092.txt Node
Date: Wed Jan 03 12:18:35 EST 2024
User: Yrep
Spectrometer: HR+D1059
Trigger mode: 1
Integration Time (sec): 1.000000E-1
Scans to average: 1
Electric dark correction enabled: true
Nonlinearity correction enabled: false
Boxcar width: 0
XAxis mode: Wavelengths
Number of Pixels in Spectrum: 2048
>>>>>Begin Spectral Data<<<<<
223.165	-25
223.4	-25
223.635	-25
223.869	-29
224.104	-25
224.338	-18
224.573	-11
224.808	-20
225.042	-15
225.277	1
225.511	7
225.746	16
225.98	21
226.215	10
226.449	11
226.683	26
226.918	23
227.152	28
227.387	41
227.621	32
227.856	46
228.09	38
228.324	50
228.559	61
228.793	72
229.027	74
229.262	66
229.496	61
229.73	84
229.964	90
230.199	77
230.433	66
230.667	80
230.901	85
231.136	74
231.37	78
231.604	89
231.838	85
232.072	80
232.306	89
232.541	97
232.775	93
233.009	84
233.243	80
233.477	92
233.711	87
233.945	94
234.179	83
234.413	80
234.647	73
234.881	82
235.115	60
235.349	77
235.583	62
235.817	72
236.051	73
236.285	88
236.519	78
236.753	102
236.987	83
237.221	92
237.455	73
237.689	74
237.922	63
238.156	79
238.39	75
238.624	67
238.858	77
239.091	74
239.325	76
239.559	76
239.793	89
240.027	85
240.26	74
240.494	76
240.728	69
240.961	81
241.195	68
241.429	77
241.662	82
241.896	78
242.13	80
242.363	74
242.597	82
242.83	85
243.064	64
243.298	80
243.531	77
243.765	84
243.998	72
244.232	83
244.465	88
244.699	87
244.932	72
245.166	84
245.399	85
245.633	75
245.866	82
246.099	82
246.333	83
246.566	69
246.8	82
247.033	76
247.266	86
247.5	86
247.733	92
247.966	88
248.2	73
248.433	86
248.666	68
248.899	81
249.133	95
249.366	89
249.599	93
249.832	86
250.066	91
250.299	69
250.532	100
250.765	77
250.998	77
251.231	74
251.465	77
251.698	83
251.931	82
252.164	69
252.397	86
252.63	96
252.863	88
253.096	85
253.329	84
253.562	64
253.795	81
254.028	88
254.261	89
254.494	77
254.727	77
254.96	75
255.193	74
255.426	82
255.659	68
255.892	81
256.124	78
256.357	76
256.59	85
256.823	96
257.056	92
257.289	82
257.521	77
257.754	69
257.987	82
258.22	88
258.452	93
258.685	77
258.918	87
259.151	83
259.383	76
259.616	86
259.849	92
260.081	92
260.314	82
260.547	90
260.779	81
261.012	89
261.244	91
261.477	82
261.71	102
261.942	113
262.175	104
262.407	93
262.64	86
262.872	85
263.105	84
263.337	77
263.57	84
263.802	96
264.035	83
264.267	86
264.499	86
264.732	76
264.964	80
265.197	77
265.429	87
265.661	88
265.894	83
266.126	84
266.358	89
266.591	82
266.823	80
267.055	78
267.287	89
267.52	79
267.752	90
267.984	96
268.216	97
268.448	104
268.681	82
268.913	83
269.145	86
269.377	96
269.609	84
269.841	88
270.073	86
270.306	88
270.538	82
270.77	97
271.002	81
271.234	98
271.466	81
271.698	85
271.93	84
272.162	95
272.394	90
272.626	93
272.858	88
273.09	102
273.322	86
273.553	90
273.785	76
274.017	94
274.249	94
274.481	99
274.713	84
274.945	92
275.176	86
275.408	90
275.64	84
275.872	85
276.104	81
276.335	77
276.567	108
276.799	121
277.031	108
277.262	104
277.494	80
277.726	89
277.957	83
278.189	77
278.421	92
278.652	81
278.884	87
279.115	88
279.347	88
279.579	87
279.81	79
280.042	96
280.273	98
280.505	85
280.736	87
280.968	100
281.199	89
281.431	96
281.662	99
281.894	89
282.125	106
282.356	121
282.588	146
282.819	117
283.051	89
283.282	93
283.513	91
283.745	84
283.976	85
284.207	83
284.439	88
284.67	92
284.901	92
285.132	77
285.364	85
285.595	100
285.826	84
286.057	85
286.288	90
286.52	88
286.751	87
286.982	95
287.213	94
287.444	77
287.675	102
287.906	85
288.138	88
288.369	88
288.6	81
288.831	87
289.062	90
289.293	89
289.524	96
289.755	91
289.986	89
290.217	88
290.448	104
290.679	87
290.91	93
291.141	101
291.371	88
291.602	80
291.833	97
292.064	97
292.295	86
292.526	90
292.757	83
292.987	87
293.218	94
293.449	82
293.68	101
293.91	101
294.141	75
294.372	89
294.603	74
294.833	93
295.064	96
295.295	91
295.525	93
295.756	98
295.987	115
296.217	134
296.448	111
296.679	97
296.909	89
297.14	92
297.37	104
297.601	88
297.831	96
298.062	102
298.292	88
298.523	94
298.753	98
298.984	80
299.214	96
299.445	97
299.675	86
299.905	92
300.136	94
300.366	84
300.597	100
300.827	80
301.057	90
301.288	102
301.518	93
301.748	100
301.979	101
302.209	94
302.439	98
302.669	80
302.9	87
303.13	104
303.36	88
303.59	101
303.82	100
304.051	82
304.281	93
304.511	104
304.741	101
304.971	88
305.201	92
305.431	85
305.661	99
305.891	107
306.121	96
306.352	103
306.582	106
306.812	101
307.042	112
307.272	95
307.502	105
307.731	97
307.961	88
308.191	96
308.421	100
308.651	104
308.881	96
309.111	110
309.341	104
309.571	101
309.8	84
310.03	97
310.26	95
310.49	91
310.72	107
310.949	106
311.179	100
311.409	98
311.639	106
311.868	101
312.098	102
312.328	89
312.557	115
312.787	95
313.017	86
313.246	96
313.476	93
313.706	101
313.935	102
314.165	90
314.394	108
314.624	91
314.853	93
315.083	83
315.312	86
315.542	91
315.771	103
316.001	100
316.23	100
316.46	92
316.689	107
316.919	101
317.148	100
317.377	105
317.607	108
317.836	105
318.065	95
318.295	101
318.524	83
318.753	104
318.983	95
319.212	96
319.441	93
319.67	104
319.9	100
320.129	88
320.358	93
320.587	100
320.816	87
321.046	98
321.275	86
321.504	95
321.733	103
321.962	105
322.191	96
322.42	94
322.649	123
322.878	106
323.108	116
323.337	138
323.566	140
323.795	145
324.024	200
324.253	395
324.482	788
324.71	1660
324.939	2166
325.168	795
325.397	233
325.626	135
325.855	120
326.084	124
326.313	117
326.542	152
326.77	216
326.999	425
327.228	936
327.457	1711
327.686	1356
327.914	376
328.143	211
328.372	172
328.6	129
328.829	123
329.058	129
329.287	125
329.515	104
329.744	104
329.972	102
330.201	132
330.43	165
330.658	139
330.887	142
331.115	132
331.344	99
331.572	96
331.801	92
332.03	101
332.258	91
332.486	98
332.715	95
332.943	101
333.172	88
333.4	98
333.629	107
333.857	114
334.085	116
334.314	136
334.542	197
334.771	175
334.999	117
335.227	106
335.455	106
335.684	100
335.912	98
336.14	105
336.369	113
336.597	109
336.825	99
337.053	96
337.281	93
337.51	92
337.738	105
337.966	93
338.194	84
338.422	92
338.65	96
338.878	75
339.106	81
339.334	98
339.562	93
339.79	100
340.018	108
340.246	98
340.474	89
340.702	104
340.93	97
341.158	102
341.386	97
341.614	93
341.842	90
342.07	86
342.298	90
342.526	99
342.754	90
342.981	90
343.209	86
343.437	109
343.665	91
343.893	91
344.12	105
344.348	81
344.576	97
344.804	87
345.031	94
345.259	96
345.487	90
345.714	95
345.942	88
346.17	91
346.397	105
346.625	96
346.853	88
347.08	101
347.308	87
347.535	94
347.763	93
347.99	97
348.218	115
348.445	112
348.673	96
348.9	96
349.128	100
349.355	101
349.583	101
349.81	91
350.037	103
350.265	87
350.492	93
350.72	89
350.947	96
351.174	118
351.402	120
351.629	97
351.856	106
352.083	105
352.311	106
352.538	96
352.765	113
352.992	114
353.22	114
353.447	105
353.674	106
353.901	114
354.128	90
354.355	98
354.583	83
354.81	85
355.037	96
355.264	90
355.491	81
355.718	95
355.945	97
356.172	92
356.399	88
356.626	98
356.853	73
357.08	103
357.307	98
357.534	104
357.761	75
357.988	106
358.215	98
358.441	100
358.668	91
358.895	103
359.122	90
359.349	93
359.576	96
359.802	118
360.029	107
360.256	106
360.483	105
360.709	109
360.936	103
361.163	100
361.39	107
361.616	97
361.843	86
362.07	91
362.296	90
362.523	96
362.749	93
362.976	88
363.203	96
363.429	102
363.656	92
363.882	96
364.109	97
364.335	95
364.562	89
364.788	70
365.015	110
365.241	102
365.468	116
365.694	108
365.92	91
366.147	99
366.373	84
366.599	87
366.826	91
367.052	102
367.278	109
367.505	95
367.731	99
367.957	104
368.184	96
368.41	99
368.636	105
368.862	132
369.089	104
369.315	88
369.541	107
369.767	90
369.993	93
370.219	98
370.445	99
370.672	100
370.898	96
371.124	100
371.35	96
371.576	84
371.802	82
372.028	93
372.254	106
372.48	77
372.706	88
372.932	73
373.158	88
373.384	87
373.61	101
373.835	90
374.061	91
374.287	97
374.513	91
374.739	83
374.965	96
375.191	90
375.416	96
375.642	104
375.868	99
376.094	92
376.319	91
376.545	88
376.771	74
376.997	87
377.222	85
377.448	103
377.674	98
377.899	100
378.125	76
378.35	94
378.576	83
378.802	84
379.027	93
379.253	97
379.478	104
379.704	101
379.929	94
380.155	100
380.38	89
380.606	78
380.831	96
381.057	95
381.282	117
381.507	92
381.733	94
381.958	82
382.184	89
382.409	96
382.634	99
382.86	83
383.085	103
383.31	104
383.535	100
383.761	99
383.986	106
384.211	89
384.436	114
384.662	102
384.887	99
385.112	97
385.337	98
385.562	108
385.787	84
386.013	95
386.238	100
386.463	112
386.688	112
386.913	104
387.138	106
387.363	94
387.588	87
387.813	93
388.038	99
388.263	112
388.488	117
388.713	99
388.938	89
389.163	97
389.387	95
389.612	91
389.837	104
390.062	101
390.287	102
390.512	91
390.736	90
390.961	72
391.186	81
391.411	112
391.636	83
391.86	92
392.085	91
392.31	86
392.534	93
392.759	90
392.984	94
393.208	97
393.433	84
393.658	93
393.882	94
394.107	76
394.331	98
394.556	90
394.78	83
395.005	82
395.229	89
395.454	89
395.678	72
395.903	94
396.127	89
396.352	83
396.576	74
396.801	76
397.025	89
397.249	90
397.474	83
397.698	88
397.922	84
398.147	88
398.371	103
398.595	61
398.82	77
399.044	91
399.268	81
399.492	86
399.717	75
399.941	87
400.165	98
400.389	89
400.613	90
400.837	89
401.062	77
401.286	94
401.51	101
401.734	96
401.958	94
402.182	112
402.406	142
402.63	120
402.854	96
403.078	93
403.302	87
403.526	96
403.75	85
403.974	84
404.198	77
404.422	87
404.645	85
404.869	82
405.093	104
405.317	96
405.541	93
405.765	102
405.988	123
406.212	176
406.436	197
406.66	140
406.883	97
407.107	102
407.331	94
407.555	92
407.778	95
408.002	107
408.226	93
408.449	84
408.673	88
408.896	110
409.12	97
409.344	96
409.567	90
409.791	95
410.014	95
410.238	99
410.461	100
410.685	108
410.908	101
411.132	107
411.355	94
411.578	89
411.802	96
412.025	89
412.249	96
412.472	100
412.695	98
412.919	85
413.142	90
413.365	95
413.589	92
413.812	94
414.035	96
414.258	88
414.482	93
414.705	84
414.928	80
415.151	91
415.374	100
415.597	82
415.821	90
416.044	83
416.267	90
416.49	93
416.713	94
416.936	91
417.159	94
417.382	100
417.605	80
417.828	82
418.051	91
418.274	78
418.497	83
418.72	74
418.943	83
419.166	108
419.389	82
419.611	81
419.834	94
420.057	101
420.28	85
420.503	82
420.726	99
420.948	93
421.171	103
421.394	101
421.617	91
421.839	90
422.062	91
422.285	85
422.507	89
422.73	102
422.953	89
423.175	101
423.398	86
423.621	89
423.843	96
424.066	88
424.288	87
424.511	76
424.733	106
424.956	118
425.178	112
425.401	100
425.623	110
425.846	85
426.068	89
426.291	85
426.513	112
426.735	85
426.958	109
427.18	113
427.402	128
427.625	160
427.847	130
428.069	124
428.292	103
428.514	83
428.736	94
428.958	80
429.181	85
429.403	92
429.625	85
429.847	99
430.069	108
430.292	88
430.514	82
430.736	89
430.958	96
431.18	97
431.402	86
431.624	89
431.846	97
432.068	95
432.29	92
432.512	106
432.734	77
432.956	89
433.178	99
433.4	99
433.622	92
433.844	94
434.066	104
434.287	88
434.509	83
434.731	92
434.953	91
435.175	89
435.397	91
435.618	81
435.84	108
436.062	114
436.284	99
436.505	101
436.727	94
436.949	105
437.17	104
437.392	86
437.614	90
437.835	108
438.057	135
438.278	91
438.5	92
438.721	119
438.943	95
439.165	84
439.386	99
439.608	84
439.829	82
440.05	115
440.272	131
440.493	99
440.715	98
440.936	94
441.158	90
441.379	86
441.6	95
441.822	103
442.043	97
442.264	105
442.486	98
442.707	104
442.928	106
443.149	106
443.371	128
443.592	109
443.813	111
444.034	102
444.255	85
444.476	93
444.698	85
444.919	86
445.14	138
445.361	124
445.582	111
445.803	144
446.024	131
446.245	146
446.466	99
446.687	85
446.908	91
447.129	86
447.35	81
447.571	107
447.792	76
448.013	98
448.234	97
448.455	110
448.675	110
448.896	125
449.117	98
449.338	107
449.559	144
449.779	147
450	100
450.221	96
450.442	78
450.662	87
450.883	106
451.104	108
451.324	113
451.545	72
451.766	86
451.986	82
452.207	85
452.428	100
452.648	99
452.869	109
453.089	110
453.31	114
453.53	92
453.751	93
453.971	86
454.192	104
454.412	84
454.633	91
454.853	92
455.073	95
455.294	94
455.514	99
455.734	96
455.955	77
456.175	92
456.395	88
456.616	85
456.836	80
457.056	104
457.276	80
457.497	92
457.717	78
457.937	78
458.157	98
458.377	91
458.598	113
458.818	142
459.038	158
459.258	119
459.478	98
459.698	87
459.918	84
460.138	88
460.358	89
460.578	84
460.798	86
461.018	79
461.238	92
461.458	81
461.678	85
461.898	91
462.118	88
462.338	84
462.558	87
462.777	91
462.997	74
463.217	88
463.437	92
463.657	84
463.876	83
464.096	83
464.316	93
464.536	75
464.755	86
464.975	114
465.195	145
465.414	141
465.634	91
465.854	92
466.073	88
466.293	90
466.512	82
466.732	88
466.951	86
467.171	97
467.391	98
467.61	98
467.829	106
468.049	109
468.268	129
468.488	91
468.707	85
468.927	81
469.146	92
469.365	74
469.585	98
469.804	96
470.023	95
470.243	103
470.462	96
470.681	118
470.901	96
471.12	87
471.339	108
471.558	89
471.777	89
471.997	109
472.216	149
472.435	212
472.654	113
472.873	108
473.092	76
473.311	80
473.53	82
473.749	99
473.968	100
474.187	112
474.406	107
474.625	94
474.844	97
475.063	88
475.282	97
475.501	73
475.72	85
475.939	82
476.158	81
476.377	105
476.596	89
476.814	99
477.033	101
477.252	77
477.471	98
477.69	97
477.908	92
478.127	80
478.346	101
478.564	106
478.783	95
479.002	94
479.22	98
479.439	104
479.658	101
479.876	92
480.095	107
480.313	96
480.532	93
480.751	109
480.969	134
481.188	308
481.406	210
481.624	100
481.843	94
482.061	96
482.28	92
482.498	87
482.717	100
482.935	84
483.153	85
483.372	90
483.59	92
483.808	90
484.027	91
484.245	98
484.463	90
484.681	104
484.9	93
485.118	97
485.336	94
485.554	89
485.772	102
485.99	108
486.209	97
486.427	106
486.645	113
486.863	120
487.081	102
487.299	84
487.517	99
487.735	89
487.953	82
488.171	89
488.389	93
488.607	107
488.825	88
489.043	99
489.261	98
489.479	84
489.696	93
489.914	84
490.132	100
490.35	91
490.568	92
490.786	98
491.003	109
491.221	83
491.439	92
491.657	101
491.874	110
492.092	96
492.31	103
492.527	95
492.745	86
492.963	86
493.18	85
493.398	95
493.615	91
493.833	101
494.05	101
494.268	105
494.485	92
494.703	77
494.92	76
495.138	108
495.355	107
495.573	94
495.79	96
496.008	98
496.225	78
496.442	87
496.66	78
496.877	102
497.094	95
497.312	89
497.529	80
497.746	80
497.963	94
498.181	90
498.398	93
498.615	113
498.832	82
499.049	98
499.267	93
499.484	100
499.701	104
499.918	98
500.135	81
500.352	95
500.569	84
500.786	87
501.003	91
501.22	100
501.437	88
501.654	100
501.871	107
502.088	101
502.305	89
502.522	82
502.739	90
502.956	89
503.172	84
503.389	106
503.606	77
503.823	98
504.04	86
504.256	97
504.473	90
504.69	85
504.907	88
505.123	98
505.34	78
505.557	99
505.773	85
505.99	96
506.207	91
506.423	107
506.64	100
506.856	105
507.073	85
507.289	91
507.506	87
507.722	102
507.939	112
508.155	104
508.372	87
508.588	91
508.805	99
509.021	98
509.238	89
509.454	90
509.67	103
509.887	112
510.103	113
510.319	191
510.536	701
510.752	2150
510.968	604
511.184	165
511.401	116
511.617	105
511.833	101
512.049	102
512.265	88
512.481	106
512.698	103
512.914	89
513.13	92
513.346	101
513.562	93
513.778	104
513.994	108
514.21	86
514.426	109
514.642	132
514.858	116
515.074	163
515.29	399
515.506	1297
515.721	452
515.937	160
516.153	100
516.369	98
516.585	85
516.801	85
517.016	105
517.232	74
517.448	81
517.664	93
517.879	85
518.095	97
518.311	101
518.527	102
518.742	84
518.958	89
519.173	99
519.389	97
519.605	108
519.82	108
520.036	115
520.251	118
520.467	112
520.682	109
520.898	96
521.113	109
521.329	138
521.544	189
521.76	517
521.975	2198
522.19	1314
522.406	282
522.621	126
522.836	98
523.052	99
523.267	100
523.482	106
523.698	104
523.913	128
524.128	114
524.343	94
524.559	74
524.774	83
524.989	89
525.204	98
525.419	97
525.634	92
525.849	98
526.064	94
526.28	95
526.495	99
526.71	97
526.925	93
527.14	93
527.355	107
527.57	93
527.785	77
527.999	86
528.214	86
528.429	92
528.644	97
528.859	106
529.074	91
529.289	117
529.503	173
529.718	97
529.933	85
530.148	90
530.363	82
530.577	83
530.792	91
531.007	98
531.221	86
531.436	94
531.651	96
531.865	100
532.08	104
532.295	95
532.509	101
532.724	82
532.938	99
533.153	99
533.367	101
533.582	110
533.796	85
534.011	91
534.225	88
534.44	102
534.654	110
534.868	104
535.083	106
535.297	101
535.511	105
535.726	109
535.94	98
536.154	99
536.369	95
536.583	75
536.797	95
537.011	98
537.225	92
537.44	87
537.654	87
537.868	87
538.082	92
538.296	98
538.51	90
538.724	95
538.938	91
539.153	104
539.367	114
539.581	91
539.795	101
540.009	80
540.222	95
540.436	94
540.65	88
540.864	105
541.078	91
541.292	93
541.506	71
541.72	91
541.934	92
542.147	87
542.361	89
542.575	93
542.789	78
543.002	78
543.216	81
543.43	98
543.644	97
543.857	87
544.071	86
544.285	99
544.498	97
544.712	90
544.925	102
545.139	98
545.352	82
545.566	71
545.779	86
545.993	98
546.206	87
546.42	96
546.633	87
546.847	86
547.06	95
547.274	81
547.487	90
547.7	94
547.914	86
548.127	84
548.34	92
548.554	93
548.767	88
548.98	105
549.193	91
549.407	88
549.62	101
549.833	84
550.046	96
550.259	81
550.473	82
550.686	91
550.899	74
551.112	91
551.325	86
551.538	89
551.751	83
551.964	81
552.177	91
552.39	80
552.603	93
552.816	104
553.029	96
553.242	97
553.455	96
553.667	102
553.88	95
554.093	97
554.306	92
554.519	89
554.732	84
554.944	80
555.157	83
555.37	85
555.583	84
555.795	85
556.008	83
556.221	90
556.433	83
556.646	101
556.859	80
557.071	95
557.284	107
557.496	107
557.709	108
557.921	96
558.134	97
558.346	95
558.559	88
558.771	88
558.984	99
559.196	87
559.409	90
559.621	89
559.833	91
560.046	80
560.258	96
560.47	101
560.683	89
560.895	94
561.107	96
561.32	88
561.532	75
561.744	87
561.956	101
562.168	82
562.381	92
562.593	81
562.805	97
563.017	80
563.229	92
563.441	90
563.653	97
563.865	88
564.077	77
564.289	98
564.501	94
564.713	88
564.925	91
565.137	106
565.349	92
565.561	86
565.773	100
565.985	82
566.197	94
566.408	83
566.62	92
566.832	83
567.044	91
567.255	98
567.467	97
567.679	84
567.891	98
568.102	75
568.314	83
568.526	92
568.737	95
568.949	99
569.161	88
569.372	99
569.584	109
569.795	93
570.007	113
570.218	230
570.43	126
570.641	104
570.853	86
571.064	81
571.276	104
571.487	89
571.698	92
571.91	89
572.121	88
572.333	84
572.544	78
572.755	90
572.966	97
573.178	92
573.389	88
573.6	88
573.811	89
574.023	85
574.234	89
574.445	95
574.656	87
574.867	89
575.078	89
575.289	86
575.501	92
575.712	98
575.923	99
576.134	100
576.345	98
576.556	91
576.767	108
576.978	85
577.188	85
577.399	100
577.61	86
577.821	110
578.032	104
578.243	246
578.454	670
578.665	197
578.875	98
579.086	91
579.297	82
579.508	86
579.718	86
579.929	105
580.14	96
580.35	86
580.561	87
580.772	82
580.982	102
581.193	83
581.403	74
581.614	84
581.825	78
582.035	69
582.246	101
582.456	82
582.667	75
