Data from Uncirc_1985_H10_HRD10591_00002.txt Node
Date: Wed Jan 03 12:18:17 EST 2024
User: Yrep
Spectrometer: HR+D1059
Trigger mode: 1
Integration Time (sec): 1.000000E-1
Scans to average: 1
Electric dark correction enabled: true
Nonlinearity correction enabled: false
Boxcar width: 0
XAxis mode: Wavelengths
Number of Pixels in Spectrum: 2048
>>>>>Begin Spectral Data<<<<<
223.165	-15.94
223.4	-15.94
223.635	-15.94
223.869	-14.94
224.104	-16.94
224.338	-11.94
224.573	-16.94
224.808	-11.94
225.042	-14.94
225.277	-4.94
225.511	-14.94
225.746	6.06
225.98	24.06
226.215	5.06
226.449	19.06
226.683	21.06
226.918	26.06
227.152	22.06
227.387	33.06
227.621	48.06
227.856	54.06
228.09	45.06
228.324	57.06
228.559	55.06
228.793	67.06
229.027	70.06
229.262	69.06
229.496	67.06
229.73	71.06
229.964	72.06
230.199	88.06
230.433	86.06
230.667	79.06
230.901	82.06
231.136	83.06
231.37	64.06
231.604	74.06
231.838	80.06
232.072	96.06
232.306	86.06
232.541	78.06
232.775	89.06
233.009	73.06
233.243	83.06
233.477	86.06
233.711	84.06
233.945	83.06
234.179	80.06
234.413	95.06
234.647	74.06
234.881	87.06
235.115	93.06
235.349	73.06
235.583	95.06
235.817	87.06
236.051	83.06
236.285	86.06
236.519	72.06
236.753	98.06
236.987	83.06
237.221	95.06
237.455	93.06
237.689	79.06
237.922	72.06
238.156	78.06
238.39	80.06
238.624	74.06
238.858	79.06
239.091	74.06
239.325	83.06
239.559	92.06
239.793	77.06
240.027	80.06
240.26	70.06
240.494	70.06
240.728	87.06
240.961	98.06
241.195	79.06
241.429	80.06
241.662	85.06
241.896	69.06
242.13	90.06
242.363	101.06
242.597	84.06
242.83	95.06
243.064	93.06
243.298	80.06
243.531	61.06
243.765	85.06
243.998	91.06
244.232	70.06
244.465	79.06
244.699	88.06
244.932	92.06
245.166	86.06
245.399	99.06
245.633	75.06
245.866	86.06
246.099	86.06
246.333	69.06
246.566	80.06
246.8	81.06
247.033	86.06
247.266	78.06
247.5	76.06
247.733	64.06
247.966	77.06
248.2	77.06
248.433	89.06
248.666	89.06
248.899	83.06
249.133	88.06
249.366	97.06
249.599	89.06
249.832	85.06
250.066	84.06
250.299	79.06
250.532	87.06
250.765	101.06
250.998	94.06
251.231	85.06
251.465	70.06
251.698	86.06
251.931	84.06
252.164	88.06
252.397	85.06
252.63	81.06
252.863	91.06
253.096	80.06
253.329	89.06
253.562	66.06
253.795	89.06
254.028	92.06
254.261	72.06
254.494	82.06
254.727	87.06
254.96	66.06
255.193	89.06
255.426	89.06
255.659	90.06
255.892	85.06
256.124	100.06
256.357	85.06
256.59	100.06
256.823	87.06
257.056	95.06
257.289	96.06
257.521	118.06
257.754	87.06
257.987	88.06
258.22	95.06
258.452	93.06
258.685	81.06
258.918	84.06
259.151	91.06
259.383	91.06
259.616	90.06
259.849	90.06
260.081	94.06
260.314	88.06
260.547	77.06
260.779	89.06
261.012	91.06
261.244	93.06
261.477	92.06
261.71	79.06
261.942	91.06
262.175	118.06
262.407	91.06
262.64	89.06
262.872	78.06
263.105	88.06
263.337	67.06
263.57	98.06
263.802	92.06
264.035	87.06
264.267	72.06
264.499	91.06
264.732	80.06
264.964	80.06
265.197	80.06
265.429	88.06
265.661	84.06
265.894	101.06
266.126	73.06
266.358	75.06
266.591	75.06
266.823	78.06
267.055	91.06
267.287	87.06
267.52	76.06
267.752	83.06
267.984	85.06
268.216	101.06
268.448	106.06
268.681	88.06
268.913	92.06
269.145	92.06
269.377	100.06
269.609	84.06
269.841	86.06
270.073	96.06
270.306	107.06
270.538	91.06
270.77	87.06
271.002	86.06
271.234	91.06
271.466	94.06
271.698	79.06
271.93	83.06
272.162	83.06
272.394	94.06
272.626	87.06
272.858	87.06
273.09	97.06
273.322	92.06
273.553	93.06
273.785	90.06
274.017	68.06
274.249	97.06
274.481	90.06
274.713	83.06
274.945	96.06
275.176	91.06
275.408	96.06
275.64	93.06
275.872	92.06
276.104	72.06
276.335	90.06
276.567	111.06
276.799	92.06
277.031	106.06
277.262	86.06
277.494	102.06
277.726	91.06
277.957	82.06
278.189	74.06
278.421	85.06
278.652	81.06
278.884	97.06
279.115	90.06
279.347	95.06
279.579	90.06
279.81	89.06
280.042	83.06
280.273	102.06
280.505	94.06
280.736	88.06
280.968	103.06
281.199	98.06
281.431	77.06
281.662	96.06
281.894	100.06
282.125	95.06
282.356	110.06
282.588	124.06
282.819	103.06
283.051	102.06
283.282	94.06
283.513	97.06
283.745	103.06
283.976	79.06
284.207	83.06
284.439	87.06
284.67	79.06
284.901	77.06
285.132	91.06
285.364	80.06
285.595	100.06
285.826	97.06
286.057	95.06
286.288	89.06
286.52	95.06
286.751	85.06
286.982	89.06
287.213	85.06
287.444	86.06
287.675	95.06
287.906	102.06
288.138	106.06
288.369	91.06
288.6	72.06
288.831	96.06
289.062	96.06
289.293	84.06
289.524	98.06
289.755	97.06
289.986	88.06
290.217	91.06
290.448	87.06
290.679	85.06
290.91	80.06
291.141	99.06
291.371	95.06
291.602	96.06
291.833	106.06
292.064	101.06
292.295	94.06
292.526	88.06
292.757	92.06
292.987	101.06
293.218	89.06
293.449	101.06
293.68	105.06
293.91	97.06
294.141	99.06
294.372	84.06
294.603	89.06
294.833	88.06
295.064	92.06
295.295	94.06
295.525	96.06
295.756	91.06
295.987	109.06
296.217	122.06
296.448	116.06
296.679	95.06
296.909	91.06
297.14	101.06
297.37	109.06
297.601	101.06
297.831	88.06
298.062	101.06
298.292	92.06
298.523	94.06
298.753	86.06
298.984	89.06
299.214	92.06
299.445	100.06
299.675	101.06
299.905	107.06
300.136	83.06
300.366	87.06
300.597	88.06
300.827	85.06
301.057	108.06
301.288	91.06
301.518	104.06
301.748	100.06
301.979	105.06
302.209	102.06
302.439	89.06
302.669	95.06
302.9	85.06
303.13	92.06
303.36	84.06
303.59	107.06
303.82	117.06
304.051	97.06
304.281	89.06
304.511	95.06
304.741	73.06
304.971	90.06
305.201	97.06
305.431	80.06
305.661	95.06
305.891	98.06
306.121	93.06
306.352	92.06
306.582	103.06
306.812	76.06
307.042	92.06
307.272	81.06
307.502	107.06
307.731	86.06
307.961	91.06
308.191	88.06
308.421	104.06
308.651	96.06
308.881	97.06
309.111	110.06
309.341	111.06
309.571	103.06
309.8	99.06
310.03	104.06
310.26	107.06
310.49	83.06
310.72	97.06
310.949	91.06
311.179	102.06
311.409	95.06
311.639	103.06
311.868	101.06
312.098	91.06
312.328	92.06
312.557	101.06
312.787	92.06
313.017	94.06
313.246	97.06
313.476	104.06
313.706	85.06
313.935	107.06
314.165	92.06
314.394	96.06
314.624	94.06
314.853	84.06
315.083	88.06
315.312	107.06
315.542	78.06
315.771	89.06
316.001	104.06
316.23	84.06
316.46	87.06
316.689	99.06
316.919	100.06
317.148	100.06
317.377	102.06
317.607	94.06
317.836	101.06
318.065	92.06
318.295	100.06
318.524	94.06
318.753	107.06
318.983	112.06
319.212	106.06
319.441	110.06
319.67	108.06
319.9	91.06
320.129	93.06
320.358	101.06
320.587	97.06
320.816	104.06
321.046	105.06
321.275	102.06
321.504	97.06
321.733	107.06
321.962	105.06
322.191	103.06
322.42	111.06
322.649	109.06
322.878	98.06
323.108	99.06
323.337	112.06
323.566	128.06
323.795	139.06
324.024	204.06
324.253	334.06
324.482	699.06
324.71	1409.06
324.939	1836.06
325.168	701.06
325.397	231.06
325.626	158.06
325.855	128.06
326.084	121.06
326.313	130.06
326.542	135.06
326.77	194.06
326.999	400.06
327.228	804.06
327.457	1442.06
327.686	1149.06
327.914	328.06
328.143	167.06
328.372	140.06
328.6	111.06
328.829	113.06
329.058	115.06
329.287	96.06
329.515	102.06
329.744	89.06
329.972	108.06
330.201	111.06
330.43	113.06
330.658	122.06
330.887	140.06
331.115	117.06
331.344	100.06
331.572	111.06
331.801	105.06
332.03	102.06
332.258	102.06
332.486	104.06
332.715	92.06
332.943	94.06
333.172	92.06
333.4	92.06
333.629	107.06
333.857	109.06
334.085	111.06
334.314	110.06
334.542	108.06
334.771	104.06
334.999	109.06
335.227	100.06
335.455	101.06
335.684	105.06
335.912	102.06
336.14	102.06
336.369	102.06
336.597	105.06
336.825	83.06
337.053	101.06
337.281	107.06
337.51	88.06
337.738	104.06
337.966	107.06
338.194	109.06
338.422	97.06
338.65	89.06
338.878	96.06
339.106	79.06
339.334	87.06
339.562	98.06
339.79	80.06
340.018	102.06
340.246	102.06
340.474	107.06
340.702	94.06
340.93	93.06
341.158	102.06
341.386	93.06
341.614	97.06
341.842	92.06
342.07	92.06
342.298	95.06
342.526	104.06
342.754	96.06
342.981	84.06
343.209	97.06
343.437	88.06
343.665	90.06
343.893	95.06
344.12	96.06
344.348	86.06
344.576	99.06
344.804	91.06
345.031	85.06
345.259	99.06
345.487	96.06
345.714	97.06
345.942	103.06
346.17	83.06
346.397	84.06
346.625	88.06
346.853	94.06
347.08	102.06
347.308	94.06
347.535	108.06
347.763	95.06
347.99	85.06
348.218	100.06
348.445	103.06
348.673	105.06
348.9	106.06
349.128	91.06
349.355	97.06
349.583	105.06
349.81	110.06
350.037	92.06
350.265	92.06
350.492	104.06
350.72	101.06
350.947	96.06
351.174	97.06
351.402	103.06
351.629	102.06
351.856	92.06
352.083	100.06
352.311	111.06
352.538	103.06
352.765	124.06
352.992	114.06
353.22	113.06
353.447	92.06
353.674	111.06
353.901	101.06
354.128	103.06
354.355	121.06
354.583	111.06
354.81	92.06
355.037	100.06
355.264	83.06
355.491	95.06
355.718	79.06
355.945	108.06
356.172	99.06
356.399	92.06
356.626	96.06
356.853	90.06
357.08	85.06
357.307	104.06
357.534	116.06
357.761	98.06
357.988	108.06
358.215	107.06
358.441	93.06
358.668	100.06
358.895	96.06
359.122	88.06
359.349	102.06
359.576	98.06
359.802	99.06
360.029	112.06
360.256	108.06
360.483	103.06
360.709	102.06
360.936	116.06
361.163	107.06
361.39	92.06
361.616	86.06
361.843	79.06
362.07	95.06
362.296	83.06
362.523	89.06
362.749	95.06
362.976	87.06
363.203	90.06
363.429	100.06
363.656	83.06
363.882	97.06
364.109	101.06
364.335	95.06
364.562	85.06
364.788	118.06
365.015	97.06
365.241	93.06
365.468	97.06
365.694	90.06
365.92	102.06
366.147	94.06
366.373	97.06
366.599	87.06
366.826	93.06
367.052	108.06
367.278	84.06
367.505	97.06
367.731	101.06
367.957	98.06
368.184	99.06
368.41	94.06
368.636	118.06
368.862	124.06
369.089	99.06
369.315	97.06
369.541	100.06
369.767	85.06
369.993	101.06
370.219	102.06
370.445	93.06
370.672	91.06
370.898	100.06
371.124	93.06
371.35	93.06
371.576	95.06
371.802	95.06
372.028	91.06
372.254	103.06
372.48	111.06
372.706	92.06
372.932	86.06
373.158	86.06
373.384	91.06
373.61	97.06
373.835	95.06
374.061	89.06
374.287	108.06
374.513	87.06
374.739	91.06
374.965	102.06
375.191	85.06
375.416	95.06
375.642	107.06
375.868	89.06
376.094	107.06
376.319	91.06
376.545	97.06
376.771	102.06
376.997	105.06
377.222	98.06
377.448	95.06
377.674	94.06
377.899	92.06
378.125	99.06
378.35	103.06
378.576	88.06
378.802	99.06
379.027	105.06
379.253	98.06
379.478	93.06
379.704	101.06
379.929	88.06
380.155	91.06
380.38	102.06
380.606	99.06
380.831	103.06
381.057	101.06
381.282	100.06
381.507	101.06
381.733	90.06
381.958	111.06
382.184	96.06
382.409	108.06
382.634	95.06
382.86	112.06
383.085	88.06
383.31	91.06
383.535	111.06
383.761	110.06
383.986	108.06
384.211	99.06
384.436	104.06
384.662	122.06
384.887	111.06
385.112	113.06
385.337	110.06
385.562	121.06
385.787	105.06
386.013	116.06
386.238	113.06
386.463	110.06
386.688	111.06
386.913	102.06
387.138	122.06
387.363	112.06
387.588	98.06
387.813	110.06
388.038	108.06
388.263	111.06
388.488	112.06
388.713	107.06
388.938	100.06
389.163	103.06
389.387	104.06
389.612	87.06
389.837	94.06
390.062	104.06
390.287	93.06
390.512	97.06
390.736	93.06
390.961	80.06
391.186	107.06
391.411	90.06
391.636	102.06
391.86	86.06
392.085	99.06
392.31	81.06
392.534	95.06
392.759	103.06
392.984	75.06
393.208	93.06
393.433	105.06
393.658	102.06
393.882	93.06
394.107	83.06
394.331	98.06
394.556	103.06
394.78	85.06
395.005	87.06
395.229	93.06
395.454	85.06
395.678	93.06
395.903	95.06
396.127	88.06
396.352	100.06
396.576	95.06
396.801	100.06
397.025	88.06
397.249	92.06
397.474	75.06
397.698	84.06
397.922	90.06
398.147	95.06
398.371	92.06
398.595	90.06
398.82	92.06
399.044	81.06
399.268	94.06
399.492	91.06
399.717	87.06
399.941	104.06
400.165	107.06
400.389	108.06
400.613	92.06
400.837	83.06
401.062	78.06
401.286	95.06
401.51	99.06
401.734	103.06
401.958	98.06
402.182	114.06
402.406	127.06
402.63	110.06
402.854	107.06
403.078	83.06
403.302	76.06
403.526	71.06
403.75	91.06
403.974	91.06
404.198	84.06
404.422	83.06
404.645	87.06
404.869	92.06
405.093	97.06
405.317	96.06
405.541	94.06
405.765	90.06
405.988	108.06
406.212	156.06
406.436	177.06
406.66	135.06
406.883	100.06
407.107	96.06
407.331	106.06
407.555	109.06
407.778	96.06
408.002	93.06
408.226	95.06
408.449	86.06
408.673	117.06
408.896	86.06
409.12	97.06
409.344	81.06
409.567	83.06
409.791	97.06
410.014	96.06
410.238	102.06
410.461	92.06
410.685	101.06
410.908	109.06
411.132	118.06
411.355	107.06
411.578	104.06
411.802	84.06
412.025	97.06
412.249	95.06
412.472	105.06
412.695	100.06
412.919	105.06
413.142	97.06
413.365	101.06
413.589	85.06
413.812	93.06
414.035	83.06
414.258	99.06
414.482	99.06
414.705	100.06
414.928	107.06
415.151	99.06
415.374	108.06
415.597	87.06
415.821	91.06
416.044	87.06
416.267	79.06
416.49	105.06
416.713	104.06
416.936	103.06
417.159	87.06
417.382	84.06
417.605	108.06
417.828	82.06
418.051	84.06
418.274	91.06
418.497	89.06
418.72	87.06
418.943	107.06
419.166	96.06
419.389	92.06
419.611	92.06
419.834	96.06
420.057	84.06
420.28	92.06
420.503	80.06
420.726	97.06
420.948	99.06
421.171	89.06
421.394	97.06
421.617	101.06
421.839	97.06
422.062	87.06
422.285	93.06
422.507	88.06
422.73	111.06
422.953	103.06
423.175	89.06
423.398	92.06
423.621	87.06
423.843	99.06
424.066	77.06
424.288	79.06
424.511	75.06
424.733	101.06
424.956	106.06
425.178	95.06
425.401	107.06
425.623	107.06
425.846	93.06
426.068	90.06
426.291	99.06
426.513	99.06
426.735	84.06
426.958	102.06
427.18	104.06
427.402	143.06
427.625	138.06
427.847	115.06
428.069	117.06
428.292	86.06
428.514	92.06
428.736	87.06
428.958	87.06
429.181	94.06
429.403	102.06
429.625	90.06
429.847	99.06
430.069	90.06
430.292	69.06
430.514	84.06
430.736	85.06
430.958	82.06
431.18	103.06
431.402	93.06
431.624	83.06
431.846	89.06
432.068	84.06
432.29	90.06
432.512	78.06
432.734	98.06
432.956	91.06
433.178	103.06
433.4	93.06
433.622	104.06
433.844	95.06
434.066	80.06
434.287	86.06
434.509	109.06
434.731	96.06
434.953	93.06
435.175	84.06
435.397	99.06
435.618	97.06
435.84	107.06
436.062	125.06
436.284	104.06
436.505	99.06
436.727	113.06
436.949	91.06
437.17	89.06
437.392	95.06
437.614	88.06
437.835	95.06
438.057	105.06
438.278	105.06
438.5	110.06
438.721	121.06
438.943	94.06
439.165	91.06
439.386	93.06
439.608	105.06
439.829	83.06
440.05	95.06
440.272	129.06
440.493	94.06
440.715	91.06
440.936	94.06
441.158	83.06
441.379	94.06
441.6	96.06
441.822	98.06
442.043	97.06
442.264	96.06
442.486	96.06
442.707	83.06
442.928	105.06
443.149	136.06
443.371	122.06
443.592	107.06
443.813	106.06
444.034	103.06
444.255	94.06
444.476	87.06
444.698	94.06
444.919	80.06
445.14	138.06
445.361	126.06
445.582	117.06
445.803	133.06
446.024	127.06
446.245	126.06
446.466	103.06
446.687	110.06
446.908	77.06
447.129	101.06
447.35	101.06
447.571	92.06
447.792	103.06
448.013	100.06
448.234	114.06
448.455	105.06
448.675	124.06
448.896	116.06
449.117	92.06
449.338	99.06
449.559	127.06
449.779	133.06
450	95.06
450.221	88.06
450.442	83.06
450.662	99.06
450.883	111.06
451.104	101.06
451.324	89.06
451.545	97.06
451.766	74.06
451.986	91.06
452.207	93.06
452.428	98.06
452.648	100.06
452.869	109.06
453.089	117.06
453.31	99.06
453.53	92.06
453.751	88.06
453.971	103.06
454.192	92.06
454.412	87.06
454.633	93.06
454.853	87.06
455.073	88.06
455.294	90.06
455.514	90.06
455.734	76.06
455.955	89.06
456.175	83.06
456.395	92.06
456.616	90.06
456.836	88.06
457.056	94.06
457.276	80.06
457.497	83.06
457.717	92.06
457.937	85.06
458.157	87.06
458.377	102.06
458.598	95.06
458.818	139.06
459.038	138.06
459.258	119.06
459.478	106.06
459.698	84.06
459.918	104.06
460.138	79.06
460.358	80.06
460.578	99.06
460.798	117.06
461.018	95.06
461.238	91.06
461.458	104.06
461.678	85.06
461.898	87.06
462.118	103.06
462.338	87.06
462.558	101.06
462.777	91.06
462.997	85.06
463.217	84.06
463.437	95.06
463.657	81.06
463.876	100.06
464.096	78.06
464.316	90.06
464.536	92.06
464.755	90.06
464.975	99.06
465.195	144.06
465.414	128.06
465.634	92.06
465.854	97.06
466.073	97.06
466.293	83.06
466.512	87.06
466.732	84.06
466.951	85.06
467.171	84.06
467.391	88.06
467.61	102.06
467.829	105.06
468.049	97.06
468.268	85.06
468.488	110.06
468.707	87.06
468.927	102.06
469.146	79.06
469.365	111.06
469.585	83.06
469.804	106.06
470.023	106.06
470.243	97.06
470.462	107.06
470.681	95.06
470.901	97.06
471.12	83.06
471.339	81.06
471.558	87.06
471.777	90.06
471.997	103.06
472.216	93.06
472.435	94.06
472.654	81.06
472.873	86.06
473.092	89.06
473.311	93.06
473.53	92.06
473.749	94.06
473.968	98.06
474.187	116.06
474.406	102.06
474.625	93.06
474.844	94.06
475.063	96.06
475.282	96.06
475.501	93.06
475.72	92.06
475.939	95.06
476.158	81.06
476.377	84.06
476.596	106.06
476.814	89.06
477.033	92.06
477.252	84.06
477.471	89.06
477.69	89.06
477.908	95.06
478.127	102.06
478.346	99.06
478.564	96.06
478.783	97.06
479.002	92.06
479.22	95.06
479.439	106.06
479.658	92.06
479.876	91.06
480.095	93.06
480.313	96.06
480.532	102.06
480.751	97.06
480.969	87.06
481.188	114.06
481.406	110.06
481.624	100.06
481.843	101.06
482.061	109.06
482.28	78.06
482.498	75.06
482.717	92.06
482.935	83.06
483.153	97.06
483.372	86.06
483.59	92.06
483.808	75.06
484.027	95.06
484.245	88.06
484.463	100.06
484.681	100.06
484.9	119.06
485.118	103.06
485.336	104.06
485.554	120.06
485.772	96.06
485.99	107.06
486.209	104.06
486.427	99.06
486.645	112.06
486.863	115.06
487.081	113.06
487.299	113.06
487.517	102.06
487.735	98.06
487.953	96.06
488.171	89.06
488.389	90.06
488.607	93.06
488.825	81.06
489.043	101.06
489.261	87.06
489.479	100.06
489.696	94.06
489.914	109.06
490.132	95.06
490.35	90.06
490.568	99.06
490.786	88.06
491.003	95.06
491.221	75.06
491.439	91.06
491.657	90.06
491.874	89.06
492.092	89.06
492.31	86.06
492.527	103.06
492.745	92.06
492.963	95.06
493.18	94.06
493.398	110.06
493.615	108.06
493.833	102.06
494.05	109.06
494.268	88.06
494.485	89.06
494.703	101.06
494.92	107.06
495.138	95.06
495.355	104.06
495.573	99.06
495.79	87.06
496.008	88.06
496.225	89.06
496.442	93.06
496.66	89.06
496.877	94.06
497.094	91.06
497.312	93.06
497.529	91.06
497.746	91.06
497.963	91.06
498.181	95.06
498.398	103.06
498.615	112.06
498.832	97.06
499.049	87.06
499.267	104.06
499.484	92.06
499.701	91.06
499.918	101.06
500.135	94.06
500.352	98.06
500.569	112.06
500.786	89.06
501.003	84.06
501.22	92.06
501.437	92.06
501.654	94.06
501.871	102.06
502.088	100.06
502.305	103.06
502.522	80.06
502.739	83.06
502.956	93.06
503.172	88.06
503.389	89.06
503.606	99.06
503.823	93.06
504.04	102.06
504.256	95.06
504.473	106.06
504.69	95.06
504.907	107.06
505.123	102.06
505.34	88.06
505.557	95.06
505.773	95.06
505.99	94.06
506.207	95.06
506.423	92.06
506.64	104.06
506.856	103.06
507.073	86.06
507.289	101.06
507.506	111.06
507.722	118.06
507.939	128.06
508.155	110.06
508.372	93.06
508.588	95.06
508.805	103.06
509.021	96.06
509.238	113.06
509.454	103.06
509.67	106.06
509.887	104.06
510.103	125.06
510.319	194.06
510.536	656.06
510.752	1862.06
510.968	516.06
511.184	131.06
511.401	101.06
511.617	104.06
511.833	96.06
512.049	103.06
512.265	103.06
512.481	99.06
512.698	83.06
512.914	86.06
513.13	85.06
513.346	92.06
513.562	90.06
513.778	92.06
