Data from Uncirc_1985_H10_HRD10591_00030.txt Node
Date: Wed Jan 03 12:18:23 EST 2024
User: Yrep
Spectrometer: HR+D1059
Trigger mode: 1
Integration Time (sec): 1.000000E-1
Scans to average: 1
Electric dark correction enabled: true
Nonlinearity correction enabled: false
Boxcar width: 0
XAxis mode: Wavelengths
Number of Pixels in Spectrum: 2048
>>>>>Begin Spectral Data<<<<<
223.165	-23.19
223.4	-23.19
223.635	-23.19
223.869	-26.19
224.104	-19.19
224.338	-5.19
224.573	-12.19
224.808	-7.19
225.042	-20.19
225.277	-25.19
225.511	-1.19
225.746	18.81
225.98	14.81
226.215	11.81
226.449	7.81
226.683	20.81
226.918	27.81
227.152	37.81
227.387	52.81
227.621	49.81
227.856	49.81
228.09	50.81
228.324	45.81
228.559	55.81
228.793	59.81
229.027	76.81
229.262	76.81
229.496	65.81
229.73	79.81
229.964	82.81
230.199	77.81
230.433	81.81
230.667	83.81
230.901	77.81
231.136	76.81
231.37	88.81
231.604	88.81
231.838	80.81
232.072	76.81
232.306	83.81
232.541	86.81
232.775	85.81
233.009	69.81
233.243	73.81
233.477	92.81
233.711	93.81
233.945	98.81
234.179	89.81
234.413	75.81
234.647	83.81
234.881	68.81
235.115	90.81
235.349	79.81
235.583	87.81
235.817	77.81
236.051	60.81
236.285	82.81
236.519	80.81
236.753	95.81
236.987	88.81
237.221	92.81
237.455	74.81
237.689	65.81
237.922	89.81
238.156	95.81
238.39	85.81
238.624	84.81
238.858	84.81
239.091	87.81
239.325	83.81
239.559	64.81
239.793	67.81
240.027	90.81
240.26	61.81
240.494	87.81
240.728	72.81
240.961	90.81
241.195	105.81
241.429	89.81
241.662	83.81
241.896	87.81
242.13	69.81
242.363	69.81
242.597	85.81
242.83	67.81
243.064	69.81
243.298	91.81
243.531	68.81
243.765	85.81
243.998	79.81
244.232	85.81
244.465	85.81
244.699	68.81
244.932	67.81
245.166	68.81
245.399	70.81
245.633	88.81
245.866	83.81
246.099	87.81
246.333	78.81
246.566	72.81
246.8	84.81
247.033	82.81
247.266	79.81
247.5	82.81
247.733	88.81
247.966	73.81
248.2	91.81
248.433	86.81
248.666	84.81
248.899	80.81
249.133	90.81
249.366	88.81
249.599	96.81
249.832	84.81
250.066	95.81
250.299	74.81
250.532	89.81
250.765	71.81
250.998	76.81
251.231	93.81
251.465	76.81
251.698	83.81
251.931	69.81
252.164	83.81
252.397	79.81
252.63	87.81
252.863	76.81
253.096	83.81
253.329	81.81
253.562	103.81
253.795	87.81
254.028	91.81
254.261	80.81
254.494	63.81
254.727	90.81
254.96	75.81
255.193	79.81
255.426	81.81
255.659	89.81
255.892	84.81
256.124	83.81
256.357	79.81
256.59	80.81
256.823	73.81
257.056	72.81
257.289	82.81
257.521	77.81
257.754	82.81
257.987	79.81
258.22	83.81
258.452	91.81
258.685	67.81
258.918	80.81
259.151	87.81
259.383	79.81
259.616	85.81
259.849	84.81
260.081	87.81
260.314	81.81
260.547	76.81
260.779	85.81
261.012	98.81
261.244	90.81
261.477	73.81
261.71	102.81
261.942	116.81
262.175	106.81
262.407	94.81
262.64	72.81
262.872	87.81
263.105	79.81
263.337	90.81
263.57	96.81
263.802	95.81
264.035	91.81
264.267	73.81
264.499	73.81
264.732	99.81
264.964	79.81
265.197	93.81
265.429	85.81
265.661	72.81
265.894	89.81
266.126	87.81
266.358	77.81
266.591	89.81
266.823	88.81
267.055	78.81
267.287	97.81
267.52	83.81
267.752	90.81
267.984	91.81
268.216	90.81
268.448	99.81
268.681	91.81
268.913	87.81
269.145	90.81
269.377	75.81
269.609	93.81
269.841	95.81
270.073	89.81
270.306	79.81
270.538	92.81
270.77	84.81
271.002	94.81
271.234	101.81
271.466	84.81
271.698	83.81
271.93	81.81
272.162	103.81
272.394	93.81
272.626	85.81
272.858	85.81
273.09	87.81
273.322	86.81
273.553	75.81
273.785	77.81
274.017	85.81
274.249	86.81
274.481	90.81
274.713	86.81
274.945	74.81
275.176	88.81
275.408	99.81
275.64	85.81
275.872	102.81
276.104	81.81
276.335	87.81
276.567	87.81
276.799	109.81
277.031	94.81
277.262	82.81
277.494	91.81
277.726	91.81
277.957	82.81
278.189	91.81
278.421	85.81
278.652	89.81
278.884	94.81
279.115	74.81
279.347	79.81
279.579	83.81
279.81	91.81
280.042	83.81
280.273	92.81
280.505	84.81
280.736	94.81
280.968	93.81
281.199	86.81
281.431	82.81
281.662	101.81
281.894	92.81
282.125	102.81
282.356	103.81
282.588	128.81
282.819	103.81
283.051	75.81
283.282	75.81
283.513	77.81
283.745	79.81
283.976	112.81
284.207	85.81
284.439	86.81
284.67	90.81
284.901	88.81
285.132	79.81
285.364	81.81
285.595	84.81
285.826	85.81
286.057	88.81
286.288	91.81
286.52	99.81
286.751	79.81
286.982	89.81
287.213	78.81
287.444	81.81
287.675	81.81
287.906	69.81
288.138	97.81
288.369	99.81
288.6	85.81
288.831	93.81
289.062	90.81
289.293	87.81
289.524	82.81
289.755	93.81
289.986	84.81
290.217	83.81
290.448	79.81
290.679	92.81
290.91	85.81
291.141	76.81
291.371	86.81
291.602	84.81
291.833	89.81
292.064	93.81
292.295	91.81
292.526	107.81
292.757	88.81
292.987	87.81
293.218	96.81
293.449	95.81
293.68	82.81
293.91	93.81
294.141	89.81
294.372	85.81
294.603	85.81
294.833	90.81
295.064	85.81
295.295	93.81
295.525	86.81
295.756	104.81
295.987	120.81
296.217	126.81
296.448	111.81
296.679	82.81
296.909	85.81
297.14	96.81
297.37	88.81
297.601	88.81
297.831	88.81
298.062	90.81
298.292	92.81
298.523	93.81
298.753	87.81
298.984	89.81
299.214	100.81
299.445	86.81
299.675	92.81
299.905	91.81
300.136	79.81
300.366	83.81
300.597	106.81
300.827	84.81
301.057	98.81
301.288	96.81
301.518	90.81
301.748	94.81
301.979	105.81
302.209	90.81
302.439	73.81
302.669	103.81
302.9	76.81
303.13	91.81
303.36	86.81
303.59	104.81
303.82	119.81
304.051	104.81
304.281	84.81
304.511	94.81
304.741	77.81
304.971	97.81
305.201	90.81
305.431	89.81
305.661	83.81
305.891	81.81
306.121	85.81
306.352	106.81
306.582	91.81
306.812	82.81
307.042	90.81
307.272	102.81
307.502	95.81
307.731	97.81
307.961	94.81
308.191	92.81
308.421	91.81
308.651	81.81
308.881	87.81
309.111	90.81
309.341	79.81
309.571	101.81
309.8	92.81
310.03	97.81
310.26	105.81
310.49	95.81
310.72	104.81
310.949	101.81
311.179	98.81
311.409	92.81
311.639	95.81
311.868	98.81
312.098	101.81
312.328	91.81
312.557	82.81
312.787	99.81
313.017	94.81
313.246	105.81
313.476	94.81
313.706	79.81
313.935	90.81
314.165	93.81
314.394	102.81
314.624	101.81
314.853	94.81
315.083	98.81
315.312	87.81
315.542	88.81
315.771	102.81
316.001	84.81
316.23	86.81
316.46	93.81
316.689	91.81
316.919	102.81
317.148	87.81
317.377	100.81
317.607	101.81
317.836	91.81
318.065	96.81
318.295	97.81
318.524	99.81
318.753	83.81
318.983	89.81
319.212	118.81
319.441	84.81
319.67	95.81
319.9	90.81
320.129	88.81
320.358	84.81
320.587	97.81
320.816	93.81
321.046	100.81
321.275	89.81
321.504	87.81
321.733	100.81
321.962	111.81
322.191	95.81
322.42	111.81
322.649	118.81
322.878	112.81
323.108	117.81
323.337	114.81
323.566	133.81
323.795	123.81
324.024	193.81
324.253	366.81
324.482	766.81
324.71	1639.81
324.939	2083.81
325.168	787.81
325.397	233.81
325.626	158.81
325.855	124.81
326.084	125.81
326.313	116.81
326.542	152.81
326.77	234.81
326.999	457.81
327.228	910.81
327.457	1681.81
327.686	1320.81
327.914	346.81
328.143	181.81
328.372	131.81
328.6	126.81
328.829	116.81
329.058	122.81
329.287	113.81
329.515	118.81
329.744	107.81
329.972	110.81
330.201	97.81
330.43	112.81
330.658	109.81
330.887	125.81
331.115	110.81
331.344	95.81
331.572	94.81
331.801	106.81
332.03	101.81
332.258	90.81
332.486	89.81
332.715	92.81
332.943	94.81
333.172	95.81
333.4	84.81
333.629	100.81
333.857	102.81
334.085	100.81
334.314	109.81
334.542	107.81
334.771	109.81
334.999	92.81
335.227	103.81
335.455	86.81
335.684	95.81
335.912	90.81
336.14	84.81
336.369	105.81
336.597	104.81
336.825	85.81
337.053	91.81
337.281	95.81
337.51	100.81
337.738	103.81
337.966	90.81
338.194	96.81
338.422	84.81
338.65	95.81
338.878	94.81
339.106	92.81
339.334	79.81
339.562	87.81
339.79	87.81
340.018	90.81
340.246	108.81
340.474	96.81
340.702	79.81
340.93	85.81
341.158	104.81
341.386	97.81
341.614	91.81
341.842	99.81
342.07	91.81
342.298	108.81
342.526	73.81
342.754	101.81
342.981	93.81
343.209	90.81
343.437	97.81
343.665	91.81
343.893	97.81
344.12	104.81
344.348	89.81
344.576	101.81
344.804	100.81
345.031	87.81
345.259	104.81
345.487	105.81
345.714	100.81
345.942	73.81
346.17	102.81
346.397	93.81
346.625	93.81
346.853	91.81
347.08	84.81
347.308	95.81
347.535	115.81
347.763	110.81
347.99	87.81
348.218	103.81
348.445	105.81
348.673	89.81
348.9	96.81
349.128	104.81
349.355	100.81
349.583	109.81
349.81	90.81
350.037	91.81
350.265	92.81
350.492	91.81
350.72	88.81
350.947	110.81
351.174	107.81
351.402	107.81
351.629	90.81
351.856	101.81
352.083	100.81
352.311	96.81
352.538	116.81
352.765	115.81
352.992	104.81
353.22	105.81
353.447	108.81
353.674	112.81
353.901	107.81
354.128	95.81
354.355	86.81
354.583	102.81
354.81	97.81
355.037	108.81
355.264	103.81
355.491	83.81
355.718	79.81
355.945	82.81
356.172	84.81
356.399	91.81
356.626	90.81
356.853	77.81
357.08	80.81
357.307	87.81
357.534	98.81
357.761	95.81
357.988	89.81
358.215	92.81
358.441	92.81
358.668	91.81
358.895	95.81
359.122	101.81
359.349	84.81
359.576	83.81
359.802	97.81
360.029	102.81
360.256	94.81
360.483	100.81
360.709	95.81
360.936	88.81
361.163	106.81
361.39	99.81
361.616	103.81
361.843	75.81
362.07	90.81
362.296	89.81
362.523	87.81
362.749	98.81
362.976	100.81
363.203	88.81
363.429	105.81
363.656	95.81
363.882	76.81
364.109	77.81
364.335	76.81
364.562	101.81
364.788	92.81
365.015	105.81
365.241	91.81
365.468	99.81
365.694	101.81
365.92	84.81
366.147	98.81
366.373	85.81
366.599	84.81
366.826	97.81
367.052	94.81
367.278	90.81
367.505	105.81
367.731	100.81
367.957	95.81
368.184	75.81
368.41	85.81
368.636	103.81
368.862	118.81
369.089	91.81
369.315	86.81
369.541	96.81
369.767	85.81
369.993	87.81
370.219	101.81
370.445	98.81
370.672	89.81
370.898	109.81
371.124	82.81
371.35	91.81
371.576	91.81
371.802	107.81
372.028	90.81
372.254	91.81
372.48	88.81
372.706	81.81
372.932	94.81
373.158	84.81
373.384	82.81
373.61	102.81
373.835	84.81
374.061	102.81
374.287	95.81
374.513	93.81
374.739	79.81
374.965	93.81
375.191	103.81
375.416	91.81
375.642	105.81
375.868	91.81
376.094	80.81
376.319	103.81
376.545	67.81
376.771	86.81
376.997	87.81
377.222	84.81
377.448	97.81
377.674	93.81
377.899	80.81
378.125	74.81
378.35	86.81
378.576	98.81
378.802	85.81
379.027	88.81
379.253	85.81
379.478	93.81
379.704	101.81
379.929	97.81
380.155	81.81
380.38	93.81
380.606	83.81
380.831	97.81
381.057	100.81
381.282	98.81
381.507	81.81
381.733	85.81
381.958	100.81
382.184	109.81
382.409	105.81
382.634	106.81
382.86	89.81
383.085	96.81
383.31	107.81
383.535	98.81
383.761	112.81
383.986	82.81
384.211	103.81
384.436	103.81
384.662	97.81
384.887	102.81
385.112	103.81
385.337	104.81
385.562	104.81
385.787	102.81
386.013	103.81
386.238	117.81
386.463	107.81
386.688	121.81
386.913	92.81
387.138	96.81
387.363	93.81
387.588	104.81
387.813	104.81
388.038	108.81
388.263	100.81
388.488	99.81
388.713	100.81
388.938	98.81
389.163	94.81
389.387	77.81
389.612	89.81
389.837	91.81
390.062	83.81
390.287	99.81
390.512	92.81
390.736	91.81
390.961	89.81
391.186	98.81
391.411	82.81
391.636	87.81
391.86	71.81
392.085	87.81
392.31	98.81
392.534	83.81
392.759	89.81
392.984	97.81
393.208	93.81
393.433	104.81
393.658	86.81
393.882	92.81
394.107	87.81
394.331	82.81
394.556	97.81
394.78	83.81
395.005	92.81
395.229	97.81
395.454	79.81
395.678	96.81
395.903	90.81
396.127	89.81
396.352	96.81
396.576	84.81
396.801	93.81
397.025	82.81
397.249	94.81
397.474	91.81
397.698	69.81
397.922	91.81
398.147	88.81
398.371	87.81
398.595	84.81
398.82	86.81
399.044	87.81
399.268	85.81
399.492	97.81
399.717	87.81
399.941	96.81
400.165	85.81
400.389	93.81
400.613	100.81
400.837	99.81
401.062	95.81
401.286	69.81
401.51	86.81
401.734	85.81
401.958	98.81
402.182	124.81
402.406	159.81
402.63	110.81
402.854	89.81
403.078	93.81
403.302	86.81
403.526	86.81
403.75	91.81
403.974	83.81
404.198	95.81
404.422	84.81
404.645	104.81
404.869	95.81
405.093	91.81
405.317	84.81
405.541	84.81
405.765	92.81
405.988	105.81
406.212	145.81
406.436	201.81
406.66	119.81
406.883	83.81
407.107	83.81
407.331	101.81
407.555	107.81
407.778	93.81
408.002	82.81
408.226	97.81
408.449	82.81
408.673	93.81
408.896	75.81
409.12	102.81
409.344	96.81
409.567	92.81
409.791	96.81
410.014	86.81
410.238	91.81
410.461	83.81
410.685	92.81
410.908	84.81
411.132	101.81
411.355	98.81
411.578	87.81
411.802	99.81
412.025	91.81
412.249	93.81
412.472	106.81
412.695	91.81
412.919	93.81
413.142	84.81
413.365	90.81
413.589	84.81
413.812	95.81
414.035	97.81
414.258	99.81
414.482	99.81
414.705	101.81
414.928	98.81
415.151	90.81
415.374	91.81
415.597	84.81
415.821	89.81
416.044	83.81
416.267	67.81
416.49	97.81
416.713	101.81
416.936	92.81
417.159	89.81
417.382	91.81
417.605	87.81
417.828	97.81
418.051	98.81
418.274	73.81
418.497	81.81
418.72	89.81
418.943	104.81
419.166	95.81
419.389	80.81
419.611	82.81
419.834	97.81
420.057	106.81
420.28	95.81
420.503	82.81
420.726	93.81
420.948	90.81
421.171	91.81
421.394	104.81
421.617	84.81
421.839	97.81
422.062	95.81
422.285	96.81
422.507	100.81
422.73	108.81
422.953	97.81
423.175	86.81
423.398	73.81
423.621	79.81
423.843	79.81
424.066	102.81
424.288	92.81
424.511	85.81
424.733	96.81
424.956	94.81
425.178	92.81
425.401	91.81
425.623	86.81
425.846	90.81
426.068	99.81
426.291	101.81
426.513	98.81
426.735	91.81
426.958	92.81
427.18	97.81
427.402	122.81
427.625	147.81
427.847	123.81
428.069	115.81
428.292	88.81
428.514	76.81
428.736	81.81
428.958	71.81
429.181	82.81
429.403	95.81
429.625	95.81
429.847	96.81
430.069	108.81
430.292	88.81
430.514	81.81
430.736	90.81
430.958	89.81
431.18	91.81
431.402	90.81
431.624	81.81
431.846	97.81
432.068	87.81
432.29	95.81
432.512	90.81
432.734	92.81
432.956	96.81
433.178	101.81
433.4	90.81
433.622	82.81
433.844	83.81
434.066	102.81
434.287	108.81
434.509	95.81
434.731	95.81
434.953	108.81
435.175	94.81
435.397	87.81
435.618	92.81
435.84	101.81
436.062	117.81
436.284	96.81
436.505	111.81
436.727	88.81
436.949	89.81
437.17	90.81
437.392	102.81
437.614	91.81
437.835	88.81
438.057	106.81
438.278	101.81
438.5	95.81
438.721	102.81
438.943	95.81
439.165	88.81
439.386	107.81
439.608	90.81
439.829	98.81
440.05	113.81
440.272	144.81
440.493	95.81
440.715	91.81
440.936	88.81
441.158	84.81
441.379	95.81
441.6	85.81
441.822	102.81
442.043	90.81
442.264	100.81
442.486	95.81
442.707	93.81
442.928	106.81
443.149	118.81
443.371	125.81
443.592	103.81
443.813	109.81
444.034	100.81
444.255	91.81
444.476	79.81
444.698	91.81
444.919	91.81
445.14	115.81
445.361	128.81
445.582	109.81
445.803	128.81
446.024	129.81
446.245	129.81
446.466	92.81
446.687	99.81
446.908	104.81
447.129	91.81
447.35	75.81
447.571	96.81
447.792	91.81
448.013	96.81
448.234	114.81
448.455	103.81
448.675	95.81
448.896	117.81
449.117	100.81
449.338	103.81
449.559	124.81
449.779	120.81
450	95.81
450.221	89.81
450.442	93.81
450.662	103.81
450.883	98.81
451.104	95.81
451.324	83.81
451.545	97.81
451.766	91.81
451.986	90.81
452.207	99.81
452.428	99.81
452.648	92.81
452.869	114.81
453.089	91.81
453.31	110.81
453.53	103.81
453.751	84.81
453.971	105.81
454.192	126.81
454.412	91.81
454.633	79.81
454.853	87.81
455.073	101.81
455.294	101.81
455.514	112.81
455.734	92.81
455.955	87.81
456.175	79.81
456.395	96.81
456.616	74.81
456.836	89.81
457.056	87.81
457.276	95.81
457.497	105.81
457.717	81.81
457.937	97.81
458.157	97.81
458.377	112.81
458.598	108.81
458.818	119.81
459.038	153.81
459.258	107.81
459.478	91.81
459.698	83.81
459.918	75.81
460.138	83.81
460.358	77.81
460.578	99.81
460.798	90.81
461.018	98.81
461.238	81.81
461.458	93.81
461.678	90.81
461.898	91.81
462.118	81.81
462.338	80.81
462.558	76.81
462.777	87.81
462.997	91.81
463.217	78.81
463.437	103.81
463.657	91.81
463.876	75.81
464.096	89.81
464.316	89.81
464.536	93.81
464.755	102.81
464.975	111.81
465.195	149.81
465.414	145.81
465.634	92.81
465.854	93.81
466.073	87.81
466.293	86.81
466.512	78.81
466.732	92.81
466.951	88.81
467.171	96.81
467.391	92.81
467.61	99.81
467.829	95.81
468.049	105.81
468.268	104.81
468.488	95.81
468.707	89.81
468.927	82.81
469.146	87.81
469.365	74.81
469.585	93.81
469.804	98.81
470.023	102.81
470.243	90.81
470.462	96.81
470.681	108.81
470.901	75.81
471.12	78.81
471.339	90.81
471.558	89.81
471.777	96.81
471.997	93.81
472.216	99.81
472.435	103.81
472.654	97.81
472.873	87.81
473.092	94.81
473.311	77.81
473.53	91.81
473.749	90.81
473.968	93.81
474.187	108.81
474.406	92.81
474.625	82.81
474.844	112.81
475.063	88.81
475.282	96.81
475.501	90.81
475.72	92.81
475.939	85.81
476.158	91.81
476.377	87.81
476.596	88.81
476.814	98.81
477.033	83.81
477.252	96.81
477.471	88.81
477.69	97.81
477.908	82.81
478.127	88.81
478.346	82.81
478.564	96.81
478.783	104.81
479.002	91.81
479.22	91.81
479.439	83.81
479.658	105.81
479.876	85.81
480.095	74.81
480.313	83.81
480.532	99.81
480.751	94.81
480.969	100.81
481.188	140.81
481.406	123.81
481.624	96.81
481.843	89.81
482.061	87.81
482.28	74.81
482.498	97.81
482.717	79.81
482.935	96.81
483.153	91.81
483.372	89.81
483.59	96.81
483.808	66.81
484.027	91.81
484.245	98.81
484.463	94.81
484.681	109.81
484.9	91.81
485.118	91.81
485.336	97.81
485.554	95.81
485.772	100.81
485.99	88.81
486.209	110.81
486.427	104.81
486.645	105.81
486.863	105.81
487.081	87.81
487.299	90.81
487.517	92.81
487.735	89.81
487.953	76.81
488.171	93.81
488.389	108.81
488.607	88.81
488.825	98.81
489.043	79.81
489.261	97.81
489.479	102.81
489.696	87.81
489.914	84.81
490.132	95.81
490.35	81.81
490.568	92.81
490.786	90.81
491.003	81.81
491.221	90.81
491.439	93.81
491.657	85.81
491.874	96.81
492.092	66.81
492.31	89.81
492.527	79.81
492.745	88.81
492.963	76.81
493.18	89.81
493.398	110.81
493.615	97.81
493.833	109.81
494.05	92.81
494.268	68.81
494.485	97.81
494.703	96.81
494.92	83.81
495.138	83.81
495.355	88.81
495.573	72.81
495.79	92.81
496.008	94.81
496.225	100.81
496.442	90.81
496.66	95.81
496.877	98.81
497.094	87.81
497.312	84.81
497.529	89.81
497.746	64.81
497.963	83.81
498.181	108.81
498.398	84.81
498.615	104.81
498.832	109.81
499.049	92.81
499.267	91.81
499.484	90.81
499.701	100.81
499.918	96.81
500.135	103.81
500.352	102.81
500.569	85.81
500.786	90.81
501.003	95.81
501.22	79.81
501.437	69.81
501.654	96.81
501.871	101.81
502.088	85.81
502.305	95.81
502.522	100.81
502.739	88.81
502.956	97.81
503.172	88.81
503.389	93.81
503.606	103.81
503.823	99.81
504.04	99.81
504.256	95.81
504.473	98.81
504.69	77.81
504.907	81.81
505.123	93.81
505.34	72.81
505.557	85.81
505.773	95.81
505.99	96.81
506.207	88.81
506.423	86.81
506.64	93.81
506.856	95.81
507.073	92.81
507.289	111.81
507.506	101.81
507.722	110.81
507.939	111.81
508.155	108.81
508.372	104.81
508.588	93.81
508.805	92.81
509.021	105.81
509.238	108.81
509.454	102.81
509.67	89.81
509.887	100.81
510.103	128.81
510.319	209.81
510.536	733.81
510.752	2207.81
510.968	612.81
511.184	150.81
511.401	134.81
511.617	96.81
511.833	112.81
512.049	99.81
512.265	100.81
512.481	91.81
512.698	92.81
512.914	89.81
513.13	99.81
513.346	108.81
513.562	103.81
513.778	99.81
513.994	109.81
514.21	103.81
514.426	111.81
514.642	120.81
514.858	119.81
515.074	142.81
515.29	394.81
515.506	1303.81
