Data from Uncirc_1985_H10_HRD10591_00037.txt Node
Date: Wed Jan 03 12:18:24 EST 2024
User: Yrep
Spectrometer: HR+D1059
Trigger mode: 1
Integration Time (sec): 1.000000E-1
Scans to average: 1
Electric dark correction enabled: true
Nonlinearity correction enabled: false
Boxcar width: 0
XAxis mode: Wavelengths
Number of Pixels in Spectrum: 2048
>>>>>Begin Spectral Data<<<<<
223.165	-15.44
223.4	-15.44
223.635	-15.44
223.869	-29.44
224.104	-22.44
224.338	-16.44
224.573	-9.44
224.808	-12.44
225.042	-2.44
225.277	-15.44
225.511	1.56
225.746	7.56
225.98	2.56
226.215	16.56
226.449	20.56
226.683	30.56
226.918	12.56
227.152	31.56
227.387	27.56
227.621	32.56
227.856	42.56
228.09	49.56
228.324	54.56
228.559	68.56
228.793	63.56
229.027	68.56
229.262	68.56
229.496	72.56
229.73	81.56
229.964	90.56
230.199	74.56
230.433	69.56
230.667	84.56
230.901	79.56
231.136	70.56
231.37	76.56
231.604	77.56
231.838	80.56
232.072	81.56
232.306	76.56
232.541	79.56
232.775	87.56
233.009	82.56
233.243	73.56
233.477	72.56
233.711	83.56
233.945	76.56
234.179	70.56
234.413	75.56
234.647	86.56
234.881	90.56
235.115	84.56
235.349	75.56
235.583	74.56
235.817	90.56
236.051	78.56
236.285	72.56
236.519	87.56
236.753	93.56
236.987	79.56
237.221	81.56
237.455	74.56
237.689	79.56
237.922	73.56
238.156	80.56
238.39	68.56
238.624	66.56
238.858	79.56
239.091	71.56
239.325	67.56
239.559	74.56
239.793	64.56
240.027	71.56
240.26	79.56
240.494	83.56
240.728	73.56
240.961	86.56
241.195	67.56
241.429	87.56
241.662	68.56
241.896	76.56
242.13	87.56
242.363	67.56
242.597	78.56
242.83	85.56
243.064	66.56
243.298	63.56
243.531	83.56
243.765	76.56
243.998	84.56
244.232	85.56
244.465	69.56
244.699	76.56
244.932	77.56
245.166	84.56
245.399	76.56
245.633	95.56
245.866	67.56
246.099	69.56
246.333	89.56
246.566	87.56
246.8	89.56
247.033	78.56
247.266	80.56
247.5	76.56
247.733	80.56
247.966	79.56
248.2	71.56
248.433	77.56
248.666	79.56
248.899	87.56
249.133	88.56
249.366	103.56
249.599	91.56
249.832	80.56
250.066	74.56
250.299	73.56
250.532	76.56
250.765	72.56
250.998	77.56
251.231	77.56
251.465	82.56
251.698	70.56
251.931	86.56
252.164	93.56
252.397	91.56
252.63	87.56
252.863	80.56
253.096	71.56
253.329	79.56
253.562	85.56
253.795	73.56
254.028	88.56
254.261	81.56
254.494	81.56
254.727	75.56
254.96	79.56
255.193	85.56
255.426	84.56
255.659	79.56
255.892	82.56
256.124	81.56
256.357	69.56
256.59	91.56
256.823	91.56
257.056	82.56
257.289	83.56
257.521	83.56
257.754	71.56
257.987	72.56
258.22	92.56
258.452	84.56
258.685	84.56
258.918	91.56
259.151	81.56
259.383	79.56
259.616	80.56
259.849	82.56
260.081	89.56
260.314	83.56
260.547	93.56
260.779	89.56
261.012	72.56
261.244	81.56
261.477	96.56
261.71	89.56
261.942	108.56
262.175	116.56
262.407	98.56
262.64	88.56
262.872	79.56
263.105	79.56
263.337	88.56
263.57	83.56
263.802	75.56
264.035	91.56
264.267	85.56
264.499	66.56
264.732	75.56
264.964	76.56
265.197	82.56
265.429	84.56
265.661	79.56
265.894	90.56
266.126	82.56
266.358	88.56
266.591	59.56
266.823	79.56
267.055	87.56
267.287	91.56
267.52	74.56
267.752	85.56
267.984	87.56
268.216	86.56
268.448	91.56
268.681	87.56
268.913	92.56
269.145	71.56
269.377	85.56
269.609	90.56
269.841	86.56
270.073	96.56
270.306	92.56
270.538	77.56
270.77	79.56
271.002	92.56
271.234	81.56
271.466	90.56
271.698	75.56
271.93	96.56
272.162	95.56
272.394	84.56
272.626	92.56
272.858	88.56
273.09	78.56
273.322	80.56
273.553	68.56
273.785	89.56
274.017	83.56
274.249	81.56
274.481	79.56
274.713	95.56
274.945	98.56
275.176	80.56
275.408	76.56
275.64	82.56
275.872	83.56
276.104	94.56
276.335	87.56
276.567	83.56
276.799	97.56
277.031	96.56
277.262	94.56
277.494	96.56
277.726	92.56
277.957	77.56
278.189	85.56
278.421	95.56
278.652	81.56
278.884	86.56
279.115	76.56
279.347	85.56
279.579	94.56
279.81	95.56
280.042	80.56
280.273	89.56
280.505	88.56
280.736	81.56
280.968	86.56
281.199	80.56
281.431	77.56
281.662	87.56
281.894	106.56
282.125	106.56
282.356	120.56
282.588	130.56
282.819	118.56
283.051	89.56
283.282	86.56
283.513	76.56
283.745	88.56
283.976	87.56
284.207	76.56
284.439	91.56
284.67	87.56
284.901	84.56
285.132	82.56
285.364	90.56
285.595	104.56
285.826	79.56
286.057	92.56
286.288	63.56
286.52	85.56
286.751	76.56
286.982	87.56
287.213	89.56
287.444	91.56
287.675	84.56
287.906	95.56
288.138	90.56
288.369	85.56
288.6	93.56
288.831	83.56
289.062	72.56
289.293	81.56
289.524	88.56
289.755	87.56
289.986	83.56
290.217	86.56
290.448	88.56
290.679	93.56
290.91	87.56
291.141	75.56
291.371	93.56
291.602	91.56
291.833	73.56
292.064	71.56
292.295	89.56
292.526	90.56
292.757	74.56
292.987	93.56
293.218	83.56
293.449	104.56
293.68	81.56
293.91	84.56
294.141	85.56
294.372	101.56
294.603	93.56
294.833	69.56
295.064	88.56
295.295	94.56
295.525	99.56
295.756	95.56
295.987	123.56
296.217	121.56
296.448	110.56
296.679	95.56
296.909	94.56
297.14	108.56
297.37	98.56
297.601	82.56
297.831	87.56
298.062	79.56
298.292	86.56
298.523	101.56
298.753	91.56
298.984	104.56
299.214	97.56
299.445	107.56
299.675	91.56
299.905	82.56
300.136	97.56
300.366	85.56
300.597	87.56
300.827	93.56
301.057	101.56
301.288	99.56
301.518	91.56
301.748	82.56
301.979	91.56
302.209	76.56
302.439	105.56
302.669	82.56
302.9	80.56
303.13	77.56
303.36	103.56
303.59	96.56
303.82	106.56
304.051	105.56
304.281	88.56
304.511	91.56
304.741	89.56
304.971	75.56
305.201	93.56
305.431	97.56
305.661	79.56
305.891	76.56
306.121	109.56
306.352	93.56
306.582	103.56
306.812	97.56
307.042	95.56
307.272	89.56
307.502	87.56
307.731	87.56
307.961	87.56
308.191	93.56
308.421	97.56
308.651	95.56
308.881	96.56
309.111	106.56
309.341	97.56
309.571	100.56
309.8	102.56
310.03	101.56
310.26	90.56
310.49	95.56
310.72	94.56
310.949	108.56
311.179	108.56
311.409	84.56
311.639	100.56
311.868	98.56
312.098	97.56
312.328	106.56
312.557	109.56
312.787	96.56
313.017	108.56
313.246	96.56
313.476	101.56
313.706	97.56
313.935	83.56
314.165	98.56
314.394	92.56
314.624	88.56
314.853	100.56
315.083	105.56
315.312	97.56
315.542	72.56
315.771	95.56
316.001	95.56
316.23	99.56
316.46	90.56
316.689	82.56
316.919	107.56
317.148	91.56
317.377	98.56
317.607	97.56
317.836	97.56
318.065	81.56
318.295	88.56
318.524	79.56
318.753	99.56
318.983	99.56
319.212	97.56
319.441	111.56
319.67	107.56
319.9	99.56
320.129	84.56
320.358	91.56
320.587	103.56
320.816	92.56
321.046	106.56
321.275	109.56
321.504	98.56
321.733	97.56
321.962	114.56
322.191	81.56
322.42	99.56
322.649	88.56
322.878	113.56
323.108	119.56
323.337	112.56
323.566	132.56
323.795	123.56
324.024	195.56
324.253	357.56
324.482	748.56
324.71	1559.56
324.939	2105.56
325.168	750.56
325.397	209.56
325.626	141.56
325.855	121.56
326.084	110.56
326.313	131.56
326.542	150.56
326.77	211.56
326.999	436.56
327.228	879.56
327.457	1615.56
327.686	1289.56
327.914	355.56
328.143	177.56
328.372	137.56
328.6	127.56
328.829	104.56
329.058	125.56
329.287	116.56
329.515	98.56
329.744	117.56
329.972	102.56
330.201	109.56
330.43	138.56
330.658	127.56
330.887	135.56
331.115	117.56
331.344	104.56
331.572	115.56
331.801	109.56
332.03	106.56
332.258	87.56
332.486	86.56
332.715	77.56
332.943	95.56
333.172	101.56
333.4	84.56
333.629	96.56
333.857	106.56
334.085	98.56
334.314	104.56
334.542	120.56
334.771	136.56
334.999	100.56
335.227	91.56
335.455	111.56
335.684	104.56
335.912	102.56
336.14	98.56
336.369	88.56
336.597	116.56
336.825	92.56
337.053	93.56
337.281	91.56
337.51	82.56
337.738	75.56
337.966	89.56
338.194	101.56
338.422	105.56
338.65	101.56
338.878	87.56
339.106	81.56
339.334	89.56
339.562	86.56
339.79	89.56
340.018	94.56
340.246	89.56
340.474	92.56
340.702	89.56
340.93	89.56
341.158	95.56
341.386	93.56
341.614	89.56
341.842	99.56
342.07	90.56
342.298	86.56
342.526	91.56
342.754	92.56
342.981	96.56
343.209	90.56
343.437	98.56
343.665	100.56
343.893	88.56
344.12	68.56
344.348	94.56
344.576	95.56
344.804	82.56
345.031	108.56
345.259	100.56
345.487	100.56
345.714	95.56
345.942	91.56
346.17	83.56
346.397	100.56
346.625	107.56
346.853	114.56
347.08	101.56
347.308	96.56
347.535	91.56
347.763	97.56
347.99	99.56
348.218	104.56
348.445	107.56
348.673	102.56
348.9	97.56
349.128	91.56
349.355	82.56
349.583	100.56
349.81	91.56
350.037	105.56
350.265	103.56
350.492	87.56
350.72	107.56
350.947	94.56
351.174	105.56
351.402	111.56
351.629	88.56
351.856	103.56
352.083	97.56
352.311	105.56
352.538	93.56
352.765	113.56
352.992	110.56
353.22	115.56
353.447	88.56
353.674	102.56
353.901	105.56
354.128	85.56
354.355	89.56
354.583	99.56
354.81	109.56
355.037	93.56
355.264	102.56
355.491	92.56
355.718	74.56
355.945	95.56
356.172	105.56
356.399	87.56
356.626	106.56
356.853	72.56
357.08	95.56
357.307	92.56
357.534	81.56
357.761	88.56
357.988	97.56
358.215	76.56
358.441	92.56
358.668	81.56
358.895	87.56
359.122	109.56
359.349	103.56
359.576	100.56
359.802	99.56
360.029	95.56
360.256	95.56
360.483	100.56
360.709	91.56
360.936	99.56
361.163	73.56
361.39	84.56
361.616	91.56
361.843	94.56
362.07	88.56
362.296	106.56
362.523	86.56
362.749	75.56
362.976	95.56
363.203	93.56
363.429	83.56
363.656	91.56
363.882	89.56
364.109	87.56
364.335	87.56
364.562	103.56
364.788	90.56
365.015	99.56
365.241	106.56
365.468	106.56
365.694	101.56
365.92	96.56
366.147	93.56
366.373	91.56
366.599	82.56
366.826	98.56
367.052	88.56
367.278	100.56
367.505	80.56
367.731	92.56
367.957	87.56
368.184	82.56
368.41	94.56
368.636	109.56
368.862	121.56
369.089	112.56
369.315	89.56
369.541	85.56
369.767	84.56
369.993	81.56
370.219	79.56
370.445	98.56
370.672	90.56
370.898	88.56
371.124	103.56
371.35	89.56
371.576	72.56
371.802	92.56
372.028	95.56
372.254	93.56
372.48	91.56
372.706	85.56
372.932	85.56
373.158	97.56
373.384	92.56
373.61	77.56
373.835	88.56
374.061	91.56
374.287	84.56
374.513	102.56
374.739	94.56
374.965	95.56
375.191	90.56
375.416	83.56
375.642	88.56
375.868	86.56
376.094	80.56
376.319	80.56
376.545	82.56
376.771	90.56
376.997	94.56
377.222	110.56
377.448	97.56
377.674	74.56
377.899	88.56
378.125	93.56
378.35	90.56
378.576	95.56
378.802	91.56
379.027	84.56
379.253	102.56
379.478	94.56
379.704	98.56
379.929	99.56
380.155	83.56
380.38	87.56
380.606	93.56
380.831	100.56
381.057	98.56
381.282	81.56
381.507	87.56
381.733	90.56
381.958	100.56
382.184	105.56
382.409	90.56
382.634	89.56
382.86	111.56
383.085	103.56
383.31	101.56
383.535	101.56
383.761	101.56
383.986	106.56
384.211	103.56
384.436	92.56
384.662	83.56
384.887	82.56
385.112	105.56
385.337	96.56
385.562	89.56
385.787	96.56
386.013	91.56
386.238	108.56
386.463	106.56
386.688	120.56
386.913	101.56
387.138	94.56
387.363	98.56
387.588	113.56
387.813	119.56
388.038	102.56
388.263	97.56
388.488	99.56
388.713	89.56
388.938	93.56
389.163	93.56
389.387	105.56
389.612	96.56
389.837	84.56
390.062	92.56
390.287	88.56
390.512	81.56
390.736	85.56
390.961	91.56
391.186	103.56
391.411	86.56
391.636	84.56
391.86	96.56
392.085	91.56
392.31	87.56
392.534	87.56
392.759	93.56
392.984	104.56
393.208	96.56
393.433	93.56
393.658	97.56
393.882	92.56
394.107	83.56
394.331	91.56
394.556	88.56
394.78	113.56
395.005	97.56
395.229	89.56
395.454	96.56
395.678	87.56
395.903	90.56
396.127	100.56
396.352	83.56
396.576	80.56
396.801	95.56
397.025	80.56
397.249	82.56
397.474	74.56
397.698	100.56
397.922	106.56
398.147	67.56
398.371	85.56
398.595	96.56
398.82	83.56
399.044	90.56
399.268	93.56
399.492	72.56
399.717	78.56
399.941	85.56
400.165	94.56
400.389	101.56
400.613	93.56
400.837	84.56
401.062	101.56
401.286	89.56
401.51	87.56
401.734	73.56
401.958	104.56
402.182	123.56
402.406	153.56
402.63	110.56
402.854	90.56
403.078	95.56
403.302	75.56
403.526	79.56
403.75	100.56
403.974	84.56
404.198	85.56
404.422	101.56
404.645	95.56
404.869	92.56
405.093	92.56
405.317	105.56
405.541	100.56
405.765	99.56
405.988	103.56
406.212	161.56
406.436	211.56
406.66	135.56
406.883	98.56
407.107	89.56
407.331	83.56
407.555	98.56
407.778	88.56
408.002	93.56
408.226	87.56
408.449	100.56
408.673	82.56
408.896	92.56
409.12	88.56
409.344	86.56
409.567	89.56
409.791	97.56
410.014	86.56
410.238	90.56
410.461	101.56
410.685	96.56
410.908	77.56
411.132	111.56
411.355	95.56
411.578	92.56
411.802	89.56
412.025	76.56
412.249	112.56
412.472	99.56
412.695	92.56
412.919	95.56
413.142	80.56
413.365	83.56
413.589	95.56
413.812	83.56
414.035	81.56
414.258	101.56
414.482	89.56
414.705	95.56
414.928	88.56
415.151	88.56
415.374	86.56
415.597	97.56
415.821	89.56
416.044	107.56
416.267	97.56
416.49	85.56
416.713	84.56
416.936	83.56
417.159	81.56
417.382	93.56
417.605	85.56
417.828	73.56
418.051	93.56
418.274	89.56
418.497	98.56
418.72	88.56
418.943	74.56
419.166	82.56
419.389	98.56
419.611	86.56
419.834	95.56
420.057	89.56
420.28	91.56
420.503	89.56
420.726	103.56
420.948	98.56
421.171	74.56
421.394	90.56
421.617	84.56
421.839	88.56
422.062	88.56
422.285	94.56
422.507	106.56
422.73	92.56
422.953	82.56
423.175	79.56
423.398	94.56
423.621	91.56
423.843	73.56
424.066	98.56
424.288	93.56
424.511	79.56
424.733	91.56
424.956	106.56
425.178	105.56
425.401	99.56
425.623	81.56
425.846	95.56
426.068	88.56
426.291	96.56
426.513	91.56
426.735	80.56
426.958	77.56
427.18	88.56
427.402	121.56
427.625	148.56
427.847	102.56
428.069	95.56
428.292	89.56
428.514	89.56
428.736	79.56
428.958	98.56
429.181	76.56
429.403	84.56
429.625	83.56
429.847	103.56
430.069	116.56
430.292	93.56
430.514	91.56
430.736	83.56
430.958	85.56
431.18	96.56
431.402	95.56
431.624	89.56
431.846	85.56
432.068	95.56
432.29	107.56
432.512	93.56
432.734	81.56
432.956	99.56
433.178	100.56
433.4	100.56
433.622	92.56
433.844	98.56
434.066	96.56
434.287	86.56
434.509	89.56
434.731	91.56
434.953	102.56
435.175	102.56
435.397	101.56
435.618	97.56
435.84	109.56
436.062	123.56
436.284	108.56
436.505	106.56
436.727	88.56
436.949	83.56
437.17	100.56
437.392	90.56
437.614	83.56
437.835	109.56
438.057	112.56
438.278	125.56
438.5	91.56
438.721	116.56
438.943	99.56
439.165	89.56
439.386	91.56
439.608	76.56
439.829	96.56
440.05	116.56
440.272	144.56
440.493	101.56
440.715	88.56
440.936	85.56
441.158	84.56
441.379	96.56
441.6	83.56
441.822	98.56
442.043	80.56
442.264	101.56
442.486	88.56
442.707	79.56
442.928	90.56
443.149	114.56
443.371	124.56
443.592	102.56
443.813	115.56
444.034	116.56
444.255	88.56
444.476	84.56
444.698	83.56
444.919	99.56
445.14	141.56
445.361	115.56
445.582	100.56
445.803	117.56
446.024	116.56
446.245	127.56
446.466	100.56
446.687	95.56
446.908	91.56
447.129	83.56
447.35	95.56
447.571	86.56
447.792	96.56
448.013	99.56
448.234	111.56
448.455	99.56
448.675	96.56
448.896	115.56
449.117	93.56
449.338	88.56
449.559	115.56
449.779	139.56
450	97.56
450.221	87.56
450.442	88.56
450.662	92.56
450.883	75.56
451.104	101.56
451.324	101.56
451.545	80.56
451.766	67.56
451.986	88.56
452.207	70.56
452.428	88.56
452.648	111.56
452.869	109.56
453.089	98.56
453.31	109.56
453.53	95.56
453.751	92.56
453.971	97.56
454.192	99.56
454.412	85.56
454.633	62.56
454.853	85.56
455.073	86.56
455.294	95.56
455.514	98.56
455.734	87.56
455.955	91.56
456.175	80.56
456.395	91.56
456.616	87.56
456.836	85.56
457.056	93.56
457.276	86.56
457.497	91.56
457.717	90.56
457.937	83.56
458.157	92.56
458.377	88.56
458.598	105.56
458.818	135.56
459.038	144.56
459.258	116.56
459.478	90.56
459.698	92.56
459.918	93.56
460.138	81.56
460.358	95.56
460.578	89.56
460.798	82.56
461.018	86.56
461.238	89.56
461.458	95.56
461.678	85.56
461.898	75.56
462.118	79.56
462.338	95.56
462.558	92.56
462.777	70.56
462.997	85.56
463.217	96.56
463.437	89.56
463.657	91.56
463.876	92.56
464.096	89.56
464.316	93.56
464.536	81.56
464.755	107.56
464.975	99.56
465.195	156.56
465.414	137.56
465.634	105.56
465.854	93.56
466.073	80.56
466.293	77.56
466.512	87.56
466.732	84.56
466.951	91.56
467.171	96.56
467.391	95.56
467.61	92.56
467.829	94.56
468.049	99.56
468.268	103.56
468.488	92.56
468.707	101.56
468.927	84.56
469.146	92.56
469.365	93.56
469.585	98.56
469.804	99.56
470.023	84.56
470.243	100.56
470.462	83.56
470.681	99.56
470.901	96.56
471.12	83.56
471.339	87.56
471.558	88.56
471.777	91.56
471.997	106.56
472.216	112.56
472.435	119.56
472.654	88.56
472.873	83.56
473.092	85.56
473.311	80.56
473.53	92.56
473.749	87.56
473.968	101.56
474.187	98.56
474.406	91.56
474.625	99.56
474.844	78.56
475.063	92.56
475.282	95.56
475.501	95.56
475.72	108.56
475.939	97.56
476.158	87.56
476.377	87.56
476.596	83.56
476.814	91.56
477.033	93.56
477.252	83.56
477.471	86.56
477.69	84.56
477.908	80.56
478.127	77.56
478.346	89.56
478.564	85.56
478.783	78.56
479.002	97.56
479.22	97.56
479.439	103.56
479.658	107.56
479.876	101.56
480.095	87.56
480.313	90.56
480.532	90.56
480.751	98.56
480.969	110.56
481.188	154.56
481.406	113.56
481.624	85.56
481.843	81.56
482.061	91.56
482.28	87.56
482.498	99.56
482.717	97.56
482.935	73.56
483.153	81.56
483.372	92.56
483.59	91.56
483.808	91.56
484.027	81.56
484.245	88.56
484.463	80.56
484.681	92.56
484.9	93.56
485.118	103.56
485.336	84.56
485.554	96.56
485.772	100.56
485.99	110.56
486.209	97.56
486.427	96.56
486.645	107.56
486.863	93.56
487.081	96.56
487.299	99.56
487.517	100.56
487.735	101.56
487.953	100.56
488.171	96.56
488.389	106.56
488.607	96.56
488.825	90.56
489.043	94.56
489.261	93.56
489.479	87.56
489.696	101.56
489.914	80.56
490.132	99.56
490.35	97.56
490.568	94.56
490.786	92.56
491.003	84.56
491.221	79.56
491.439	83.56
491.657	115.56
491.874	95.56
492.092	88.56
492.31	83.56
492.527	96.56
492.745	92.56
492.963	86.56
493.18	89.56
493.398	95.56
493.615	80.56
493.833	101.56
494.05	108.56
494.268	96.56
494.485	99.56
494.703	97.56
494.92	102.56
495.138	73.56
495.355	108.56
495.573	88.56
495.79	92.56
496.008	82.56
496.225	91.56
496.442	83.56
496.66	88.56
496.877	100.56
497.094	99.56
497.312	73.56
497.529	99.56
497.746	101.56
497.963	95.56
498.181	90.56
498.398	97.56
498.615	106.56
498.832	116.56
499.049	88.56
499.267	99.56
499.484	107.56
499.701	105.56
499.918	97.56
500.135	79.56
500.352	80.56
500.569	83.56
500.786	106.56
501.003	86.56
501.22	91.56
501.437	104.56
501.654	95.56
501.871	109.56
502.088	90.56
502.305	103.56
502.522	78.56
502.739	86.56
502.956	87.56
503.172	93.56
503.389	90.56
503.606	99.56
503.823	109.56
504.04	85.56
504.256	88.56
504.473	83.56
504.69	82.56
504.907	89.56
505.123	85.56
505.34	101.56
505.557	75.56
505.773	93.56
505.99	87.56
506.207	100.56
506.423	88.56
506.64	76.56
506.856	86.56
507.073	85.56
507.289	93.56
507.506	92.56
507.722	107.56
507.939	112.56
508.155	100.56
508.372	95.56
508.588	108.56
508.805	79.56
509.021	101.56
509.238	96.56
509.454	106.56
509.67	108.56
509.887	115.56
510.103	129.56
510.319	199.56
510.536	692.56
510.752	2113.56
510.968	594.56
511.184	134.56
511.401	104.56
511.617	102.56
511.833	95.56
512.049	83.56
512.265	83.56
512.481	88.56
512.698	95.56
512.914	96.56
513.13	90.56
513.346	104.56
513.562	107.56
513.778	113.56
513.994	92.56
514.21	90.56
514.426	98.56
514.642	138.56
514.858	113.56
515.074	169.56
515.29	426.56
515.506	1271.56
515.721	459.56
