Data from Uncirc_1985_H10_HRD10591_00004.txt Node
Date: Wed Jan 03 12:18:18 EST 2024
User: Yrep
Spectrometer: HR+D1059
Trigger mode: 1
Integration Time (sec): 1.000000E-1
Scans to average: 1
Electric dark correction enabled: true
Nonlinearity correction enabled: false
Boxcar width: 0
XAxis mode: Wavelengths
Number of Pixels in Spectrum: 2048
>>>>>Begin Spectral Data<<<<<
223.165	-19.5
223.4	-19.5
223.635	-19.5
223.869	-23.5
224.104	-22.5
224.338	-21.5
224.573	-20.5
224.808	-11.5
225.042	5.5
225.277	-5.5
225.511	-4.5
225.746	-1.5
225.98	5.5
226.215	12.5
226.449	25.5
226.683	19.5
226.918	26.5
227.152	35.5
227.387	47.5
227.621	30.5
227.856	42.5
228.09	56.5
228.324	48.5
228.559	42.5
228.793	63.5
229.027	56.5
229.262	62.5
229.496	68.5
229.73	79.5
229.964	65.5
230.199	70.5
230.433	71.5
230.667	77.5
230.901	71.5
231.136	75.5
231.37	64.5
231.604	72.5
231.838	98.5
232.072	88.5
232.306	78.5
232.541	91.5
232.775	82.5
233.009	69.5
233.243	74.5
233.477	81.5
233.711	76.5
233.945	78.5
234.179	71.5
234.413	80.5
234.647	81.5
234.881	71.5
235.115	85.5
235.349	70.5
235.583	87.5
235.817	82.5
236.051	75.5
236.285	80.5
236.519	55.5
236.753	78.5
236.987	70.5
237.221	63.5
237.455	82.5
237.689	68.5
237.922	63.5
238.156	82.5
238.39	78.5
238.624	67.5
238.858	79.5
239.091	73.5
239.325	96.5
239.559	78.5
239.793	67.5
240.027	78.5
240.26	69.5
240.494	78.5
240.728	72.5
240.961	60.5
241.195	83.5
241.429	80.5
241.662	74.5
241.896	75.5
242.13	82.5
242.363	75.5
242.597	75.5
242.83	78.5
243.064	80.5
243.298	69.5
243.531	82.5
243.765	74.5
243.998	83.5
244.232	68.5
244.465	78.5
244.699	78.5
244.932	66.5
245.166	76.5
245.399	82.5
245.633	83.5
245.866	87.5
246.099	76.5
246.333	66.5
246.566	79.5
246.8	74.5
247.033	84.5
247.266	71.5
247.5	78.5
247.733	70.5
247.966	73.5
248.2	74.5
248.433	73.5
248.666	81.5
248.899	84.5
249.133	74.5
249.366	90.5
249.599	90.5
249.832	83.5
250.066	82.5
250.299	80.5
250.532	71.5
250.765	82.5
250.998	90.5
251.231	89.5
251.465	76.5
251.698	75.5
251.931	74.5
252.164	82.5
252.397	74.5
252.63	82.5
252.863	80.5
253.096	80.5
253.329	82.5
253.562	75.5
253.795	73.5
254.028	79.5
254.261	90.5
254.494	64.5
254.727	66.5
254.96	68.5
255.193	90.5
255.426	67.5
255.659	78.5
255.892	86.5
256.124	88.5
256.357	86.5
256.59	76.5
256.823	74.5
257.056	83.5
257.289	88.5
257.521	87.5
257.754	88.5
257.987	91.5
258.22	88.5
258.452	90.5
258.685	75.5
258.918	82.5
259.151	66.5
259.383	72.5
259.616	82.5
259.849	71.5
260.081	70.5
260.314	99.5
260.547	77.5
260.779	75.5
261.012	87.5
261.244	86.5
261.477	89.5
261.71	85.5
261.942	90.5
262.175	100.5
262.407	84.5
262.64	95.5
262.872	90.5
263.105	84.5
263.337	77.5
263.57	82.5
263.802	84.5
264.035	87.5
264.267	94.5
264.499	75.5
264.732	75.5
264.964	83.5
265.197	84.5
265.429	94.5
265.661	85.5
265.894	75.5
266.126	75.5
266.358	59.5
266.591	82.5
266.823	86.5
267.055	75.5
267.287	78.5
267.52	71.5
267.752	80.5
267.984	82.5
268.216	83.5
268.448	78.5
268.681	91.5
268.913	82.5
269.145	88.5
269.377	78.5
269.609	80.5
269.841	93.5
270.073	79.5
270.306	79.5
270.538	89.5
270.77	82.5
271.002	91.5
271.234	95.5
271.466	85.5
271.698	70.5
271.93	87.5
272.162	86.5
272.394	97.5
272.626	75.5
272.858	75.5
273.09	96.5
273.322	71.5
273.553	84.5
273.785	78.5
274.017	71.5
274.249	96.5
274.481	83.5
274.713	85.5
274.945	84.5
275.176	91.5
275.408	82.5
275.64	79.5
275.872	80.5
276.104	59.5
276.335	100.5
276.567	98.5
276.799	94.5
277.031	93.5
277.262	85.5
277.494	69.5
277.726	94.5
277.957	90.5
278.189	88.5
278.421	79.5
278.652	80.5
278.884	85.5
279.115	86.5
279.347	89.5
279.579	86.5
279.81	85.5
280.042	82.5
280.273	79.5
280.505	72.5
280.736	91.5
280.968	88.5
281.199	77.5
281.431	88.5
281.662	84.5
281.894	80.5
282.125	97.5
282.356	127.5
282.588	123.5
282.819	96.5
283.051	99.5
283.282	75.5
283.513	93.5
283.745	82.5
283.976	80.5
284.207	80.5
284.439	81.5
284.67	101.5
284.901	92.5
285.132	84.5
285.364	83.5
285.595	82.5
285.826	87.5
286.057	81.5
286.288	83.5
286.52	86.5
286.751	87.5
286.982	84.5
287.213	93.5
287.444	67.5
287.675	90.5
287.906	83.5
288.138	95.5
288.369	104.5
288.6	98.5
288.831	83.5
289.062	91.5
289.293	85.5
289.524	74.5
289.755	91.5
289.986	91.5
290.217	91.5
290.448	90.5
290.679	79.5
290.91	99.5
291.141	84.5
291.371	86.5
291.602	82.5
291.833	82.5
292.064	86.5
292.295	86.5
292.526	94.5
292.757	82.5
292.987	78.5
293.218	95.5
293.449	101.5
293.68	90.5
293.91	81.5
294.141	88.5
294.372	82.5
294.603	76.5
294.833	81.5
295.064	80.5
295.295	94.5
295.525	92.5
295.756	96.5
295.987	91.5
296.217	109.5
296.448	112.5
296.679	71.5
296.909	87.5
297.14	103.5
297.37	113.5
297.601	84.5
297.831	89.5
298.062	92.5
298.292	82.5
298.523	71.5
298.753	78.5
298.984	86.5
299.214	86.5
299.445	91.5
299.675	95.5
299.905	80.5
300.136	84.5
300.366	90.5
300.597	86.5
300.827	105.5
301.057	95.5
301.288	109.5
301.518	97.5
301.748	94.5
301.979	99.5
302.209	66.5
302.439	82.5
302.669	88.5
302.9	87.5
303.13	97.5
303.36	101.5
303.59	87.5
303.82	94.5
304.051	83.5
304.281	91.5
304.511	97.5
304.741	80.5
304.971	103.5
305.201	70.5
305.431	97.5
305.661	88.5
305.891	89.5
306.121	91.5
306.352	99.5
306.582	89.5
306.812	97.5
307.042	106.5
307.272	94.5
307.502	86.5
307.731	91.5
307.961	81.5
308.191	82.5
308.421	83.5
308.651	88.5
308.881	91.5
309.111	83.5
309.341	72.5
309.571	104.5
309.8	96.5
310.03	108.5
310.26	100.5
310.49	94.5
310.72	86.5
310.949	91.5
311.179	102.5
311.409	92.5
311.639	100.5
311.868	100.5
312.098	101.5
312.328	82.5
312.557	99.5
312.787	86.5
313.017	108.5
313.246	93.5
313.476	84.5
313.706	94.5
313.935	74.5
314.165	81.5
314.394	100.5
314.624	86.5
314.853	96.5
315.083	100.5
315.312	94.5
315.542	89.5
315.771	85.5
316.001	80.5
316.23	83.5
316.46	92.5
316.689	75.5
316.919	88.5
317.148	90.5
317.377	97.5
317.607	103.5
317.836	76.5
318.065	72.5
318.295	81.5
318.524	101.5
318.753	80.5
318.983	90.5
319.212	102.5
319.441	94.5
319.67	93.5
319.9	91.5
320.129	100.5
320.358	103.5
320.587	100.5
320.816	82.5
321.046	86.5
321.275	89.5
321.504	87.5
321.733	95.5
321.962	111.5
322.191	94.5
322.42	97.5
322.649	107.5
322.878	95.5
323.108	108.5
323.337	107.5
323.566	106.5
323.795	135.5
324.024	171.5
324.253	334.5
324.482	666.5
324.71	1371.5
324.939	1756.5
325.168	642.5
325.397	207.5
325.626	130.5
325.855	116.5
326.084	127.5
326.313	108.5
326.542	139.5
326.77	198.5
326.999	374.5
327.228	776.5
327.457	1410.5
327.686	1113.5
327.914	306.5
328.143	155.5
328.372	129.5
328.6	113.5
328.829	98.5
329.058	94.5
329.287	101.5
329.515	92.5
329.744	119.5
329.972	91.5
330.201	89.5
330.43	104.5
330.658	107.5
330.887	124.5
331.115	118.5
331.344	97.5
331.572	92.5
331.801	109.5
332.03	98.5
332.258	99.5
332.486	103.5
332.715	97.5
332.943	100.5
333.172	94.5
333.4	103.5
333.629	99.5
333.857	99.5
334.085	106.5
334.314	106.5
334.542	106.5
334.771	86.5
334.999	103.5
335.227	88.5
335.455	105.5
335.684	96.5
335.912	107.5
336.14	106.5
336.369	100.5
336.597	96.5
336.825	98.5
337.053	100.5
337.281	89.5
337.51	100.5
337.738	88.5
337.966	90.5
338.194	97.5
338.422	96.5
338.65	80.5
338.878	87.5
339.106	87.5
339.334	91.5
339.562	97.5
339.79	88.5
340.018	86.5
340.246	82.5
340.474	89.5
340.702	106.5
340.93	87.5
341.158	103.5
341.386	88.5
341.614	87.5
341.842	80.5
342.07	104.5
342.298	102.5
342.526	88.5
342.754	95.5
342.981	85.5
343.209	84.5
343.437	89.5
343.665	104.5
343.893	91.5
344.12	98.5
344.348	88.5
344.576	79.5
344.804	79.5
345.031	95.5
345.259	88.5
345.487	95.5
345.714	88.5
345.942	71.5
346.17	92.5
346.397	87.5
346.625	84.5
346.853	111.5
347.08	92.5
347.308	93.5
347.535	88.5
347.763	99.5
347.99	91.5
348.218	104.5
348.445	90.5
348.673	89.5
348.9	102.5
349.128	92.5
349.355	90.5
349.583	96.5
349.81	105.5
350.037	115.5
350.265	102.5
350.492	87.5
350.72	90.5
350.947	112.5
351.174	99.5
351.402	107.5
351.629	86.5
351.856	88.5
352.083	97.5
352.311	102.5
352.538	95.5
352.765	112.5
352.992	114.5
353.22	109.5
353.447	100.5
353.674	90.5
353.901	94.5
354.128	99.5
354.355	100.5
354.583	87.5
354.81	94.5
355.037	100.5
355.264	99.5
355.491	88.5
355.718	102.5
355.945	86.5
356.172	94.5
356.399	94.5
356.626	97.5
356.853	88.5
357.08	99.5
357.307	91.5
357.534	103.5
357.761	103.5
357.988	114.5
358.215	100.5
358.441	90.5
358.668	82.5
358.895	79.5
359.122	88.5
359.349	101.5
359.576	88.5
359.802	86.5
360.029	101.5
360.256	95.5
360.483	90.5
360.709	94.5
360.936	83.5
361.163	95.5
361.39	85.5
361.616	85.5
361.843	97.5
362.07	90.5
362.296	78.5
362.523	81.5
362.749	87.5
362.976	87.5
363.203	90.5
363.429	104.5
363.656	98.5
363.882	94.5
364.109	83.5
364.335	103.5
364.562	99.5
364.788	88.5
365.015	87.5
365.241	95.5
365.468	106.5
365.694	103.5
365.92	94.5
366.147	101.5
366.373	86.5
366.599	92.5
366.826	89.5
367.052	87.5
367.278	92.5
367.505	85.5
367.731	111.5
367.957	73.5
368.184	99.5
368.41	92.5
368.636	107.5
368.862	91.5
369.089	102.5
369.315	79.5
369.541	92.5
369.767	97.5
369.993	88.5
370.219	87.5
370.445	89.5
370.672	82.5
370.898	86.5
371.124	88.5
371.35	69.5
371.576	95.5
371.802	80.5
372.028	99.5
372.254	101.5
372.48	91.5
372.706	79.5
372.932	86.5
373.158	62.5
373.384	91.5
373.61	98.5
373.835	98.5
374.061	81.5
374.287	95.5
374.513	88.5
374.739	85.5
374.965	93.5
375.191	90.5
375.416	90.5
375.642	87.5
375.868	82.5
376.094	92.5
376.319	102.5
376.545	89.5
376.771	94.5
376.997	98.5
377.222	85.5
377.448	84.5
377.674	90.5
377.899	87.5
378.125	89.5
378.35	95.5
378.576	92.5
378.802	104.5
379.027	92.5
379.253	89.5
379.478	86.5
379.704	88.5
379.929	95.5
380.155	92.5
380.38	98.5
380.606	106.5
380.831	95.5
381.057	104.5
381.282	104.5
381.507	98.5
381.733	86.5
381.958	102.5
382.184	88.5
382.409	110.5
382.634	101.5
382.86	108.5
383.085	113.5
383.31	94.5
383.535	110.5
383.761	91.5
383.986	95.5
384.211	98.5
384.436	95.5
384.662	107.5
384.887	104.5
385.112	107.5
385.337	106.5
385.562	110.5
385.787	106.5
386.013	105.5
386.238	119.5
386.463	112.5
386.688	116.5
386.913	106.5
387.138	105.5
387.363	94.5
387.588	90.5
387.813	111.5
388.038	106.5
388.263	102.5
388.488	110.5
388.713	88.5
388.938	108.5
389.163	100.5
389.387	97.5
389.612	93.5
389.837	86.5
390.062	91.5
390.287	96.5
390.512	95.5
390.736	66.5
390.961	92.5
391.186	93.5
391.411	95.5
391.636	98.5
391.86	95.5
392.085	99.5
392.31	95.5
392.534	83.5
392.759	101.5
392.984	90.5
393.208	82.5
393.433	90.5
393.658	87.5
393.882	91.5
394.107	93.5
394.331	73.5
394.556	88.5
394.78	99.5
395.005	89.5
395.229	76.5
395.454	71.5
395.678	100.5
395.903	91.5
396.127	93.5
396.352	88.5
396.576	83.5
396.801	82.5
397.025	90.5
397.249	91.5
397.474	95.5
397.698	95.5
397.922	84.5
398.147	99.5
398.371	96.5
398.595	91.5
398.82	95.5
399.044	92.5
399.268	82.5
399.492	97.5
399.717	87.5
399.941	83.5
400.165	86.5
400.389	85.5
400.613	74.5
400.837	86.5
401.062	92.5
401.286	73.5
401.51	90.5
401.734	98.5
401.958	88.5
402.182	113.5
402.406	139.5
402.63	122.5
402.854	86.5
403.078	98.5
403.302	94.5
403.526	94.5
403.75	90.5
403.974	85.5
404.198	81.5
404.422	78.5
404.645	66.5
404.869	84.5
405.093	82.5
405.317	104.5
405.541	96.5
405.765	87.5
405.988	96.5
406.212	145.5
406.436	172.5
406.66	128.5
406.883	88.5
407.107	97.5
407.331	91.5
407.555	99.5
407.778	102.5
408.002	85.5
408.226	72.5
408.449	82.5
408.673	88.5
408.896	94.5
409.12	95.5
409.344	94.5
409.567	88.5
409.791	99.5
410.014	93.5
410.238	82.5
410.461	89.5
410.685	87.5
410.908	97.5
411.132	102.5
411.355	86.5
411.578	93.5
411.802	97.5
412.025	85.5
412.249	71.5
412.472	84.5
412.695	85.5
412.919	85.5
413.142	88.5
413.365	71.5
413.589	88.5
413.812	80.5
414.035	79.5
414.258	90.5
414.482	89.5
414.705	92.5
414.928	90.5
415.151	86.5
415.374	97.5
415.597	78.5
415.821	97.5
416.044	94.5
416.267	84.5
416.49	92.5
416.713	88.5
416.936	83.5
417.159	97.5
417.382	92.5
417.605	94.5
417.828	105.5
418.051	99.5
418.274	89.5
418.497	87.5
418.72	94.5
418.943	92.5
419.166	106.5
419.389	89.5
419.611	98.5
419.834	92.5
420.057	104.5
420.28	90.5
420.503	79.5
420.726	86.5
420.948	107.5
421.171	98.5
421.394	98.5
421.617	89.5
421.839	92.5
422.062	74.5
422.285	83.5
422.507	87.5
422.73	98.5
422.953	85.5
423.175	84.5
423.398	92.5
423.621	87.5
423.843	90.5
424.066	86.5
424.288	88.5
424.511	92.5
424.733	106.5
424.956	88.5
425.178	90.5
425.401	100.5
425.623	104.5
425.846	79.5
426.068	89.5
426.291	79.5
426.513	92.5
426.735	80.5
426.958	90.5
427.18	92.5
427.402	130.5
427.625	136.5
427.847	113.5
428.069	93.5
428.292	84.5
428.514	93.5
428.736	85.5
428.958	85.5
429.181	76.5
429.403	95.5
429.625	80.5
429.847	98.5
430.069	97.5
430.292	100.5
430.514	87.5
430.736	91.5
430.958	91.5
431.18	82.5
431.402	96.5
431.624	92.5
431.846	95.5
432.068	88.5
432.29	71.5
432.512	88.5
432.734	92.5
432.956	106.5
433.178	103.5
433.4	108.5
433.622	94.5
433.844	100.5
434.066	92.5
434.287	82.5
434.509	95.5
434.731	91.5
434.953	83.5
435.175	86.5
435.397	91.5
435.618	88.5
435.84	99.5
436.062	105.5
436.284	104.5
436.505	92.5
436.727	86.5
436.949	95.5
437.17	86.5
437.392	92.5
437.614	91.5
437.835	99.5
438.057	113.5
438.278	110.5
438.5	88.5
438.721	118.5
438.943	100.5
439.165	87.5
439.386	91.5
439.608	84.5
439.829	88.5
440.05	121.5
440.272	130.5
440.493	88.5
440.715	88.5
440.936	78.5
441.158	99.5
441.379	96.5
441.6	92.5
441.822	96.5
442.043	92.5
442.264	92.5
442.486	87.5
442.707	96.5
442.928	110.5
443.149	120.5
443.371	118.5
443.592	99.5
443.813	99.5
444.034	91.5
444.255	87.5
444.476	84.5
444.698	97.5
444.919	87.5
445.14	131.5
445.361	114.5
445.582	102.5
445.803	123.5
446.024	118.5
446.245	109.5
446.466	99.5
446.687	81.5
446.908	95.5
447.129	82.5
447.35	84.5
447.571	97.5
447.792	92.5
448.013	72.5
448.234	102.5
448.455	89.5
448.675	100.5
448.896	116.5
449.117	86.5
449.338	102.5
449.559	112.5
449.779	121.5
450	86.5
450.221	82.5
450.442	90.5
450.662	91.5
450.883	89.5
451.104	97.5
451.324	88.5
451.545	90.5
451.766	71.5
451.986	75.5
452.207	73.5
452.428	80.5
452.648	103.5
452.869	116.5
453.089	96.5
453.31	110.5
453.53	85.5
453.751	88.5
453.971	99.5
454.192	96.5
454.412	89.5
454.633	90.5
454.853	86.5
455.073	87.5
455.294	82.5
455.514	88.5
455.734	90.5
455.955	64.5
456.175	84.5
456.395	74.5
456.616	76.5
456.836	80.5
457.056	81.5
457.276	72.5
457.497	82.5
457.717	64.5
457.937	85.5
458.157	81.5
458.377	89.5
458.598	99.5
458.818	117.5
459.038	133.5
459.258	104.5
459.478	77.5
459.698	84.5
459.918	91.5
460.138	106.5
460.358	83.5
460.578	91.5
460.798	95.5
461.018	78.5
461.238	82.5
461.458	80.5
461.678	86.5
461.898	87.5
462.118	80.5
462.338	77.5
462.558	78.5
462.777	82.5
462.997	82.5
463.217	87.5
463.437	87.5
463.657	88.5
463.876	107.5
464.096	86.5
464.316	87.5
464.536	110.5
464.755	91.5
464.975	117.5
465.195	117.5
465.414	124.5
465.634	87.5
465.854	97.5
466.073	96.5
466.293	75.5
466.512	83.5
466.732	88.5
466.951	94.5
467.171	97.5
467.391	82.5
467.61	85.5
467.829	86.5
468.049	98.5
468.268	88.5
468.488	102.5
468.707	95.5
468.927	91.5
469.146	92.5
469.365	90.5
469.585	80.5
469.804	106.5
470.023	114.5
470.243	90.5
470.462	94.5
470.681	99.5
470.901	86.5
471.12	106.5
471.339	83.5
471.558	73.5
471.777	98.5
471.997	81.5
472.216	85.5
472.435	98.5
472.654	94.5
472.873	79.5
473.092	94.5
473.311	87.5
473.53	79.5
473.749	91.5
473.968	76.5
474.187	94.5
474.406	95.5
474.625	95.5
474.844	90.5
475.063	83.5
475.282	88.5
475.501	82.5
475.72	86.5
475.939	89.5
476.158	88.5
476.377	91.5
476.596	80.5
476.814	96.5
477.033	88.5
477.252	94.5
477.471	87.5
477.69	98.5
477.908	92.5
478.127	75.5
478.346	78.5
478.564	91.5
478.783	80.5
479.002	85.5
479.22	84.5
479.439	94.5
479.658	86.5
479.876	82.5
480.095	75.5
480.313	82.5
480.532	92.5
480.751	87.5
480.969	93.5
481.188	99.5
481.406	100.5
481.624	83.5
481.843	87.5
482.061	86.5
482.28	86.5
482.498	71.5
482.717	97.5
482.935	86.5
483.153	84.5
483.372	85.5
483.59	80.5
483.808	74.5
484.027	75.5
484.245	94.5
484.463	82.5
484.681	110.5
484.9	97.5
485.118	78.5
485.336	87.5
485.554	89.5
485.772	113.5
485.99	98.5
486.209	117.5
486.427	88.5
486.645	107.5
486.863	111.5
487.081	90.5
487.299	88.5
487.517	83.5
487.735	81.5
487.953	103.5
488.171	102.5
488.389	99.5
488.607	86.5
488.825	96.5
489.043	80.5
489.261	79.5
489.479	92.5
489.696	108.5
489.914	85.5
490.132	84.5
490.35	96.5
490.568	86.5
490.786	84.5
491.003	85.5
491.221	99.5
491.439	87.5
491.657	86.5
491.874	96.5
492.092	98.5
492.31	78.5
492.527	88.5
492.745	93.5
492.963	95.5
493.18	96.5
493.398	92.5
493.615	97.5
493.833	104.5
494.05	72.5
494.268	103.5
494.485	85.5
494.703	96.5
494.92	74.5
495.138	91.5
495.355	100.5
495.573	93.5
495.79	79.5
496.008	88.5
496.225	100.5
496.442	97.5
496.66	90.5
496.877	85.5
497.094	90.5
497.312	94.5
497.529	90.5
497.746	80.5
497.963	96.5
498.181	95.5
498.398	87.5
498.615	98.5
498.832	97.5
499.049	86.5
499.267	87.5
499.484	98.5
499.701	93.5
499.918	94.5
500.135	96.5
500.352	87.5
500.569	92.5
500.786	84.5
501.003	99.5
501.22	88.5
501.437	81.5
501.654	93.5
501.871	113.5
502.088	82.5
502.305	99.5
502.522	81.5
502.739	82.5
502.956	87.5
503.172	89.5
503.389	89.5
503.606	104.5
503.823	102.5
504.04	88.5
504.256	98.5
504.473	73.5
504.69	82.5
504.907	86.5
505.123	100.5
505.34	94.5
505.557	90.5
505.773	94.5
505.99	86.5
506.207	78.5
506.423	84.5
506.64	85.5
506.856	88.5
507.073	99.5
507.289	91.5
507.506	71.5
507.722	90.5
507.939	91.5
508.155	92.5
508.372	91.5
508.588	89.5
508.805	86.5
509.021	89.5
509.238	104.5
509.454	101.5
509.67	97.5
509.887	103.5
510.103	104.5
510.319	197.5
510.536	586.5
510.752	1704.5
510.968	491.5
511.184	142.5
511.401	102.5
511.617	83.5
511.833	90.5
512.049	86.5
512.265	84.5
512.481	99.5
512.698	75.5
512.914	99.5
513.13	88.5
513.346	92.5
513.562	90.5
513.778	99.5
513.994	86.5
514.21	100.5
514.426	101.5
514.642	129.5
514.858	116.5
515.074	133.5
515.29	327.5
515.506	974.5
515.721	380.5
515.937	125.5
516.153	92.5
516.369	91.5
516.585	90.5
516.801	84.5
517.016	104.5
517.232	83.5
517.448	91.5
517.664	92.5
517.879	91.5
518.095	80.5
518.311	88.5
518.527	97.5
518.742	80.5
518.958	92.5
519.173	87.5
519.389	98.5
519.605	95.5
519.82	94.5
520.036	96.5
520.251	103.5
520.467	101.5
520.682	86.5
520.898	90.5
521.113	101.5
521.329	118.5
521.544	183.5
521.76	400.5
521.975	1582.5
522.19	952.5
522.406	222.5
522.621	102.5
522.836	93.5
523.052	98.5
523.267	87.5
523.482	86.5
523.698	97.5
523.913	106.5
524.128	97.5
524.343	93.5
524.559	95.5
524.774	81.5
524.989	80.5
525.204	91.5
525.419	92.5
525.634	82.5
525.849	82.5
526.064	86.5
526.28	82.5
526.495	79.5
526.71	91.5
526.925	91.5
527.14	82.5
527.355	86.5
527.57	106.5
527.785	88.5
527.999	82.5
528.214	92.5
528.429	98.5
528.644	100.5
528.859	92.5
529.074	100.5
529.289	118.5
529.503	152.5
529.718	108.5
529.933	99.5
530.148	99.5
530.363	93.5
530.577	83.5
530.792	82.5
531.007	84.5
531.221	98.5
531.436	91.5
531.651	83.5
531.865	94.5
532.08	104.5
532.295	96.5
532.509	105.5
532.724	98.5
532.938	88.5
533.153	84.5
533.367	73.5
533.582	77.5
533.796	80.5
534.011	89.5
534.225	99.5
534.44	91.5
534.654	92.5
534.868	99.5
535.083	99.5
535.297	99.5
535.511	94.5
535.726	95.5
535.94	85.5
536.154	104.5
536.369	97.5
