Data from Uncirc_1985_H10_HRD10591_00077.txt Node
Date: Wed Jan 03 12:18:32 EST 2024
User: Yrep
Spectrometer: HR+D1059
Trigger mode: 1
Integration Time (sec): 1.000000E-1
Scans to average: 1
Electric dark correction enabled: true
Nonlinearity correction enabled: false
Boxcar width: 0
XAxis mode: Wavelengths
Number of Pixels in Spectrum: 2048
>>>>>Begin Spectral Data<<<<<
223.165	-30.38
223.4	-30.38
223.635	-30.38
223.869	-23.38
224.104	-18.38
224.338	-21.38
224.573	-15.38
224.808	-1.38
225.042	-10.38
225.277	-0.38
225.511	0.62
225.746	2.62
225.98	7.62
226.215	13.62
226.449	4.62
226.683	20.62
226.918	36.62
227.152	34.62
227.387	23.62
227.621	28.62
227.856	30.62
228.09	41.62
228.324	38.62
228.559	50.62
228.793	57.62
229.027	52.62
229.262	72.62
229.496	60.62
229.73	76.62
229.964	77.62
230.199	53.62
230.433	60.62
230.667	60.62
230.901	80.62
231.136	78.62
231.37	70.62
231.604	81.62
231.838	83.62
232.072	83.62
232.306	81.62
232.541	85.62
232.775	63.62
233.009	83.62
233.243	74.62
233.477	74.62
233.711	81.62
233.945	74.62
234.179	67.62
234.413	75.62
234.647	85.62
234.881	79.62
235.115	70.62
235.349	63.62
235.583	76.62
235.817	70.62
236.051	76.62
236.285	72.62
236.519	81.62
236.753	70.62
236.987	71.62
237.221	74.62
237.455	88.62
237.689	69.62
237.922	84.62
238.156	56.62
238.39	71.62
238.624	81.62
238.858	68.62
239.091	77.62
239.325	74.62
239.559	80.62
239.793	70.62
240.027	74.62
240.26	76.62
240.494	62.62
240.728	65.62
240.961	75.62
241.195	71.62
241.429	68.62
241.662	70.62
241.896	57.62
242.13	61.62
242.363	72.62
242.597	84.62
242.83	76.62
243.064	82.62
243.298	70.62
243.531	73.62
243.765	62.62
243.998	87.62
244.232	83.62
244.465	86.62
244.699	63.62
244.932	73.62
245.166	53.62
245.399	78.62
245.633	54.62
245.866	71.62
246.099	71.62
246.333	63.62
246.566	54.62
246.8	71.62
247.033	82.62
247.266	77.62
247.5	76.62
247.733	87.62
247.966	74.62
248.2	72.62
248.433	62.62
248.666	62.62
248.899	75.62
249.133	84.62
249.366	90.62
249.599	76.62
249.832	78.62
250.066	94.62
250.299	65.62
250.532	79.62
250.765	70.62
250.998	76.62
251.231	80.62
251.465	80.62
251.698	84.62
251.931	70.62
252.164	70.62
252.397	77.62
252.63	63.62
252.863	75.62
253.096	80.62
253.329	76.62
253.562	81.62
253.795	78.62
254.028	74.62
254.261	72.62
254.494	78.62
254.727	81.62
254.96	98.62
255.193	71.62
255.426	90.62
255.659	77.62
255.892	70.62
256.124	66.62
256.357	86.62
256.59	83.62
256.823	75.62
257.056	86.62
257.289	78.62
257.521	77.62
257.754	75.62
257.987	80.62
258.22	71.62
258.452	67.62
258.685	69.62
258.918	88.62
259.151	88.62
259.383	85.62
259.616	77.62
259.849	74.62
260.081	81.62
260.314	66.62
260.547	75.62
260.779	73.62
261.012	67.62
261.244	77.62
261.477	90.62
261.71	71.62
261.942	105.62
262.175	110.62
262.407	76.62
262.64	83.62
262.872	77.62
263.105	77.62
263.337	83.62
263.57	66.62
263.802	81.62
264.035	74.62
264.267	94.62
264.499	77.62
264.732	80.62
264.964	81.62
265.197	76.62
265.429	84.62
265.661	72.62
265.894	77.62
266.126	82.62
266.358	83.62
266.591	86.62
266.823	78.62
267.055	79.62
267.287	85.62
267.52	94.62
267.752	92.62
267.984	80.62
268.216	76.62
268.448	82.62
268.681	69.62
268.913	80.62
269.145	82.62
269.377	92.62
269.609	82.62
269.841	80.62
270.073	76.62
270.306	82.62
270.538	78.62
270.77	76.62
271.002	90.62
271.234	80.62
271.466	95.62
271.698	81.62
271.93	102.62
272.162	81.62
272.394	74.62
272.626	94.62
272.858	80.62
273.09	82.62
273.322	78.62
273.553	69.62
273.785	83.62
274.017	67.62
274.249	72.62
274.481	70.62
274.713	79.62
274.945	85.62
275.176	68.62
275.408	82.62
275.64	92.62
275.872	70.62
276.104	91.62
276.335	92.62
276.567	90.62
276.799	91.62
277.031	109.62
277.262	94.62
277.494	94.62
277.726	81.62
277.957	84.62
278.189	74.62
278.421	71.62
278.652	69.62
278.884	75.62
279.115	84.62
279.347	84.62
279.579	85.62
279.81	85.62
280.042	71.62
280.273	86.62
280.505	81.62
280.736	82.62
280.968	95.62
281.199	91.62
281.431	83.62
281.662	80.62
281.894	88.62
282.125	83.62
282.356	113.62
282.588	131.62
282.819	89.62
283.051	90.62
283.282	82.62
283.513	84.62
283.745	79.62
283.976	68.62
284.207	90.62
284.439	92.62
284.67	71.62
284.901	77.62
285.132	84.62
285.364	84.62
285.595	77.62
285.826	92.62
286.057	81.62
286.288	74.62
286.52	79.62
286.751	82.62
286.982	66.62
287.213	79.62
287.444	74.62
287.675	82.62
287.906	93.62
288.138	87.62
288.369	72.62
288.6	79.62
288.831	100.62
289.062	84.62
289.293	85.62
289.524	76.62
289.755	87.62
289.986	67.62
290.217	80.62
290.448	91.62
290.679	83.62
290.91	98.62
291.141	70.62
291.371	85.62
291.602	75.62
291.833	87.62
292.064	86.62
292.295	91.62
292.526	80.62
292.757	69.62
292.987	91.62
293.218	81.62
293.449	88.62
293.68	78.62
293.91	79.62
294.141	89.62
294.372	77.62
294.603	92.62
294.833	99.62
295.064	78.62
295.295	86.62
295.525	91.62
295.756	101.62
295.987	118.62
296.217	131.62
296.448	113.62
296.679	86.62
296.909	70.62
297.14	81.62
297.37	90.62
297.601	80.62
297.831	92.62
298.062	94.62
298.292	85.62
298.523	93.62
298.753	82.62
298.984	79.62
299.214	92.62
299.445	83.62
299.675	93.62
299.905	100.62
300.136	100.62
300.366	80.62
300.597	87.62
300.827	95.62
301.057	72.62
301.288	93.62
301.518	92.62
301.748	91.62
301.979	81.62
302.209	82.62
302.439	84.62
302.669	96.62
302.9	96.62
303.13	71.62
303.36	88.62
303.59	88.62
303.82	100.62
304.051	99.62
304.281	85.62
304.511	74.62
304.741	94.62
304.971	78.62
305.201	95.62
305.431	90.62
305.661	81.62
305.891	99.62
306.121	89.62
306.352	97.62
306.582	82.62
306.812	88.62
307.042	91.62
307.272	91.62
307.502	90.62
307.731	97.62
307.961	77.62
308.191	81.62
308.421	94.62
308.651	76.62
308.881	100.62
309.111	84.62
309.341	88.62
309.571	105.62
309.8	83.62
310.03	96.62
310.26	101.62
310.49	97.62
310.72	93.62
310.949	98.62
311.179	104.62
311.409	89.62
311.639	90.62
311.868	91.62
312.098	106.62
312.328	88.62
312.557	90.62
312.787	85.62
313.017	83.62
313.246	93.62
313.476	87.62
313.706	94.62
313.935	90.62
314.165	98.62
314.394	83.62
314.624	88.62
314.853	99.62
315.083	92.62
315.312	84.62
315.542	88.62
315.771	101.62
316.001	86.62
316.23	104.62
316.46	90.62
316.689	82.62
316.919	88.62
317.148	106.62
317.377	94.62
317.607	90.62
317.836	87.62
318.065	84.62
318.295	65.62
318.524	96.62
318.753	87.62
318.983	94.62
319.212	94.62
319.441	94.62
319.67	91.62
319.9	84.62
320.129	107.62
320.358	94.62
320.587	96.62
320.816	103.62
321.046	101.62
321.275	88.62
321.504	90.62
321.733	104.62
321.962	98.62
322.191	112.62
322.42	95.62
322.649	94.62
322.878	108.62
323.108	111.62
323.337	127.62
323.566	136.62
323.795	159.62
324.024	172.62
324.253	333.62
324.482	733.62
324.71	1512.62
324.939	1979.62
325.168	733.62
325.397	210.62
325.626	145.62
325.855	128.62
326.084	108.62
326.313	128.62
326.542	151.62
326.77	219.62
326.999	397.62
327.228	819.62
327.457	1527.62
327.686	1236.62
327.914	330.62
328.143	189.62
328.372	156.62
328.6	127.62
328.829	104.62
329.058	123.62
329.287	128.62
329.515	99.62
329.744	97.62
329.972	103.62
330.201	138.62
330.43	142.62
330.658	124.62
330.887	133.62
331.115	110.62
331.344	100.62
331.572	106.62
331.801	100.62
332.03	94.62
332.258	105.62
332.486	94.62
332.715	84.62
332.943	83.62
333.172	100.62
333.4	92.62
333.629	100.62
333.857	109.62
334.085	106.62
334.314	121.62
334.542	166.62
334.771	174.62
334.999	106.62
335.227	96.62
335.455	90.62
335.684	109.62
335.912	103.62
336.14	94.62
336.369	83.62
336.597	93.62
336.825	103.62
337.053	100.62
337.281	80.62
337.51	92.62
337.738	90.62
337.966	90.62
338.194	89.62
338.422	91.62
338.65	94.62
338.878	90.62
339.106	80.62
339.334	77.62
339.562	80.62
339.79	85.62
340.018	92.62
340.246	73.62
340.474	82.62
340.702	102.62
340.93	96.62
341.158	91.62
341.386	107.62
341.614	85.62
341.842	82.62
342.07	92.62
342.298	80.62
342.526	87.62
342.754	99.62
342.981	91.62
343.209	84.62
343.437	90.62
343.665	88.62
343.893	98.62
344.12	76.62
344.348	83.62
344.576	88.62
344.804	83.62
345.031	87.62
345.259	96.62
345.487	106.62
345.714	80.62
345.942	92.62
346.17	82.62
346.397	90.62
346.625	106.62
346.853	82.62
347.08	91.62
347.308	85.62
347.535	95.62
347.763	85.62
347.99	98.62
348.218	95.62
348.445	94.62
348.673	89.62
348.9	79.62
349.128	100.62
349.355	100.62
349.583	69.62
349.81	101.62
350.037	98.62
350.265	83.62
350.492	93.62
350.72	79.62
350.947	98.62
351.174	109.62
351.402	105.62
351.629	80.62
351.856	86.62
352.083	98.62
352.311	96.62
352.538	94.62
352.765	96.62
352.992	104.62
353.22	99.62
353.447	94.62
353.674	102.62
353.901	83.62
354.128	82.62
354.355	85.62
354.583	90.62
354.81	95.62
355.037	101.62
355.264	94.62
355.491	90.62
355.718	88.62
355.945	86.62
356.172	97.62
356.399	96.62
356.626	102.62
356.853	98.62
357.08	80.62
357.307	91.62
357.534	87.62
357.761	88.62
357.988	94.62
358.215	96.62
358.441	90.62
358.668	78.62
358.895	74.62
359.122	90.62
359.349	83.62
359.576	70.62
359.802	97.62
360.029	88.62
360.256	105.62
360.483	86.62
360.709	81.62
360.936	94.62
361.163	94.62
361.39	84.62
361.616	92.62
361.843	87.62
362.07	82.62
362.296	101.62
362.523	77.62
362.749	82.62
362.976	83.62
363.203	91.62
363.429	67.62
363.656	78.62
363.882	70.62
364.109	101.62
364.335	81.62
364.562	66.62
364.788	78.62
365.015	97.62
365.241	102.62
365.468	110.62
365.694	108.62
365.92	94.62
366.147	88.62
366.373	98.62
366.599	94.62
366.826	82.62
367.052	92.62
367.278	84.62
367.505	80.62
367.731	100.62
367.957	87.62
368.184	74.62
368.41	99.62
368.636	99.62
368.862	109.62
369.089	98.62
369.315	83.62
369.541	80.62
369.767	90.62
369.993	81.62
370.219	90.62
370.445	86.62
370.672	82.62
370.898	72.62
371.124	90.62
371.35	90.62
371.576	70.62
371.802	66.62
372.028	82.62
372.254	90.62
372.48	76.62
372.706	77.62
372.932	91.62
373.158	82.62
373.384	84.62
373.61	87.62
373.835	82.62
374.061	82.62
374.287	93.62
374.513	87.62
374.739	86.62
374.965	85.62
375.191	80.62
375.416	86.62
375.642	85.62
375.868	96.62
376.094	86.62
376.319	104.62
376.545	80.62
376.771	97.62
376.997	86.62
377.222	69.62
377.448	91.62
377.674	89.62
377.899	92.62
378.125	96.62
378.35	96.62
378.576	91.62
378.802	76.62
379.027	85.62
379.253	78.62
379.478	93.62
379.704	80.62
379.929	83.62
380.155	93.62
380.38	93.62
380.606	94.62
380.831	93.62
381.057	100.62
381.282	85.62
381.507	85.62
381.733	92.62
381.958	96.62
382.184	92.62
382.409	93.62
382.634	92.62
382.86	97.62
383.085	91.62
383.31	97.62
383.535	107.62
383.761	91.62
383.986	95.62
384.211	88.62
384.436	80.62
384.662	78.62
384.887	102.62
385.112	93.62
385.337	95.62
385.562	101.62
385.787	97.62
386.013	114.62
386.238	99.62
386.463	93.62
386.688	95.62
386.913	86.62
387.138	103.62
387.363	85.62
387.588	98.62
387.813	85.62
388.038	82.62
388.263	98.62
388.488	79.62
388.713	85.62
388.938	88.62
389.163	86.62
389.387	78.62
389.612	79.62
389.837	83.62
390.062	88.62
390.287	101.62
390.512	84.62
390.736	77.62
390.961	78.62
391.186	100.62
391.411	88.62
391.636	78.62
391.86	87.62
392.085	84.62
392.31	80.62
392.534	83.62
392.759	71.62
392.984	87.62
393.208	82.62
393.433	71.62
393.658	70.62
393.882	83.62
394.107	92.62
394.331	88.62
394.556	80.62
394.78	84.62
395.005	80.62
395.229	91.62
395.454	79.62
395.678	76.62
395.903	76.62
396.127	85.62
396.352	83.62
396.576	87.62
396.801	71.62
397.025	69.62
397.249	83.62
397.474	84.62
397.698	79.62
397.922	86.62
398.147	83.62
398.371	81.62
398.595	78.62
398.82	87.62
399.044	70.62
399.268	90.62
399.492	78.62
399.717	80.62
399.941	91.62
400.165	82.62
400.389	93.62
400.613	87.62
400.837	88.62
401.062	83.62
401.286	75.62
401.51	70.62
401.734	78.62
401.958	90.62
402.182	110.62
402.406	125.62
402.63	103.62
402.854	95.62
403.078	80.62
403.302	86.62
403.526	80.62
403.75	70.62
403.974	80.62
404.198	83.62
404.422	79.62
404.645	91.62
404.869	89.62
405.093	93.62
405.317	83.62
405.541	99.62
405.765	104.62
405.988	123.62
406.212	150.62
406.436	220.62
406.66	140.62
406.883	90.62
407.107	79.62
407.331	92.62
407.555	86.62
407.778	94.62
408.002	82.62
408.226	79.62
408.449	82.62
408.673	90.62
408.896	92.62
409.12	74.62
409.344	72.62
409.567	84.62
409.791	80.62
410.014	85.62
410.238	92.62
410.461	70.62
410.685	82.62
410.908	67.62
411.132	93.62
411.355	92.62
411.578	98.62
411.802	92.62
412.025	90.62
412.249	78.62
412.472	74.62
412.695	101.62
412.919	78.62
413.142	80.62
413.365	87.62
413.589	85.62
413.812	100.62
414.035	88.62
414.258	111.62
414.482	98.62
414.705	86.62
414.928	86.62
415.151	98.62
415.374	86.62
415.597	81.62
415.821	83.62
416.044	78.62
416.267	86.62
416.49	69.62
416.713	80.62
416.936	83.62
417.159	81.62
417.382	85.62
417.605	81.62
417.828	83.62
418.051	85.62
418.274	80.62
418.497	82.62
418.72	68.62
418.943	81.62
419.166	90.62
419.389	69.62
419.611	80.62
419.834	88.62
420.057	79.62
420.28	86.62
420.503	87.62
420.726	76.62
420.948	78.62
421.171	99.62
421.394	80.62
421.617	77.62
421.839	84.62
422.062	96.62
422.285	93.62
422.507	82.62
422.73	91.62
422.953	95.62
423.175	94.62
423.398	76.62
423.621	81.62
423.843	92.62
424.066	74.62
424.288	97.62
424.511	93.62
424.733	78.62
424.956	93.62
425.178	83.62
425.401	93.62
425.623	81.62
425.846	91.62
426.068	76.62
426.291	82.62
426.513	83.62
426.735	89.62
426.958	80.62
427.18	93.62
427.402	123.62
427.625	130.62
427.847	131.62
428.069	112.62
428.292	102.62
428.514	96.62
428.736	82.62
428.958	78.62
429.181	95.62
429.403	84.62
429.625	87.62
429.847	97.62
430.069	88.62
430.292	99.62
430.514	78.62
430.736	97.62
430.958	104.62
431.18	95.62
431.402	83.62
431.624	81.62
431.846	75.62
432.068	83.62
432.29	82.62
432.512	66.62
432.734	64.62
432.956	91.62
433.178	95.62
433.4	106.62
433.622	87.62
433.844	96.62
434.066	84.62
434.287	87.62
434.509	93.62
434.731	79.62
434.953	80.62
435.175	73.62
435.397	74.62
435.618	79.62
435.84	87.62
436.062	104.62
436.284	113.62
436.505	92.62
436.727	102.62
436.949	94.62
437.17	80.62
437.392	94.62
437.614	94.62
437.835	91.62
438.057	106.62
438.278	92.62
438.5	102.62
438.721	112.62
438.943	98.62
439.165	98.62
439.386	83.62
439.608	91.62
439.829	83.62
440.05	107.62
440.272	108.62
440.493	99.62
440.715	76.62
440.936	84.62
441.158	77.62
441.379	84.62
441.6	76.62
441.822	91.62
442.043	80.62
442.264	98.62
442.486	79.62
442.707	84.62
442.928	93.62
443.149	122.62
443.371	116.62
443.592	101.62
443.813	94.62
444.034	99.62
444.255	93.62
444.476	77.62
444.698	89.62
444.919	80.62
445.14	122.62
445.361	119.62
445.582	104.62
445.803	133.62
446.024	123.62
446.245	109.62
446.466	90.62
446.687	78.62
446.908	81.62
447.129	80.62
447.35	67.62
447.571	86.62
447.792	98.62
448.013	93.62
448.234	98.62
448.455	81.62
448.675	107.62
448.896	102.62
449.117	101.62
449.338	96.62
449.559	106.62
449.779	113.62
450	84.62
450.221	63.62
450.442	82.62
450.662	86.62
450.883	87.62
451.104	90.62
451.324	102.62
451.545	76.62
451.766	91.62
451.986	77.62
452.207	87.62
452.428	103.62
452.648	110.62
452.869	106.62
453.089	107.62
453.31	118.62
453.53	95.62
453.751	83.62
453.971	101.62
454.192	94.62
454.412	85.62
454.633	89.62
454.853	88.62
455.073	81.62
455.294	100.62
455.514	87.62
455.734	85.62
455.955	71.62
456.175	82.62
456.395	76.62
456.616	84.62
456.836	75.62
457.056	66.62
457.276	87.62
457.497	91.62
457.717	85.62
457.937	81.62
458.157	79.62
458.377	89.62
458.598	88.62
458.818	123.62
459.038	129.62
459.258	99.62
459.478	85.62
459.698	76.62
459.918	79.62
460.138	91.62
460.358	70.62
460.578	85.62
460.798	84.62
461.018	85.62
461.238	99.62
461.458	80.62
461.678	79.62
461.898	63.62
462.118	84.62
462.338	78.62
462.558	82.62
462.777	85.62
462.997	78.62
463.217	83.62
463.437	91.62
463.657	76.62
463.876	83.62
464.096	78.62
464.316	93.62
464.536	111.62
464.755	84.62
464.975	96.62
465.195	133.62
465.414	131.62
465.634	95.62
465.854	79.62
466.073	69.62
466.293	75.62
466.512	72.62
466.732	92.62
466.951	91.62
467.171	93.62
467.391	80.62
467.61	82.62
467.829	82.62
468.049	94.62
468.268	105.62
468.488	78.62
468.707	79.62
468.927	74.62
469.146	76.62
469.365	82.62
469.585	79.62
469.804	95.62
470.023	82.62
470.243	89.62
470.462	106.62
470.681	105.62
470.901	87.62
471.12	76.62
471.339	88.62
471.558	82.62
471.777	74.62
471.997	92.62
472.216	150.62
472.435	183.62
472.654	109.62
472.873	77.62
473.092	76.62
473.311	94.62
473.53	94.62
473.749	93.62
473.968	87.62
474.187	84.62
474.406	87.62
474.625	82.62
474.844	83.62
475.063	83.62
475.282	95.62
475.501	70.62
475.72	90.62
475.939	78.62
476.158	84.62
476.377	80.62
476.596	98.62
476.814	87.62
477.033	96.62
477.252	82.62
477.471	90.62
477.69	102.62
477.908	86.62
478.127	88.62
478.346	85.62
478.564	92.62
478.783	84.62
479.002	85.62
479.22	95.62
479.439	83.62
479.658	92.62
479.876	83.62
480.095	90.62
480.313	94.62
480.532	85.62
480.751	94.62
480.969	133.62
481.188	276.62
481.406	190.62
481.624	80.62
481.843	95.62
482.061	84.62
482.28	80.62
482.498	80.62
482.717	88.62
482.935	92.62
483.153	74.62
483.372	70.62
483.59	103.62
483.808	97.62
484.027	76.62
484.245	87.62
484.463	93.62
484.681	86.62
484.9	82.62
485.118	97.62
485.336	105.62
485.554	94.62
485.772	100.62
485.99	101.62
486.209	96.62
486.427	98.62
486.645	86.62
486.863	102.62
487.081	90.62
487.299	87.62
487.517	83.62
487.735	84.62
487.953	91.62
488.171	96.62
488.389	88.62
488.607	78.62
488.825	77.62
489.043	86.62
489.261	86.62
489.479	93.62
489.696	87.62
489.914	94.62
490.132	74.62
490.35	83.62
490.568	79.62
490.786	83.62
491.003	80.62
491.221	90.62
491.439	87.62
491.657	87.62
491.874	77.62
492.092	87.62
492.31	86.62
492.527	83.62
492.745	68.62
492.963	85.62
493.18	91.62
493.398	88.62
493.615	85.62
493.833	82.62
494.05	87.62
494.268	94.62
494.485	92.62
494.703	86.62
494.92	73.62
495.138	84.62
495.355	89.62
495.573	90.62
495.79	90.62
496.008	82.62
496.225	87.62
496.442	86.62
496.66	83.62
496.877	84.62
497.094	97.62
497.312	84.62
497.529	93.62
497.746	85.62
497.963	75.62
498.181	87.62
498.398	89.62
498.615	91.62
498.832	97.62
499.049	98.62
499.267	80.62
499.484	86.62
499.701	76.62
499.918	94.62
500.135	81.62
500.352	82.62
500.569	88.62
500.786	85.62
501.003	87.62
501.22	87.62
501.437	94.62
501.654	88.62
501.871	103.62
502.088	94.62
502.305	87.62
502.522	101.62
502.739	95.62
502.956	84.62
503.172	98.62
503.389	74.62
503.606	89.62
503.823	91.62
504.04	87.62
504.256	95.62
504.473	87.62
504.69	88.62
504.907	84.62
505.123	87.62
505.34	95.62
505.557	98.62
505.773	84.62
505.99	84.62
506.207	91.62
506.423	94.62
506.64	79.62
506.856	81.62
507.073	80.62
507.289	84.62
507.506	90.62
507.722	100.62
507.939	96.62
508.155	90.62
508.372	85.62
508.588	93.62
508.805	78.62
509.021	86.62
509.238	77.62
509.454	84.62
509.67	84.62
509.887	93.62
510.103	107.62
510.319	205.62
510.536	718.62
510.752	2240.62
510.968	630.62
511.184	139.62
511.401	110.62
511.617	104.62
511.833	90.62
512.049	84.62
512.265	86.62
512.481	94.62
512.698	84.62
512.914	84.62
513.13	72.62
513.346	90.62
513.562	90.62
513.778	81.62
513.994	83.62
514.21	90.62
514.426	123.62
514.642	131.62
514.858	111.62
515.074	143.62
515.29	421.62
515.506	1323.62
515.721	480.62
515.937	135.62
516.153	102.62
516.369	99.62
516.585	91.62
516.801	104.62
517.016	92.62
517.232	90.62
