Data from Uncirc_1985_H10_HRD10591_00047.txt Node
Date: Wed Jan 03 12:18:26 EST 2024
User: Yrep
Spectrometer: HR+D1059
Trigger mode: 1
Integration Time (sec): 1.000000E-1
Scans to average: 1
Electric dark correction enabled: true
Nonlinearity correction enabled: false
Boxcar width: 0
XAxis mode: Wavelengths
Number of Pixels in Spectrum: 2048
>>>>>Begin Spectral Data<<<<<
223.165	-34.06
223.4	-34.06
223.635	-34.06
223.869	-19.06
224.104	-20.06
224.338	-14.06
224.573	-11.06
224.808	-8.06
225.042	-5.06
225.277	1.94
225.511	1.94
225.746	-2.06
225.98	2.94
226.215	21.94
226.449	2.94
226.683	25.94
226.918	22.94
227.152	32.94
227.387	32.94
227.621	61.94
227.856	32.94
228.09	50.94
228.324	57.94
228.559	45.94
228.793	61.94
229.027	61.94
229.262	72.94
229.496	72.94
229.73	99.94
229.964	86.94
230.199	68.94
230.433	72.94
230.667	86.94
230.901	79.94
231.136	80.94
231.37	74.94
231.604	89.94
231.838	76.94
232.072	86.94
232.306	84.94
232.541	80.94
232.775	78.94
233.009	80.94
233.243	88.94
233.477	94.94
233.711	76.94
233.945	93.94
234.179	82.94
234.413	75.94
234.647	77.94
234.881	87.94
235.115	84.94
235.349	90.94
235.583	77.94
235.817	60.94
236.051	68.94
236.285	68.94
236.519	76.94
236.753	85.94
236.987	71.94
237.221	76.94
237.455	77.94
237.689	73.94
237.922	62.94
238.156	73.94
238.39	77.94
238.624	85.94
238.858	87.94
239.091	80.94
239.325	76.94
239.559	76.94
239.793	73.94
240.027	67.94
240.26	84.94
240.494	72.94
240.728	83.94
240.961	78.94
241.195	73.94
241.429	82.94
241.662	71.94
241.896	60.94
242.13	75.94
242.363	71.94
242.597	78.94
242.83	85.94
243.064	80.94
243.298	83.94
243.531	67.94
243.765	71.94
243.998	74.94
244.232	75.94
244.465	88.94
244.699	80.94
244.932	76.94
245.166	82.94
245.399	84.94
245.633	73.94
245.866	71.94
246.099	88.94
246.333	82.94
246.566	61.94
246.8	84.94
247.033	82.94
247.266	66.94
247.5	86.94
247.733	84.94
247.966	70.94
248.2	67.94
248.433	73.94
248.666	72.94
248.899	83.94
249.133	92.94
249.366	102.94
249.599	89.94
249.832	83.94
250.066	85.94
250.299	81.94
250.532	86.94
250.765	89.94
250.998	85.94
251.231	74.94
251.465	89.94
251.698	89.94
251.931	82.94
252.164	82.94
252.397	78.94
252.63	98.94
252.863	92.94
253.096	100.94
253.329	85.94
253.562	72.94
253.795	80.94
254.028	80.94
254.261	75.94
254.494	84.94
254.727	70.94
254.96	85.94
255.193	98.94
255.426	75.94
255.659	92.94
255.892	92.94
256.124	90.94
256.357	76.94
256.59	82.94
256.823	76.94
257.056	74.94
257.289	89.94
257.521	84.94
257.754	86.94
257.987	94.94
258.22	81.94
258.452	70.94
258.685	86.94
258.918	90.94
259.151	83.94
259.383	87.94
259.616	76.94
259.849	84.94
260.081	87.94
260.314	82.94
260.547	85.94
260.779	85.94
261.012	67.94
261.244	80.94
261.477	97.94
261.71	96.94
261.942	103.94
262.175	119.94
262.407	84.94
262.64	70.94
262.872	92.94
263.105	70.94
263.337	86.94
263.57	87.94
263.802	87.94
264.035	87.94
264.267	94.94
264.499	77.94
264.732	77.94
264.964	81.94
265.197	90.94
265.429	95.94
265.661	81.94
265.894	80.94
266.126	93.94
266.358	84.94
266.591	73.94
266.823	95.94
267.055	77.94
267.287	78.94
267.52	74.94
267.752	82.94
267.984	75.94
268.216	89.94
268.448	86.94
268.681	74.94
268.913	80.94
269.145	80.94
269.377	85.94
269.609	83.94
269.841	84.94
270.073	90.94
270.306	85.94
270.538	84.94
270.77	84.94
271.002	81.94
271.234	80.94
271.466	78.94
271.698	92.94
271.93	81.94
272.162	91.94
272.394	87.94
272.626	100.94
272.858	82.94
273.09	72.94
273.322	96.94
273.553	81.94
273.785	86.94
274.017	88.94
274.249	86.94
274.481	92.94
274.713	81.94
274.945	102.94
275.176	78.94
275.408	91.94
275.64	95.94
275.872	95.94
276.104	96.94
276.335	108.94
276.567	99.94
276.799	100.94
277.031	100.94
277.262	84.94
277.494	94.94
277.726	88.94
277.957	86.94
278.189	86.94
278.421	100.94
278.652	85.94
278.884	78.94
279.115	84.94
279.347	98.94
279.579	82.94
279.81	84.94
280.042	94.94
280.273	86.94
280.505	100.94
280.736	96.94
280.968	82.94
281.199	88.94
281.431	75.94
281.662	102.94
281.894	93.94
282.125	98.94
282.356	131.94
282.588	144.94
282.819	108.94
283.051	92.94
283.282	89.94
283.513	96.94
283.745	88.94
283.976	73.94
284.207	98.94
284.439	100.94
284.67	94.94
284.901	79.94
285.132	93.94
285.364	88.94
285.595	101.94
285.826	87.94
286.057	92.94
286.288	84.94
286.52	80.94
286.751	95.94
286.982	85.94
287.213	96.94
287.444	89.94
287.675	88.94
287.906	100.94
288.138	87.94
288.369	111.94
288.6	94.94
288.831	69.94
289.062	106.94
289.293	106.94
289.524	87.94
289.755	87.94
289.986	92.94
290.217	90.94
290.448	94.94
290.679	100.94
290.91	76.94
291.141	74.94
291.371	96.94
291.602	78.94
291.833	81.94
292.064	82.94
292.295	89.94
292.526	100.94
292.757	82.94
292.987	100.94
293.218	83.94
293.449	96.94
293.68	87.94
293.91	86.94
294.141	96.94
294.372	94.94
294.603	89.94
294.833	90.94
295.064	88.94
295.295	97.94
295.525	99.94
295.756	99.94
295.987	101.94
296.217	159.94
296.448	133.94
296.679	97.94
296.909	90.94
297.14	80.94
297.37	92.94
297.601	89.94
297.831	85.94
298.062	107.94
298.292	88.94
298.523	105.94
298.753	86.94
298.984	87.94
299.214	73.94
299.445	98.94
299.675	100.94
299.905	85.94
300.136	88.94
300.366	84.94
300.597	84.94
300.827	111.94
301.057	97.94
301.288	108.94
301.518	96.94
301.748	104.94
301.979	95.94
302.209	98.94
302.439	98.94
302.669	92.94
302.9	92.94
303.13	99.94
303.36	95.94
303.59	94.94
303.82	109.94
304.051	108.94
304.281	94.94
304.511	89.94
304.741	80.94
304.971	89.94
305.201	114.94
305.431	84.94
305.661	97.94
305.891	99.94
306.121	106.94
306.352	119.94
306.582	101.94
306.812	108.94
307.042	89.94
307.272	100.94
307.502	91.94
307.731	92.94
307.961	100.94
308.191	82.94
308.421	95.94
308.651	88.94
308.881	97.94
309.111	92.94
309.341	96.94
309.571	91.94
309.8	97.94
310.03	101.94
310.26	87.94
310.49	94.94
310.72	102.94
310.949	105.94
311.179	111.94
311.409	90.94
311.639	85.94
311.868	94.94
312.098	100.94
312.328	113.94
312.557	102.94
312.787	107.94
313.017	117.94
313.246	94.94
313.476	73.94
313.706	86.94
313.935	88.94
314.165	102.94
314.394	111.94
314.624	96.94
314.853	104.94
315.083	103.94
315.312	100.94
315.542	95.94
315.771	104.94
316.001	84.94
316.23	102.94
316.46	96.94
316.689	91.94
316.919	81.94
317.148	109.94
317.377	100.94
317.607	105.94
317.836	94.94
318.065	93.94
318.295	97.94
318.524	82.94
318.753	83.94
318.983	101.94
319.212	110.94
319.441	115.94
319.67	106.94
319.9	105.94
320.129	94.94
320.358	93.94
320.587	94.94
320.816	110.94
321.046	106.94
321.275	104.94
321.504	96.94
321.733	113.94
321.962	88.94
322.191	103.94
322.42	115.94
322.649	123.94
322.878	119.94
323.108	108.94
323.337	126.94
323.566	124.94
323.795	150.94
324.024	217.94
324.253	429.94
324.482	950.94
324.71	2046.94
324.939	2688.94
325.168	958.94
325.397	280.94
325.626	162.94
325.855	134.94
326.084	135.94
326.313	149.94
326.542	160.94
326.77	246.94
326.999	513.94
327.228	1105.94
327.457	2062.94
327.686	1636.94
327.914	443.94
328.143	214.94
328.372	169.94
328.6	133.94
328.829	116.94
329.058	130.94
329.287	133.94
329.515	107.94
329.744	104.94
329.972	98.94
330.201	105.94
330.43	134.94
330.658	135.94
330.887	146.94
331.115	130.94
331.344	116.94
331.572	104.94
331.801	100.94
332.03	100.94
332.258	102.94
332.486	96.94
332.715	97.94
332.943	81.94
333.172	101.94
333.4	116.94
333.629	122.94
333.857	113.94
334.085	101.94
334.314	126.94
334.542	138.94
334.771	128.94
334.999	108.94
335.227	101.94
335.455	87.94
335.684	88.94
335.912	95.94
336.14	99.94
336.369	92.94
336.597	102.94
336.825	99.94
337.053	97.94
337.281	92.94
337.51	82.94
337.738	106.94
337.966	88.94
338.194	89.94
338.422	107.94
338.65	100.94
338.878	96.94
339.106	86.94
339.334	93.94
339.562	89.94
339.79	91.94
340.018	85.94
340.246	96.94
340.474	93.94
340.702	95.94
340.93	89.94
341.158	92.94
341.386	95.94
341.614	101.94
341.842	95.94
342.07	100.94
342.298	105.94
342.526	91.94
342.754	93.94
342.981	91.94
343.209	99.94
343.437	89.94
343.665	65.94
343.893	75.94
344.12	99.94
344.348	83.94
344.576	97.94
344.804	96.94
345.031	98.94
345.259	92.94
345.487	117.94
345.714	91.94
345.942	77.94
346.17	94.94
346.397	86.94
346.625	86.94
346.853	94.94
347.08	101.94
347.308	100.94
347.535	113.94
347.763	91.94
347.99	86.94
348.218	99.94
348.445	98.94
348.673	104.94
348.9	101.94
349.128	97.94
349.355	97.94
349.583	72.94
349.81	95.94
350.037	92.94
350.265	93.94
350.492	97.94
350.72	77.94
350.947	88.94
351.174	94.94
351.402	113.94
351.629	99.94
351.856	104.94
352.083	91.94
352.311	125.94
352.538	112.94
352.765	101.94
352.992	126.94
353.22	104.94
353.447	85.94
353.674	96.94
353.901	102.94
354.128	104.94
354.355	105.94
354.583	102.94
354.81	93.94
355.037	106.94
355.264	96.94
355.491	98.94
355.718	96.94
355.945	111.94
356.172	88.94
356.399	96.94
356.626	98.94
356.853	96.94
357.08	92.94
357.307	102.94
357.534	87.94
357.761	93.94
357.988	84.94
358.215	87.94
358.441	93.94
358.668	81.94
358.895	82.94
359.122	93.94
359.349	98.94
359.576	108.94
359.802	111.94
360.029	101.94
360.256	108.94
360.483	106.94
360.709	98.94
360.936	90.94
361.163	109.94
361.39	112.94
361.616	112.94
361.843	91.94
362.07	97.94
362.296	107.94
362.523	93.94
362.749	94.94
362.976	92.94
363.203	91.94
363.429	92.94
363.656	106.94
363.882	90.94
364.109	88.94
364.335	93.94
364.562	93.94
364.788	106.94
365.015	96.94
365.241	105.94
365.468	105.94
365.694	92.94
365.92	96.94
366.147	106.94
366.373	93.94
366.599	102.94
366.826	93.94
367.052	86.94
367.278	80.94
367.505	103.94
367.731	99.94
367.957	88.94
368.184	107.94
368.41	103.94
368.636	105.94
368.862	116.94
369.089	102.94
369.315	88.94
369.541	102.94
369.767	85.94
369.993	91.94
370.219	90.94
370.445	89.94
370.672	95.94
370.898	88.94
371.124	86.94
371.35	93.94
371.576	99.94
371.802	81.94
372.028	94.94
372.254	92.94
372.48	88.94
372.706	103.94
372.932	91.94
373.158	96.94
373.384	95.94
373.61	95.94
373.835	97.94
374.061	88.94
374.287	94.94
374.513	103.94
374.739	98.94
374.965	92.94
375.191	86.94
375.416	84.94
375.642	101.94
375.868	85.94
376.094	92.94
376.319	83.94
376.545	78.94
376.771	85.94
376.997	92.94
377.222	88.94
377.448	93.94
377.674	100.94
377.899	98.94
378.125	82.94
378.35	90.94
378.576	84.94
378.802	90.94
379.027	89.94
379.253	84.94
379.478	80.94
379.704	93.94
379.929	92.94
380.155	91.94
380.38	91.94
380.606	92.94
380.831	92.94
381.057	86.94
381.282	94.94
381.507	93.94
381.733	95.94
381.958	98.94
382.184	91.94
382.409	88.94
382.634	101.94
382.86	96.94
383.085	96.94
383.31	105.94
383.535	99.94
383.761	92.94
383.986	99.94
384.211	97.94
384.436	94.94
384.662	96.94
384.887	96.94
385.112	104.94
385.337	109.94
385.562	98.94
385.787	99.94
386.013	113.94
386.238	112.94
386.463	104.94
386.688	108.94
386.913	102.94
387.138	98.94
387.363	115.94
387.588	92.94
387.813	98.94
388.038	107.94
388.263	91.94
388.488	97.94
388.713	100.94
388.938	85.94
389.163	92.94
389.387	88.94
389.612	88.94
389.837	90.94
390.062	89.94
390.287	89.94
390.512	81.94
390.736	90.94
390.961	90.94
391.186	99.94
391.411	95.94
391.636	97.94
391.86	80.94
392.085	91.94
392.31	91.94
392.534	81.94
392.759	87.94
392.984	91.94
393.208	87.94
393.433	89.94
393.658	87.94
393.882	88.94
394.107	89.94
394.331	73.94
394.556	89.94
394.78	92.94
395.005	82.94
395.229	78.94
395.454	88.94
395.678	89.94
395.903	93.94
396.127	81.94
396.352	89.94
396.576	83.94
396.801	81.94
397.025	95.94
397.249	93.94
397.474	100.94
397.698	87.94
397.922	90.94
398.147	89.94
398.371	77.94
398.595	73.94
398.82	89.94
399.044	89.94
399.268	88.94
399.492	83.94
399.717	94.94
399.941	83.94
400.165	83.94
400.389	93.94
400.613	97.94
400.837	89.94
401.062	97.94
401.286	91.94
401.51	90.94
401.734	95.94
401.958	98.94
402.182	133.94
402.406	160.94
402.63	119.94
402.854	93.94
403.078	91.94
403.302	86.94
403.526	82.94
403.75	78.94
403.974	82.94
404.198	96.94
404.422	110.94
404.645	92.94
404.869	98.94
405.093	96.94
405.317	102.94
405.541	97.94
405.765	102.94
405.988	115.94
406.212	191.94
406.436	259.94
406.66	160.94
406.883	113.94
407.107	95.94
407.331	93.94
407.555	99.94
407.778	97.94
408.002	91.94
408.226	87.94
408.449	99.94
408.673	90.94
408.896	107.94
409.12	90.94
409.344	100.94
409.567	78.94
409.791	98.94
410.014	85.94
410.238	89.94
410.461	99.94
410.685	100.94
410.908	100.94
411.132	97.94
411.355	99.94
411.578	98.94
411.802	90.94
412.025	84.94
412.249	83.94
412.472	95.94
412.695	93.94
412.919	98.94
413.142	100.94
413.365	92.94
413.589	95.94
413.812	92.94
414.035	88.94
414.258	92.94
414.482	92.94
414.705	80.94
414.928	92.94
415.151	97.94
415.374	94.94
415.597	98.94
415.821	107.94
416.044	88.94
416.267	100.94
416.49	96.94
416.713	98.94
416.936	82.94
417.159	84.94
417.382	97.94
417.605	85.94
417.828	90.94
418.051	96.94
418.274	91.94
418.497	76.94
418.72	90.94
418.943	86.94
419.166	94.94
419.389	82.94
419.611	93.94
419.834	98.94
420.057	108.94
420.28	92.94
420.503	91.94
420.726	86.94
420.948	93.94
421.171	102.94
421.394	99.94
421.617	96.94
421.839	86.94
422.062	88.94
422.285	102.94
422.507	110.94
422.73	114.94
422.953	86.94
423.175	81.94
423.398	90.94
423.621	90.94
423.843	96.94
424.066	103.94
424.288	93.94
424.511	86.94
424.733	100.94
424.956	115.94
425.178	107.94
425.401	98.94
425.623	107.94
425.846	101.94
426.068	86.94
426.291	92.94
426.513	95.94
426.735	100.94
426.958	101.94
427.18	117.94
427.402	141.94
427.625	185.94
427.847	140.94
428.069	102.94
428.292	99.94
428.514	98.94
428.736	100.94
428.958	86.94
429.181	82.94
429.403	102.94
429.625	79.94
429.847	91.94
430.069	108.94
430.292	106.94
430.514	92.94
430.736	81.94
430.958	88.94
431.18	81.94
431.402	83.94
431.624	81.94
431.846	93.94
432.068	96.94
432.29	83.94
432.512	84.94
432.734	93.94
432.956	82.94
433.178	112.94
433.4	109.94
433.622	77.94
433.844	89.94
434.066	101.94
434.287	95.94
434.509	86.94
434.731	98.94
434.953	94.94
435.175	86.94
435.397	89.94
435.618	93.94
435.84	107.94
436.062	134.94
436.284	112.94
436.505	106.94
436.727	92.94
436.949	101.94
437.17	111.94
437.392	86.94
437.614	98.94
437.835	99.94
438.057	125.94
438.278	114.94
438.5	113.94
438.721	135.94
438.943	103.94
439.165	101.94
439.386	90.94
439.608	92.94
439.829	105.94
440.05	129.94
440.272	154.94
440.493	100.94
440.715	84.94
440.936	77.94
441.158	77.94
441.379	89.94
441.6	104.94
441.822	97.94
442.043	85.94
442.264	109.94
442.486	108.94
442.707	106.94
442.928	120.94
443.149	138.94
443.371	140.94
443.592	107.94
443.813	121.94
444.034	116.94
444.255	96.94
444.476	84.94
444.698	90.94
444.919	92.94
445.14	130.94
445.361	138.94
445.582	114.94
445.803	141.94
446.024	162.94
446.245	149.94
446.466	110.94
446.687	110.94
446.908	93.94
447.129	88.94
447.35	84.94
447.571	83.94
447.792	87.94
448.013	100.94
448.234	109.94
448.455	104.94
448.675	119.94
448.896	124.94
449.117	99.94
449.338	106.94
449.559	129.94
449.779	148.94
450	95.94
450.221	89.94
450.442	97.94
450.662	107.94
450.883	114.94
451.104	104.94
451.324	94.94
451.545	71.94
451.766	82.94
451.986	78.94
452.207	94.94
452.428	89.94
452.648	102.94
452.869	122.94
453.089	110.94
453.31	112.94
453.53	103.94
453.751	93.94
453.971	108.94
454.192	122.94
454.412	88.94
454.633	85.94
454.853	101.94
455.073	77.94
455.294	105.94
455.514	87.94
455.734	109.94
455.955	98.94
456.175	88.94
456.395	89.94
456.616	81.94
456.836	88.94
457.056	87.94
457.276	83.94
457.497	88.94
457.717	78.94
457.937	80.94
458.157	94.94
458.377	87.94
458.598	107.94
458.818	150.94
459.038	162.94
459.258	118.94
459.478	96.94
459.698	97.94
459.918	92.94
460.138	98.94
460.358	83.94
460.578	94.94
460.798	96.94
461.018	96.94
461.238	82.94
461.458	77.94
461.678	93.94
461.898	90.94
462.118	87.94
462.338	110.94
462.558	89.94
462.777	91.94
462.997	78.94
463.217	86.94
463.437	109.94
463.657	87.94
463.876	84.94
464.096	90.94
464.316	97.94
464.536	103.94
464.755	91.94
464.975	113.94
465.195	182.94
465.414	185.94
465.634	106.94
465.854	96.94
466.073	90.94
466.293	89.94
466.512	91.94
466.732	83.94
466.951	84.94
467.171	98.94
467.391	104.94
467.61	112.94
467.829	117.94
468.049	94.94
468.268	98.94
468.488	88.94
468.707	94.94
468.927	85.94
469.146	90.94
469.365	91.94
469.585	97.94
469.804	78.94
470.023	84.94
470.243	96.94
470.462	99.94
470.681	125.94
470.901	105.94
471.12	89.94
471.339	86.94
471.558	75.94
471.777	100.94
471.997	93.94
472.216	109.94
472.435	141.94
472.654	86.94
472.873	82.94
473.092	92.94
473.311	92.94
473.53	93.94
473.749	82.94
473.968	96.94
474.187	106.94
474.406	99.94
474.625	90.94
474.844	103.94
475.063	83.94
475.282	85.94
475.501	94.94
475.72	100.94
475.939	86.94
476.158	92.94
476.377	80.94
476.596	93.94
476.814	92.94
477.033	92.94
477.252	90.94
477.471	96.94
477.69	94.94
477.908	97.94
478.127	95.94
478.346	99.94
478.564	99.94
478.783	95.94
479.002	100.94
479.22	80.94
479.439	91.94
479.658	111.94
479.876	113.94
480.095	95.94
480.313	80.94
480.532	75.94
480.751	93.94
480.969	130.94
481.188	208.94
481.406	158.94
481.624	102.94
481.843	89.94
482.061	77.94
482.28	90.94
482.498	94.94
482.717	100.94
482.935	100.94
483.153	93.94
483.372	98.94
483.59	94.94
483.808	100.94
484.027	94.94
484.245	94.94
484.463	87.94
484.681	97.94
484.9	100.94
485.118	90.94
485.336	114.94
485.554	89.94
485.772	106.94
485.99	107.94
486.209	105.94
486.427	89.94
486.645	123.94
486.863	109.94
487.081	98.94
487.299	109.94
487.517	95.94
487.735	102.94
487.953	93.94
488.171	89.94
488.389	92.94
488.607	97.94
488.825	88.94
489.043	80.94
489.261	104.94
489.479	84.94
489.696	97.94
489.914	90.94
490.132	93.94
490.35	99.94
490.568	89.94
490.786	86.94
491.003	88.94
491.221	80.94
491.439	74.94
491.657	98.94
491.874	89.94
492.092	93.94
492.31	90.94
492.527	101.94
492.745	85.94
492.963	81.94
493.18	97.94
493.398	97.94
493.615	99.94
493.833	90.94
494.05	90.94
494.268	89.94
494.485	91.94
494.703	94.94
494.92	73.94
495.138	78.94
495.355	83.94
495.573	88.94
495.79	82.94
496.008	89.94
496.225	98.94
496.442	88.94
496.66	82.94
496.877	94.94
497.094	102.94
497.312	84.94
497.529	90.94
497.746	89.94
497.963	103.94
498.181	101.94
498.398	116.94
498.615	109.94
498.832	90.94
499.049	97.94
499.267	68.94
499.484	92.94
499.701	78.94
499.918	86.94
500.135	92.94
500.352	92.94
500.569	96.94
500.786	92.94
501.003	99.94
501.22	88.94
501.437	110.94
501.654	97.94
501.871	107.94
502.088	98.94
502.305	96.94
502.522	100.94
502.739	100.94
502.956	94.94
503.172	96.94
503.389	97.94
503.606	100.94
503.823	104.94
504.04	95.94
504.256	80.94
504.473	87.94
504.69	85.94
504.907	96.94
505.123	75.94
505.34	96.94
505.557	69.94
505.773	91.94
505.99	84.94
506.207	89.94
506.423	101.94
506.64	104.94
506.856	86.94
507.073	99.94
507.289	91.94
507.506	85.94
507.722	124.94
507.939	118.94
508.155	88.94
508.372	91.94
508.588	99.94
508.805	105.94
509.021	99.94
509.238	95.94
509.454	96.94
509.67	99.94
509.887	106.94
510.103	135.94
510.319	233.94
510.536	834.94
510.752	2698.94
510.968	736.94
511.184	158.94
511.401	114.94
511.617	88.94
511.833	101.94
512.049	97.94
512.265	89.94
512.481	97.94
512.698	102.94
512.914	105.94
513.13	84.94
513.346	88.94
513.562	113.94
513.778	84.94
513.994	101.94
514.21	101.94
514.426	119.94
514.642	146.94
514.858	138.94
