Data from Uncirc_1985_H10_HRD10591_00083.txt Node
Date: Wed Jan 03 12:18:34 EST 2024
User: Yrep
Spectrometer: HR+D1059
Trigger mode: 1
Integration Time (sec): 1.000000E-1
Scans to average: 1
Electric dark correction enabled: true
Nonlinearity correction enabled: false
Boxcar width: 0
XAxis mode: Wavelengths
Number of Pixels in Spectrum: 2048
>>>>>Begin Spectral Data<<<<<
223.165	-25.94
223.4	-25.94
223.635	-25.94
223.869	-25.94
224.104	-32.94
224.338	-17.94
224.573	-18.94
224.808	-8.94
225.042	-9.94
225.277	4.06
225.511	-5.94
225.746	1.06
225.98	17.06
226.215	21.06
226.449	15.06
226.683	27.06
226.918	24.06
227.152	37.06
227.387	33.06
227.621	38.06
227.856	47.06
228.09	39.06
228.324	46.06
228.559	57.06
228.793	57.06
229.027	55.06
229.262	57.06
229.496	62.06
229.73	77.06
229.964	71.06
230.199	70.06
230.433	75.06
230.667	86.06
230.901	80.06
231.136	77.06
231.37	78.06
231.604	83.06
231.838	73.06
232.072	71.06
232.306	77.06
232.541	89.06
232.775	78.06
233.009	73.06
233.243	77.06
233.477	67.06
233.711	84.06
233.945	79.06
234.179	85.06
234.413	76.06
234.647	65.06
234.881	89.06
235.115	75.06
235.349	93.06
235.583	78.06
235.817	97.06
236.051	70.06
236.285	79.06
236.519	74.06
236.753	71.06
236.987	84.06
237.221	85.06
237.455	77.06
237.689	78.06
237.922	72.06
238.156	68.06
238.39	69.06
238.624	73.06
238.858	69.06
239.091	64.06
239.325	86.06
239.559	79.06
239.793	82.06
240.027	76.06
240.26	61.06
240.494	77.06
240.728	62.06
240.961	69.06
241.195	75.06
241.429	72.06
241.662	76.06
241.896	63.06
242.13	78.06
242.363	56.06
242.597	66.06
242.83	77.06
243.064	94.06
243.298	71.06
243.531	69.06
243.765	69.06
243.998	81.06
244.232	87.06
244.465	93.06
244.699	74.06
244.932	80.06
245.166	72.06
245.399	77.06
245.633	80.06
245.866	90.06
246.099	74.06
246.333	82.06
246.566	71.06
246.8	71.06
247.033	89.06
247.266	81.06
247.5	77.06
247.733	76.06
247.966	66.06
248.2	81.06
248.433	79.06
248.666	77.06
248.899	72.06
249.133	70.06
249.366	97.06
249.599	87.06
249.832	79.06
250.066	92.06
250.299	77.06
250.532	79.06
250.765	82.06
250.998	64.06
251.231	77.06
251.465	89.06
251.698	71.06
251.931	69.06
252.164	84.06
252.397	81.06
252.63	80.06
252.863	77.06
253.096	77.06
253.329	79.06
253.562	78.06
253.795	80.06
254.028	75.06
254.261	77.06
254.494	70.06
254.727	65.06
254.96	76.06
255.193	95.06
255.426	70.06
255.659	81.06
255.892	93.06
256.124	62.06
256.357	77.06
256.59	81.06
256.823	71.06
257.056	74.06
257.289	77.06
257.521	69.06
257.754	88.06
257.987	80.06
258.22	77.06
258.452	84.06
258.685	82.06
258.918	98.06
259.151	77.06
259.383	75.06
259.616	81.06
259.849	79.06
260.081	92.06
260.314	78.06
260.547	68.06
260.779	77.06
261.012	89.06
261.244	99.06
261.477	76.06
261.71	57.06
261.942	115.06
262.175	102.06
262.407	91.06
262.64	83.06
262.872	83.06
263.105	85.06
263.337	94.06
263.57	86.06
263.802	92.06
264.035	83.06
264.267	88.06
264.499	83.06
264.732	79.06
264.964	83.06
265.197	79.06
265.429	77.06
265.661	72.06
265.894	74.06
266.126	84.06
266.358	79.06
266.591	86.06
266.823	88.06
267.055	81.06
267.287	78.06
267.52	75.06
267.752	77.06
267.984	87.06
268.216	82.06
268.448	82.06
268.681	78.06
268.913	72.06
269.145	79.06
269.377	83.06
269.609	91.06
269.841	73.06
270.073	81.06
270.306	79.06
270.538	71.06
270.77	97.06
271.002	91.06
271.234	89.06
271.466	88.06
271.698	85.06
271.93	77.06
272.162	80.06
272.394	80.06
272.626	89.06
272.858	87.06
273.09	77.06
273.322	71.06
273.553	87.06
273.785	76.06
274.017	65.06
274.249	85.06
274.481	80.06
274.713	85.06
274.945	83.06
275.176	82.06
275.408	67.06
275.64	84.06
275.872	93.06
276.104	89.06
276.335	83.06
276.567	99.06
276.799	117.06
277.031	119.06
277.262	82.06
277.494	77.06
277.726	72.06
277.957	72.06
278.189	83.06
278.421	69.06
278.652	102.06
278.884	73.06
279.115	75.06
279.347	85.06
279.579	77.06
279.81	78.06
280.042	79.06
280.273	95.06
280.505	87.06
280.736	90.06
280.968	79.06
281.199	83.06
281.431	81.06
281.662	89.06
281.894	98.06
282.125	104.06
282.356	115.06
282.588	129.06
282.819	117.06
283.051	93.06
283.282	93.06
283.513	81.06
283.745	86.06
283.976	89.06
284.207	73.06
284.439	83.06
284.67	94.06
284.901	96.06
285.132	93.06
285.364	92.06
285.595	88.06
285.826	85.06
286.057	91.06
286.288	64.06
286.52	95.06
286.751	90.06
286.982	97.06
287.213	92.06
287.444	81.06
287.675	79.06
287.906	77.06
288.138	81.06
288.369	102.06
288.6	96.06
288.831	90.06
289.062	86.06
289.293	84.06
289.524	83.06
289.755	82.06
289.986	85.06
290.217	89.06
290.448	70.06
290.679	79.06
290.91	88.06
291.141	90.06
291.371	98.06
291.602	90.06
291.833	94.06
292.064	85.06
292.295	91.06
292.526	97.06
292.757	109.06
292.987	85.06
293.218	82.06
293.449	85.06
293.68	81.06
293.91	90.06
294.141	92.06
294.372	98.06
294.603	89.06
294.833	78.06
295.064	96.06
295.295	95.06
295.525	102.06
295.756	80.06
295.987	106.06
296.217	130.06
296.448	111.06
296.679	111.06
296.909	101.06
297.14	73.06
297.37	86.06
297.601	94.06
297.831	79.06
298.062	106.06
298.292	100.06
298.523	95.06
298.753	81.06
298.984	93.06
299.214	93.06
299.445	100.06
299.675	93.06
299.905	74.06
300.136	95.06
300.366	85.06
300.597	77.06
300.827	102.06
301.057	101.06
301.288	102.06
301.518	87.06
301.748	87.06
301.979	104.06
302.209	92.06
302.439	88.06
302.669	82.06
302.9	77.06
303.13	101.06
303.36	98.06
303.59	98.06
303.82	100.06
304.051	98.06
304.281	95.06
304.511	98.06
304.741	89.06
304.971	84.06
305.201	102.06
305.431	87.06
305.661	89.06
305.891	98.06
306.121	95.06
306.352	100.06
306.582	92.06
306.812	93.06
307.042	86.06
307.272	98.06
307.502	99.06
307.731	100.06
307.961	97.06
308.191	89.06
308.421	86.06
308.651	97.06
308.881	97.06
309.111	94.06
309.341	96.06
309.571	89.06
309.8	98.06
310.03	85.06
310.26	94.06
310.49	88.06
310.72	96.06
310.949	109.06
311.179	81.06
311.409	101.06
311.639	89.06
311.868	93.06
312.098	97.06
312.328	95.06
312.557	96.06
312.787	109.06
313.017	82.06
313.246	102.06
313.476	101.06
313.706	93.06
313.935	87.06
314.165	87.06
314.394	105.06
314.624	97.06
314.853	102.06
315.083	83.06
315.312	90.06
315.542	89.06
315.771	93.06
316.001	85.06
316.23	111.06
316.46	90.06
316.689	90.06
316.919	87.06
317.148	82.06
317.377	93.06
317.607	85.06
317.836	87.06
318.065	80.06
318.295	95.06
318.524	90.06
318.753	103.06
318.983	96.06
319.212	97.06
319.441	109.06
319.67	114.06
319.9	108.06
320.129	94.06
320.358	94.06
320.587	89.06
320.816	81.06
321.046	117.06
321.275	90.06
321.504	88.06
321.733	96.06
321.962	82.06
322.191	89.06
322.42	81.06
322.649	99.06
322.878	101.06
323.108	110.06
323.337	107.06
323.566	118.06
323.795	154.06
324.024	186.06
324.253	386.06
324.482	805.06
324.71	1666.06
324.939	2178.06
325.168	792.06
325.397	234.06
325.626	141.06
325.855	130.06
326.084	112.06
326.313	128.06
326.542	137.06
326.77	229.06
326.999	417.06
327.228	914.06
327.457	1663.06
327.686	1311.06
327.914	360.06
328.143	187.06
328.372	159.06
328.6	143.06
328.829	130.06
329.058	138.06
329.287	119.06
329.515	113.06
329.744	114.06
329.972	122.06
330.201	133.06
330.43	161.06
330.658	128.06
330.887	131.06
331.115	119.06
331.344	107.06
331.572	115.06
331.801	106.06
332.03	102.06
332.258	77.06
332.486	83.06
332.715	100.06
332.943	108.06
333.172	95.06
333.4	101.06
333.629	101.06
333.857	126.06
334.085	125.06
334.314	142.06
334.542	183.06
334.771	170.06
334.999	117.06
335.227	100.06
335.455	90.06
335.684	106.06
335.912	87.06
336.14	99.06
336.369	96.06
336.597	88.06
336.825	87.06
337.053	103.06
337.281	85.06
337.51	81.06
337.738	92.06
337.966	87.06
338.194	103.06
338.422	93.06
338.65	81.06
338.878	83.06
339.106	91.06
339.334	95.06
339.562	101.06
339.79	87.06
340.018	84.06
340.246	80.06
340.474	90.06
340.702	87.06
340.93	89.06
341.158	94.06
341.386	102.06
341.614	99.06
341.842	95.06
342.07	83.06
342.298	91.06
342.526	88.06
342.754	89.06
342.981	87.06
343.209	98.06
343.437	104.06
343.665	94.06
343.893	95.06
344.12	83.06
344.348	80.06
344.576	87.06
344.804	102.06
345.031	105.06
345.259	95.06
345.487	88.06
345.714	90.06
345.942	100.06
346.17	78.06
346.397	87.06
346.625	81.06
346.853	105.06
347.08	83.06
347.308	97.06
347.535	84.06
347.763	88.06
347.99	88.06
348.218	105.06
348.445	106.06
348.673	99.06
348.9	114.06
349.128	102.06
349.355	98.06
349.583	97.06
349.81	89.06
350.037	83.06
350.265	83.06
350.492	82.06
350.72	89.06
350.947	100.06
351.174	101.06
351.402	95.06
351.629	93.06
351.856	97.06
352.083	100.06
352.311	98.06
352.538	87.06
352.765	99.06
352.992	111.06
353.22	102.06
353.447	107.06
353.674	95.06
353.901	95.06
354.128	91.06
354.355	94.06
354.583	81.06
354.81	105.06
355.037	98.06
355.264	101.06
355.491	101.06
355.718	99.06
355.945	100.06
356.172	100.06
356.399	103.06
356.626	70.06
356.853	82.06
357.08	118.06
357.307	90.06
357.534	86.06
357.761	90.06
357.988	97.06
358.215	94.06
358.441	79.06
358.668	95.06
358.895	88.06
359.122	82.06
359.349	94.06
359.576	82.06
359.802	95.06
360.029	103.06
360.256	104.06
360.483	91.06
360.709	88.06
360.936	100.06
361.163	102.06
361.39	98.06
361.616	91.06
361.843	91.06
362.07	87.06
362.296	83.06
362.523	91.06
362.749	82.06
362.976	94.06
363.203	80.06
363.429	86.06
363.656	85.06
363.882	83.06
364.109	93.06
364.335	89.06
364.562	95.06
364.788	88.06
365.015	91.06
365.241	87.06
365.468	101.06
365.694	98.06
365.92	84.06
366.147	90.06
366.373	96.06
366.599	87.06
366.826	83.06
367.052	92.06
367.278	99.06
367.505	81.06
367.731	92.06
367.957	81.06
368.184	88.06
368.41	100.06
368.636	103.06
368.862	105.06
369.089	92.06
369.315	79.06
369.541	82.06
369.767	80.06
369.993	79.06
370.219	85.06
370.445	94.06
370.672	95.06
370.898	80.06
371.124	96.06
371.35	90.06
371.576	94.06
371.802	84.06
372.028	79.06
372.254	93.06
372.48	86.06
372.706	82.06
372.932	86.06
373.158	92.06
373.384	91.06
373.61	96.06
373.835	91.06
374.061	91.06
374.287	95.06
374.513	106.06
374.739	77.06
374.965	101.06
375.191	90.06
375.416	106.06
375.642	89.06
375.868	94.06
376.094	77.06
376.319	90.06
376.545	83.06
376.771	79.06
376.997	88.06
377.222	77.06
377.448	77.06
377.674	96.06
377.899	91.06
378.125	99.06
378.35	89.06
378.576	75.06
378.802	91.06
379.027	100.06
379.253	97.06
379.478	98.06
379.704	90.06
379.929	92.06
380.155	77.06
380.38	89.06
380.606	93.06
380.831	90.06
381.057	100.06
381.282	106.06
381.507	97.06
381.733	93.06
381.958	82.06
382.184	82.06
382.409	91.06
382.634	100.06
382.86	91.06
383.085	97.06
383.31	102.06
383.535	94.06
383.761	100.06
383.986	95.06
384.211	85.06
384.436	87.06
384.662	82.06
384.887	91.06
385.112	82.06
385.337	90.06
385.562	83.06
385.787	96.06
386.013	104.06
386.238	93.06
386.463	103.06
386.688	94.06
386.913	105.06
387.138	88.06
387.363	93.06
387.588	100.06
387.813	98.06
388.038	96.06
388.263	90.06
388.488	100.06
388.713	95.06
388.938	90.06
389.163	89.06
389.387	106.06
389.612	82.06
389.837	84.06
390.062	94.06
390.287	102.06
390.512	87.06
390.736	102.06
390.961	96.06
391.186	85.06
391.411	93.06
391.636	98.06
391.86	93.06
392.085	75.06
392.31	88.06
392.534	93.06
392.759	83.06
392.984	87.06
393.208	85.06
393.433	95.06
393.658	90.06
393.882	81.06
394.107	90.06
394.331	84.06
394.556	84.06
394.78	83.06
395.005	88.06
395.229	79.06
395.454	94.06
395.678	78.06
395.903	95.06
396.127	93.06
396.352	65.06
396.576	82.06
396.801	83.06
397.025	94.06
397.249	73.06
397.474	78.06
397.698	77.06
397.922	73.06
398.147	85.06
398.371	69.06
398.595	80.06
398.82	87.06
399.044	79.06
399.268	85.06
399.492	92.06
399.717	80.06
399.941	87.06
400.165	88.06
400.389	78.06
400.613	93.06
400.837	98.06
401.062	81.06
401.286	91.06
401.51	88.06
401.734	93.06
401.958	89.06
402.182	122.06
402.406	160.06
402.63	103.06
402.854	90.06
403.078	83.06
403.302	74.06
403.526	95.06
403.75	87.06
403.974	93.06
404.198	87.06
404.422	89.06
404.645	88.06
404.869	99.06
405.093	89.06
405.317	97.06
405.541	81.06
405.765	85.06
405.988	102.06
406.212	169.06
406.436	211.06
406.66	155.06
406.883	110.06
407.107	79.06
407.331	93.06
407.555	88.06
407.778	102.06
408.002	83.06
408.226	74.06
408.449	82.06
408.673	87.06
408.896	78.06
409.12	101.06
409.344	88.06
409.567	90.06
409.791	81.06
410.014	80.06
410.238	77.06
410.461	83.06
410.685	93.06
410.908	92.06
411.132	104.06
411.355	97.06
411.578	80.06
411.802	91.06
412.025	82.06
412.249	86.06
412.472	93.06
412.695	71.06
412.919	72.06
413.142	81.06
413.365	86.06
413.589	85.06
413.812	101.06
414.035	105.06
414.258	78.06
414.482	84.06
414.705	79.06
414.928	88.06
415.151	83.06
415.374	81.06
415.597	81.06
415.821	89.06
416.044	98.06
416.267	91.06
416.49	79.06
416.713	99.06
416.936	69.06
417.159	79.06
417.382	90.06
417.605	103.06
417.828	88.06
418.051	89.06
418.274	81.06
418.497	79.06
418.72	82.06
418.943	82.06
419.166	89.06
419.389	79.06
419.611	80.06
419.834	93.06
420.057	79.06
420.28	75.06
420.503	95.06
420.726	97.06
420.948	85.06
421.171	87.06
421.394	98.06
421.617	94.06
421.839	87.06
422.062	73.06
422.285	84.06
422.507	98.06
422.73	113.06
422.953	95.06
423.175	93.06
423.398	81.06
423.621	72.06
423.843	80.06
424.066	82.06
424.288	88.06
424.511	79.06
424.733	94.06
424.956	110.06
425.178	105.06
425.401	87.06
425.623	83.06
425.846	97.06
426.068	90.06
426.291	84.06
426.513	72.06
426.735	88.06
426.958	101.06
427.18	101.06
427.402	128.06
427.625	145.06
427.847	125.06
428.069	120.06
428.292	81.06
428.514	90.06
428.736	90.06
428.958	82.06
429.181	92.06
429.403	82.06
429.625	83.06
429.847	83.06
430.069	89.06
430.292	93.06
430.514	71.06
430.736	75.06
430.958	94.06
431.18	86.06
431.402	96.06
431.624	80.06
431.846	82.06
432.068	94.06
432.29	78.06
432.512	91.06
432.734	95.06
432.956	84.06
433.178	85.06
433.4	94.06
433.622	74.06
433.844	81.06
434.066	77.06
434.287	90.06
434.509	77.06
434.731	97.06
434.953	94.06
435.175	94.06
435.397	83.06
435.618	93.06
435.84	99.06
436.062	105.06
436.284	97.06
436.505	88.06
436.727	96.06
436.949	84.06
437.17	87.06
437.392	75.06
437.614	94.06
437.835	106.06
438.057	100.06
438.278	85.06
438.5	93.06
438.721	109.06
438.943	102.06
439.165	86.06
439.386	72.06
439.608	95.06
439.829	107.06
440.05	112.06
440.272	125.06
440.493	96.06
440.715	88.06
440.936	80.06
441.158	94.06
441.379	96.06
441.6	99.06
441.822	73.06
442.043	96.06
442.264	93.06
442.486	95.06
442.707	81.06
442.928	100.06
443.149	120.06
443.371	124.06
443.592	111.06
443.813	102.06
444.034	87.06
444.255	87.06
444.476	81.06
444.698	86.06
444.919	80.06
445.14	131.06
445.361	122.06
445.582	113.06
445.803	134.06
446.024	120.06
446.245	106.06
446.466	103.06
446.687	79.06
446.908	92.06
447.129	93.06
447.35	88.06
447.571	79.06
447.792	93.06
448.013	88.06
448.234	116.06
448.455	97.06
448.675	104.06
448.896	114.06
449.117	90.06
449.338	99.06
449.559	119.06
449.779	117.06
450	98.06
450.221	101.06
450.442	78.06
450.662	89.06
450.883	97.06
451.104	101.06
451.324	89.06
451.545	85.06
451.766	82.06
451.986	87.06
452.207	93.06
452.428	83.06
452.648	94.06
452.869	98.06
453.089	110.06
453.31	105.06
453.53	80.06
453.751	95.06
453.971	99.06
454.192	107.06
454.412	88.06
454.633	89.06
454.853	82.06
455.073	83.06
455.294	97.06
455.514	101.06
455.734	98.06
455.955	97.06
456.175	83.06
456.395	85.06
456.616	71.06
456.836	70.06
457.056	86.06
457.276	77.06
457.497	75.06
457.717	80.06
457.937	77.06
458.157	104.06
458.377	82.06
458.598	99.06
458.818	147.06
459.038	138.06
459.258	95.06
459.478	91.06
459.698	94.06
459.918	91.06
460.138	80.06
460.358	78.06
460.578	78.06
460.798	94.06
461.018	97.06
461.238	82.06
461.458	87.06
461.678	83.06
461.898	89.06
462.118	92.06
462.338	85.06
462.558	82.06
462.777	94.06
462.997	99.06
463.217	88.06
463.437	94.06
463.657	81.06
463.876	75.06
464.096	89.06
464.316	103.06
464.536	86.06
464.755	82.06
464.975	106.06
465.195	161.06
465.414	167.06
465.634	86.06
465.854	91.06
466.073	74.06
466.293	82.06
466.512	68.06
466.732	91.06
466.951	96.06
467.171	95.06
467.391	93.06
467.61	99.06
467.829	98.06
468.049	92.06
468.268	112.06
468.488	86.06
468.707	90.06
468.927	97.06
469.146	90.06
469.365	94.06
469.585	99.06
469.804	90.06
470.023	100.06
470.243	93.06
470.462	79.06
470.681	95.06
470.901	98.06
471.12	95.06
471.339	83.06
471.558	89.06
471.777	88.06
471.997	105.06
472.216	153.06
472.435	201.06
472.654	122.06
472.873	89.06
473.092	79.06
473.311	101.06
473.53	86.06
473.749	96.06
473.968	87.06
474.187	107.06
474.406	79.06
474.625	77.06
474.844	75.06
475.063	97.06
475.282	84.06
475.501	91.06
475.72	89.06
475.939	79.06
476.158	83.06
476.377	93.06
476.596	79.06
476.814	97.06
477.033	99.06
477.252	86.06
477.471	85.06
477.69	85.06
477.908	92.06
478.127	90.06
478.346	82.06
478.564	81.06
478.783	104.06
479.002	95.06
479.22	85.06
479.439	93.06
479.658	105.06
479.876	90.06
480.095	66.06
480.313	84.06
480.532	97.06
480.751	95.06
480.969	147.06
481.188	324.06
481.406	214.06
481.624	89.06
481.843	92.06
482.061	89.06
482.28	94.06
482.498	81.06
482.717	98.06
482.935	86.06
483.153	96.06
483.372	95.06
483.59	85.06
483.808	80.06
484.027	91.06
484.245	93.06
484.463	94.06
484.681	101.06
484.9	95.06
485.118	81.06
485.336	95.06
485.554	88.06
485.772	110.06
485.99	97.06
486.209	97.06
486.427	100.06
486.645	108.06
486.863	103.06
487.081	104.06
487.299	97.06
487.517	85.06
487.735	82.06
487.953	97.06
488.171	90.06
488.389	100.06
488.607	97.06
488.825	91.06
489.043	77.06
489.261	83.06
489.479	93.06
489.696	91.06
489.914	88.06
490.132	79.06
490.35	90.06
490.568	79.06
490.786	77.06
491.003	88.06
491.221	83.06
491.439	87.06
491.657	91.06
491.874	77.06
492.092	84.06
492.31	89.06
492.527	81.06
492.745	89.06
492.963	86.06
493.18	92.06
493.398	87.06
493.615	101.06
493.833	90.06
494.05	89.06
494.268	81.06
494.485	96.06
494.703	100.06
494.92	71.06
495.138	86.06
495.355	96.06
495.573	89.06
495.79	87.06
496.008	97.06
496.225	79.06
496.442	79.06
496.66	89.06
496.877	96.06
497.094	97.06
497.312	90.06
497.529	75.06
497.746	62.06
497.963	95.06
498.181	83.06
498.398	89.06
498.615	103.06
498.832	101.06
499.049	81.06
499.267	84.06
499.484	97.06
499.701	85.06
499.918	102.06
500.135	95.06
500.352	90.06
500.569	98.06
500.786	81.06
501.003	102.06
501.22	83.06
501.437	87.06
501.654	95.06
501.871	108.06
502.088	103.06
502.305	97.06
502.522	93.06
502.739	102.06
502.956	96.06
503.172	93.06
503.389	95.06
503.606	95.06
503.823	99.06
504.04	97.06
504.256	88.06
504.473	87.06
504.69	85.06
504.907	77.06
505.123	80.06
505.34	81.06
505.557	89.06
505.773	88.06
505.99	81.06
506.207	78.06
506.423	94.06
506.64	87.06
506.856	81.06
507.073	92.06
507.289	91.06
507.506	88.06
507.722	107.06
507.939	106.06
508.155	98.06
508.372	86.06
508.588	89.06
508.805	83.06
509.021	91.06
509.238	90.06
509.454	110.06
509.67	98.06
509.887	99.06
510.103	122.06
510.319	202.06
510.536	792.06
510.752	2513.06
510.968	665.06
511.184	160.06
511.401	117.06
511.617	102.06
511.833	108.06
512.049	94.06
512.265	94.06
512.481	93.06
512.698	91.06
512.914	89.06
513.13	80.06
513.346	104.06
513.562	103.06
513.778	106.06
513.994	98.06
514.21	101.06
514.426	107.06
514.642	127.06
514.858	136.06
515.074	170.06
515.29	447.06
515.506	1501.06
515.721	562.06
515.937	141.06
516.153	107.06
516.369	109.06
