Data from Uncirc_1985_H10_HRD10591_00064.txt Node
Date: Wed Jan 03 12:18:30 EST 2024
User: Yrep
Spectrometer: HR+D1059
Trigger mode: 1
Integration Time (sec): 1.000000E-1
Scans to average: 1
Electric dark correction enabled: true
Nonlinearity correction enabled: false
Boxcar width: 0
XAxis mode: Wavelengths
Number of Pixels in Spectrum: 2048
>>>>>Begin Spectral Data<<<<<
223.165	-17.38
223.4	-17.38
223.635	-17.38
223.869	-33.38
224.104	-14.38
224.338	-30.38
224.573	-1.38
224.808	-15.38
225.042	-5.38
225.277	-11.38
225.511	-1.38
225.746	1.62
225.98	11.62
226.215	15.62
226.449	21.62
226.683	13.62
226.918	38.62
227.152	27.62
227.387	34.62
227.621	54.62
227.856	41.62
228.09	55.62
228.324	47.62
228.559	54.62
228.793	48.62
229.027	59.62
229.262	45.62
229.496	63.62
229.73	85.62
229.964	84.62
230.199	70.62
230.433	86.62
230.667	80.62
230.901	56.62
231.136	61.62
231.37	70.62
231.604	86.62
231.838	82.62
232.072	75.62
232.306	77.62
232.541	85.62
232.775	81.62
233.009	86.62
233.243	96.62
233.477	75.62
233.711	86.62
233.945	70.62
234.179	72.62
234.413	75.62
234.647	66.62
234.881	80.62
235.115	64.62
235.349	71.62
235.583	74.62
235.817	89.62
236.051	71.62
236.285	79.62
236.519	65.62
236.753	67.62
236.987	79.62
237.221	89.62
237.455	85.62
237.689	66.62
237.922	55.62
238.156	64.62
238.39	69.62
238.624	79.62
238.858	67.62
239.091	75.62
239.325	69.62
239.559	69.62
239.793	87.62
240.027	63.62
240.26	62.62
240.494	78.62
240.728	81.62
240.961	82.62
241.195	85.62
241.429	79.62
241.662	67.62
241.896	69.62
242.13	67.62
242.363	65.62
242.597	83.62
242.83	75.62
243.064	75.62
243.298	78.62
243.531	81.62
243.765	79.62
243.998	86.62
244.232	78.62
244.465	78.62
244.699	80.62
244.932	70.62
245.166	61.62
245.399	86.62
245.633	69.62
245.866	67.62
246.099	61.62
246.333	77.62
246.566	82.62
246.8	62.62
247.033	83.62
247.266	63.62
247.5	73.62
247.733	81.62
247.966	61.62
248.2	79.62
248.433	72.62
248.666	92.62
248.899	83.62
249.133	93.62
249.366	98.62
249.599	89.62
249.832	84.62
250.066	80.62
250.299	76.62
250.532	74.62
250.765	81.62
250.998	70.62
251.231	65.62
251.465	67.62
251.698	77.62
251.931	99.62
252.164	70.62
252.397	88.62
252.63	83.62
252.863	73.62
253.096	79.62
253.329	83.62
253.562	83.62
253.795	89.62
254.028	76.62
254.261	68.62
254.494	64.62
254.727	71.62
254.96	65.62
255.193	79.62
255.426	67.62
255.659	73.62
255.892	78.62
256.124	68.62
256.357	87.62
256.59	65.62
256.823	74.62
257.056	79.62
257.289	77.62
257.521	67.62
257.754	66.62
257.987	80.62
258.22	87.62
258.452	78.62
258.685	94.62
258.918	82.62
259.151	83.62
259.383	80.62
259.616	71.62
259.849	77.62
260.081	84.62
260.314	87.62
260.547	70.62
260.779	68.62
261.012	82.62
261.244	85.62
261.477	92.62
261.71	89.62
261.942	110.62
262.175	114.62
262.407	95.62
262.64	74.62
262.872	88.62
263.105	83.62
263.337	79.62
263.57	64.62
263.802	91.62
264.035	84.62
264.267	81.62
264.499	83.62
264.732	71.62
264.964	87.62
265.197	90.62
265.429	90.62
265.661	91.62
265.894	81.62
266.126	87.62
266.358	83.62
266.591	81.62
266.823	87.62
267.055	77.62
267.287	77.62
267.52	84.62
267.752	81.62
267.984	91.62
268.216	76.62
268.448	76.62
268.681	82.62
268.913	89.62
269.145	68.62
269.377	86.62
269.609	83.62
269.841	78.62
270.073	80.62
270.306	67.62
270.538	61.62
270.77	88.62
271.002	86.62
271.234	70.62
271.466	86.62
271.698	73.62
271.93	94.62
272.162	84.62
272.394	97.62
272.626	78.62
272.858	89.62
273.09	82.62
273.322	88.62
273.553	82.62
273.785	97.62
274.017	89.62
274.249	83.62
274.481	84.62
274.713	72.62
274.945	82.62
275.176	72.62
275.408	85.62
275.64	82.62
275.872	86.62
276.104	73.62
276.335	84.62
276.567	96.62
276.799	85.62
277.031	102.62
277.262	83.62
277.494	86.62
277.726	83.62
277.957	90.62
278.189	70.62
278.421	72.62
278.652	76.62
278.884	77.62
279.115	84.62
279.347	83.62
279.579	83.62
279.81	92.62
280.042	75.62
280.273	84.62
280.505	68.62
280.736	82.62
280.968	90.62
281.199	81.62
281.431	82.62
281.662	75.62
281.894	75.62
282.125	95.62
282.356	106.62
282.588	132.62
282.819	120.62
283.051	92.62
283.282	85.62
283.513	91.62
283.745	83.62
283.976	70.62
284.207	79.62
284.439	75.62
284.67	88.62
284.901	79.62
285.132	87.62
285.364	85.62
285.595	83.62
285.826	73.62
286.057	77.62
286.288	97.62
286.52	81.62
286.751	73.62
286.982	89.62
287.213	77.62
287.444	82.62
287.675	79.62
287.906	84.62
288.138	82.62
288.369	86.62
288.6	85.62
288.831	81.62
289.062	85.62
289.293	80.62
289.524	90.62
289.755	91.62
289.986	88.62
290.217	82.62
290.448	88.62
290.679	89.62
290.91	88.62
291.141	88.62
291.371	97.62
291.602	76.62
291.833	94.62
292.064	84.62
292.295	83.62
292.526	98.62
292.757	91.62
292.987	78.62
293.218	69.62
293.449	79.62
293.68	79.62
293.91	98.62
294.141	77.62
294.372	90.62
294.603	84.62
294.833	94.62
295.064	85.62
295.295	105.62
295.525	87.62
295.756	98.62
295.987	117.62
296.217	123.62
296.448	128.62
296.679	100.62
296.909	90.62
297.14	76.62
297.37	86.62
297.601	84.62
297.831	91.62
298.062	84.62
298.292	84.62
298.523	76.62
298.753	86.62
298.984	91.62
299.214	83.62
299.445	81.62
299.675	88.62
299.905	99.62
300.136	84.62
300.366	81.62
300.597	105.62
300.827	92.62
301.057	101.62
301.288	83.62
301.518	85.62
301.748	82.62
301.979	93.62
302.209	104.62
302.439	98.62
302.669	92.62
302.9	76.62
303.13	94.62
303.36	94.62
303.59	96.62
303.82	97.62
304.051	96.62
304.281	79.62
304.511	77.62
304.741	73.62
304.971	86.62
305.201	92.62
305.431	89.62
305.661	79.62
305.891	85.62
306.121	83.62
306.352	95.62
306.582	94.62
306.812	91.62
307.042	93.62
307.272	80.62
307.502	102.62
307.731	89.62
307.961	93.62
308.191	80.62
308.421	96.62
308.651	88.62
308.881	79.62
309.111	91.62
309.341	93.62
309.571	101.62
309.8	90.62
310.03	85.62
310.26	90.62
310.49	92.62
310.72	109.62
310.949	89.62
311.179	92.62
311.409	89.62
311.639	92.62
311.868	110.62
312.098	86.62
312.328	88.62
312.557	87.62
312.787	88.62
313.017	91.62
313.246	94.62
313.476	93.62
313.706	76.62
313.935	95.62
314.165	86.62
314.394	83.62
314.624	93.62
314.853	99.62
315.083	92.62
315.312	76.62
315.542	88.62
315.771	86.62
316.001	76.62
316.23	71.62
316.46	87.62
316.689	77.62
316.919	87.62
317.148	95.62
317.377	83.62
317.607	78.62
317.836	107.62
318.065	86.62
318.295	92.62
318.524	82.62
318.753	87.62
318.983	93.62
319.212	91.62
319.441	96.62
319.67	91.62
319.9	88.62
320.129	88.62
320.358	87.62
320.587	93.62
320.816	95.62
321.046	101.62
321.275	100.62
321.504	97.62
321.733	95.62
321.962	110.62
322.191	94.62
322.42	97.62
322.649	97.62
322.878	114.62
323.108	110.62
323.337	117.62
323.566	116.62
323.795	159.62
324.024	196.62
324.253	385.62
324.482	808.62
324.71	1672.62
324.939	2188.62
325.168	800.62
325.397	231.62
325.626	129.62
325.855	130.62
326.084	123.62
326.313	120.62
326.542	143.62
326.77	229.62
326.999	424.62
327.228	920.62
327.457	1685.62
327.686	1345.62
327.914	374.62
328.143	192.62
328.372	153.62
328.6	132.62
328.829	104.62
329.058	112.62
329.287	112.62
329.515	127.62
329.744	102.62
329.972	101.62
330.201	102.62
330.43	148.62
330.658	116.62
330.887	131.62
331.115	109.62
331.344	101.62
331.572	95.62
331.801	105.62
332.03	95.62
332.258	90.62
332.486	95.62
332.715	91.62
332.943	93.62
333.172	76.62
333.4	83.62
333.629	108.62
333.857	113.62
334.085	106.62
334.314	120.62
334.542	134.62
334.771	158.62
334.999	100.62
335.227	107.62
335.455	93.62
335.684	96.62
335.912	97.62
336.14	86.62
336.369	90.62
336.597	86.62
336.825	103.62
337.053	85.62
337.281	77.62
337.51	88.62
337.738	94.62
337.966	91.62
338.194	80.62
338.422	89.62
338.65	111.62
338.878	92.62
339.106	82.62
339.334	90.62
339.562	102.62
339.79	101.62
340.018	83.62
340.246	81.62
340.474	89.62
340.702	100.62
340.93	77.62
341.158	100.62
341.386	86.62
341.614	101.62
341.842	86.62
342.07	92.62
342.298	102.62
342.526	86.62
342.754	91.62
342.981	85.62
343.209	96.62
343.437	93.62
343.665	96.62
343.893	80.62
344.12	110.62
344.348	67.62
344.576	93.62
344.804	82.62
345.031	105.62
345.259	96.62
345.487	92.62
345.714	92.62
345.942	76.62
346.17	90.62
346.397	97.62
346.625	100.62
346.853	87.62
347.08	84.62
347.308	81.62
347.535	103.62
347.763	82.62
347.99	78.62
348.218	98.62
348.445	101.62
348.673	84.62
348.9	96.62
349.128	84.62
349.355	88.62
349.583	86.62
349.81	101.62
350.037	81.62
350.265	89.62
350.492	97.62
350.72	95.62
350.947	104.62
351.174	107.62
351.402	101.62
351.629	114.62
351.856	105.62
352.083	97.62
352.311	93.62
352.538	97.62
352.765	105.62
352.992	117.62
353.22	108.62
353.447	95.62
353.674	101.62
353.901	85.62
354.128	88.62
354.355	88.62
354.583	102.62
354.81	87.62
355.037	97.62
355.264	84.62
355.491	95.62
355.718	86.62
355.945	92.62
356.172	99.62
356.399	96.62
356.626	82.62
356.853	92.62
357.08	85.62
357.307	92.62
357.534	85.62
357.761	74.62
357.988	89.62
358.215	82.62
358.441	72.62
358.668	88.62
358.895	93.62
359.122	101.62
359.349	81.62
359.576	97.62
359.802	94.62
360.029	93.62
360.256	96.62
360.483	84.62
360.709	75.62
360.936	104.62
361.163	94.62
361.39	112.62
361.616	85.62
361.843	92.62
362.07	81.62
362.296	103.62
362.523	91.62
362.749	97.62
362.976	82.62
363.203	82.62
363.429	90.62
363.656	92.62
363.882	69.62
364.109	84.62
364.335	99.62
364.562	90.62
364.788	80.62
365.015	82.62
365.241	92.62
365.468	93.62
365.694	88.62
365.92	87.62
366.147	100.62
366.373	75.62
366.599	93.62
366.826	76.62
367.052	94.62
367.278	89.62
367.505	95.62
367.731	86.62
367.957	92.62
368.184	92.62
368.41	91.62
368.636	111.62
368.862	109.62
369.089	88.62
369.315	93.62
369.541	91.62
369.767	90.62
369.993	94.62
370.219	104.62
370.445	84.62
370.672	81.62
370.898	98.62
371.124	82.62
371.35	81.62
371.576	93.62
371.802	78.62
372.028	85.62
372.254	83.62
372.48	91.62
372.706	93.62
372.932	89.62
373.158	88.62
373.384	103.62
373.61	101.62
373.835	91.62
374.061	97.62
374.287	94.62
374.513	84.62
374.739	85.62
374.965	89.62
375.191	79.62
375.416	83.62
375.642	88.62
375.868	93.62
376.094	92.62
376.319	72.62
376.545	84.62
376.771	103.62
376.997	88.62
377.222	81.62
377.448	93.62
377.674	97.62
377.899	80.62
378.125	83.62
378.35	93.62
378.576	79.62
378.802	75.62
379.027	82.62
379.253	96.62
379.478	87.62
379.704	79.62
379.929	92.62
380.155	88.62
380.38	98.62
380.606	90.62
380.831	95.62
381.057	90.62
381.282	99.62
381.507	93.62
381.733	109.62
381.958	97.62
382.184	104.62
382.409	90.62
382.634	104.62
382.86	110.62
383.085	83.62
383.31	92.62
383.535	95.62
383.761	80.62
383.986	86.62
384.211	96.62
384.436	89.62
384.662	83.62
384.887	98.62
385.112	99.62
385.337	93.62
385.562	81.62
385.787	113.62
386.013	98.62
386.238	103.62
386.463	102.62
386.688	103.62
386.913	96.62
387.138	93.62
387.363	99.62
387.588	95.62
387.813	79.62
388.038	113.62
388.263	100.62
388.488	102.62
388.713	99.62
388.938	105.62
389.163	93.62
389.387	104.62
389.612	77.62
389.837	86.62
390.062	103.62
390.287	98.62
390.512	98.62
390.736	86.62
390.961	100.62
391.186	102.62
391.411	79.62
391.636	70.62
391.86	81.62
392.085	70.62
392.31	68.62
392.534	81.62
392.759	77.62
392.984	82.62
393.208	84.62
393.433	88.62
393.658	96.62
393.882	90.62
394.107	67.62
394.331	79.62
394.556	90.62
394.78	97.62
395.005	87.62
395.229	91.62
395.454	84.62
395.678	96.62
395.903	89.62
396.127	80.62
396.352	83.62
396.576	79.62
396.801	93.62
397.025	80.62
397.249	94.62
397.474	92.62
397.698	89.62
397.922	70.62
398.147	90.62
398.371	77.62
398.595	94.62
398.82	83.62
399.044	81.62
399.268	85.62
399.492	94.62
399.717	75.62
399.941	88.62
400.165	91.62
400.389	99.62
400.613	88.62
400.837	94.62
401.062	91.62
401.286	75.62
401.51	79.62
401.734	83.62
401.958	89.62
402.182	128.62
402.406	149.62
402.63	117.62
402.854	83.62
403.078	95.62
403.302	89.62
403.526	93.62
403.75	87.62
403.974	88.62
404.198	81.62
404.422	85.62
404.645	84.62
404.869	93.62
405.093	83.62
405.317	87.62
405.541	89.62
405.765	96.62
405.988	111.62
406.212	151.62
406.436	224.62
406.66	133.62
406.883	89.62
407.107	77.62
407.331	88.62
407.555	88.62
407.778	105.62
408.002	82.62
408.226	84.62
408.449	84.62
408.673	77.62
408.896	97.62
409.12	83.62
409.344	91.62
409.567	83.62
409.791	82.62
410.014	89.62
410.238	90.62
410.461	100.62
410.685	86.62
410.908	74.62
411.132	105.62
411.355	92.62
411.578	87.62
411.802	80.62
412.025	77.62
412.249	81.62
412.472	94.62
412.695	95.62
412.919	90.62
413.142	80.62
413.365	79.62
413.589	93.62
413.812	96.62
414.035	90.62
414.258	81.62
414.482	81.62
414.705	78.62
414.928	99.62
415.151	93.62
415.374	86.62
415.597	75.62
415.821	79.62
416.044	85.62
416.267	83.62
416.49	84.62
416.713	87.62
416.936	80.62
417.159	81.62
417.382	100.62
417.605	88.62
417.828	91.62
418.051	87.62
418.274	85.62
418.497	76.62
418.72	88.62
418.943	93.62
419.166	83.62
419.389	88.62
419.611	89.62
419.834	92.62
420.057	93.62
420.28	86.62
420.503	84.62
420.726	76.62
420.948	83.62
421.171	91.62
421.394	87.62
421.617	96.62
421.839	92.62
422.062	91.62
422.285	84.62
422.507	87.62
422.73	104.62
422.953	83.62
423.175	91.62
423.398	89.62
423.621	79.62
423.843	92.62
424.066	75.62
424.288	82.62
424.511	93.62
424.733	86.62
424.956	104.62
425.178	102.62
425.401	108.62
425.623	88.62
425.846	83.62
426.068	96.62
426.291	79.62
426.513	87.62
426.735	89.62
426.958	86.62
427.18	100.62
427.402	133.62
427.625	163.62
427.847	120.62
428.069	109.62
428.292	92.62
428.514	99.62
428.736	89.62
428.958	72.62
429.181	79.62
429.403	91.62
429.625	85.62
429.847	81.62
430.069	96.62
430.292	86.62
430.514	70.62
430.736	79.62
430.958	88.62
431.18	82.62
431.402	91.62
431.624	86.62
431.846	62.62
432.068	84.62
432.29	74.62
432.512	91.62
432.734	88.62
432.956	95.62
433.178	97.62
433.4	102.62
433.622	101.62
433.844	80.62
434.066	83.62
434.287	82.62
434.509	82.62
434.731	82.62
434.953	80.62
435.175	85.62
435.397	81.62
435.618	93.62
435.84	100.62
436.062	123.62
436.284	108.62
436.505	91.62
436.727	110.62
436.949	97.62
437.17	92.62
437.392	86.62
437.614	110.62
437.835	96.62
438.057	105.62
438.278	104.62
438.5	101.62
438.721	120.62
438.943	111.62
439.165	94.62
439.386	93.62
439.608	80.62
439.829	90.62
440.05	109.62
440.272	137.62
440.493	100.62
440.715	88.62
440.936	90.62
441.158	99.62
441.379	84.62
441.6	87.62
441.822	88.62
442.043	87.62
442.264	91.62
442.486	85.62
442.707	99.62
442.928	105.62
443.149	132.62
443.371	121.62
443.592	104.62
443.813	104.62
444.034	95.62
444.255	80.62
444.476	92.62
444.698	81.62
444.919	87.62
445.14	132.62
445.361	132.62
445.582	110.62
445.803	128.62
446.024	127.62
446.245	125.62
446.466	111.62
446.687	87.62
446.908	93.62
447.129	92.62
447.35	92.62
447.571	80.62
447.792	93.62
448.013	89.62
448.234	110.62
448.455	105.62
448.675	114.62
448.896	112.62
449.117	86.62
449.338	98.62
449.559	117.62
449.779	128.62
450	96.62
450.221	88.62
450.442	85.62
450.662	89.62
450.883	98.62
451.104	107.62
451.324	95.62
451.545	86.62
451.766	91.62
451.986	83.62
452.207	81.62
452.428	94.62
452.648	100.62
452.869	103.62
453.089	113.62
453.31	112.62
453.53	91.62
453.751	81.62
453.971	95.62
454.192	97.62
454.412	89.62
454.633	100.62
454.853	95.62
455.073	80.62
455.294	103.62
455.514	87.62
455.734	87.62
455.955	91.62
456.175	92.62
456.395	92.62
456.616	88.62
456.836	79.62
457.056	84.62
457.276	75.62
457.497	83.62
457.717	76.62
457.937	88.62
458.157	86.62
458.377	96.62
458.598	113.62
458.818	136.62
459.038	148.62
459.258	126.62
459.478	93.62
459.698	75.62
459.918	80.62
460.138	79.62
460.358	84.62
460.578	87.62
460.798	84.62
461.018	86.62
461.238	80.62
461.458	79.62
461.678	81.62
461.898	76.62
462.118	97.62
462.338	69.62
462.558	74.62
462.777	90.62
462.997	76.62
463.217	87.62
463.437	68.62
463.657	70.62
463.876	81.62
464.096	77.62
464.316	92.62
464.536	85.62
464.755	94.62
464.975	98.62
465.195	155.62
465.414	153.62
465.634	77.62
465.854	102.62
466.073	88.62
466.293	92.62
466.512	88.62
466.732	79.62
466.951	70.62
467.171	87.62
467.391	106.62
467.61	95.62
467.829	100.62
468.049	109.62
468.268	114.62
468.488	97.62
468.707	91.62
468.927	91.62
469.146	74.62
469.365	93.62
469.585	91.62
469.804	98.62
470.023	89.62
470.243	88.62
470.462	94.62
470.681	110.62
470.901	89.62
471.12	75.62
471.339	88.62
471.558	84.62
471.777	79.62
471.997	83.62
472.216	114.62
472.435	179.62
472.654	85.62
472.873	87.62
473.092	78.62
473.311	75.62
473.53	80.62
473.749	78.62
473.968	87.62
474.187	96.62
474.406	80.62
474.625	92.62
474.844	95.62
475.063	75.62
475.282	83.62
475.501	75.62
475.72	81.62
475.939	80.62
476.158	77.62
476.377	91.62
476.596	83.62
476.814	101.62
477.033	89.62
477.252	84.62
477.471	89.62
477.69	82.62
477.908	79.62
478.127	77.62
478.346	86.62
478.564	102.62
478.783	87.62
479.002	89.62
479.22	87.62
479.439	109.62
479.658	91.62
479.876	89.62
480.095	96.62
480.313	96.62
480.532	91.62
480.751	100.62
480.969	120.62
481.188	240.62
481.406	196.62
481.624	104.62
481.843	98.62
482.061	100.62
482.28	98.62
482.498	65.62
482.717	86.62
482.935	92.62
483.153	89.62
483.372	97.62
483.59	94.62
483.808	83.62
484.027	96.62
484.245	104.62
484.463	107.62
484.681	92.62
484.9	82.62
485.118	102.62
485.336	83.62
485.554	91.62
485.772	100.62
485.99	99.62
486.209	104.62
486.427	93.62
486.645	110.62
486.863	114.62
487.081	98.62
487.299	109.62
487.517	94.62
487.735	79.62
487.953	90.62
488.171	90.62
488.389	92.62
488.607	97.62
488.825	91.62
489.043	71.62
489.261	85.62
489.479	91.62
489.696	84.62
489.914	84.62
490.132	76.62
490.35	95.62
490.568	84.62
490.786	87.62
491.003	88.62
491.221	80.62
491.439	87.62
491.657	92.62
491.874	79.62
492.092	90.62
492.31	97.62
492.527	80.62
492.745	80.62
492.963	73.62
493.18	88.62
493.398	80.62
493.615	106.62
493.833	99.62
494.05	91.62
494.268	85.62
494.485	99.62
494.703	84.62
494.92	87.62
495.138	89.62
495.355	80.62
495.573	80.62
495.79	77.62
496.008	81.62
496.225	81.62
496.442	83.62
496.66	87.62
496.877	86.62
497.094	88.62
497.312	72.62
497.529	90.62
497.746	81.62
497.963	88.62
498.181	84.62
498.398	86.62
498.615	86.62
498.832	101.62
499.049	85.62
499.267	93.62
499.484	93.62
499.701	77.62
499.918	97.62
500.135	88.62
500.352	84.62
500.569	88.62
500.786	89.62
501.003	86.62
501.22	84.62
501.437	100.62
501.654	105.62
501.871	107.62
502.088	91.62
502.305	86.62
502.522	97.62
502.739	88.62
502.956	80.62
503.172	95.62
503.389	101.62
503.606	103.62
503.823	81.62
504.04	87.62
504.256	94.62
504.473	85.62
504.69	88.62
504.907	103.62
505.123	103.62
505.34	87.62
505.557	88.62
505.773	100.62
505.99	89.62
506.207	92.62
506.423	88.62
506.64	85.62
506.856	99.62
507.073	86.62
507.289	84.62
507.506	92.62
507.722	112.62
507.939	91.62
508.155	95.62
508.372	88.62
508.588	83.62
508.805	90.62
509.021	91.62
509.238	97.62
509.454	98.62
509.67	111.62
509.887	97.62
510.103	123.62
510.319	211.62
510.536	758.62
510.752	2403.62
510.968	634.62
511.184	156.62
511.401	109.62
511.617	100.62
511.833	87.62
512.049	87.62
512.265	92.62
512.481	93.62
512.698	97.62
512.914	94.62
513.13	93.62
513.346	96.62
513.562	90.62
513.778	94.62
513.994	85.62
514.21	99.62
514.426	119.62
514.642	142.62
514.858	121.62
515.074	161.62
515.29	436.62
515.506	1421.62
515.721	532.62
515.937	147.62
516.153	104.62
516.369	93.62
516.585	91.62
