Data from Uncirc_1985_H10_HRD10591_00020.txt Node
Date: Wed Jan 03 12:18:21 EST 2024
User: Yrep
Spectrometer: HR+D1059
Trigger mode: 1
Integration Time (sec): 1.000000E-1
Scans to average: 1
Electric dark correction enabled: true
Nonlinearity correction enabled: false
Boxcar width: 0
XAxis mode: Wavelengths
Number of Pixels in Spectrum: 2048
>>>>>Begin Spectral Data<<<<<
223.165	-19.38
223.4	-19.38
223.635	-19.38
223.869	-9.38
224.104	-18.38
224.338	-16.38
224.573	-23.38
224.808	-10.38
225.042	-18.38
225.277	-7.38
225.511	-2.38
225.746	13.62
225.98	1.62
226.215	14.62
226.449	32.62
226.683	25.62
226.918	17.62
227.152	19.62
227.387	33.62
227.621	40.62
227.856	48.62
228.09	57.62
228.324	74.62
228.559	74.62
228.793	69.62
229.027	65.62
229.262	66.62
229.496	64.62
229.73	75.62
229.964	93.62
230.199	67.62
230.433	67.62
230.667	82.62
230.901	93.62
231.136	83.62
231.37	80.62
231.604	91.62
231.838	82.62
232.072	78.62
232.306	94.62
232.541	68.62
232.775	72.62
233.009	78.62
233.243	92.62
233.477	83.62
233.711	94.62
233.945	81.62
234.179	83.62
234.413	70.62
234.647	87.62
234.881	79.62
235.115	87.62
235.349	85.62
235.583	84.62
235.817	84.62
236.051	74.62
236.285	76.62
236.519	83.62
236.753	78.62
236.987	90.62
237.221	73.62
237.455	81.62
237.689	73.62
237.922	87.62
238.156	79.62
238.39	89.62
238.624	74.62
238.858	75.62
239.091	79.62
239.325	76.62
239.559	85.62
239.793	69.62
240.027	86.62
240.26	82.62
240.494	85.62
240.728	90.62
240.961	78.62
241.195	78.62
241.429	66.62
241.662	78.62
241.896	83.62
242.13	74.62
242.363	93.62
242.597	91.62
242.83	73.62
243.064	83.62
243.298	78.62
243.531	72.62
243.765	75.62
243.998	93.62
244.232	85.62
244.465	76.62
244.699	97.62
244.932	81.62
245.166	89.62
245.399	92.62
245.633	92.62
245.866	78.62
246.099	85.62
246.333	76.62
246.566	72.62
246.8	79.62
247.033	90.62
247.266	75.62
247.5	84.62
247.733	92.62
247.966	89.62
248.2	89.62
248.433	79.62
248.666	81.62
248.899	85.62
249.133	81.62
249.366	102.62
249.599	81.62
249.832	71.62
250.066	92.62
250.299	84.62
250.532	76.62
250.765	81.62
250.998	92.62
251.231	95.62
251.465	78.62
251.698	71.62
251.931	84.62
252.164	74.62
252.397	89.62
252.63	72.62
252.863	82.62
253.096	87.62
253.329	82.62
253.562	73.62
253.795	85.62
254.028	85.62
254.261	82.62
254.494	83.62
254.727	93.62
254.96	88.62
255.193	82.62
255.426	79.62
255.659	85.62
255.892	76.62
256.124	83.62
256.357	83.62
256.59	80.62
256.823	89.62
257.056	97.62
257.289	88.62
257.521	77.62
257.754	72.62
257.987	78.62
258.22	68.62
258.452	74.62
258.685	81.62
258.918	91.62
259.151	89.62
259.383	92.62
259.616	100.62
259.849	75.62
260.081	83.62
260.314	85.62
260.547	87.62
260.779	87.62
261.012	83.62
261.244	92.62
261.477	82.62
261.71	99.62
261.942	93.62
262.175	105.62
262.407	89.62
262.64	92.62
262.872	93.62
263.105	99.62
263.337	96.62
263.57	76.62
263.802	77.62
264.035	62.62
264.267	81.62
264.499	89.62
264.732	90.62
264.964	98.62
265.197	87.62
265.429	85.62
265.661	92.62
265.894	79.62
266.126	90.62
266.358	91.62
266.591	77.62
266.823	89.62
267.055	89.62
267.287	82.62
267.52	94.62
267.752	95.62
267.984	68.62
268.216	75.62
268.448	89.62
268.681	79.62
268.913	89.62
269.145	96.62
269.377	90.62
269.609	89.62
269.841	82.62
270.073	85.62
270.306	83.62
270.538	84.62
270.77	88.62
271.002	95.62
271.234	94.62
271.466	88.62
271.698	86.62
271.93	93.62
272.162	90.62
272.394	88.62
272.626	97.62
272.858	84.62
273.09	77.62
273.322	93.62
273.553	81.62
273.785	76.62
274.017	77.62
274.249	77.62
274.481	74.62
274.713	65.62
274.945	87.62
275.176	86.62
275.408	90.62
275.64	84.62
275.872	96.62
276.104	83.62
276.335	87.62
276.567	100.62
276.799	123.62
277.031	122.62
277.262	92.62
277.494	85.62
277.726	90.62
277.957	104.62
278.189	98.62
278.421	93.62
278.652	93.62
278.884	103.62
279.115	92.62
279.347	91.62
279.579	83.62
279.81	101.62
280.042	86.62
280.273	83.62
280.505	81.62
280.736	95.62
280.968	97.62
281.199	86.62
281.431	92.62
281.662	94.62
281.894	98.62
282.125	106.62
282.356	110.62
282.588	121.62
282.819	95.62
283.051	82.62
283.282	95.62
283.513	85.62
283.745	82.62
283.976	85.62
284.207	84.62
284.439	80.62
284.67	91.62
284.901	82.62
285.132	95.62
285.364	97.62
285.595	99.62
285.826	90.62
286.057	96.62
286.288	87.62
286.52	79.62
286.751	93.62
286.982	106.62
287.213	84.62
287.444	92.62
287.675	90.62
287.906	83.62
288.138	96.62
288.369	95.62
288.6	94.62
288.831	90.62
289.062	95.62
289.293	94.62
289.524	83.62
289.755	97.62
289.986	89.62
290.217	88.62
290.448	82.62
290.679	94.62
290.91	92.62
291.141	77.62
291.371	99.62
291.602	77.62
291.833	89.62
292.064	89.62
292.295	95.62
292.526	94.62
292.757	89.62
292.987	80.62
293.218	94.62
293.449	94.62
293.68	92.62
293.91	84.62
294.141	97.62
294.372	102.62
294.603	86.62
294.833	92.62
295.064	88.62
295.295	100.62
295.525	85.62
295.756	111.62
295.987	119.62
296.217	126.62
296.448	108.62
296.679	95.62
296.909	106.62
297.14	102.62
297.37	87.62
297.601	85.62
297.831	89.62
298.062	103.62
298.292	95.62
298.523	97.62
298.753	92.62
298.984	81.62
299.214	99.62
299.445	99.62
299.675	97.62
299.905	92.62
300.136	92.62
300.366	79.62
300.597	81.62
300.827	88.62
301.057	95.62
301.288	98.62
301.518	106.62
301.748	96.62
301.979	109.62
302.209	94.62
302.439	99.62
302.669	81.62
302.9	98.62
303.13	86.62
303.36	97.62
303.59	104.62
303.82	94.62
304.051	94.62
304.281	98.62
304.511	82.62
304.741	81.62
304.971	92.62
305.201	96.62
305.431	87.62
305.661	102.62
305.891	97.62
306.121	97.62
306.352	97.62
306.582	98.62
306.812	99.62
307.042	89.62
307.272	78.62
307.502	99.62
307.731	100.62
307.961	108.62
308.191	114.62
308.421	95.62
308.651	98.62
308.881	96.62
309.111	99.62
309.341	92.62
309.571	97.62
309.8	101.62
310.03	103.62
310.26	107.62
310.49	88.62
310.72	93.62
310.949	94.62
311.179	97.62
311.409	84.62
311.639	103.62
311.868	92.62
312.098	102.62
312.328	89.62
312.557	101.62
312.787	92.62
313.017	89.62
313.246	94.62
313.476	102.62
313.706	99.62
313.935	97.62
314.165	105.62
314.394	98.62
314.624	100.62
314.853	89.62
315.083	88.62
315.312	91.62
315.542	95.62
315.771	90.62
316.001	82.62
316.23	102.62
316.46	77.62
316.689	104.62
316.919	97.62
317.148	83.62
317.377	99.62
317.607	92.62
317.836	101.62
318.065	89.62
318.295	97.62
318.524	86.62
318.753	100.62
318.983	92.62
319.212	91.62
319.441	93.62
319.67	93.62
319.9	95.62
320.129	100.62
320.358	98.62
320.587	114.62
320.816	104.62
321.046	97.62
321.275	104.62
321.504	112.62
321.733	102.62
321.962	123.62
322.191	97.62
322.42	97.62
322.649	113.62
322.878	113.62
323.108	131.62
323.337	123.62
323.566	131.62
323.795	130.62
324.024	189.62
324.253	353.62
324.482	723.62
324.71	1482.62
324.939	1947.62
325.168	720.62
325.397	225.62
325.626	145.62
325.855	140.62
326.084	132.62
326.313	132.62
326.542	147.62
326.77	218.62
326.999	414.62
327.228	840.62
327.457	1521.62
327.686	1194.62
327.914	340.62
328.143	183.62
328.372	142.62
328.6	111.62
328.829	108.62
329.058	118.62
329.287	116.62
329.515	106.62
329.744	98.62
329.972	103.62
330.201	114.62
330.43	122.62
330.658	121.62
330.887	124.62
331.115	84.62
331.344	108.62
331.572	106.62
331.801	97.62
332.03	106.62
332.258	97.62
332.486	91.62
332.715	105.62
332.943	108.62
333.172	91.62
333.4	95.62
333.629	100.62
333.857	103.62
334.085	102.62
334.314	97.62
334.542	116.62
334.771	113.62
334.999	97.62
335.227	92.62
335.455	103.62
335.684	99.62
335.912	93.62
336.14	98.62
336.369	101.62
336.597	108.62
336.825	111.62
337.053	97.62
337.281	96.62
337.51	98.62
337.738	101.62
337.966	97.62
338.194	100.62
338.422	103.62
338.65	88.62
338.878	104.62
339.106	108.62
339.334	92.62
339.562	79.62
339.79	96.62
340.018	83.62
340.246	93.62
340.474	107.62
340.702	102.62
340.93	82.62
341.158	78.62
341.386	87.62
341.614	90.62
341.842	99.62
342.07	100.62
342.298	85.62
342.526	95.62
342.754	100.62
342.981	100.62
343.209	92.62
343.437	94.62
343.665	93.62
343.893	104.62
344.12	88.62
344.348	91.62
344.576	95.62
344.804	101.62
345.031	96.62
345.259	98.62
345.487	98.62
345.714	94.62
345.942	97.62
346.17	93.62
346.397	86.62
346.625	82.62
346.853	95.62
347.08	92.62
347.308	96.62
347.535	86.62
347.763	107.62
347.99	90.62
348.218	115.62
348.445	106.62
348.673	109.62
348.9	108.62
349.128	94.62
349.355	115.62
349.583	93.62
349.81	103.62
350.037	105.62
350.265	105.62
350.492	105.62
350.72	103.62
350.947	106.62
351.174	113.62
351.402	120.62
351.629	104.62
351.856	97.62
352.083	94.62
352.311	110.62
352.538	97.62
352.765	100.62
352.992	103.62
353.22	105.62
353.447	105.62
353.674	96.62
353.901	90.62
354.128	99.62
354.355	104.62
354.583	94.62
354.81	91.62
355.037	111.62
355.264	97.62
355.491	99.62
355.718	92.62
355.945	92.62
356.172	86.62
356.399	107.62
356.626	85.62
356.853	94.62
357.08	91.62
357.307	100.62
357.534	95.62
357.761	86.62
357.988	106.62
358.215	101.62
358.441	102.62
358.668	89.62
358.895	97.62
359.122	99.62
359.349	86.62
359.576	91.62
359.802	98.62
360.029	92.62
360.256	110.62
360.483	106.62
360.709	87.62
360.936	81.62
361.163	86.62
361.39	77.62
361.616	89.62
361.843	90.62
362.07	89.62
362.296	93.62
362.523	90.62
362.749	79.62
362.976	87.62
363.203	94.62
363.429	88.62
363.656	101.62
363.882	85.62
364.109	105.62
364.335	111.62
364.562	93.62
364.788	82.62
365.015	93.62
365.241	103.62
365.468	111.62
365.694	95.62
365.92	87.62
366.147	96.62
366.373	87.62
366.599	85.62
366.826	87.62
367.052	87.62
367.278	85.62
367.505	100.62
367.731	93.62
367.957	93.62
368.184	100.62
368.41	90.62
368.636	114.62
368.862	104.62
369.089	103.62
369.315	82.62
369.541	89.62
369.767	93.62
369.993	84.62
370.219	92.62
370.445	99.62
370.672	93.62
370.898	94.62
371.124	75.62
371.35	101.62
371.576	93.62
371.802	84.62
372.028	81.62
372.254	88.62
372.48	83.62
372.706	90.62
372.932	98.62
373.158	99.62
373.384	100.62
373.61	103.62
373.835	90.62
374.061	89.62
374.287	89.62
374.513	90.62
374.739	83.62
374.965	98.62
375.191	93.62
375.416	84.62
375.642	89.62
375.868	83.62
376.094	89.62
376.319	98.62
376.545	89.62
376.771	99.62
376.997	102.62
377.222	93.62
377.448	92.62
377.674	91.62
377.899	98.62
378.125	93.62
378.35	100.62
378.576	86.62
378.802	86.62
379.027	112.62
379.253	90.62
379.478	87.62
379.704	94.62
379.929	100.62
380.155	85.62
380.38	103.62
380.606	92.62
380.831	105.62
381.057	101.62
381.282	78.62
381.507	101.62
381.733	108.62
381.958	98.62
382.184	103.62
382.409	97.62
382.634	103.62
382.86	78.62
383.085	89.62
383.31	93.62
383.535	93.62
383.761	106.62
383.986	91.62
384.211	93.62
384.436	102.62
384.662	110.62
384.887	100.62
385.112	107.62
385.337	103.62
385.562	94.62
385.787	98.62
386.013	105.62
386.238	118.62
386.463	93.62
386.688	108.62
386.913	113.62
387.138	115.62
387.363	105.62
387.588	97.62
387.813	101.62
388.038	101.62
388.263	107.62
388.488	102.62
388.713	105.62
388.938	74.62
389.163	103.62
389.387	94.62
389.612	103.62
389.837	109.62
390.062	104.62
390.287	103.62
390.512	98.62
390.736	95.62
390.961	102.62
391.186	82.62
391.411	96.62
391.636	95.62
391.86	88.62
392.085	94.62
392.31	91.62
392.534	92.62
392.759	82.62
392.984	66.62
393.208	92.62
393.433	93.62
393.658	96.62
393.882	87.62
394.107	91.62
394.331	89.62
394.556	89.62
394.78	95.62
395.005	88.62
395.229	102.62
395.454	83.62
395.678	77.62
395.903	91.62
396.127	86.62
396.352	101.62
396.576	95.62
396.801	99.62
397.025	91.62
397.249	71.62
397.474	85.62
397.698	91.62
397.922	101.62
398.147	93.62
398.371	83.62
398.595	72.62
398.82	92.62
399.044	98.62
399.268	91.62
399.492	97.62
399.717	97.62
399.941	90.62
400.165	90.62
400.389	97.62
400.613	82.62
400.837	92.62
401.062	86.62
401.286	106.62
401.51	92.62
401.734	89.62
401.958	105.62
402.182	127.62
402.406	141.62
402.63	106.62
402.854	88.62
403.078	104.62
403.302	100.62
403.526	81.62
403.75	104.62
403.974	92.62
404.198	82.62
404.422	88.62
404.645	85.62
404.869	91.62
405.093	88.62
405.317	96.62
405.541	98.62
405.765	114.62
405.988	116.62
406.212	156.62
406.436	173.62
406.66	143.62
406.883	98.62
407.107	96.62
407.331	97.62
407.555	98.62
407.778	107.62
408.002	91.62
408.226	101.62
408.449	89.62
408.673	83.62
408.896	81.62
409.12	99.62
409.344	79.62
409.567	92.62
409.791	91.62
410.014	98.62
410.238	95.62
410.461	91.62
410.685	83.62
410.908	101.62
411.132	102.62
411.355	102.62
411.578	98.62
411.802	98.62
412.025	88.62
412.249	90.62
412.472	99.62
412.695	101.62
412.919	94.62
413.142	93.62
413.365	102.62
413.589	94.62
413.812	76.62
414.035	110.62
414.258	97.62
414.482	94.62
414.705	89.62
414.928	91.62
415.151	96.62
415.374	89.62
415.597	91.62
415.821	86.62
416.044	97.62
416.267	86.62
416.49	94.62
416.713	79.62
416.936	95.62
417.159	86.62
417.382	90.62
417.605	81.62
417.828	86.62
418.051	95.62
418.274	102.62
418.497	93.62
418.72	91.62
418.943	97.62
419.166	83.62
419.389	87.62
419.611	79.62
419.834	87.62
420.057	83.62
420.28	92.62
420.503	88.62
420.726	81.62
420.948	96.62
421.171	94.62
421.394	100.62
421.617	95.62
421.839	111.62
422.062	90.62
422.285	88.62
422.507	97.62
422.73	95.62
422.953	95.62
423.175	88.62
423.398	85.62
423.621	82.62
423.843	92.62
424.066	89.62
424.288	100.62
424.511	93.62
424.733	83.62
424.956	95.62
425.178	105.62
425.401	95.62
425.623	85.62
425.846	89.62
426.068	94.62
426.291	79.62
426.513	86.62
426.735	90.62
426.958	102.62
427.18	118.62
427.402	121.62
427.625	140.62
427.847	128.62
428.069	124.62
428.292	78.62
428.514	90.62
428.736	76.62
428.958	91.62
429.181	88.62
429.403	85.62
429.625	74.62
429.847	91.62
430.069	101.62
430.292	77.62
430.514	76.62
430.736	100.62
430.958	76.62
431.18	78.62
431.402	98.62
431.624	98.62
431.846	93.62
432.068	87.62
432.29	90.62
432.512	94.62
432.734	90.62
432.956	82.62
433.178	109.62
433.4	108.62
433.622	95.62
433.844	94.62
434.066	98.62
434.287	93.62
434.509	84.62
434.731	77.62
434.953	90.62
435.175	89.62
435.397	88.62
435.618	108.62
435.84	108.62
436.062	111.62
436.284	106.62
436.505	93.62
436.727	99.62
436.949	93.62
437.17	76.62
437.392	107.62
437.614	78.62
437.835	86.62
438.057	103.62
438.278	84.62
438.5	107.62
438.721	108.62
438.943	101.62
439.165	97.62
439.386	69.62
439.608	88.62
439.829	111.62
440.05	114.62
440.272	111.62
440.493	83.62
440.715	83.62
440.936	91.62
441.158	83.62
441.379	83.62
441.6	89.62
441.822	87.62
442.043	95.62
442.264	95.62
442.486	104.62
442.707	99.62
442.928	101.62
443.149	107.62
443.371	110.62
443.592	110.62
443.813	102.62
444.034	103.62
444.255	99.62
444.476	86.62
444.698	93.62
444.919	86.62
445.14	132.62
445.361	124.62
445.582	111.62
445.803	136.62
446.024	119.62
446.245	118.62
446.466	104.62
446.687	93.62
446.908	89.62
447.129	83.62
447.35	95.62
447.571	95.62
447.792	82.62
448.013	92.62
448.234	95.62
448.455	108.62
448.675	105.62
448.896	111.62
449.117	102.62
449.338	103.62
449.559	121.62
449.779	114.62
450	109.62
450.221	94.62
450.442	103.62
450.662	83.62
450.883	90.62
451.104	102.62
451.324	69.62
451.545	86.62
451.766	104.62
451.986	87.62
452.207	89.62
452.428	93.62
452.648	99.62
452.869	109.62
453.089	117.62
453.31	123.62
453.53	100.62
453.751	83.62
453.971	100.62
454.192	105.62
454.412	90.62
454.633	87.62
454.853	84.62
455.073	101.62
455.294	100.62
455.514	92.62
455.734	92.62
455.955	77.62
456.175	105.62
456.395	85.62
456.616	93.62
456.836	95.62
457.056	89.62
457.276	95.62
457.497	92.62
457.717	76.62
457.937	93.62
458.157	86.62
458.377	85.62
458.598	102.62
458.818	142.62
459.038	136.62
459.258	99.62
459.478	97.62
459.698	78.62
459.918	87.62
460.138	78.62
460.358	81.62
460.578	97.62
460.798	88.62
461.018	94.62
461.238	82.62
461.458	81.62
461.678	94.62
461.898	75.62
462.118	75.62
462.338	93.62
462.558	89.62
462.777	105.62
462.997	94.62
463.217	79.62
463.437	80.62
463.657	84.62
463.876	94.62
464.096	85.62
464.316	92.62
464.536	85.62
464.755	97.62
464.975	91.62
465.195	139.62
465.414	140.62
465.634	102.62
465.854	98.62
466.073	83.62
466.293	85.62
466.512	77.62
466.732	87.62
466.951	90.62
467.171	89.62
467.391	99.62
467.61	98.62
467.829	105.62
468.049	94.62
468.268	102.62
468.488	82.62
468.707	93.62
468.927	87.62
469.146	90.62
469.365	84.62
469.585	93.62
469.804	107.62
470.023	96.62
470.243	94.62
470.462	92.62
470.681	122.62
470.901	97.62
471.12	83.62
471.339	99.62
471.558	87.62
471.777	100.62
471.997	81.62
472.216	108.62
472.435	93.62
472.654	81.62
472.873	92.62
473.092	91.62
473.311	94.62
473.53	92.62
473.749	93.62
473.968	114.62
474.187	102.62
474.406	98.62
474.625	70.62
474.844	73.62
475.063	78.62
475.282	87.62
475.501	103.62
475.72	91.62
475.939	100.62
476.158	86.62
476.377	82.62
476.596	100.62
476.814	99.62
477.033	88.62
477.252	95.62
477.471	78.62
477.69	87.62
477.908	92.62
478.127	102.62
478.346	78.62
478.564	95.62
478.783	85.62
479.002	83.62
479.22	84.62
479.439	110.62
479.658	90.62
479.876	86.62
480.095	94.62
480.313	86.62
480.532	85.62
480.751	101.62
480.969	99.62
481.188	132.62
481.406	105.62
481.624	92.62
481.843	93.62
482.061	102.62
482.28	97.62
482.498	91.62
482.717	72.62
482.935	80.62
483.153	97.62
483.372	82.62
483.59	86.62
483.808	86.62
484.027	111.62
484.245	95.62
484.463	74.62
484.681	110.62
484.9	94.62
485.118	115.62
485.336	101.62
485.554	101.62
485.772	100.62
485.99	100.62
486.209	103.62
486.427	100.62
486.645	94.62
486.863	117.62
487.081	100.62
487.299	107.62
487.517	92.62
487.735	90.62
487.953	97.62
488.171	90.62
488.389	98.62
488.607	97.62
488.825	84.62
489.043	85.62
489.261	93.62
489.479	76.62
489.696	77.62
489.914	84.62
490.132	85.62
490.35	92.62
490.568	89.62
490.786	97.62
491.003	93.62
491.221	91.62
491.439	100.62
491.657	85.62
491.874	99.62
492.092	106.62
492.31	106.62
492.527	102.62
492.745	94.62
492.963	87.62
493.18	100.62
493.398	84.62
493.615	87.62
493.833	92.62
494.05	83.62
494.268	91.62
494.485	88.62
494.703	82.62
494.92	94.62
495.138	97.62
495.355	91.62
495.573	95.62
495.79	94.62
496.008	106.62
496.225	81.62
496.442	93.62
496.66	109.62
496.877	98.62
497.094	81.62
497.312	89.62
497.529	106.62
497.746	100.62
497.963	88.62
498.181	92.62
498.398	85.62
498.615	109.62
498.832	100.62
499.049	97.62
499.267	113.62
499.484	90.62
499.701	89.62
499.918	86.62
500.135	87.62
500.352	96.62
500.569	83.62
500.786	103.62
501.003	101.62
501.22	96.62
501.437	93.62
501.654	90.62
501.871	107.62
502.088	95.62
502.305	81.62
502.522	94.62
502.739	95.62
502.956	88.62
503.172	91.62
503.389	101.62
503.606	95.62
503.823	93.62
504.04	105.62
504.256	117.62
504.473	101.62
504.69	96.62
504.907	89.62
505.123	94.62
505.34	93.62
505.557	101.62
505.773	81.62
505.99	80.62
506.207	88.62
506.423	97.62
506.64	95.62
506.856	85.62
507.073	99.62
507.289	86.62
507.506	96.62
507.722	101.62
507.939	102.62
508.155	83.62
508.372	99.62
508.588	97.62
508.805	91.62
509.021	103.62
509.238	89.62
509.454	104.62
509.67	94.62
509.887	101.62
510.103	120.62
510.319	183.62
510.536	652.62
510.752	1955.62
510.968	551.62
511.184	125.62
511.401	112.62
511.617	105.62
511.833	96.62
512.049	93.62
512.265	96.62
512.481	84.62
512.698	93.62
512.914	93.62
513.13	99.62
513.346	82.62
513.562	91.62
513.778	95.62
513.994	91.62
514.21	107.62
514.426	104.62
514.642	123.62
514.858	136.62
515.074	152.62
