Data from Uncirc_1985_H10_HRD10591_00053.txt Node
Date: Wed Jan 03 12:18:28 EST 2024
User: Yrep
Spectrometer: HR+D1059
Trigger mode: 1
Integration Time (sec): 1.000000E-1
Scans to average: 1
Electric dark correction enabled: true
Nonlinearity correction enabled: false
Boxcar width: 0
XAxis mode: Wavelengths
Number of Pixels in Spectrum: 2048
>>>>>Begin Spectral Data<<<<<
223.165	-16.94
223.4	-16.94
223.635	-16.94
223.869	-17.94
224.104	-7.94
224.338	-27.94
224.573	-28.94
224.808	-1.94
225.042	-13.94
225.277	-19.94
225.511	2.06
225.746	-0.94
225.98	14.06
226.215	28.06
226.449	19.06
226.683	21.06
226.918	24.06
227.152	28.06
227.387	33.06
227.621	26.06
227.856	44.06
228.09	48.06
228.324	51.06
228.559	65.06
228.793	61.06
229.027	60.06
229.262	68.06
229.496	73.06
229.73	81.06
229.964	78.06
230.199	67.06
230.433	87.06
230.667	80.06
230.901	65.06
231.136	80.06
231.37	70.06
231.604	74.06
231.838	78.06
232.072	75.06
232.306	87.06
232.541	80.06
232.775	69.06
233.009	75.06
233.243	81.06
233.477	62.06
233.711	73.06
233.945	88.06
234.179	91.06
234.413	74.06
234.647	71.06
234.881	91.06
235.115	83.06
235.349	75.06
235.583	86.06
235.817	80.06
236.051	74.06
236.285	80.06
236.519	67.06
236.753	88.06
236.987	78.06
237.221	83.06
237.455	87.06
237.689	73.06
237.922	75.06
238.156	73.06
238.39	70.06
238.624	81.06
238.858	82.06
239.091	78.06
239.325	65.06
239.559	72.06
239.793	86.06
240.027	74.06
240.26	80.06
240.494	83.06
240.728	78.06
240.961	75.06
241.195	87.06
241.429	71.06
241.662	86.06
241.896	84.06
242.13	90.06
242.363	58.06
242.597	73.06
242.83	65.06
243.064	74.06
243.298	90.06
243.531	75.06
243.765	98.06
243.998	75.06
244.232	94.06
244.465	87.06
244.699	89.06
244.932	80.06
245.166	93.06
245.399	79.06
245.633	76.06
245.866	78.06
246.099	74.06
246.333	75.06
246.566	80.06
246.8	84.06
247.033	82.06
247.266	76.06
247.5	86.06
247.733	88.06
247.966	84.06
248.2	84.06
248.433	87.06
248.666	75.06
248.899	75.06
249.133	91.06
249.366	94.06
249.599	96.06
249.832	98.06
250.066	90.06
250.299	75.06
250.532	74.06
250.765	76.06
250.998	78.06
251.231	66.06
251.465	71.06
251.698	76.06
251.931	71.06
252.164	78.06
252.397	90.06
252.63	76.06
252.863	91.06
253.096	88.06
253.329	71.06
253.562	74.06
253.795	89.06
254.028	79.06
254.261	82.06
254.494	87.06
254.727	96.06
254.96	84.06
255.193	92.06
255.426	81.06
255.659	91.06
255.892	70.06
256.124	82.06
256.357	103.06
256.59	82.06
256.823	79.06
257.056	84.06
257.289	85.06
257.521	87.06
257.754	85.06
257.987	91.06
258.22	77.06
258.452	88.06
258.685	101.06
258.918	96.06
259.151	78.06
259.383	75.06
259.616	83.06
259.849	95.06
260.081	74.06
260.314	88.06
260.547	82.06
260.779	94.06
261.012	91.06
261.244	90.06
261.477	103.06
261.71	99.06
261.942	118.06
262.175	113.06
262.407	86.06
262.64	84.06
262.872	78.06
263.105	74.06
263.337	81.06
263.57	88.06
263.802	88.06
264.035	75.06
264.267	91.06
264.499	84.06
264.732	92.06
264.964	73.06
265.197	86.06
265.429	84.06
265.661	89.06
265.894	84.06
266.126	86.06
266.358	86.06
266.591	76.06
266.823	81.06
267.055	81.06
267.287	84.06
267.52	80.06
267.752	82.06
267.984	79.06
268.216	89.06
268.448	88.06
268.681	86.06
268.913	76.06
269.145	94.06
269.377	89.06
269.609	82.06
269.841	78.06
270.073	87.06
270.306	73.06
270.538	101.06
270.77	85.06
271.002	103.06
271.234	73.06
271.466	86.06
271.698	103.06
271.93	99.06
272.162	80.06
272.394	84.06
272.626	88.06
272.858	87.06
273.09	79.06
273.322	71.06
273.553	95.06
273.785	98.06
274.017	85.06
274.249	84.06
274.481	80.06
274.713	90.06
274.945	91.06
275.176	102.06
275.408	86.06
275.64	91.06
275.872	75.06
276.104	80.06
276.335	82.06
276.567	99.06
276.799	92.06
277.031	104.06
277.262	100.06
277.494	99.06
277.726	93.06
277.957	84.06
278.189	79.06
278.421	78.06
278.652	90.06
278.884	84.06
279.115	96.06
279.347	78.06
279.579	83.06
279.81	82.06
280.042	99.06
280.273	78.06
280.505	78.06
280.736	95.06
280.968	84.06
281.199	100.06
281.431	89.06
281.662	111.06
281.894	101.06
282.125	104.06
282.356	108.06
282.588	126.06
282.819	108.06
283.051	95.06
283.282	80.06
283.513	96.06
283.745	86.06
283.976	94.06
284.207	92.06
284.439	73.06
284.67	93.06
284.901	94.06
285.132	91.06
285.364	91.06
285.595	89.06
285.826	90.06
286.057	72.06
286.288	85.06
286.52	89.06
286.751	75.06
286.982	90.06
287.213	95.06
287.444	97.06
287.675	79.06
287.906	93.06
288.138	91.06
288.369	91.06
288.6	97.06
288.831	100.06
289.062	94.06
289.293	85.06
289.524	86.06
289.755	108.06
289.986	98.06
290.217	84.06
290.448	90.06
290.679	95.06
290.91	87.06
291.141	84.06
291.371	94.06
291.602	90.06
291.833	83.06
292.064	88.06
292.295	85.06
292.526	91.06
292.757	94.06
292.987	87.06
293.218	93.06
293.449	92.06
293.68	93.06
293.91	91.06
294.141	108.06
294.372	86.06
294.603	91.06
294.833	87.06
295.064	73.06
295.295	95.06
295.525	90.06
295.756	105.06
295.987	121.06
296.217	143.06
296.448	121.06
296.679	88.06
296.909	94.06
297.14	89.06
297.37	91.06
297.601	94.06
297.831	81.06
298.062	99.06
298.292	85.06
298.523	83.06
298.753	87.06
298.984	100.06
299.214	91.06
299.445	105.06
299.675	108.06
299.905	90.06
300.136	96.06
300.366	94.06
300.597	89.06
300.827	96.06
301.057	92.06
301.288	111.06
301.518	83.06
301.748	95.06
301.979	106.06
302.209	87.06
302.439	74.06
302.669	71.06
302.9	90.06
303.13	85.06
303.36	96.06
303.59	103.06
303.82	112.06
304.051	96.06
304.281	95.06
304.511	90.06
304.741	88.06
304.971	89.06
305.201	96.06
305.431	87.06
305.661	91.06
305.891	92.06
306.121	98.06
306.352	112.06
306.582	110.06
306.812	105.06
307.042	88.06
307.272	102.06
307.502	94.06
307.731	74.06
307.961	104.06
308.191	84.06
308.421	92.06
308.651	82.06
308.881	91.06
309.111	80.06
309.341	106.06
309.571	94.06
309.8	99.06
310.03	104.06
310.26	105.06
310.49	92.06
310.72	80.06
310.949	95.06
311.179	91.06
311.409	85.06
311.639	91.06
311.868	106.06
312.098	96.06
312.328	111.06
312.557	88.06
312.787	104.06
313.017	96.06
313.246	95.06
313.476	88.06
313.706	84.06
313.935	91.06
314.165	108.06
314.394	111.06
314.624	91.06
314.853	104.06
315.083	97.06
315.312	103.06
315.542	100.06
315.771	92.06
316.001	94.06
316.23	98.06
316.46	95.06
316.689	90.06
316.919	94.06
317.148	85.06
317.377	106.06
317.607	89.06
317.836	92.06
318.065	94.06
318.295	84.06
318.524	93.06
318.753	112.06
318.983	98.06
319.212	96.06
319.441	103.06
319.67	94.06
319.9	98.06
320.129	97.06
320.358	105.06
320.587	96.06
320.816	110.06
321.046	105.06
321.275	102.06
321.504	94.06
321.733	102.06
321.962	95.06
322.191	115.06
322.42	107.06
322.649	104.06
322.878	104.06
323.108	130.06
323.337	113.06
323.566	130.06
323.795	168.06
324.024	212.06
324.253	384.06
324.482	804.06
324.71	1659.06
324.939	2199.06
325.168	797.06
325.397	251.06
325.626	154.06
325.855	134.06
326.084	124.06
326.313	126.06
326.542	145.06
326.77	225.06
326.999	426.06
327.228	877.06
327.457	1644.06
327.686	1304.06
327.914	343.06
328.143	190.06
328.372	168.06
328.6	144.06
328.829	118.06
329.058	124.06
329.287	133.06
329.515	89.06
329.744	94.06
329.972	103.06
330.201	115.06
330.43	136.06
330.658	128.06
330.887	139.06
331.115	110.06
331.344	105.06
331.572	109.06
331.801	104.06
332.03	104.06
332.258	88.06
332.486	110.06
332.715	107.06
332.943	112.06
333.172	103.06
333.4	102.06
333.629	104.06
333.857	116.06
334.085	117.06
334.314	117.06
334.542	139.06
334.771	146.06
334.999	102.06
335.227	97.06
335.455	102.06
335.684	90.06
335.912	104.06
336.14	97.06
336.369	106.06
336.597	100.06
336.825	86.06
337.053	104.06
337.281	106.06
337.51	100.06
337.738	103.06
337.966	93.06
338.194	86.06
338.422	87.06
338.65	90.06
338.878	86.06
339.106	95.06
339.334	97.06
339.562	90.06
339.79	86.06
340.018	87.06
340.246	105.06
340.474	90.06
340.702	88.06
340.93	88.06
341.158	108.06
341.386	96.06
341.614	86.06
341.842	84.06
342.07	91.06
342.298	102.06
342.526	88.06
342.754	92.06
342.981	83.06
343.209	90.06
343.437	96.06
343.665	92.06
343.893	94.06
344.12	98.06
344.348	94.06
344.576	90.06
344.804	91.06
345.031	87.06
345.259	92.06
345.487	96.06
345.714	89.06
345.942	94.06
346.17	91.06
346.397	92.06
346.625	99.06
346.853	90.06
347.08	88.06
347.308	107.06
347.535	114.06
347.763	94.06
347.99	99.06
348.218	91.06
348.445	107.06
348.673	106.06
348.9	92.06
349.128	71.06
349.355	90.06
349.583	102.06
349.81	92.06
350.037	105.06
350.265	88.06
350.492	82.06
350.72	97.06
350.947	112.06
351.174	109.06
351.402	105.06
351.629	110.06
351.856	100.06
352.083	92.06
352.311	89.06
352.538	92.06
352.765	111.06
352.992	113.06
353.22	115.06
353.447	86.06
353.674	99.06
353.901	92.06
354.128	101.06
354.355	86.06
354.583	103.06
354.81	113.06
355.037	102.06
355.264	112.06
355.491	87.06
355.718	92.06
355.945	98.06
356.172	92.06
356.399	110.06
356.626	107.06
356.853	96.06
357.08	91.06
357.307	91.06
357.534	84.06
357.761	84.06
357.988	77.06
358.215	79.06
358.441	99.06
358.668	78.06
358.895	77.06
359.122	97.06
359.349	86.06
359.576	96.06
359.802	105.06
360.029	98.06
360.256	108.06
360.483	92.06
360.709	90.06
360.936	83.06
361.163	100.06
361.39	83.06
361.616	87.06
361.843	100.06
362.07	83.06
362.296	99.06
362.523	85.06
362.749	87.06
362.976	95.06
363.203	111.06
363.429	104.06
363.656	99.06
363.882	98.06
364.109	108.06
364.335	93.06
364.562	99.06
364.788	95.06
365.015	90.06
365.241	98.06
365.468	103.06
365.694	95.06
365.92	115.06
366.147	85.06
366.373	78.06
366.599	101.06
366.826	92.06
367.052	102.06
367.278	83.06
367.505	84.06
367.731	86.06
367.957	103.06
368.184	98.06
368.41	102.06
368.636	110.06
368.862	120.06
369.089	100.06
369.315	90.06
369.541	79.06
369.767	91.06
369.993	92.06
370.219	94.06
370.445	65.06
370.672	91.06
370.898	93.06
371.124	84.06
371.35	99.06
371.576	91.06
371.802	82.06
372.028	76.06
372.254	95.06
372.48	99.06
372.706	92.06
372.932	75.06
373.158	82.06
373.384	89.06
373.61	88.06
373.835	78.06
374.061	83.06
374.287	92.06
374.513	84.06
374.739	84.06
374.965	74.06
375.191	88.06
375.416	98.06
375.642	96.06
375.868	108.06
376.094	83.06
376.319	88.06
376.545	92.06
376.771	102.06
376.997	87.06
377.222	74.06
377.448	96.06
377.674	80.06
377.899	90.06
378.125	79.06
378.35	109.06
378.576	98.06
378.802	98.06
379.027	93.06
379.253	96.06
379.478	91.06
379.704	86.06
379.929	82.06
380.155	89.06
380.38	93.06
380.606	84.06
380.831	91.06
381.057	101.06
381.282	97.06
381.507	83.06
381.733	91.06
381.958	88.06
382.184	92.06
382.409	86.06
382.634	87.06
382.86	98.06
383.085	95.06
383.31	96.06
383.535	100.06
383.761	87.06
383.986	92.06
384.211	100.06
384.436	89.06
384.662	84.06
384.887	98.06
385.112	98.06
385.337	99.06
385.562	90.06
385.787	95.06
386.013	103.06
386.238	103.06
386.463	86.06
386.688	108.06
386.913	91.06
387.138	105.06
387.363	89.06
387.588	94.06
387.813	102.06
388.038	109.06
388.263	114.06
388.488	89.06
388.713	88.06
388.938	92.06
389.163	101.06
389.387	90.06
389.612	91.06
389.837	98.06
390.062	84.06
390.287	99.06
390.512	86.06
390.736	100.06
390.961	91.06
391.186	91.06
391.411	97.06
391.636	82.06
391.86	91.06
392.085	80.06
392.31	91.06
392.534	81.06
392.759	84.06
392.984	71.06
393.208	94.06
393.433	80.06
393.658	90.06
393.882	99.06
394.107	100.06
394.331	89.06
394.556	73.06
394.78	101.06
395.005	86.06
395.229	91.06
395.454	94.06
395.678	82.06
395.903	89.06
396.127	99.06
396.352	97.06
396.576	102.06
396.801	95.06
397.025	87.06
397.249	70.06
397.474	86.06
397.698	91.06
397.922	92.06
398.147	89.06
398.371	95.06
398.595	84.06
398.82	91.06
399.044	77.06
399.268	84.06
399.492	87.06
399.717	88.06
399.941	78.06
400.165	94.06
400.389	92.06
400.613	76.06
400.837	95.06
401.062	80.06
401.286	86.06
401.51	103.06
401.734	84.06
401.958	107.06
402.182	105.06
402.406	146.06
402.63	102.06
402.854	97.06
403.078	85.06
403.302	82.06
403.526	95.06
403.75	78.06
403.974	86.06
404.198	78.06
404.422	88.06
404.645	86.06
404.869	93.06
405.093	86.06
405.317	102.06
405.541	81.06
405.765	100.06
405.988	115.06
406.212	176.06
406.436	216.06
406.66	129.06
406.883	98.06
407.107	86.06
407.331	100.06
407.555	116.06
407.778	106.06
408.002	93.06
408.226	97.06
408.449	87.06
408.673	85.06
408.896	103.06
409.12	94.06
409.344	86.06
409.567	85.06
409.791	96.06
410.014	105.06
410.238	102.06
410.461	101.06
410.685	94.06
410.908	96.06
411.132	95.06
411.355	94.06
411.578	95.06
411.802	85.06
412.025	91.06
412.249	99.06
412.472	90.06
412.695	94.06
412.919	88.06
413.142	85.06
413.365	82.06
413.589	82.06
413.812	88.06
414.035	89.06
414.258	87.06
414.482	82.06
414.705	65.06
414.928	90.06
415.151	86.06
415.374	94.06
415.597	95.06
415.821	93.06
416.044	92.06
416.267	86.06
416.49	69.06
416.713	80.06
416.936	82.06
417.159	85.06
417.382	78.06
417.605	96.06
417.828	85.06
418.051	84.06
418.274	82.06
418.497	82.06
418.72	80.06
418.943	91.06
419.166	83.06
419.389	94.06
419.611	100.06
419.834	83.06
420.057	84.06
420.28	61.06
420.503	85.06
420.726	82.06
420.948	86.06
421.171	94.06
421.394	86.06
421.617	94.06
421.839	95.06
422.062	87.06
422.285	96.06
422.507	112.06
422.73	110.06
422.953	88.06
423.175	88.06
423.398	90.06
423.621	98.06
423.843	99.06
424.066	84.06
424.288	86.06
424.511	75.06
424.733	85.06
424.956	90.06
425.178	96.06
425.401	96.06
425.623	101.06
425.846	93.06
426.068	112.06
426.291	85.06
426.513	87.06
426.735	112.06
426.958	107.06
427.18	112.06
427.402	143.06
427.625	168.06
427.847	125.06
428.069	95.06
428.292	88.06
428.514	94.06
428.736	90.06
428.958	90.06
429.181	98.06
429.403	102.06
429.625	105.06
429.847	86.06
430.069	92.06
430.292	84.06
430.514	97.06
430.736	82.06
430.958	81.06
431.18	93.06
431.402	82.06
431.624	92.06
431.846	83.06
432.068	81.06
432.29	90.06
432.512	86.06
432.734	83.06
432.956	90.06
433.178	89.06
433.4	94.06
433.622	91.06
433.844	97.06
434.066	72.06
434.287	83.06
434.509	92.06
434.731	97.06
434.953	68.06
435.175	88.06
435.397	91.06
435.618	102.06
435.84	94.06
436.062	119.06
436.284	99.06
436.505	96.06
436.727	95.06
436.949	88.06
437.17	82.06
437.392	82.06
437.614	84.06
437.835	89.06
438.057	125.06
438.278	110.06
438.5	106.06
438.721	115.06
438.943	86.06
439.165	88.06
439.386	75.06
439.608	96.06
439.829	92.06
440.05	115.06
440.272	133.06
440.493	96.06
440.715	80.06
440.936	94.06
441.158	70.06
441.379	70.06
441.6	84.06
441.822	96.06
442.043	86.06
442.264	78.06
442.486	97.06
442.707	94.06
442.928	102.06
443.149	136.06
443.371	141.06
443.592	120.06
443.813	106.06
444.034	106.06
444.255	102.06
444.476	99.06
444.698	104.06
444.919	86.06
445.14	139.06
445.361	117.06
445.582	104.06
445.803	127.06
446.024	146.06
446.245	117.06
446.466	115.06
446.687	87.06
446.908	86.06
447.129	86.06
447.35	99.06
447.571	88.06
447.792	92.06
448.013	94.06
448.234	108.06
448.455	103.06
448.675	100.06
448.896	120.06
449.117	96.06
449.338	100.06
449.559	107.06
449.779	115.06
450	92.06
450.221	94.06
450.442	100.06
450.662	86.06
450.883	93.06
451.104	107.06
451.324	90.06
451.545	98.06
451.766	87.06
451.986	88.06
452.207	92.06
452.428	90.06
452.648	99.06
452.869	104.06
453.089	118.06
453.31	105.06
453.53	82.06
453.751	100.06
453.971	99.06
454.192	115.06
454.412	82.06
454.633	83.06
454.853	78.06
455.073	82.06
455.294	95.06
455.514	103.06
455.734	94.06
455.955	84.06
456.175	87.06
456.395	84.06
456.616	82.06
456.836	93.06
457.056	91.06
457.276	82.06
457.497	81.06
457.717	69.06
457.937	89.06
458.157	70.06
458.377	98.06
458.598	119.06
458.818	144.06
459.038	156.06
459.258	101.06
459.478	98.06
459.698	89.06
459.918	82.06
460.138	87.06
460.358	95.06
460.578	82.06
460.798	88.06
461.018	81.06
461.238	76.06
461.458	91.06
461.678	85.06
461.898	80.06
462.118	78.06
462.338	83.06
462.558	101.06
462.777	86.06
462.997	87.06
463.217	85.06
463.437	88.06
463.657	86.06
463.876	84.06
464.096	88.06
464.316	84.06
464.536	96.06
464.755	87.06
464.975	100.06
465.195	170.06
465.414	162.06
465.634	90.06
465.854	96.06
466.073	85.06
466.293	90.06
466.512	91.06
466.732	85.06
466.951	84.06
467.171	82.06
467.391	96.06
467.61	100.06
467.829	90.06
468.049	97.06
468.268	93.06
468.488	77.06
468.707	91.06
468.927	88.06
469.146	92.06
469.365	71.06
469.585	76.06
469.804	100.06
470.023	107.06
470.243	89.06
470.462	92.06
470.681	108.06
470.901	104.06
471.12	89.06
471.339	92.06
471.558	71.06
471.777	95.06
471.997	101.06
472.216	123.06
472.435	147.06
472.654	90.06
472.873	92.06
473.092	83.06
473.311	88.06
473.53	71.06
473.749	82.06
473.968	86.06
474.187	91.06
474.406	94.06
474.625	82.06
474.844	99.06
475.063	79.06
475.282	84.06
475.501	102.06
475.72	75.06
475.939	86.06
476.158	87.06
476.377	97.06
476.596	86.06
476.814	90.06
477.033	87.06
477.252	82.06
477.471	81.06
477.69	80.06
477.908	80.06
478.127	96.06
478.346	94.06
478.564	78.06
478.783	74.06
479.002	95.06
479.22	102.06
479.439	95.06
479.658	110.06
479.876	103.06
480.095	92.06
480.313	85.06
480.532	97.06
480.751	78.06
480.969	128.06
481.188	211.06
481.406	158.06
481.624	99.06
481.843	86.06
482.061	82.06
482.28	88.06
482.498	87.06
482.717	91.06
482.935	100.06
483.153	80.06
483.372	82.06
483.59	83.06
483.808	82.06
484.027	102.06
484.245	85.06
484.463	97.06
484.681	98.06
484.9	92.06
485.118	102.06
485.336	91.06
485.554	97.06
485.772	106.06
485.99	96.06
486.209	96.06
486.427	110.06
486.645	103.06
486.863	99.06
487.081	78.06
487.299	101.06
487.517	112.06
487.735	91.06
487.953	100.06
488.171	107.06
488.389	94.06
488.607	96.06
488.825	81.06
489.043	83.06
489.261	78.06
489.479	91.06
489.696	96.06
489.914	98.06
490.132	75.06
490.35	88.06
490.568	96.06
490.786	84.06
491.003	83.06
491.221	90.06
491.439	98.06
491.657	100.06
491.874	102.06
492.092	105.06
492.31	87.06
492.527	87.06
492.745	89.06
492.963	92.06
493.18	82.06
493.398	76.06
493.615	82.06
493.833	88.06
494.05	80.06
494.268	89.06
494.485	84.06
494.703	88.06
494.92	98.06
495.138	81.06
495.355	82.06
495.573	91.06
495.79	84.06
496.008	82.06
496.225	76.06
496.442	91.06
496.66	89.06
496.877	96.06
497.094	86.06
497.312	69.06
497.529	87.06
497.746	95.06
497.963	90.06
498.181	90.06
498.398	72.06
498.615	108.06
498.832	100.06
499.049	88.06
499.267	103.06
499.484	99.06
499.701	90.06
499.918	89.06
500.135	85.06
500.352	90.06
500.569	95.06
500.786	88.06
501.003	76.06
501.22	92.06
501.437	89.06
501.654	98.06
501.871	103.06
502.088	90.06
502.305	76.06
502.522	82.06
502.739	102.06
502.956	80.06
503.172	88.06
503.389	98.06
503.606	98.06
503.823	88.06
504.04	96.06
504.256	84.06
504.473	89.06
504.69	85.06
504.907	86.06
505.123	91.06
505.34	88.06
505.557	95.06
505.773	100.06
505.99	88.06
506.207	91.06
506.423	94.06
506.64	110.06
506.856	96.06
507.073	105.06
507.289	92.06
507.506	99.06
507.722	99.06
507.939	108.06
508.155	94.06
508.372	98.06
508.588	91.06
508.805	105.06
509.021	98.06
509.238	100.06
509.454	106.06
509.67	108.06
509.887	99.06
510.103	129.06
510.319	208.06
510.536	763.06
510.752	2421.06
510.968	646.06
511.184	144.06
511.401	108.06
511.617	105.06
511.833	105.06
512.049	96.06
512.265	94.06
512.481	89.06
512.698	101.06
512.914	98.06
513.13	93.06
513.346	97.06
513.562	89.06
513.778	102.06
513.994	98.06
514.21	98.06
514.426	100.06
514.642	124.06
514.858	118.06
515.074	160.06
515.29	468.06
515.506	1508.06
