Data from Uncirc_1985_H10_HRD10591_00006.txt Node
Date: Wed Jan 03 12:18:18 EST 2024
User: Yrep
Spectrometer: HR+D1059
Trigger mode: 1
Integration Time (sec): 1.000000E-1
Scans to average: 1
Electric dark correction enabled: true
Nonlinearity correction enabled: false
Boxcar width: 0
XAxis mode: Wavelengths
Number of Pixels in Spectrum: 2048
>>>>>Begin Spectral Data<<<<<
223.165	-26.88
223.4	-26.88
223.635	-26.88
223.869	-26.88
224.104	-4.88
224.338	-10.88
224.573	-10.88
224.808	-11.88
225.042	-24.88
225.277	-10.88
225.511	-2.88
225.746	7.12
225.98	5.12
226.215	1.12
226.449	24.12
226.683	33.12
226.918	25.12
227.152	35.12
227.387	37.12
227.621	28.12
227.856	44.12
228.09	40.12
228.324	55.12
228.559	68.12
228.793	57.12
229.027	50.12
229.262	61.12
229.496	71.12
229.73	66.12
229.964	76.12
230.199	83.12
230.433	73.12
230.667	84.12
230.901	91.12
231.136	68.12
231.37	68.12
231.604	80.12
231.838	85.12
232.072	70.12
232.306	81.12
232.541	71.12
232.775	65.12
233.009	89.12
233.243	95.12
233.477	88.12
233.711	87.12
233.945	69.12
234.179	80.12
234.413	87.12
234.647	73.12
234.881	74.12
235.115	85.12
235.349	87.12
235.583	77.12
235.817	78.12
236.051	83.12
236.285	71.12
236.519	76.12
236.753	80.12
236.987	84.12
237.221	71.12
237.455	87.12
237.689	77.12
237.922	81.12
238.156	86.12
238.39	68.12
238.624	70.12
238.858	67.12
239.091	84.12
239.325	83.12
239.559	84.12
239.793	79.12
240.027	77.12
240.26	83.12
240.494	72.12
240.728	71.12
240.961	92.12
241.195	81.12
241.429	76.12
241.662	81.12
241.896	77.12
242.13	83.12
242.363	74.12
242.597	75.12
242.83	84.12
243.064	85.12
243.298	72.12
243.531	82.12
243.765	83.12
243.998	63.12
244.232	81.12
244.465	96.12
244.699	72.12
244.932	75.12
245.166	67.12
245.399	83.12
245.633	64.12
245.866	76.12
246.099	81.12
246.333	75.12
246.566	92.12
246.8	97.12
247.033	75.12
247.266	73.12
247.5	72.12
247.733	79.12
247.966	90.12
248.2	75.12
248.433	105.12
248.666	75.12
248.899	90.12
249.133	84.12
249.366	98.12
249.599	99.12
249.832	74.12
250.066	77.12
250.299	84.12
250.532	90.12
250.765	73.12
250.998	76.12
251.231	85.12
251.465	89.12
251.698	90.12
251.931	71.12
252.164	70.12
252.397	74.12
252.63	93.12
252.863	92.12
253.096	82.12
253.329	84.12
253.562	79.12
253.795	63.12
254.028	83.12
254.261	81.12
254.494	71.12
254.727	75.12
254.96	81.12
255.193	88.12
255.426	76.12
255.659	90.12
255.892	92.12
256.124	90.12
256.357	91.12
256.59	82.12
256.823	76.12
257.056	89.12
257.289	81.12
257.521	66.12
257.754	75.12
257.987	75.12
258.22	83.12
258.452	80.12
258.685	84.12
258.918	84.12
259.151	75.12
259.383	76.12
259.616	75.12
259.849	85.12
260.081	71.12
260.314	86.12
260.547	87.12
260.779	83.12
261.012	94.12
261.244	72.12
261.477	104.12
261.71	87.12
261.942	99.12
262.175	101.12
262.407	91.12
262.64	100.12
262.872	95.12
263.105	69.12
263.337	86.12
263.57	81.12
263.802	95.12
264.035	93.12
264.267	94.12
264.499	81.12
264.732	87.12
264.964	73.12
265.197	81.12
265.429	99.12
265.661	94.12
265.894	86.12
266.126	89.12
266.358	81.12
266.591	100.12
266.823	88.12
267.055	87.12
267.287	88.12
267.52	84.12
267.752	83.12
267.984	87.12
268.216	83.12
268.448	91.12
268.681	84.12
268.913	82.12
269.145	83.12
269.377	85.12
269.609	89.12
269.841	92.12
270.073	82.12
270.306	79.12
270.538	87.12
270.77	85.12
271.002	93.12
271.234	81.12
271.466	82.12
271.698	69.12
271.93	84.12
272.162	90.12
272.394	95.12
272.626	86.12
272.858	85.12
273.09	85.12
273.322	86.12
273.553	89.12
273.785	86.12
274.017	77.12
274.249	79.12
274.481	90.12
274.713	105.12
274.945	85.12
275.176	90.12
275.408	77.12
275.64	91.12
275.872	77.12
276.104	104.12
276.335	95.12
276.567	89.12
276.799	101.12
277.031	93.12
277.262	92.12
277.494	82.12
277.726	84.12
277.957	72.12
278.189	83.12
278.421	93.12
278.652	87.12
278.884	80.12
279.115	88.12
279.347	75.12
279.579	87.12
279.81	92.12
280.042	81.12
280.273	79.12
280.505	69.12
280.736	77.12
280.968	90.12
281.199	97.12
281.431	85.12
281.662	92.12
281.894	84.12
282.125	93.12
282.356	91.12
282.588	124.12
282.819	100.12
283.051	96.12
283.282	87.12
283.513	79.12
283.745	93.12
283.976	96.12
284.207	98.12
284.439	95.12
284.67	81.12
284.901	89.12
285.132	77.12
285.364	73.12
285.595	91.12
285.826	83.12
286.057	86.12
286.288	91.12
286.52	76.12
286.751	87.12
286.982	104.12
287.213	82.12
287.444	84.12
287.675	91.12
287.906	83.12
288.138	97.12
288.369	89.12
288.6	92.12
288.831	98.12
289.062	90.12
289.293	100.12
289.524	103.12
289.755	99.12
289.986	94.12
290.217	83.12
290.448	79.12
290.679	75.12
290.91	94.12
291.141	68.12
291.371	83.12
291.602	89.12
291.833	86.12
292.064	85.12
292.295	70.12
292.526	92.12
292.757	87.12
292.987	100.12
293.218	93.12
293.449	91.12
293.68	84.12
293.91	78.12
294.141	104.12
294.372	90.12
294.603	81.12
294.833	95.12
295.064	87.12
295.295	100.12
295.525	88.12
295.756	95.12
295.987	107.12
296.217	115.12
296.448	106.12
296.679	101.12
296.909	91.12
297.14	95.12
297.37	99.12
297.601	87.12
297.831	72.12
298.062	86.12
298.292	90.12
298.523	82.12
298.753	86.12
298.984	88.12
299.214	83.12
299.445	95.12
299.675	88.12
299.905	95.12
300.136	82.12
300.366	89.12
300.597	85.12
300.827	83.12
301.057	107.12
301.288	99.12
301.518	101.12
301.748	108.12
301.979	95.12
302.209	77.12
302.439	99.12
302.669	83.12
302.9	82.12
303.13	100.12
303.36	92.12
303.59	95.12
303.82	100.12
304.051	93.12
304.281	92.12
304.511	71.12
304.741	82.12
304.971	93.12
305.201	92.12
305.431	86.12
305.661	108.12
305.891	99.12
306.121	97.12
306.352	86.12
306.582	83.12
306.812	95.12
307.042	83.12
307.272	100.12
307.502	103.12
307.731	95.12
307.961	89.12
308.191	85.12
308.421	80.12
308.651	87.12
308.881	90.12
309.111	84.12
309.341	91.12
309.571	92.12
309.8	107.12
310.03	75.12
310.26	97.12
310.49	102.12
310.72	101.12
310.949	94.12
311.179	90.12
311.409	90.12
311.639	99.12
311.868	89.12
312.098	91.12
312.328	93.12
312.557	92.12
312.787	93.12
313.017	102.12
313.246	93.12
313.476	85.12
313.706	92.12
313.935	104.12
314.165	103.12
314.394	95.12
314.624	86.12
314.853	105.12
315.083	100.12
315.312	91.12
315.542	95.12
315.771	96.12
316.001	99.12
316.23	99.12
316.46	91.12
316.689	92.12
316.919	89.12
317.148	84.12
317.377	88.12
317.607	86.12
317.836	92.12
318.065	90.12
318.295	80.12
318.524	89.12
318.753	103.12
318.983	80.12
319.212	100.12
319.441	106.12
319.67	97.12
319.9	103.12
320.129	86.12
320.358	103.12
320.587	91.12
320.816	105.12
321.046	95.12
321.275	97.12
321.504	96.12
321.733	99.12
321.962	91.12
322.191	98.12
322.42	102.12
322.649	90.12
322.878	113.12
323.108	101.12
323.337	128.12
323.566	120.12
323.795	116.12
324.024	169.12
324.253	320.12
324.482	707.12
324.71	1438.12
324.939	1825.12
325.168	667.12
325.397	225.12
325.626	138.12
325.855	125.12
326.084	101.12
326.313	123.12
326.542	149.12
326.77	208.12
326.999	383.12
327.228	801.12
327.457	1464.12
327.686	1136.12
327.914	317.12
328.143	158.12
328.372	131.12
328.6	95.12
328.829	111.12
329.058	115.12
329.287	110.12
329.515	105.12
329.744	98.12
329.972	101.12
330.201	89.12
330.43	112.12
330.658	116.12
330.887	117.12
331.115	99.12
331.344	94.12
331.572	101.12
331.801	109.12
332.03	96.12
332.258	88.12
332.486	99.12
332.715	97.12
332.943	105.12
333.172	92.12
333.4	89.12
333.629	95.12
333.857	108.12
334.085	101.12
334.314	101.12
334.542	88.12
334.771	94.12
334.999	87.12
335.227	95.12
335.455	84.12
335.684	94.12
335.912	93.12
336.14	92.12
336.369	87.12
336.597	103.12
336.825	88.12
337.053	95.12
337.281	97.12
337.51	87.12
337.738	93.12
337.966	107.12
338.194	99.12
338.422	94.12
338.65	82.12
338.878	91.12
339.106	83.12
339.334	99.12
339.562	99.12
339.79	100.12
340.018	80.12
340.246	86.12
340.474	97.12
340.702	88.12
340.93	95.12
341.158	82.12
341.386	107.12
341.614	87.12
341.842	103.12
342.07	87.12
342.298	98.12
342.526	88.12
342.754	81.12
342.981	84.12
343.209	91.12
343.437	101.12
343.665	93.12
343.893	105.12
344.12	106.12
344.348	95.12
344.576	105.12
344.804	96.12
345.031	76.12
345.259	85.12
345.487	101.12
345.714	90.12
345.942	105.12
346.17	90.12
346.397	77.12
346.625	81.12
346.853	95.12
347.08	86.12
347.308	94.12
347.535	105.12
347.763	99.12
347.99	91.12
348.218	96.12
348.445	91.12
348.673	96.12
348.9	91.12
349.128	102.12
349.355	105.12
349.583	99.12
349.81	109.12
350.037	97.12
350.265	94.12
350.492	99.12
350.72	91.12
350.947	106.12
351.174	107.12
351.402	99.12
351.629	96.12
351.856	120.12
352.083	105.12
352.311	91.12
352.538	83.12
352.765	99.12
352.992	101.12
353.22	107.12
353.447	108.12
353.674	105.12
353.901	98.12
354.128	83.12
354.355	97.12
354.583	82.12
354.81	87.12
355.037	93.12
355.264	106.12
355.491	82.12
355.718	93.12
355.945	86.12
356.172	107.12
356.399	103.12
356.626	93.12
356.853	103.12
357.08	88.12
357.307	108.12
357.534	96.12
357.761	93.12
357.988	95.12
358.215	89.12
358.441	102.12
358.668	110.12
358.895	97.12
359.122	83.12
359.349	103.12
359.576	97.12
359.802	112.12
360.029	106.12
360.256	89.12
360.483	85.12
360.709	89.12
360.936	97.12
361.163	101.12
361.39	107.12
361.616	96.12
361.843	77.12
362.07	74.12
362.296	101.12
362.523	84.12
362.749	73.12
362.976	89.12
363.203	92.12
363.429	94.12
363.656	91.12
363.882	94.12
364.109	100.12
364.335	76.12
364.562	107.12
364.788	77.12
365.015	99.12
365.241	97.12
365.468	117.12
365.694	100.12
365.92	105.12
366.147	91.12
366.373	87.12
366.599	83.12
366.826	83.12
367.052	93.12
367.278	103.12
367.505	109.12
367.731	91.12
367.957	80.12
368.184	95.12
368.41	95.12
368.636	104.12
368.862	109.12
369.089	97.12
369.315	88.12
369.541	86.12
369.767	83.12
369.993	93.12
370.219	71.12
370.445	87.12
370.672	88.12
370.898	76.12
371.124	74.12
371.35	92.12
371.576	75.12
371.802	79.12
372.028	97.12
372.254	96.12
372.48	85.12
372.706	85.12
372.932	92.12
373.158	87.12
373.384	88.12
373.61	100.12
373.835	100.12
374.061	86.12
374.287	93.12
374.513	88.12
374.739	102.12
374.965	82.12
375.191	91.12
375.416	86.12
375.642	87.12
375.868	108.12
376.094	100.12
376.319	86.12
376.545	96.12
376.771	87.12
376.997	104.12
377.222	89.12
377.448	93.12
377.674	79.12
377.899	86.12
378.125	92.12
378.35	91.12
378.576	76.12
378.802	94.12
379.027	93.12
379.253	86.12
379.478	95.12
379.704	102.12
379.929	89.12
380.155	87.12
380.38	89.12
380.606	104.12
380.831	86.12
381.057	103.12
381.282	85.12
381.507	111.12
381.733	116.12
381.958	95.12
382.184	104.12
382.409	95.12
382.634	93.12
382.86	85.12
383.085	93.12
383.31	106.12
383.535	95.12
383.761	95.12
383.986	98.12
384.211	96.12
384.436	94.12
384.662	99.12
384.887	109.12
385.112	111.12
385.337	93.12
385.562	107.12
385.787	110.12
386.013	115.12
386.238	109.12
386.463	107.12
386.688	97.12
386.913	89.12
387.138	103.12
387.363	86.12
387.588	98.12
387.813	113.12
388.038	107.12
388.263	107.12
388.488	108.12
388.713	99.12
388.938	97.12
389.163	95.12
389.387	102.12
389.612	114.12
389.837	106.12
390.062	92.12
390.287	105.12
390.512	99.12
390.736	84.12
390.961	93.12
391.186	91.12
391.411	99.12
391.636	99.12
391.86	98.12
392.085	79.12
392.31	72.12
392.534	66.12
392.759	89.12
392.984	88.12
393.208	106.12
393.433	112.12
393.658	91.12
393.882	85.12
394.107	81.12
394.331	74.12
394.556	81.12
394.78	105.12
395.005	90.12
395.229	87.12
395.454	91.12
395.678	99.12
395.903	80.12
396.127	80.12
396.352	68.12
396.576	100.12
396.801	87.12
397.025	99.12
397.249	72.12
397.474	93.12
397.698	101.12
397.922	79.12
398.147	84.12
398.371	89.12
398.595	83.12
398.82	91.12
399.044	74.12
399.268	85.12
399.492	86.12
399.717	103.12
399.941	96.12
400.165	99.12
400.389	87.12
400.613	74.12
400.837	91.12
401.062	110.12
401.286	83.12
401.51	100.12
401.734	96.12
401.958	98.12
402.182	107.12
402.406	139.12
402.63	114.12
402.854	99.12
403.078	86.12
403.302	97.12
403.526	90.12
403.75	91.12
403.974	83.12
404.198	79.12
404.422	92.12
404.645	92.12
404.869	79.12
405.093	92.12
405.317	90.12
405.541	105.12
405.765	90.12
405.988	108.12
406.212	143.12
406.436	185.12
406.66	130.12
406.883	81.12
407.107	85.12
407.331	95.12
407.555	100.12
407.778	93.12
408.002	97.12
408.226	92.12
408.449	89.12
408.673	94.12
408.896	97.12
409.12	76.12
409.344	93.12
409.567	95.12
409.791	74.12
410.014	97.12
410.238	107.12
410.461	88.12
410.685	99.12
410.908	85.12
411.132	100.12
411.355	101.12
411.578	92.12
411.802	86.12
412.025	100.12
412.249	89.12
412.472	91.12
412.695	90.12
412.919	89.12
413.142	88.12
413.365	92.12
413.589	89.12
413.812	79.12
414.035	93.12
414.258	81.12
414.482	91.12
414.705	92.12
414.928	98.12
415.151	84.12
415.374	103.12
415.597	75.12
415.821	97.12
416.044	94.12
416.267	77.12
416.49	90.12
416.713	79.12
416.936	92.12
417.159	99.12
417.382	87.12
417.605	91.12
417.828	86.12
418.051	88.12
418.274	89.12
418.497	86.12
418.72	84.12
418.943	97.12
419.166	99.12
419.389	93.12
419.611	85.12
419.834	85.12
420.057	107.12
420.28	80.12
420.503	74.12
420.726	104.12
420.948	96.12
421.171	92.12
421.394	93.12
421.617	88.12
421.839	80.12
422.062	89.12
422.285	100.12
422.507	117.12
422.73	90.12
422.953	76.12
423.175	108.12
423.398	92.12
423.621	84.12
423.843	88.12
424.066	101.12
424.288	90.12
424.511	92.12
424.733	98.12
424.956	98.12
425.178	88.12
425.401	93.12
425.623	104.12
425.846	99.12
426.068	85.12
426.291	96.12
426.513	97.12
426.735	71.12
426.958	87.12
427.18	87.12
427.402	124.12
427.625	155.12
427.847	111.12
428.069	98.12
428.292	84.12
428.514	95.12
428.736	90.12
428.958	91.12
429.181	84.12
429.403	82.12
429.625	78.12
429.847	85.12
430.069	87.12
430.292	98.12
430.514	90.12
430.736	86.12
430.958	90.12
431.18	95.12
431.402	80.12
431.624	87.12
431.846	88.12
432.068	88.12
432.29	85.12
432.512	85.12
432.734	76.12
432.956	97.12
433.178	95.12
433.4	99.12
433.622	92.12
433.844	82.12
434.066	87.12
434.287	89.12
434.509	83.12
434.731	101.12
434.953	92.12
435.175	88.12
435.397	80.12
435.618	91.12
435.84	117.12
436.062	112.12
436.284	111.12
436.505	95.12
436.727	108.12
436.949	87.12
437.17	90.12
437.392	87.12
437.614	93.12
437.835	101.12
438.057	93.12
438.278	93.12
438.5	106.12
438.721	107.12
438.943	99.12
439.165	89.12
439.386	98.12
439.608	101.12
439.829	101.12
440.05	100.12
440.272	128.12
440.493	98.12
440.715	78.12
440.936	101.12
441.158	84.12
441.379	91.12
441.6	96.12
441.822	94.12
442.043	83.12
442.264	98.12
442.486	99.12
442.707	92.12
442.928	107.12
443.149	103.12
443.371	117.12
443.592	117.12
443.813	87.12
444.034	111.12
444.255	88.12
444.476	87.12
444.698	90.12
444.919	94.12
445.14	146.12
445.361	114.12
445.582	102.12
445.803	127.12
446.024	122.12
446.245	119.12
446.466	117.12
446.687	95.12
446.908	97.12
447.129	85.12
447.35	88.12
447.571	99.12
447.792	78.12
448.013	85.12
448.234	105.12
448.455	84.12
448.675	101.12
448.896	120.12
449.117	113.12
449.338	101.12
449.559	114.12
449.779	114.12
450	82.12
450.221	89.12
450.442	85.12
450.662	102.12
450.883	105.12
451.104	108.12
451.324	93.12
451.545	76.12
451.766	101.12
451.986	83.12
452.207	84.12
452.428	92.12
452.648	88.12
452.869	102.12
453.089	90.12
453.31	92.12
453.53	67.12
453.751	100.12
453.971	96.12
454.192	96.12
454.412	93.12
454.633	86.12
454.853	86.12
455.073	84.12
455.294	75.12
455.514	110.12
455.734	103.12
455.955	87.12
456.175	88.12
456.395	75.12
456.616	87.12
456.836	86.12
457.056	83.12
457.276	74.12
457.497	65.12
457.717	95.12
457.937	70.12
458.157	89.12
458.377	89.12
458.598	92.12
458.818	123.12
459.038	123.12
459.258	114.12
459.478	97.12
459.698	79.12
459.918	86.12
460.138	101.12
460.358	72.12
460.578	91.12
460.798	76.12
461.018	83.12
461.238	87.12
461.458	86.12
461.678	90.12
461.898	101.12
462.118	81.12
462.338	86.12
462.558	87.12
462.777	91.12
462.997	69.12
463.217	91.12
463.437	83.12
463.657	83.12
463.876	87.12
464.096	83.12
464.316	93.12
464.536	96.12
464.755	87.12
464.975	91.12
465.195	129.12
465.414	132.12
465.634	101.12
465.854	98.12
466.073	101.12
466.293	101.12
466.512	81.12
466.732	83.12
466.951	90.12
467.171	101.12
467.391	94.12
467.61	92.12
467.829	91.12
468.049	89.12
468.268	85.12
468.488	87.12
468.707	85.12
468.927	72.12
469.146	78.12
469.365	84.12
469.585	97.12
469.804	89.12
470.023	87.12
470.243	93.12
470.462	90.12
470.681	112.12
470.901	87.12
471.12	82.12
471.339	88.12
471.558	75.12
471.777	81.12
471.997	80.12
472.216	96.12
472.435	81.12
472.654	90.12
472.873	86.12
473.092	72.12
473.311	76.12
473.53	100.12
473.749	85.12
473.968	95.12
474.187	99.12
474.406	97.12
474.625	100.12
474.844	87.12
475.063	95.12
475.282	66.12
475.501	87.12
475.72	96.12
475.939	82.12
476.158	92.12
476.377	89.12
476.596	80.12
476.814	78.12
477.033	88.12
477.252	92.12
477.471	80.12
477.69	93.12
477.908	92.12
478.127	96.12
478.346	80.12
478.564	87.12
478.783	93.12
479.002	87.12
479.22	96.12
479.439	87.12
479.658	106.12
479.876	99.12
480.095	98.12
480.313	96.12
480.532	85.12
480.751	96.12
480.969	96.12
481.188	109.12
481.406	103.12
481.624	89.12
481.843	88.12
482.061	104.12
482.28	79.12
482.498	75.12
482.717	95.12
482.935	102.12
483.153	90.12
483.372	95.12
483.59	74.12
483.808	85.12
484.027	97.12
484.245	93.12
484.463	91.12
484.681	101.12
484.9	92.12
485.118	101.12
485.336	87.12
485.554	98.12
485.772	104.12
485.99	87.12
486.209	81.12
486.427	96.12
486.645	109.12
486.863	124.12
487.081	108.12
487.299	101.12
487.517	95.12
487.735	105.12
487.953	93.12
488.171	106.12
488.389	105.12
488.607	85.12
488.825	96.12
489.043	95.12
489.261	104.12
489.479	89.12
489.696	87.12
489.914	77.12
490.132	83.12
490.35	77.12
490.568	83.12
490.786	95.12
491.003	88.12
491.221	88.12
491.439	85.12
491.657	92.12
491.874	92.12
492.092	84.12
492.31	102.12
492.527	86.12
492.745	81.12
492.963	90.12
493.18	111.12
493.398	94.12
493.615	89.12
493.833	100.12
494.05	76.12
494.268	89.12
494.485	83.12
494.703	97.12
494.92	81.12
495.138	91.12
495.355	95.12
495.573	85.12
495.79	86.12
496.008	91.12
496.225	88.12
496.442	94.12
496.66	102.12
496.877	90.12
497.094	96.12
497.312	95.12
497.529	92.12
497.746	85.12
497.963	97.12
498.181	95.12
498.398	84.12
498.615	110.12
498.832	99.12
499.049	82.12
499.267	94.12
499.484	86.12
499.701	83.12
499.918	85.12
500.135	79.12
500.352	90.12
500.569	84.12
500.786	95.12
501.003	111.12
501.22	96.12
501.437	85.12
501.654	100.12
501.871	90.12
502.088	92.12
502.305	89.12
502.522	91.12
502.739	88.12
502.956	99.12
503.172	97.12
503.389	97.12
503.606	109.12
503.823	74.12
504.04	100.12
504.256	92.12
504.473	95.12
504.69	86.12
504.907	91.12
505.123	102.12
505.34	91.12
505.557	97.12
505.773	93.12
505.99	83.12
506.207	94.12
506.423	87.12
506.64	97.12
506.856	100.12
507.073	105.12
507.289	98.12
507.506	101.12
507.722	105.12
507.939	91.12
508.155	89.12
508.372	95.12
508.588	87.12
508.805	80.12
509.021	95.12
509.238	90.12
509.454	97.12
509.67	103.12
509.887	94.12
510.103	124.12
510.319	194.12
510.536	648.12
510.752	1866.12
510.968	532.12
511.184	129.12
511.401	117.12
511.617	101.12
511.833	96.12
512.049	93.12
512.265	102.12
512.481	91.12
512.698	97.12
512.914	98.12
513.13	91.12
513.346	97.12
513.562	109.12
513.778	97.12
513.994	90.12
514.21	115.12
514.426	116.12
514.642	121.12
514.858	113.12
515.074	126.12
515.29	362.12
515.506	1053.12
515.721	393.12
515.937	138.12
