Data from Uncirc_1985_H10_HRD10591_00086.txt Node
Date: Wed Jan 03 12:18:34 EST 2024
User: Yrep
Spectrometer: HR+D1059
Trigger mode: 1
Integration Time (sec): 1.000000E-1
Scans to average: 1
Electric dark correction enabled: true
Nonlinearity correction enabled: false
Boxcar width: 0
XAxis mode: Wavelengths
Number of Pixels in Spectrum: 2048
>>>>>Begin Spectral Data<<<<<
223.165	-10.31
223.4	-10.31
223.635	-10.31
223.869	-18.31
224.104	-14.31
224.338	-14.31
224.573	-18.31
224.808	-17.31
225.042	-5.31
225.277	-7.31
225.511	-23.31
225.746	2.69
225.98	13.69
226.215	0.69
226.449	20.69
226.683	27.69
226.918	19.69
227.152	43.69
227.387	21.69
227.621	48.69
227.856	51.69
228.09	40.69
228.324	61.69
228.559	58.69
228.793	62.69
229.027	61.69
229.262	78.69
229.496	74.69
229.73	78.69
229.964	72.69
230.199	79.69
230.433	66.69
230.667	94.69
230.901	89.69
231.136	85.69
231.37	70.69
231.604	78.69
231.838	80.69
232.072	62.69
232.306	95.69
232.541	73.69
232.775	89.69
233.009	88.69
233.243	81.69
233.477	81.69
233.711	77.69
233.945	83.69
234.179	76.69
234.413	89.69
234.647	75.69
234.881	77.69
235.115	78.69
235.349	79.69
235.583	74.69
235.817	70.69
236.051	81.69
236.285	70.69
236.519	65.69
236.753	74.69
236.987	80.69
237.221	74.69
237.455	71.69
237.689	88.69
237.922	63.69
238.156	68.69
238.39	74.69
238.624	70.69
238.858	78.69
239.091	85.69
239.325	70.69
239.559	92.69
239.793	80.69
240.027	82.69
240.26	71.69
240.494	64.69
240.728	84.69
240.961	76.69
241.195	92.69
241.429	68.69
241.662	80.69
241.896	76.69
242.13	83.69
242.363	74.69
242.597	76.69
242.83	70.69
243.064	76.69
243.298	63.69
243.531	76.69
243.765	80.69
243.998	76.69
244.232	80.69
244.465	79.69
244.699	83.69
244.932	68.69
245.166	80.69
245.399	83.69
245.633	71.69
245.866	81.69
246.099	76.69
246.333	88.69
246.566	73.69
246.8	78.69
247.033	75.69
247.266	73.69
247.5	85.69
247.733	61.69
247.966	74.69
248.2	79.69
248.433	78.69
248.666	69.69
248.899	90.69
249.133	84.69
249.366	93.69
249.599	85.69
249.832	80.69
250.066	73.69
250.299	77.69
250.532	67.69
250.765	72.69
250.998	70.69
251.231	81.69
251.465	68.69
251.698	72.69
251.931	73.69
252.164	72.69
252.397	79.69
252.63	76.69
252.863	72.69
253.096	69.69
253.329	70.69
253.562	74.69
253.795	82.69
254.028	72.69
254.261	69.69
254.494	69.69
254.727	74.69
254.96	65.69
255.193	84.69
255.426	78.69
255.659	73.69
255.892	87.69
256.124	81.69
256.357	76.69
256.59	70.69
256.823	64.69
257.056	71.69
257.289	68.69
257.521	90.69
257.754	79.69
257.987	73.69
258.22	77.69
258.452	82.69
258.685	89.69
258.918	65.69
259.151	76.69
259.383	93.69
259.616	80.69
259.849	92.69
260.081	78.69
260.314	79.69
260.547	76.69
260.779	86.69
261.012	70.69
261.244	71.69
261.477	103.69
261.71	92.69
261.942	119.69
262.175	119.69
262.407	94.69
262.64	80.69
262.872	73.69
263.105	82.69
263.337	89.69
263.57	73.69
263.802	86.69
264.035	86.69
264.267	94.69
264.499	73.69
264.732	80.69
264.964	89.69
265.197	81.69
265.429	84.69
265.661	87.69
265.894	64.69
266.126	96.69
266.358	88.69
266.591	77.69
266.823	77.69
267.055	86.69
267.287	79.69
267.52	79.69
267.752	81.69
267.984	95.69
268.216	92.69
268.448	78.69
268.681	85.69
268.913	85.69
269.145	88.69
269.377	89.69
269.609	77.69
269.841	83.69
270.073	85.69
270.306	84.69
270.538	74.69
270.77	78.69
271.002	73.69
271.234	71.69
271.466	81.69
271.698	85.69
271.93	90.69
272.162	100.69
272.394	80.69
272.626	88.69
272.858	72.69
273.09	95.69
273.322	81.69
273.553	71.69
273.785	82.69
274.017	77.69
274.249	89.69
274.481	84.69
274.713	81.69
274.945	73.69
275.176	76.69
275.408	78.69
275.64	86.69
275.872	81.69
276.104	90.69
276.335	99.69
276.567	94.69
276.799	93.69
277.031	96.69
277.262	72.69
277.494	79.69
277.726	86.69
277.957	97.69
278.189	87.69
278.421	82.69
278.652	71.69
278.884	87.69
279.115	65.69
279.347	88.69
279.579	99.69
279.81	65.69
280.042	87.69
280.273	94.69
280.505	82.69
280.736	87.69
280.968	70.69
281.199	80.69
281.431	82.69
281.662	62.69
281.894	87.69
282.125	98.69
282.356	111.69
282.588	125.69
282.819	101.69
283.051	97.69
283.282	74.69
283.513	94.69
283.745	94.69
283.976	81.69
284.207	84.69
284.439	76.69
284.67	85.69
284.901	84.69
285.132	87.69
285.364	92.69
285.595	77.69
285.826	77.69
286.057	98.69
286.288	94.69
286.52	72.69
286.751	72.69
286.982	92.69
287.213	76.69
287.444	84.69
287.675	85.69
287.906	83.69
288.138	96.69
288.369	87.69
288.6	119.69
288.831	89.69
289.062	94.69
289.293	76.69
289.524	73.69
289.755	90.69
289.986	85.69
290.217	64.69
290.448	82.69
290.679	81.69
290.91	99.69
291.141	96.69
291.371	95.69
291.602	79.69
291.833	79.69
292.064	79.69
292.295	93.69
292.526	88.69
292.757	83.69
292.987	86.69
293.218	104.69
293.449	82.69
293.68	86.69
293.91	90.69
294.141	86.69
294.372	96.69
294.603	100.69
294.833	79.69
295.064	86.69
295.295	82.69
295.525	101.69
295.756	102.69
295.987	111.69
296.217	142.69
296.448	124.69
296.679	104.69
296.909	92.69
297.14	81.69
297.37	78.69
297.601	76.69
297.831	83.69
298.062	80.69
298.292	84.69
298.523	94.69
298.753	82.69
298.984	92.69
299.214	81.69
299.445	97.69
299.675	83.69
299.905	91.69
300.136	86.69
300.366	80.69
300.597	70.69
300.827	86.69
301.057	100.69
301.288	92.69
301.518	89.69
301.748	77.69
301.979	81.69
302.209	98.69
302.439	99.69
302.669	92.69
302.9	74.69
303.13	88.69
303.36	92.69
303.59	102.69
303.82	102.69
304.051	101.69
304.281	89.69
304.511	86.69
304.741	85.69
304.971	79.69
305.201	114.69
305.431	85.69
305.661	84.69
305.891	89.69
306.121	80.69
306.352	104.69
306.582	111.69
306.812	101.69
307.042	102.69
307.272	96.69
307.502	82.69
307.731	94.69
307.961	97.69
308.191	88.69
308.421	97.69
308.651	86.69
308.881	100.69
309.111	86.69
309.341	101.69
309.571	78.69
309.8	93.69
310.03	108.69
310.26	97.69
310.49	100.69
310.72	96.69
310.949	93.69
311.179	104.69
311.409	86.69
311.639	78.69
311.868	103.69
312.098	84.69
312.328	100.69
312.557	93.69
312.787	105.69
313.017	94.69
313.246	98.69
313.476	86.69
313.706	103.69
313.935	92.69
314.165	92.69
314.394	87.69
314.624	85.69
314.853	81.69
315.083	86.69
315.312	102.69
315.542	79.69
315.771	85.69
316.001	85.69
316.23	85.69
316.46	77.69
316.689	87.69
316.919	92.69
317.148	92.69
317.377	90.69
317.607	91.69
317.836	90.69
318.065	83.69
318.295	79.69
318.524	89.69
318.753	100.69
318.983	110.69
319.212	88.69
319.441	103.69
319.67	108.69
319.9	71.69
320.129	79.69
320.358	104.69
320.587	87.69
320.816	98.69
321.046	95.69
321.275	97.69
321.504	85.69
321.733	99.69
321.962	92.69
322.191	87.69
322.42	94.69
322.649	102.69
322.878	122.69
323.108	117.69
323.337	117.69
323.566	114.69
323.795	133.69
324.024	184.69
324.253	357.69
324.482	742.69
324.71	1507.69
324.939	2025.69
325.168	738.69
325.397	230.69
325.626	141.69
325.855	120.69
326.084	114.69
326.313	131.69
326.542	148.69
326.77	208.69
326.999	425.69
327.228	846.69
327.457	1557.69
327.686	1245.69
327.914	351.69
328.143	177.69
328.372	157.69
328.6	124.69
328.829	113.69
329.058	112.69
329.287	126.69
329.515	94.69
329.744	88.69
329.972	123.69
330.201	131.69
330.43	174.69
330.658	151.69
330.887	142.69
331.115	118.69
331.344	83.69
331.572	89.69
331.801	97.69
332.03	110.69
332.258	114.69
332.486	96.69
332.715	89.69
332.943	103.69
333.172	101.69
333.4	101.69
333.629	97.69
333.857	104.69
334.085	120.69
334.314	127.69
334.542	184.69
334.771	158.69
334.999	97.69
335.227	101.69
335.455	93.69
335.684	106.69
335.912	83.69
336.14	106.69
336.369	103.69
336.597	96.69
336.825	96.69
337.053	93.69
337.281	92.69
337.51	90.69
337.738	105.69
337.966	80.69
338.194	79.69
338.422	77.69
338.65	95.69
338.878	85.69
339.106	69.69
339.334	95.69
339.562	71.69
339.79	83.69
340.018	95.69
340.246	105.69
340.474	97.69
340.702	91.69
340.93	71.69
341.158	86.69
341.386	86.69
341.614	95.69
341.842	104.69
342.07	100.69
342.298	100.69
342.526	74.69
342.754	82.69
342.981	99.69
343.209	88.69
343.437	96.69
343.665	82.69
343.893	96.69
344.12	89.69
344.348	82.69
344.576	89.69
344.804	76.69
345.031	89.69
345.259	97.69
345.487	98.69
345.714	80.69
345.942	86.69
346.17	77.69
346.397	87.69
346.625	105.69
346.853	91.69
347.08	106.69
347.308	83.69
347.535	89.69
347.763	94.69
347.99	95.69
348.218	93.69
348.445	101.69
348.673	94.69
348.9	89.69
349.128	109.69
349.355	81.69
349.583	81.69
349.81	74.69
350.037	80.69
350.265	97.69
350.492	87.69
350.72	98.69
350.947	99.69
351.174	102.69
351.402	105.69
351.629	91.69
351.856	92.69
352.083	85.69
352.311	94.69
352.538	100.69
352.765	100.69
352.992	111.69
353.22	113.69
353.447	105.69
353.674	94.69
353.901	96.69
354.128	95.69
354.355	87.69
354.583	94.69
354.81	84.69
355.037	88.69
355.264	83.69
355.491	85.69
355.718	76.69
355.945	84.69
356.172	74.69
356.399	91.69
356.626	76.69
356.853	84.69
357.08	80.69
357.307	94.69
357.534	89.69
357.761	110.69
357.988	91.69
358.215	86.69
358.441	81.69
358.668	84.69
358.895	92.69
359.122	110.69
359.349	90.69
359.576	78.69
359.802	92.69
360.029	111.69
360.256	100.69
360.483	85.69
360.709	96.69
360.936	100.69
361.163	82.69
361.39	92.69
361.616	86.69
361.843	92.69
362.07	93.69
362.296	96.69
362.523	97.69
362.749	92.69
362.976	90.69
363.203	82.69
363.429	84.69
363.656	78.69
363.882	89.69
364.109	88.69
364.335	83.69
364.562	101.69
364.788	97.69
365.015	86.69
365.241	85.69
365.468	105.69
365.694	95.69
365.92	92.69
366.147	86.69
366.373	81.69
366.599	84.69
366.826	86.69
367.052	74.69
367.278	80.69
367.505	80.69
367.731	97.69
367.957	94.69
368.184	100.69
368.41	89.69
368.636	105.69
368.862	121.69
369.089	104.69
369.315	85.69
369.541	92.69
369.767	82.69
369.993	101.69
370.219	95.69
370.445	81.69
370.672	84.69
370.898	82.69
371.124	85.69
371.35	78.69
371.576	85.69
371.802	74.69
372.028	76.69
372.254	69.69
372.48	73.69
372.706	91.69
372.932	101.69
373.158	87.69
373.384	82.69
373.61	82.69
373.835	88.69
374.061	82.69
374.287	77.69
374.513	80.69
374.739	84.69
374.965	77.69
375.191	78.69
375.416	92.69
375.642	89.69
375.868	87.69
376.094	89.69
376.319	78.69
376.545	95.69
376.771	99.69
376.997	93.69
377.222	90.69
377.448	85.69
377.674	73.69
377.899	90.69
378.125	84.69
378.35	73.69
378.576	79.69
378.802	94.69
379.027	76.69
379.253	81.69
379.478	90.69
379.704	99.69
379.929	97.69
380.155	83.69
380.38	96.69
380.606	82.69
380.831	94.69
381.057	103.69
381.282	86.69
381.507	86.69
381.733	93.69
381.958	90.69
382.184	91.69
382.409	88.69
382.634	94.69
382.86	97.69
383.085	88.69
383.31	92.69
383.535	106.69
383.761	100.69
383.986	83.69
384.211	92.69
384.436	100.69
384.662	73.69
384.887	84.69
385.112	101.69
385.337	99.69
385.562	84.69
385.787	73.69
386.013	100.69
386.238	106.69
386.463	102.69
386.688	110.69
386.913	86.69
387.138	93.69
387.363	92.69
387.588	101.69
387.813	92.69
388.038	103.69
388.263	94.69
388.488	104.69
388.713	88.69
388.938	96.69
389.163	91.69
389.387	74.69
389.612	82.69
389.837	83.69
390.062	92.69
390.287	104.69
390.512	85.69
390.736	94.69
390.961	80.69
391.186	94.69
391.411	81.69
391.636	74.69
391.86	72.69
392.085	84.69
392.31	86.69
392.534	102.69
392.759	96.69
392.984	81.69
393.208	89.69
393.433	81.69
393.658	71.69
393.882	86.69
394.107	82.69
394.331	97.69
394.556	88.69
394.78	82.69
395.005	81.69
395.229	70.69
395.454	69.69
395.678	88.69
395.903	78.69
396.127	89.69
396.352	86.69
396.576	85.69
396.801	74.69
397.025	89.69
397.249	72.69
397.474	88.69
397.698	88.69
397.922	79.69
398.147	91.69
398.371	79.69
398.595	109.69
398.82	84.69
399.044	85.69
399.268	65.69
399.492	82.69
399.717	93.69
399.941	82.69
400.165	87.69
400.389	97.69
400.613	95.69
400.837	88.69
401.062	76.69
401.286	82.69
401.51	88.69
401.734	95.69
401.958	100.69
402.182	102.69
402.406	151.69
402.63	105.69
402.854	89.69
403.078	76.69
403.302	84.69
403.526	93.69
403.75	84.69
403.974	87.69
404.198	87.69
404.422	83.69
404.645	73.69
404.869	84.69
405.093	81.69
405.317	82.69
405.541	89.69
405.765	97.69
405.988	117.69
406.212	170.69
406.436	209.69
406.66	143.69
406.883	86.69
407.107	90.69
407.331	93.69
407.555	101.69
407.778	101.69
408.002	79.69
408.226	87.69
408.449	90.69
408.673	105.69
408.896	90.69
409.12	83.69
409.344	72.69
409.567	96.69
409.791	102.69
410.014	89.69
410.238	109.69
410.461	89.69
410.685	92.69
410.908	97.69
411.132	97.69
411.355	95.69
411.578	100.69
411.802	82.69
412.025	95.69
412.249	91.69
412.472	87.69
412.695	98.69
412.919	79.69
413.142	78.69
413.365	81.69
413.589	84.69
413.812	90.69
414.035	86.69
414.258	95.69
414.482	88.69
414.705	72.69
414.928	79.69
415.151	92.69
415.374	77.69
415.597	84.69
415.821	85.69
416.044	72.69
416.267	83.69
416.49	78.69
416.713	97.69
416.936	87.69
417.159	90.69
417.382	90.69
417.605	83.69
417.828	94.69
418.051	93.69
418.274	84.69
418.497	78.69
418.72	84.69
418.943	78.69
419.166	82.69
419.389	77.69
419.611	88.69
419.834	93.69
420.057	92.69
420.28	88.69
420.503	95.69
420.726	78.69
420.948	92.69
421.171	94.69
421.394	84.69
421.617	59.69
421.839	80.69
422.062	76.69
422.285	70.69
422.507	102.69
422.73	100.69
422.953	93.69
423.175	79.69
423.398	73.69
423.621	74.69
423.843	80.69
424.066	86.69
424.288	89.69
424.511	90.69
424.733	87.69
424.956	98.69
425.178	87.69
425.401	84.69
425.623	92.69
425.846	82.69
426.068	66.69
426.291	85.69
426.513	100.69
426.735	72.69
426.958	103.69
427.18	95.69
427.402	120.69
427.625	154.69
427.847	119.69
428.069	114.69
428.292	88.69
428.514	77.69
428.736	76.69
428.958	90.69
429.181	79.69
429.403	84.69
429.625	63.69
429.847	97.69
430.069	100.69
430.292	97.69
430.514	92.69
430.736	80.69
430.958	84.69
431.18	78.69
431.402	82.69
431.624	85.69
431.846	82.69
432.068	89.69
432.29	90.69
432.512	86.69
432.734	86.69
432.956	89.69
433.178	89.69
433.4	103.69
433.622	89.69
433.844	91.69
434.066	83.69
434.287	79.69
434.509	63.69
434.731	80.69
434.953	77.69
435.175	86.69
435.397	86.69
435.618	90.69
435.84	105.69
436.062	102.69
436.284	108.69
436.505	96.69
436.727	98.69
436.949	107.69
437.17	103.69
437.392	92.69
437.614	87.69
437.835	89.69
438.057	99.69
438.278	107.69
438.5	86.69
438.721	99.69
438.943	88.69
439.165	91.69
439.386	58.69
439.608	85.69
439.829	86.69
440.05	112.69
440.272	125.69
440.493	95.69
440.715	86.69
440.936	87.69
441.158	83.69
441.379	73.69
441.6	84.69
441.822	86.69
442.043	94.69
442.264	103.69
442.486	99.69
442.707	74.69
442.928	94.69
443.149	112.69
443.371	116.69
443.592	102.69
443.813	102.69
444.034	97.69
444.255	73.69
444.476	80.69
444.698	88.69
444.919	92.69
445.14	141.69
445.361	121.69
445.582	108.69
445.803	124.69
446.024	124.69
446.245	113.69
446.466	101.69
446.687	84.69
446.908	94.69
447.129	83.69
447.35	96.69
447.571	83.69
447.792	100.69
448.013	98.69
448.234	91.69
448.455	100.69
448.675	114.69
448.896	96.69
449.117	103.69
449.338	101.69
449.559	103.69
449.779	112.69
450	92.69
450.221	83.69
450.442	81.69
450.662	80.69
450.883	100.69
451.104	95.69
451.324	95.69
451.545	97.69
451.766	95.69
451.986	72.69
452.207	73.69
452.428	85.69
452.648	84.69
452.869	109.69
453.089	94.69
453.31	97.69
453.53	91.69
453.751	92.69
453.971	102.69
454.192	109.69
454.412	103.69
454.633	80.69
454.853	84.69
455.073	84.69
455.294	80.69
455.514	84.69
455.734	90.69
455.955	81.69
456.175	83.69
456.395	76.69
456.616	82.69
456.836	99.69
457.056	90.69
457.276	69.69
457.497	72.69
457.717	69.69
457.937	67.69
458.157	76.69
458.377	84.69
458.598	101.69
458.818	137.69
459.038	140.69
459.258	105.69
459.478	89.69
459.698	93.69
459.918	81.69
460.138	68.69
460.358	82.69
460.578	86.69
460.798	62.69
461.018	74.69
461.238	70.69
461.458	79.69
461.678	90.69
461.898	90.69
462.118	78.69
462.338	95.69
462.558	82.69
462.777	96.69
462.997	82.69
463.217	85.69
463.437	94.69
463.657	95.69
463.876	72.69
464.096	80.69
464.316	95.69
464.536	100.69
464.755	91.69
464.975	112.69
465.195	136.69
465.414	136.69
465.634	94.69
465.854	61.69
466.073	82.69
466.293	84.69
466.512	75.69
466.732	88.69
466.951	94.69
467.171	72.69
467.391	97.69
467.61	106.69
467.829	118.69
468.049	119.69
468.268	121.69
468.488	86.69
468.707	101.69
468.927	79.69
469.146	85.69
469.365	80.69
469.585	86.69
469.804	88.69
470.023	81.69
470.243	90.69
470.462	100.69
470.681	98.69
470.901	89.69
471.12	81.69
471.339	90.69
471.558	80.69
471.777	89.69
471.997	99.69
472.216	143.69
472.435	202.69
472.654	123.69
472.873	103.69
473.092	90.69
473.311	81.69
473.53	79.69
473.749	85.69
473.968	87.69
474.187	96.69
474.406	82.69
474.625	79.69
474.844	99.69
475.063	70.69
475.282	92.69
475.501	79.69
475.72	97.69
475.939	83.69
476.158	88.69
476.377	86.69
476.596	101.69
476.814	90.69
477.033	102.69
477.252	68.69
477.471	80.69
477.69	72.69
477.908	85.69
478.127	93.69
478.346	90.69
478.564	97.69
478.783	107.69
479.002	97.69
479.22	86.69
479.439	87.69
479.658	89.69
479.876	102.69
480.095	97.69
480.313	94.69
480.532	78.69
480.751	110.69
480.969	153.69
481.188	306.69
481.406	209.69
481.624	101.69
481.843	72.69
482.061	88.69
482.28	83.69
482.498	87.69
482.717	80.69
482.935	78.69
483.153	73.69
483.372	81.69
483.59	73.69
483.808	84.69
484.027	82.69
484.245	88.69
484.463	97.69
484.681	106.69
484.9	98.69
485.118	103.69
485.336	87.69
485.554	97.69
485.772	92.69
485.99	86.69
486.209	95.69
486.427	106.69
486.645	89.69
486.863	102.69
487.081	87.69
487.299	100.69
487.517	76.69
487.735	77.69
487.953	86.69
488.171	103.69
488.389	92.69
488.607	105.69
488.825	94.69
489.043	91.69
489.261	105.69
489.479	86.69
489.696	87.69
489.914	81.69
490.132	95.69
490.35	87.69
490.568	87.69
490.786	81.69
491.003	85.69
491.221	93.69
491.439	93.69
491.657	79.69
491.874	94.69
492.092	89.69
492.31	83.69
492.527	77.69
492.745	80.69
492.963	82.69
493.18	93.69
493.398	102.69
493.615	106.69
493.833	85.69
494.05	82.69
494.268	92.69
494.485	80.69
494.703	85.69
494.92	72.69
495.138	92.69
495.355	76.69
495.573	85.69
495.79	102.69
496.008	95.69
496.225	89.69
496.442	104.69
496.66	91.69
496.877	96.69
497.094	84.69
497.312	86.69
497.529	78.69
497.746	74.69
497.963	70.69
498.181	96.69
498.398	85.69
498.615	108.69
498.832	106.69
499.049	91.69
499.267	89.69
499.484	80.69
499.701	87.69
499.918	85.69
500.135	90.69
500.352	71.69
500.569	99.69
500.786	92.69
501.003	91.69
501.22	98.69
501.437	82.69
501.654	108.69
501.871	105.69
502.088	80.69
502.305	104.69
502.522	85.69
502.739	77.69
502.956	96.69
503.172	101.69
503.389	90.69
503.606	99.69
503.823	100.69
504.04	102.69
504.256	89.69
504.473	79.69
504.69	93.69
504.907	82.69
505.123	83.69
505.34	81.69
505.557	82.69
505.773	71.69
505.99	86.69
506.207	79.69
506.423	87.69
506.64	94.69
506.856	82.69
507.073	90.69
507.289	90.69
507.506	86.69
507.722	95.69
507.939	107.69
508.155	93.69
508.372	77.69
508.588	89.69
508.805	100.69
509.021	87.69
509.238	79.69
509.454	98.69
509.67	108.69
509.887	111.69
510.103	120.69
510.319	201.69
510.536	741.69
510.752	2300.69
510.968	626.69
511.184	164.69
511.401	122.69
511.617	99.69
511.833	91.69
512.049	71.69
512.265	86.69
512.481	96.69
512.698	89.69
512.914	86.69
513.13	81.69
513.346	85.69
513.562	102.69
513.778	92.69
513.994	93.69
514.21	108.69
514.426	107.69
514.642	122.69
514.858	115.69
515.074	158.69
515.29	428.69
515.506	1334.69
515.721	505.69
515.937	144.69
516.153	102.69
516.369	89.69
