Data from Uncirc_1985_H10_HRD10591_00067.txt Node
Date: Wed Jan 03 12:18:30 EST 2024
User: Yrep
Spectrometer: HR+D1059
Trigger mode: 1
Integration Time (sec): 1.000000E-1
Scans to average: 1
Electric dark correction enabled: true
Nonlinearity correction enabled: false
Boxcar width: 0
XAxis mode: Wavelengths
Number of Pixels in Spectrum: 2048
>>>>>Begin Spectral Data<<<<<
223.165	-23.5
223.4	-23.5
223.635	-23.5
223.869	-6.5
224.104	-10.5
224.338	-13.5
224.573	-13.5
224.808	-19.5
225.042	4.5
225.277	-11.5
225.511	-5.5
225.746	-8.5
225.98	4.5
226.215	19.5
226.449	19.5
226.683	17.5
226.918	17.5
227.152	29.5
227.387	33.5
227.621	33.5
227.856	39.5
228.09	44.5
228.324	33.5
228.559	64.5
228.793	57.5
229.027	60.5
229.262	63.5
229.496	66.5
229.73	79.5
229.964	89.5
230.199	87.5
230.433	70.5
230.667	61.5
230.901	67.5
231.136	63.5
231.37	94.5
231.604	89.5
231.838	71.5
232.072	85.5
232.306	90.5
232.541	81.5
232.775	75.5
233.009	70.5
233.243	64.5
233.477	79.5
233.711	63.5
233.945	80.5
234.179	74.5
234.413	80.5
234.647	95.5
234.881	68.5
235.115	83.5
235.349	91.5
235.583	64.5
235.817	88.5
236.051	83.5
236.285	64.5
236.519	60.5
236.753	70.5
236.987	84.5
237.221	91.5
237.455	73.5
237.689	72.5
237.922	71.5
238.156	69.5
238.39	68.5
238.624	67.5
238.858	71.5
239.091	71.5
239.325	82.5
239.559	82.5
239.793	75.5
240.027	65.5
240.26	73.5
240.494	68.5
240.728	86.5
240.961	77.5
241.195	78.5
241.429	81.5
241.662	67.5
241.896	83.5
242.13	83.5
242.363	71.5
242.597	81.5
242.83	76.5
243.064	80.5
243.298	72.5
243.531	61.5
243.765	65.5
243.998	71.5
244.232	89.5
244.465	75.5
244.699	74.5
244.932	76.5
245.166	70.5
245.399	76.5
245.633	91.5
245.866	68.5
246.099	71.5
246.333	72.5
246.566	71.5
246.8	72.5
247.033	75.5
247.266	80.5
247.5	81.5
247.733	84.5
247.966	60.5
248.2	81.5
248.433	72.5
248.666	83.5
248.899	79.5
249.133	81.5
249.366	89.5
249.599	93.5
249.832	74.5
250.066	83.5
250.299	85.5
250.532	88.5
250.765	80.5
250.998	67.5
251.231	73.5
251.465	90.5
251.698	67.5
251.931	82.5
252.164	77.5
252.397	78.5
252.63	67.5
252.863	97.5
253.096	86.5
253.329	91.5
253.562	75.5
253.795	81.5
254.028	68.5
254.261	69.5
254.494	82.5
254.727	86.5
254.96	79.5
255.193	72.5
255.426	88.5
255.659	82.5
255.892	86.5
256.124	82.5
256.357	79.5
256.59	82.5
256.823	83.5
257.056	79.5
257.289	64.5
257.521	85.5
257.754	77.5
257.987	86.5
258.22	79.5
258.452	89.5
258.685	80.5
258.918	83.5
259.151	72.5
259.383	67.5
259.616	84.5
259.849	91.5
260.081	70.5
260.314	65.5
260.547	77.5
260.779	79.5
261.012	79.5
261.244	81.5
261.477	86.5
261.71	93.5
261.942	109.5
262.175	99.5
262.407	83.5
262.64	82.5
262.872	70.5
263.105	89.5
263.337	105.5
263.57	85.5
263.802	83.5
264.035	85.5
264.267	68.5
264.499	79.5
264.732	87.5
264.964	72.5
265.197	81.5
265.429	75.5
265.661	81.5
265.894	83.5
266.126	78.5
266.358	74.5
266.591	73.5
266.823	91.5
267.055	86.5
267.287	89.5
267.52	90.5
267.752	79.5
267.984	87.5
268.216	79.5
268.448	97.5
268.681	83.5
268.913	90.5
269.145	88.5
269.377	73.5
269.609	88.5
269.841	81.5
270.073	98.5
270.306	69.5
270.538	83.5
270.77	76.5
271.002	74.5
271.234	82.5
271.466	92.5
271.698	94.5
271.93	78.5
272.162	78.5
272.394	83.5
272.626	74.5
272.858	91.5
273.09	85.5
273.322	87.5
273.553	67.5
273.785	79.5
274.017	83.5
274.249	84.5
274.481	73.5
274.713	87.5
274.945	90.5
275.176	83.5
275.408	96.5
275.64	79.5
275.872	93.5
276.104	74.5
276.335	89.5
276.567	87.5
276.799	103.5
277.031	98.5
277.262	78.5
277.494	83.5
277.726	74.5
277.957	96.5
278.189	75.5
278.421	68.5
278.652	85.5
278.884	72.5
279.115	80.5
279.347	79.5
279.579	90.5
279.81	84.5
280.042	95.5
280.273	86.5
280.505	91.5
280.736	88.5
280.968	73.5
281.199	81.5
281.431	91.5
281.662	81.5
281.894	81.5
282.125	110.5
282.356	121.5
282.588	113.5
282.819	114.5
283.051	99.5
283.282	85.5
283.513	101.5
283.745	83.5
283.976	96.5
284.207	89.5
284.439	82.5
284.67	75.5
284.901	88.5
285.132	94.5
285.364	88.5
285.595	83.5
285.826	83.5
286.057	85.5
286.288	80.5
286.52	71.5
286.751	79.5
286.982	85.5
287.213	75.5
287.444	88.5
287.675	102.5
287.906	94.5
288.138	86.5
288.369	80.5
288.6	99.5
288.831	85.5
289.062	82.5
289.293	93.5
289.524	81.5
289.755	90.5
289.986	75.5
290.217	79.5
290.448	79.5
290.679	85.5
290.91	85.5
291.141	90.5
291.371	96.5
291.602	105.5
291.833	110.5
292.064	93.5
292.295	94.5
292.526	88.5
292.757	95.5
292.987	70.5
293.218	80.5
293.449	99.5
293.68	90.5
293.91	72.5
294.141	100.5
294.372	96.5
294.603	92.5
294.833	85.5
295.064	93.5
295.295	94.5
295.525	78.5
295.756	90.5
295.987	103.5
296.217	141.5
296.448	111.5
296.679	98.5
296.909	94.5
297.14	85.5
297.37	96.5
297.601	84.5
297.831	87.5
298.062	77.5
298.292	88.5
298.523	102.5
298.753	81.5
298.984	81.5
299.214	96.5
299.445	53.5
299.675	104.5
299.905	109.5
300.136	96.5
300.366	84.5
300.597	103.5
300.827	79.5
301.057	99.5
301.288	99.5
301.518	95.5
301.748	94.5
301.979	101.5
302.209	97.5
302.439	89.5
302.669	103.5
302.9	84.5
303.13	91.5
303.36	97.5
303.59	82.5
303.82	99.5
304.051	79.5
304.281	90.5
304.511	87.5
304.741	92.5
304.971	81.5
305.201	74.5
305.431	99.5
305.661	95.5
305.891	100.5
306.121	82.5
306.352	94.5
306.582	84.5
306.812	78.5
307.042	103.5
307.272	99.5
307.502	106.5
307.731	94.5
307.961	87.5
308.191	78.5
308.421	80.5
308.651	90.5
308.881	93.5
309.111	101.5
309.341	85.5
309.571	84.5
309.8	96.5
310.03	98.5
310.26	105.5
310.49	88.5
310.72	96.5
310.949	108.5
311.179	92.5
311.409	101.5
311.639	101.5
311.868	106.5
312.098	95.5
312.328	93.5
312.557	99.5
312.787	104.5
313.017	83.5
313.246	94.5
313.476	88.5
313.706	91.5
313.935	81.5
314.165	98.5
314.394	84.5
314.624	93.5
314.853	93.5
315.083	78.5
315.312	104.5
315.542	87.5
315.771	95.5
316.001	79.5
316.23	103.5
316.46	101.5
316.689	84.5
316.919	98.5
317.148	89.5
317.377	84.5
317.607	97.5
317.836	88.5
318.065	102.5
318.295	94.5
318.524	87.5
318.753	83.5
318.983	108.5
319.212	99.5
319.441	89.5
319.67	90.5
319.9	91.5
320.129	93.5
320.358	77.5
320.587	90.5
320.816	107.5
321.046	100.5
321.275	92.5
321.504	96.5
321.733	109.5
321.962	104.5
322.191	101.5
322.42	89.5
322.649	114.5
322.878	113.5
323.108	109.5
323.337	114.5
323.566	125.5
323.795	138.5
324.024	184.5
324.253	329.5
324.482	752.5
324.71	1513.5
324.939	2006.5
325.168	710.5
325.397	213.5
325.626	153.5
325.855	110.5
326.084	112.5
326.313	134.5
326.542	137.5
326.77	218.5
326.999	427.5
327.228	867.5
327.457	1573.5
327.686	1259.5
327.914	333.5
328.143	195.5
328.372	143.5
328.6	125.5
328.829	106.5
329.058	120.5
329.287	123.5
329.515	103.5
329.744	94.5
329.972	107.5
330.201	141.5
330.43	128.5
330.658	135.5
330.887	129.5
331.115	104.5
331.344	98.5
331.572	96.5
331.801	106.5
332.03	110.5
332.258	101.5
332.486	86.5
332.715	87.5
332.943	84.5
333.172	99.5
333.4	101.5
333.629	101.5
333.857	104.5
334.085	100.5
334.314	115.5
334.542	142.5
334.771	161.5
334.999	96.5
335.227	113.5
335.455	85.5
335.684	80.5
335.912	87.5
336.14	81.5
336.369	99.5
336.597	92.5
336.825	90.5
337.053	88.5
337.281	92.5
337.51	90.5
337.738	96.5
337.966	88.5
338.194	96.5
338.422	90.5
338.65	96.5
338.878	89.5
339.106	83.5
339.334	91.5
339.562	87.5
339.79	79.5
340.018	96.5
340.246	73.5
340.474	103.5
340.702	92.5
340.93	101.5
341.158	94.5
341.386	100.5
341.614	95.5
341.842	85.5
342.07	90.5
342.298	97.5
342.526	87.5
342.754	80.5
342.981	97.5
343.209	99.5
343.437	103.5
343.665	80.5
343.893	91.5
344.12	94.5
344.348	96.5
344.576	74.5
344.804	102.5
345.031	104.5
345.259	98.5
345.487	86.5
345.714	75.5
345.942	85.5
346.17	85.5
346.397	93.5
346.625	77.5
346.853	97.5
347.08	104.5
347.308	81.5
347.535	85.5
347.763	86.5
347.99	102.5
348.218	86.5
348.445	88.5
348.673	103.5
348.9	98.5
349.128	96.5
349.355	82.5
349.583	85.5
349.81	97.5
350.037	97.5
350.265	89.5
350.492	85.5
350.72	91.5
350.947	86.5
351.174	99.5
351.402	109.5
351.629	108.5
351.856	103.5
352.083	97.5
352.311	100.5
352.538	107.5
352.765	116.5
352.992	106.5
353.22	102.5
353.447	106.5
353.674	102.5
353.901	98.5
354.128	96.5
354.355	109.5
354.583	110.5
354.81	78.5
355.037	107.5
355.264	83.5
355.491	80.5
355.718	75.5
355.945	95.5
356.172	90.5
356.399	105.5
356.626	93.5
356.853	81.5
357.08	92.5
357.307	95.5
357.534	109.5
357.761	92.5
357.988	88.5
358.215	102.5
358.441	94.5
358.668	87.5
358.895	88.5
359.122	90.5
359.349	83.5
359.576	85.5
359.802	99.5
360.029	106.5
360.256	101.5
360.483	92.5
360.709	81.5
360.936	89.5
361.163	90.5
361.39	93.5
361.616	70.5
361.843	84.5
362.07	97.5
362.296	95.5
362.523	100.5
362.749	91.5
362.976	68.5
363.203	79.5
363.429	79.5
363.656	85.5
363.882	94.5
364.109	81.5
364.335	87.5
364.562	84.5
364.788	82.5
365.015	90.5
365.241	101.5
365.468	113.5
365.694	95.5
365.92	92.5
366.147	92.5
366.373	98.5
366.599	87.5
366.826	86.5
367.052	98.5
367.278	69.5
367.505	81.5
367.731	87.5
367.957	84.5
368.184	85.5
368.41	84.5
368.636	115.5
368.862	125.5
369.089	104.5
369.315	85.5
369.541	83.5
369.767	92.5
369.993	88.5
370.219	85.5
370.445	73.5
370.672	95.5
370.898	90.5
371.124	96.5
371.35	77.5
371.576	85.5
371.802	78.5
372.028	68.5
372.254	99.5
372.48	95.5
372.706	86.5
372.932	87.5
373.158	88.5
373.384	86.5
373.61	92.5
373.835	89.5
374.061	89.5
374.287	86.5
374.513	82.5
374.739	91.5
374.965	93.5
375.191	81.5
375.416	77.5
375.642	93.5
375.868	81.5
376.094	83.5
376.319	81.5
376.545	96.5
376.771	97.5
376.997	78.5
377.222	86.5
377.448	92.5
377.674	84.5
377.899	79.5
378.125	88.5
378.35	96.5
378.576	100.5
378.802	91.5
379.027	82.5
379.253	94.5
379.478	91.5
379.704	98.5
379.929	85.5
380.155	84.5
380.38	92.5
380.606	95.5
380.831	104.5
381.057	102.5
381.282	88.5
381.507	90.5
381.733	99.5
381.958	91.5
382.184	77.5
382.409	83.5
382.634	98.5
382.86	101.5
383.085	107.5
383.31	87.5
383.535	93.5
383.761	83.5
383.986	101.5
384.211	97.5
384.436	92.5
384.662	84.5
384.887	93.5
385.112	103.5
385.337	90.5
385.562	81.5
385.787	94.5
386.013	113.5
386.238	110.5
386.463	103.5
386.688	105.5
386.913	86.5
387.138	102.5
387.363	84.5
387.588	87.5
387.813	89.5
388.038	94.5
388.263	103.5
388.488	102.5
388.713	97.5
388.938	83.5
389.163	91.5
389.387	95.5
389.612	101.5
389.837	102.5
390.062	86.5
390.287	95.5
390.512	89.5
390.736	87.5
390.961	86.5
391.186	71.5
391.411	93.5
391.636	89.5
391.86	80.5
392.085	83.5
392.31	86.5
392.534	78.5
392.759	90.5
392.984	90.5
393.208	74.5
393.433	77.5
393.658	90.5
393.882	102.5
394.107	82.5
394.331	71.5
394.556	75.5
394.78	90.5
395.005	91.5
395.229	84.5
395.454	81.5
395.678	99.5
395.903	84.5
396.127	72.5
396.352	90.5
396.576	85.5
396.801	92.5
397.025	87.5
397.249	81.5
397.474	72.5
397.698	81.5
397.922	82.5
398.147	79.5
398.371	94.5
398.595	79.5
398.82	82.5
399.044	84.5
399.268	91.5
399.492	97.5
399.717	83.5
399.941	86.5
400.165	88.5
400.389	86.5
400.613	84.5
400.837	75.5
401.062	83.5
401.286	81.5
401.51	93.5
401.734	77.5
401.958	100.5
402.182	131.5
402.406	136.5
402.63	106.5
402.854	96.5
403.078	96.5
403.302	83.5
403.526	87.5
403.75	103.5
403.974	86.5
404.198	96.5
404.422	84.5
404.645	87.5
404.869	90.5
405.093	100.5
405.317	102.5
405.541	85.5
405.765	106.5
405.988	105.5
406.212	163.5
406.436	210.5
406.66	130.5
406.883	82.5
407.107	93.5
407.331	74.5
407.555	84.5
407.778	93.5
408.002	102.5
408.226	78.5
408.449	87.5
408.673	98.5
408.896	93.5
409.12	88.5
409.344	97.5
409.567	90.5
409.791	94.5
410.014	96.5
410.238	95.5
410.461	79.5
410.685	87.5
410.908	86.5
411.132	102.5
411.355	91.5
411.578	102.5
411.802	98.5
412.025	90.5
412.249	89.5
412.472	89.5
412.695	98.5
412.919	88.5
413.142	83.5
413.365	91.5
413.589	97.5
413.812	72.5
414.035	82.5
414.258	95.5
414.482	81.5
414.705	72.5
414.928	77.5
415.151	90.5
415.374	89.5
415.597	97.5
415.821	70.5
416.044	99.5
416.267	72.5
416.49	87.5
416.713	91.5
416.936	87.5
417.159	90.5
417.382	88.5
417.605	83.5
417.828	95.5
418.051	83.5
418.274	88.5
418.497	84.5
418.72	89.5
418.943	68.5
419.166	93.5
419.389	94.5
419.611	86.5
419.834	88.5
420.057	82.5
420.28	84.5
420.503	78.5
420.726	85.5
420.948	81.5
421.171	87.5
421.394	93.5
421.617	93.5
421.839	94.5
422.062	83.5
422.285	81.5
422.507	110.5
422.73	89.5
422.953	93.5
423.175	83.5
423.398	90.5
423.621	85.5
423.843	93.5
424.066	87.5
424.288	74.5
424.511	89.5
424.733	88.5
424.956	103.5
425.178	106.5
425.401	86.5
425.623	88.5
425.846	86.5
426.068	94.5
426.291	88.5
426.513	95.5
426.735	91.5
426.958	95.5
427.18	95.5
427.402	130.5
427.625	132.5
427.847	113.5
428.069	108.5
428.292	95.5
428.514	75.5
428.736	84.5
428.958	73.5
429.181	88.5
429.403	77.5
429.625	78.5
429.847	78.5
430.069	103.5
430.292	97.5
430.514	77.5
430.736	80.5
430.958	93.5
431.18	78.5
431.402	93.5
431.624	97.5
431.846	89.5
432.068	86.5
432.29	85.5
432.512	76.5
432.734	102.5
432.956	93.5
433.178	92.5
433.4	94.5
433.622	84.5
433.844	86.5
434.066	92.5
434.287	101.5
434.509	82.5
434.731	82.5
434.953	90.5
435.175	85.5
435.397	89.5
435.618	90.5
435.84	99.5
436.062	120.5
436.284	115.5
436.505	100.5
436.727	97.5
436.949	96.5
437.17	89.5
437.392	83.5
437.614	102.5
437.835	113.5
438.057	111.5
438.278	105.5
438.5	85.5
438.721	108.5
438.943	77.5
439.165	91.5
439.386	84.5
439.608	85.5
439.829	105.5
440.05	111.5
440.272	133.5
440.493	90.5
440.715	92.5
440.936	77.5
441.158	96.5
441.379	69.5
441.6	88.5
441.822	80.5
442.043	83.5
442.264	88.5
442.486	99.5
442.707	85.5
442.928	94.5
443.149	114.5
443.371	113.5
443.592	110.5
443.813	107.5
444.034	95.5
444.255	97.5
444.476	86.5
444.698	95.5
444.919	89.5
445.14	124.5
445.361	119.5
445.582	105.5
445.803	132.5
446.024	119.5
446.245	125.5
446.466	99.5
446.687	104.5
446.908	97.5
447.129	90.5
447.35	92.5
447.571	93.5
447.792	97.5
448.013	98.5
448.234	98.5
448.455	90.5
448.675	102.5
448.896	103.5
449.117	102.5
449.338	103.5
449.559	109.5
449.779	116.5
450	80.5
450.221	84.5
450.442	75.5
450.662	85.5
450.883	100.5
451.104	117.5
451.324	90.5
451.545	83.5
451.766	73.5
451.986	89.5
452.207	90.5
452.428	92.5
452.648	99.5
452.869	103.5
453.089	94.5
453.31	102.5
453.53	94.5
453.751	93.5
453.971	93.5
454.192	96.5
454.412	102.5
454.633	83.5
454.853	83.5
455.073	88.5
455.294	85.5
455.514	99.5
455.734	90.5
455.955	86.5
456.175	85.5
456.395	93.5
456.616	94.5
456.836	86.5
457.056	74.5
457.276	75.5
457.497	82.5
457.717	80.5
457.937	66.5
458.157	91.5
458.377	66.5
458.598	87.5
458.818	120.5
459.038	135.5
459.258	96.5
459.478	85.5
459.698	82.5
459.918	87.5
460.138	93.5
460.358	72.5
460.578	83.5
460.798	79.5
461.018	86.5
461.238	82.5
461.458	88.5
461.678	83.5
461.898	77.5
462.118	70.5
462.338	77.5
462.558	83.5
462.777	75.5
462.997	85.5
463.217	83.5
463.437	82.5
463.657	80.5
463.876	89.5
464.096	88.5
464.316	85.5
464.536	88.5
464.755	105.5
464.975	98.5
465.195	149.5
465.414	132.5
465.634	93.5
465.854	90.5
466.073	95.5
466.293	87.5
466.512	80.5
466.732	89.5
466.951	97.5
467.171	88.5
467.391	88.5
467.61	92.5
467.829	97.5
468.049	105.5
468.268	107.5
468.488	86.5
468.707	93.5
468.927	85.5
469.146	87.5
469.365	82.5
469.585	77.5
469.804	82.5
470.023	82.5
470.243	92.5
470.462	97.5
470.681	108.5
470.901	81.5
471.12	80.5
471.339	92.5
471.558	86.5
471.777	97.5
471.997	96.5
472.216	129.5
472.435	168.5
472.654	93.5
472.873	87.5
473.092	84.5
473.311	87.5
473.53	90.5
473.749	86.5
473.968	103.5
474.187	91.5
474.406	91.5
474.625	79.5
474.844	91.5
475.063	84.5
475.282	73.5
475.501	81.5
475.72	90.5
475.939	87.5
476.158	81.5
476.377	87.5
476.596	72.5
476.814	97.5
477.033	95.5
477.252	88.5
477.471	81.5
477.69	91.5
477.908	83.5
478.127	96.5
478.346	93.5
478.564	90.5
478.783	89.5
479.002	106.5
479.22	89.5
479.439	85.5
479.658	94.5
479.876	93.5
480.095	91.5
480.313	101.5
480.532	90.5
480.751	103.5
480.969	121.5
481.188	241.5
481.406	166.5
481.624	106.5
481.843	84.5
482.061	109.5
482.28	91.5
482.498	77.5
482.717	96.5
482.935	90.5
483.153	91.5
483.372	88.5
483.59	63.5
483.808	73.5
484.027	98.5
484.245	83.5
484.463	88.5
484.681	103.5
484.9	87.5
485.118	96.5
485.336	89.5
485.554	97.5
485.772	89.5
485.99	104.5
486.209	111.5
486.427	97.5
486.645	94.5
486.863	107.5
487.081	97.5
487.299	110.5
487.517	106.5
487.735	89.5
487.953	94.5
488.171	78.5
488.389	80.5
488.607	87.5
488.825	93.5
489.043	84.5
489.261	87.5
489.479	83.5
489.696	95.5
489.914	85.5
490.132	99.5
490.35	99.5
490.568	89.5
490.786	93.5
491.003	80.5
491.221	90.5
491.439	100.5
491.657	97.5
491.874	87.5
492.092	93.5
492.31	90.5
492.527	64.5
492.745	93.5
492.963	96.5
493.18	87.5
493.398	93.5
493.615	97.5
493.833	82.5
494.05	95.5
494.268	87.5
494.485	83.5
494.703	81.5
494.92	95.5
495.138	89.5
495.355	86.5
495.573	84.5
495.79	98.5
496.008	84.5
496.225	71.5
496.442	92.5
496.66	96.5
496.877	105.5
497.094	93.5
497.312	87.5
497.529	100.5
497.746	90.5
497.963	93.5
498.181	84.5
498.398	87.5
498.615	105.5
498.832	96.5
499.049	96.5
499.267	90.5
499.484	109.5
499.701	101.5
499.918	82.5
500.135	95.5
500.352	77.5
500.569	94.5
500.786	81.5
501.003	81.5
501.22	83.5
501.437	87.5
501.654	94.5
501.871	90.5
502.088	88.5
502.305	85.5
502.522	75.5
502.739	90.5
502.956	97.5
503.172	78.5
503.389	105.5
503.606	94.5
503.823	89.5
504.04	95.5
504.256	90.5
504.473	89.5
504.69	75.5
504.907	98.5
505.123	89.5
505.34	99.5
505.557	89.5
505.773	93.5
505.99	88.5
506.207	91.5
506.423	99.5
506.64	101.5
506.856	79.5
507.073	97.5
507.289	85.5
507.506	82.5
507.722	99.5
507.939	105.5
508.155	96.5
508.372	109.5
508.588	102.5
508.805	105.5
509.021	103.5
509.238	96.5
509.454	104.5
509.67	88.5
509.887	106.5
510.103	131.5
510.319	196.5
510.536	647.5
510.752	2092.5
510.968	575.5
511.184	157.5
511.401	117.5
511.617	94.5
511.833	73.5
512.049	79.5
512.265	99.5
512.481	94.5
512.698	88.5
512.914	97.5
513.13	102.5
513.346	101.5
513.562	79.5
513.778	95.5
513.994	93.5
514.21	91.5
514.426	107.5
514.642	126.5
514.858	116.5
515.074	143.5
515.29	402.5
515.506	1240.5
515.721	443.5
515.937	128.5
516.153	108.5
516.369	102.5
516.585	108.5
516.801	91.5
517.016	103.5
517.232	86.5
517.448	99.5
517.664	91.5
517.879	78.5
518.095	95.5
518.311	89.5
518.527	86.5
518.742	94.5
518.958	94.5
519.173	83.5
519.389	81.5
519.605	90.5
519.82	101.5
520.036	98.5
520.251	108.5
520.467	100.5
520.682	92.5
520.898	100.5
521.113	112.5
521.329	132.5
521.544	200.5
521.76	471.5
521.975	2035.5
522.19	1201.5
522.406	262.5
522.621	125.5
522.836	104.5
523.052	91.5
523.267	85.5
523.482	85.5
523.698	90.5
523.913	121.5
524.128	98.5
524.343	100.5
524.559	96.5
524.774	99.5
524.989	88.5
525.204	101.5
525.419	97.5
525.634	95.5
525.849	93.5
526.064	95.5
526.28	102.5
526.495	78.5
526.71	74.5
526.925	94.5
527.14	90.5
527.355	84.5
527.57	80.5
527.785	82.5
527.999	96.5
528.214	96.5
528.429	95.5
528.644	94.5
528.859	99.5
529.074	102.5
529.289	119.5
529.503	163.5
529.718	102.5
529.933	103.5
530.148	92.5
530.363	80.5
530.577	84.5
530.792	75.5
531.007	98.5
531.221	87.5
531.436	100.5
531.651	108.5
531.865	90.5
532.08	98.5
532.295	86.5
532.509	90.5
532.724	88.5
532.938	89.5
533.153	97.5
533.367	99.5
533.582	91.5
533.796	89.5
534.011	106.5
534.225	86.5
534.44	92.5
534.654	100.5
534.868	73.5
535.083	96.5
535.297	96.5
535.511	95.5
535.726	106.5
535.94	91.5
536.154	99.5
