Data from Uncirc_1985_H10_HRD10591_00038.txt Node
Date: Wed Jan 03 12:18:25 EST 2024
User: Yrep
Spectrometer: HR+D1059
Trigger mode: 1
Integration Time (sec): 1.000000E-1
Scans to average: 1
Electric dark correction enabled: true
Nonlinearity correction enabled: false
Boxcar width: 0
XAxis mode: Wavelengths
Number of Pixels in Spectrum: 2048
>>>>>Begin Spectral Data<<<<<
223.165	-11.19
223.4	-11.19
223.635	-11.19
223.869	-11.19
224.104	-5.19
224.338	-11.19
224.573	-1.19
224.808	-17.19
225.042	-1.19
225.277	-6.19
225.511	-12.19
225.746	-1.19
225.98	0.81
226.215	3.81
226.449	3.81
226.683	10.81
226.918	22.81
227.152	35.81
227.387	53.81
227.621	37.81
227.856	31.81
228.09	44.81
228.324	42.81
228.559	53.81
228.793	57.81
229.027	58.81
229.262	69.81
229.496	82.81
229.73	80.81
229.964	83.81
230.199	80.81
230.433	81.81
230.667	82.81
230.901	72.81
231.136	66.81
231.37	74.81
231.604	85.81
231.838	93.81
232.072	77.81
232.306	85.81
232.541	81.81
232.775	88.81
233.009	84.81
233.243	90.81
233.477	56.81
233.711	75.81
233.945	66.81
234.179	73.81
234.413	65.81
234.647	65.81
234.881	72.81
235.115	91.81
235.349	84.81
235.583	68.81
235.817	81.81
236.051	72.81
236.285	74.81
236.519	66.81
236.753	84.81
236.987	73.81
237.221	67.81
237.455	75.81
237.689	71.81
237.922	65.81
238.156	87.81
238.39	80.81
238.624	82.81
238.858	72.81
239.091	72.81
239.325	77.81
239.559	68.81
239.793	69.81
240.027	60.81
240.26	65.81
240.494	65.81
240.728	72.81
240.961	93.81
241.195	79.81
241.429	78.81
241.662	78.81
241.896	80.81
242.13	92.81
242.363	67.81
242.597	79.81
242.83	81.81
243.064	68.81
243.298	70.81
243.531	85.81
243.765	63.81
243.998	65.81
244.232	62.81
244.465	80.81
244.699	68.81
244.932	78.81
245.166	58.81
245.399	76.81
245.633	77.81
245.866	79.81
246.099	90.81
246.333	69.81
246.566	68.81
246.8	71.81
247.033	81.81
247.266	74.81
247.5	81.81
247.733	72.81
247.966	73.81
248.2	91.81
248.433	89.81
248.666	65.81
248.899	79.81
249.133	104.81
249.366	98.81
249.599	87.81
249.832	66.81
250.066	79.81
250.299	79.81
250.532	83.81
250.765	79.81
250.998	83.81
251.231	98.81
251.465	87.81
251.698	60.81
251.931	87.81
252.164	77.81
252.397	85.81
252.63	88.81
252.863	75.81
253.096	76.81
253.329	83.81
253.562	75.81
253.795	75.81
254.028	93.81
254.261	78.81
254.494	81.81
254.727	66.81
254.96	81.81
255.193	66.81
255.426	66.81
255.659	73.81
255.892	94.81
256.124	100.81
256.357	75.81
256.59	83.81
256.823	74.81
257.056	80.81
257.289	85.81
257.521	77.81
257.754	81.81
257.987	88.81
258.22	65.81
258.452	68.81
258.685	78.81
258.918	85.81
259.151	73.81
259.383	96.81
259.616	73.81
259.849	88.81
260.081	75.81
260.314	72.81
260.547	86.81
260.779	83.81
261.012	65.81
261.244	77.81
261.477	93.81
261.71	98.81
261.942	98.81
262.175	110.81
262.407	80.81
262.64	71.81
262.872	83.81
263.105	77.81
263.337	92.81
263.57	86.81
263.802	90.81
264.035	74.81
264.267	86.81
264.499	87.81
264.732	81.81
264.964	79.81
265.197	74.81
265.429	88.81
265.661	90.81
265.894	74.81
266.126	78.81
266.358	78.81
266.591	87.81
266.823	85.81
267.055	74.81
267.287	91.81
267.52	90.81
267.752	79.81
267.984	71.81
268.216	65.81
268.448	75.81
268.681	75.81
268.913	90.81
269.145	90.81
269.377	73.81
269.609	78.81
269.841	64.81
270.073	80.81
270.306	74.81
270.538	88.81
270.77	85.81
271.002	75.81
271.234	83.81
271.466	69.81
271.698	87.81
271.93	78.81
272.162	80.81
272.394	64.81
272.626	77.81
272.858	93.81
273.09	82.81
273.322	78.81
273.553	70.81
273.785	78.81
274.017	100.81
274.249	92.81
274.481	86.81
274.713	83.81
274.945	110.81
275.176	83.81
275.408	82.81
275.64	90.81
275.872	88.81
276.104	86.81
276.335	78.81
276.567	94.81
276.799	98.81
277.031	94.81
277.262	104.81
277.494	93.81
277.726	91.81
277.957	87.81
278.189	94.81
278.421	74.81
278.652	78.81
278.884	72.81
279.115	81.81
279.347	93.81
279.579	84.81
279.81	83.81
280.042	83.81
280.273	86.81
280.505	73.81
280.736	97.81
280.968	100.81
281.199	97.81
281.431	88.81
281.662	87.81
281.894	80.81
282.125	94.81
282.356	102.81
282.588	126.81
282.819	111.81
283.051	85.81
283.282	77.81
283.513	100.81
283.745	63.81
283.976	81.81
284.207	94.81
284.439	93.81
284.67	82.81
284.901	79.81
285.132	98.81
285.364	85.81
285.595	89.81
285.826	89.81
286.057	78.81
286.288	81.81
286.52	74.81
286.751	81.81
286.982	88.81
287.213	89.81
287.444	87.81
287.675	71.81
287.906	96.81
288.138	90.81
288.369	85.81
288.6	94.81
288.831	78.81
289.062	91.81
289.293	85.81
289.524	79.81
289.755	89.81
289.986	89.81
290.217	89.81
290.448	90.81
290.679	81.81
290.91	86.81
291.141	90.81
291.371	79.81
291.602	79.81
291.833	82.81
292.064	84.81
292.295	85.81
292.526	75.81
292.757	89.81
292.987	77.81
293.218	93.81
293.449	90.81
293.68	85.81
293.91	99.81
294.141	97.81
294.372	81.81
294.603	79.81
294.833	89.81
295.064	81.81
295.295	90.81
295.525	87.81
295.756	97.81
295.987	109.81
296.217	131.81
296.448	118.81
296.679	96.81
296.909	89.81
297.14	71.81
297.37	89.81
297.601	84.81
297.831	87.81
298.062	85.81
298.292	88.81
298.523	88.81
298.753	79.81
298.984	83.81
299.214	81.81
299.445	80.81
299.675	98.81
299.905	89.81
300.136	80.81
300.366	82.81
300.597	94.81
300.827	98.81
301.057	94.81
301.288	97.81
301.518	81.81
301.748	79.81
301.979	101.81
302.209	86.81
302.439	85.81
302.669	86.81
302.9	83.81
303.13	93.81
303.36	91.81
303.59	91.81
303.82	88.81
304.051	93.81
304.281	67.81
304.511	98.81
304.741	71.81
304.971	82.81
305.201	90.81
305.431	86.81
305.661	85.81
305.891	90.81
306.121	88.81
306.352	88.81
306.582	95.81
306.812	82.81
307.042	85.81
307.272	91.81
307.502	93.81
307.731	86.81
307.961	77.81
308.191	87.81
308.421	80.81
308.651	88.81
308.881	101.81
309.111	66.81
309.341	79.81
309.571	80.81
309.8	106.81
310.03	92.81
310.26	66.81
310.49	81.81
310.72	93.81
310.949	97.81
311.179	72.81
311.409	79.81
311.639	93.81
311.868	87.81
312.098	80.81
312.328	103.81
312.557	97.81
312.787	95.81
313.017	102.81
313.246	100.81
313.476	82.81
313.706	83.81
313.935	98.81
314.165	99.81
314.394	86.81
314.624	102.81
314.853	95.81
315.083	90.81
315.312	93.81
315.542	100.81
315.771	79.81
316.001	85.81
316.23	83.81
316.46	97.81
316.689	86.81
316.919	87.81
317.148	93.81
317.377	84.81
317.607	91.81
317.836	88.81
318.065	83.81
318.295	101.81
318.524	90.81
318.753	88.81
318.983	99.81
319.212	97.81
319.441	93.81
319.67	99.81
319.9	89.81
320.129	93.81
320.358	92.81
320.587	91.81
320.816	101.81
321.046	95.81
321.275	98.81
321.504	83.81
321.733	83.81
321.962	102.81
322.191	100.81
322.42	84.81
322.649	88.81
322.878	90.81
323.108	109.81
323.337	103.81
323.566	118.81
323.795	126.81
324.024	181.81
324.253	346.81
324.482	737.81
324.71	1517.81
324.939	1984.81
325.168	723.81
325.397	228.81
325.626	137.81
325.855	115.81
326.084	133.81
326.313	124.81
326.542	145.81
326.77	198.81
326.999	424.81
327.228	866.81
327.457	1533.81
327.686	1251.81
327.914	338.81
328.143	179.81
328.372	142.81
328.6	111.81
328.829	115.81
329.058	119.81
329.287	106.81
329.515	109.81
329.744	102.81
329.972	99.81
330.201	105.81
330.43	115.81
330.658	121.81
330.887	111.81
331.115	117.81
331.344	94.81
331.572	99.81
331.801	100.81
332.03	103.81
332.258	87.81
332.486	92.81
332.715	99.81
332.943	93.81
333.172	103.81
333.4	82.81
333.629	96.81
333.857	103.81
334.085	103.81
334.314	102.81
334.542	118.81
334.771	117.81
334.999	92.81
335.227	88.81
335.455	107.81
335.684	109.81
335.912	94.81
336.14	89.81
336.369	83.81
336.597	98.81
336.825	77.81
337.053	86.81
337.281	92.81
337.51	77.81
337.738	87.81
337.966	77.81
338.194	94.81
338.422	108.81
338.65	81.81
338.878	89.81
339.106	85.81
339.334	109.81
339.562	89.81
339.79	85.81
340.018	91.81
340.246	83.81
340.474	95.81
340.702	97.81
340.93	103.81
341.158	99.81
341.386	92.81
341.614	84.81
341.842	79.81
342.07	94.81
342.298	78.81
342.526	103.81
342.754	106.81
342.981	88.81
343.209	86.81
343.437	89.81
343.665	92.81
343.893	86.81
344.12	80.81
344.348	91.81
344.576	86.81
344.804	91.81
345.031	91.81
345.259	93.81
345.487	89.81
345.714	91.81
345.942	86.81
346.17	91.81
346.397	102.81
346.625	97.81
346.853	101.81
347.08	84.81
347.308	95.81
347.535	95.81
347.763	90.81
347.99	99.81
348.218	92.81
348.445	94.81
348.673	85.81
348.9	94.81
349.128	106.81
349.355	93.81
349.583	103.81
349.81	102.81
350.037	86.81
350.265	90.81
350.492	75.81
350.72	99.81
350.947	91.81
351.174	102.81
351.402	97.81
351.629	94.81
351.856	104.81
352.083	95.81
352.311	112.81
352.538	102.81
352.765	99.81
352.992	115.81
353.22	117.81
353.447	96.81
353.674	95.81
353.901	83.81
354.128	74.81
354.355	86.81
354.583	94.81
354.81	92.81
355.037	96.81
355.264	108.81
355.491	87.81
355.718	97.81
355.945	87.81
356.172	91.81
356.399	99.81
356.626	90.81
356.853	102.81
357.08	82.81
357.307	85.81
357.534	81.81
357.761	79.81
357.988	103.81
358.215	110.81
358.441	94.81
358.668	92.81
358.895	83.81
359.122	94.81
359.349	81.81
359.576	87.81
359.802	84.81
360.029	96.81
360.256	106.81
360.483	96.81
360.709	92.81
360.936	102.81
361.163	78.81
361.39	92.81
361.616	89.81
361.843	71.81
362.07	83.81
362.296	101.81
362.523	90.81
362.749	98.81
362.976	89.81
363.203	98.81
363.429	93.81
363.656	91.81
363.882	91.81
364.109	93.81
364.335	68.81
364.562	94.81
364.788	89.81
365.015	99.81
365.241	92.81
365.468	96.81
365.694	104.81
365.92	97.81
366.147	79.81
366.373	89.81
366.599	93.81
366.826	91.81
367.052	96.81
367.278	95.81
367.505	97.81
367.731	78.81
367.957	77.81
368.184	83.81
368.41	85.81
368.636	112.81
368.862	121.81
369.089	91.81
369.315	96.81
369.541	91.81
369.767	74.81
369.993	77.81
370.219	92.81
370.445	82.81
370.672	86.81
370.898	82.81
371.124	79.81
371.35	83.81
371.576	90.81
371.802	80.81
372.028	87.81
372.254	91.81
372.48	86.81
372.706	85.81
372.932	80.81
373.158	86.81
373.384	93.81
373.61	95.81
373.835	79.81
374.061	73.81
374.287	93.81
374.513	96.81
374.739	78.81
374.965	95.81
375.191	90.81
375.416	93.81
375.642	89.81
375.868	84.81
376.094	82.81
376.319	97.81
376.545	98.81
376.771	92.81
376.997	91.81
377.222	90.81
377.448	88.81
377.674	76.81
377.899	82.81
378.125	83.81
378.35	93.81
378.576	96.81
378.802	80.81
379.027	88.81
379.253	95.81
379.478	98.81
379.704	83.81
379.929	95.81
380.155	98.81
380.38	96.81
380.606	94.81
380.831	89.81
381.057	97.81
381.282	96.81
381.507	89.81
381.733	90.81
381.958	83.81
382.184	92.81
382.409	92.81
382.634	83.81
382.86	93.81
383.085	97.81
383.31	106.81
383.535	100.81
383.761	89.81
383.986	89.81
384.211	82.81
384.436	77.81
384.662	105.81
384.887	99.81
385.112	106.81
385.337	97.81
385.562	109.81
385.787	97.81
386.013	105.81
386.238	90.81
386.463	89.81
386.688	101.81
386.913	103.81
387.138	85.81
387.363	100.81
387.588	94.81
387.813	94.81
388.038	97.81
388.263	95.81
388.488	91.81
388.713	90.81
388.938	105.81
389.163	106.81
389.387	101.81
389.612	90.81
389.837	87.81
390.062	89.81
390.287	85.81
390.512	86.81
390.736	86.81
390.961	89.81
391.186	86.81
391.411	93.81
391.636	74.81
391.86	81.81
392.085	88.81
392.31	86.81
392.534	78.81
392.759	80.81
392.984	77.81
393.208	101.81
393.433	95.81
393.658	92.81
393.882	85.81
394.107	72.81
394.331	84.81
394.556	81.81
394.78	97.81
395.005	91.81
395.229	81.81
395.454	80.81
395.678	80.81
395.903	72.81
396.127	82.81
396.352	85.81
396.576	90.81
396.801	93.81
397.025	88.81
397.249	81.81
397.474	94.81
397.698	96.81
397.922	84.81
398.147	88.81
398.371	87.81
398.595	89.81
398.82	77.81
399.044	89.81
399.268	74.81
399.492	85.81
399.717	80.81
399.941	72.81
400.165	100.81
400.389	94.81
400.613	85.81
400.837	96.81
401.062	89.81
401.286	85.81
401.51	84.81
401.734	76.81
401.958	91.81
402.182	114.81
402.406	139.81
402.63	112.81
402.854	96.81
403.078	89.81
403.302	87.81
403.526	88.81
403.75	88.81
403.974	87.81
404.198	77.81
404.422	82.81
404.645	83.81
404.869	101.81
405.093	100.81
405.317	95.81
405.541	91.81
405.765	94.81
405.988	103.81
406.212	157.81
406.436	191.81
406.66	121.81
406.883	96.81
407.107	101.81
407.331	99.81
407.555	92.81
407.778	105.81
408.002	86.81
408.226	82.81
408.449	79.81
408.673	95.81
408.896	87.81
409.12	78.81
409.344	91.81
409.567	89.81
409.791	106.81
410.014	97.81
410.238	73.81
410.461	80.81
410.685	79.81
410.908	100.81
411.132	105.81
411.355	92.81
411.578	73.81
411.802	97.81
412.025	81.81
412.249	73.81
412.472	96.81
412.695	107.81
412.919	86.81
413.142	84.81
413.365	87.81
413.589	93.81
413.812	77.81
414.035	91.81
414.258	78.81
414.482	81.81
414.705	86.81
414.928	87.81
415.151	88.81
415.374	89.81
415.597	85.81
415.821	92.81
416.044	79.81
416.267	93.81
416.49	81.81
416.713	95.81
416.936	90.81
417.159	86.81
417.382	89.81
417.605	85.81
417.828	88.81
418.051	78.81
418.274	101.81
418.497	71.81
418.72	90.81
418.943	80.81
419.166	97.81
419.389	92.81
419.611	92.81
419.834	85.81
420.057	77.81
420.28	104.81
420.503	81.81
420.726	88.81
420.948	86.81
421.171	91.81
421.394	79.81
421.617	81.81
421.839	99.81
422.062	90.81
422.285	82.81
422.507	82.81
422.73	90.81
422.953	99.81
423.175	91.81
423.398	81.81
423.621	77.81
423.843	91.81
424.066	90.81
424.288	92.81
424.511	99.81
424.733	98.81
424.956	100.81
425.178	89.81
425.401	94.81
425.623	77.81
425.846	81.81
426.068	94.81
426.291	89.81
426.513	89.81
426.735	83.81
426.958	86.81
427.18	90.81
427.402	124.81
427.625	137.81
427.847	127.81
428.069	105.81
428.292	99.81
428.514	101.81
428.736	85.81
428.958	87.81
429.181	61.81
429.403	81.81
429.625	88.81
429.847	88.81
430.069	97.81
430.292	71.81
430.514	88.81
430.736	87.81
430.958	79.81
431.18	87.81
431.402	83.81
431.624	99.81
431.846	81.81
432.068	79.81
432.29	89.81
432.512	85.81
432.734	91.81
432.956	76.81
433.178	105.81
433.4	95.81
433.622	87.81
433.844	94.81
434.066	96.81
434.287	87.81
434.509	81.81
434.731	79.81
434.953	95.81
435.175	88.81
435.397	95.81
435.618	91.81
435.84	83.81
436.062	112.81
436.284	110.81
436.505	107.81
436.727	93.81
436.949	104.81
437.17	96.81
437.392	82.81
437.614	81.81
437.835	93.81
438.057	110.81
438.278	116.81
438.5	90.81
438.721	109.81
438.943	91.81
439.165	96.81
439.386	99.81
439.608	74.81
439.829	95.81
440.05	120.81
440.272	118.81
440.493	104.81
440.715	89.81
440.936	78.81
441.158	88.81
441.379	80.81
441.6	91.81
441.822	102.81
442.043	96.81
442.264	102.81
442.486	101.81
442.707	79.81
442.928	98.81
443.149	119.81
443.371	113.81
443.592	106.81
443.813	90.81
444.034	110.81
444.255	84.81
444.476	72.81
444.698	70.81
444.919	78.81
445.14	126.81
445.361	131.81
445.582	111.81
445.803	138.81
446.024	137.81
446.245	124.81
446.466	107.81
446.687	84.81
446.908	89.81
447.129	83.81
447.35	70.81
447.571	98.81
447.792	104.81
448.013	106.81
448.234	114.81
448.455	104.81
448.675	106.81
448.896	110.81
449.117	93.81
449.338	106.81
449.559	122.81
449.779	109.81
450	93.81
450.221	89.81
450.442	93.81
450.662	77.81
450.883	99.81
451.104	95.81
451.324	111.81
451.545	87.81
451.766	91.81
451.986	92.81
452.207	91.81
452.428	81.81
452.648	96.81
452.869	117.81
453.089	106.81
453.31	95.81
453.53	102.81
453.751	87.81
453.971	91.81
454.192	110.81
454.412	89.81
454.633	93.81
454.853	91.81
455.073	85.81
455.294	79.81
455.514	90.81
455.734	96.81
455.955	73.81
456.175	73.81
456.395	70.81
456.616	80.81
456.836	87.81
457.056	85.81
457.276	87.81
457.497	85.81
457.717	83.81
457.937	82.81
458.157	69.81
458.377	89.81
458.598	109.81
458.818	148.81
459.038	133.81
459.258	108.81
459.478	85.81
459.698	79.81
459.918	71.81
460.138	86.81
460.358	60.81
460.578	95.81
460.798	77.81
461.018	98.81
461.238	94.81
461.458	88.81
461.678	72.81
461.898	85.81
462.118	79.81
462.338	90.81
462.558	77.81
462.777	85.81
462.997	95.81
463.217	94.81
463.437	81.81
463.657	85.81
463.876	90.81
464.096	86.81
464.316	77.81
464.536	99.81
464.755	92.81
464.975	97.81
465.195	137.81
465.414	134.81
465.634	85.81
465.854	81.81
466.073	79.81
466.293	84.81
466.512	81.81
466.732	81.81
466.951	90.81
467.171	95.81
467.391	100.81
467.61	95.81
467.829	101.81
468.049	84.81
468.268	93.81
468.488	80.81
468.707	87.81
468.927	90.81
469.146	88.81
469.365	91.81
469.585	95.81
469.804	83.81
470.023	99.81
470.243	96.81
470.462	99.81
470.681	98.81
470.901	97.81
471.12	86.81
471.339	92.81
471.558	85.81
471.777	77.81
471.997	72.81
472.216	116.81
472.435	128.81
472.654	101.81
472.873	97.81
473.092	98.81
473.311	80.81
473.53	101.81
473.749	79.81
473.968	89.81
474.187	93.81
474.406	97.81
474.625	90.81
474.844	93.81
475.063	62.81
475.282	77.81
475.501	97.81
475.72	94.81
475.939	83.81
476.158	69.81
476.377	92.81
476.596	111.81
476.814	76.81
477.033	86.81
477.252	77.81
477.471	89.81
477.69	100.81
477.908	93.81
478.127	78.81
478.346	111.81
478.564	102.81
478.783	93.81
479.002	92.81
479.22	88.81
479.439	97.81
479.658	95.81
479.876	75.81
480.095	90.81
480.313	90.81
480.532	81.81
480.751	84.81
480.969	94.81
481.188	175.81
481.406	130.81
481.624	97.81
481.843	84.81
482.061	90.81
482.28	97.81
482.498	87.81
482.717	83.81
482.935	84.81
483.153	92.81
483.372	83.81
483.59	94.81
483.808	74.81
484.027	80.81
484.245	95.81
484.463	77.81
484.681	99.81
484.9	87.81
485.118	103.81
485.336	91.81
485.554	98.81
485.772	94.81
485.99	97.81
486.209	106.81
486.427	88.81
486.645	96.81
486.863	100.81
487.081	110.81
487.299	89.81
487.517	109.81
487.735	97.81
487.953	79.81
488.171	93.81
488.389	105.81
488.607	98.81
488.825	89.81
489.043	89.81
489.261	81.81
489.479	87.81
489.696	72.81
489.914	89.81
490.132	79.81
490.35	74.81
490.568	82.81
490.786	97.81
491.003	85.81
491.221	95.81
491.439	95.81
491.657	91.81
491.874	87.81
492.092	77.81
492.31	86.81
492.527	87.81
492.745	87.81
492.963	92.81
493.18	66.81
493.398	102.81
493.615	93.81
493.833	96.81
494.05	91.81
494.268	90.81
494.485	89.81
494.703	85.81
494.92	95.81
495.138	83.81
495.355	89.81
495.573	91.81
495.79	85.81
496.008	85.81
496.225	91.81
496.442	89.81
496.66	80.81
496.877	89.81
497.094	90.81
497.312	86.81
497.529	71.81
497.746	91.81
497.963	81.81
498.181	86.81
498.398	94.81
498.615	93.81
498.832	112.81
499.049	79.81
499.267	86.81
499.484	96.81
499.701	97.81
499.918	91.81
500.135	83.81
500.352	100.81
500.569	81.81
500.786	94.81
501.003	78.81
501.22	98.81
501.437	91.81
501.654	99.81
501.871	89.81
502.088	84.81
502.305	97.81
502.522	94.81
502.739	95.81
502.956	90.81
503.172	100.81
503.389	103.81
503.606	92.81
503.823	91.81
504.04	88.81
504.256	81.81
504.473	71.81
504.69	80.81
504.907	100.81
505.123	81.81
505.34	90.81
505.557	90.81
505.773	91.81
505.99	85.81
506.207	89.81
506.423	93.81
506.64	90.81
506.856	95.81
507.073	75.81
507.289	88.81
507.506	83.81
507.722	103.81
507.939	106.81
508.155	87.81
508.372	106.81
508.588	88.81
508.805	97.81
509.021	90.81
509.238	93.81
509.454	89.81
509.67	90.81
509.887	99.81
510.103	129.81
510.319	176.81
510.536	662.81
510.752	2014.81
510.968	567.81
511.184	122.81
511.401	109.81
511.617	80.81
511.833	88.81
512.049	99.81
512.265	95.81
512.481	84.81
512.698	99.81
512.914	83.81
513.13	89.81
513.346	81.81
513.562	87.81
513.778	95.81
513.994	79.81
514.21	93.81
514.426	113.81
514.642	119.81
514.858	123.81
515.074	156.81
515.29	362.81
515.506	1183.81
515.721	433.81
515.937	138.81
516.153	97.81
516.369	96.81
516.585	103.81
516.801	94.81
517.016	81.81
