Data from Uncirc_1985_H10_HRD10591_00017.txt Node
Date: Wed Jan 03 12:18:20 EST 2024
User: Yrep
Spectrometer: HR+D1059
Trigger mode: 1
Integration Time (sec): 1.000000E-1
Scans to average: 1
Electric dark correction enabled: true
Nonlinearity correction enabled: false
Boxcar width: 0
XAxis mode: Wavelengths
Number of Pixels in Spectrum: 2048
>>>>>Begin Spectral Data<<<<<
223.165	-30.06
223.4	-30.06
223.635	-30.06
223.869	-29.06
224.104	-16.06
224.338	-11.06
224.573	-10.06
224.808	-11.06
225.042	-16.06
225.277	-20.06
225.511	0.94
225.746	9.94
225.98	19.94
226.215	23.94
226.449	21.94
226.683	9.94
226.918	26.94
227.152	29.94
227.387	41.94
227.621	27.94
227.856	39.94
228.09	53.94
228.324	39.94
228.559	61.94
228.793	60.94
229.027	56.94
229.262	66.94
229.496	59.94
229.73	73.94
229.964	85.94
230.199	77.94
230.433	75.94
230.667	74.94
230.901	82.94
231.136	75.94
231.37	78.94
231.604	89.94
231.838	75.94
232.072	89.94
232.306	85.94
232.541	84.94
232.775	59.94
233.009	81.94
233.243	82.94
233.477	90.94
233.711	78.94
233.945	83.94
234.179	77.94
234.413	77.94
234.647	72.94
234.881	69.94
235.115	74.94
235.349	82.94
235.583	66.94
235.817	74.94
236.051	83.94
236.285	89.94
236.519	81.94
236.753	64.94
236.987	70.94
237.221	78.94
237.455	78.94
237.689	82.94
237.922	73.94
238.156	73.94
238.39	73.94
238.624	64.94
238.858	78.94
239.091	78.94
239.325	56.94
239.559	71.94
239.793	84.94
240.027	74.94
240.26	65.94
240.494	61.94
240.728	68.94
240.961	78.94
241.195	73.94
241.429	79.94
241.662	83.94
241.896	85.94
242.13	78.94
242.363	82.94
242.597	78.94
242.83	84.94
243.064	69.94
243.298	75.94
243.531	74.94
243.765	85.94
243.998	66.94
244.232	83.94
244.465	86.94
244.699	80.94
244.932	59.94
245.166	68.94
245.399	66.94
245.633	92.94
245.866	75.94
246.099	74.94
246.333	63.94
246.566	80.94
246.8	94.94
247.033	82.94
247.266	69.94
247.5	90.94
247.733	81.94
247.966	66.94
248.2	79.94
248.433	75.94
248.666	77.94
248.899	92.94
249.133	89.94
249.366	86.94
249.599	82.94
249.832	69.94
250.066	85.94
250.299	81.94
250.532	70.94
250.765	77.94
250.998	70.94
251.231	84.94
251.465	77.94
251.698	82.94
251.931	85.94
252.164	73.94
252.397	70.94
252.63	94.94
252.863	69.94
253.096	59.94
253.329	79.94
253.562	82.94
253.795	87.94
254.028	75.94
254.261	64.94
254.494	93.94
254.727	93.94
254.96	78.94
255.193	77.94
255.426	86.94
255.659	79.94
255.892	81.94
256.124	85.94
256.357	75.94
256.59	77.94
256.823	83.94
257.056	82.94
257.289	79.94
257.521	66.94
257.754	67.94
257.987	82.94
258.22	77.94
258.452	85.94
258.685	79.94
258.918	82.94
259.151	82.94
259.383	85.94
259.616	65.94
259.849	91.94
260.081	84.94
260.314	77.94
260.547	77.94
260.779	83.94
261.012	82.94
261.244	85.94
261.477	89.94
261.71	93.94
261.942	113.94
262.175	105.94
262.407	90.94
262.64	95.94
262.872	87.94
263.105	75.94
263.337	71.94
263.57	88.94
263.802	81.94
264.035	86.94
264.267	82.94
264.499	82.94
264.732	82.94
264.964	76.94
265.197	77.94
265.429	97.94
265.661	79.94
265.894	90.94
266.126	82.94
266.358	90.94
266.591	79.94
266.823	71.94
267.055	80.94
267.287	85.94
267.52	74.94
267.752	78.94
267.984	93.94
268.216	82.94
268.448	77.94
268.681	95.94
268.913	74.94
269.145	81.94
269.377	86.94
269.609	80.94
269.841	80.94
270.073	80.94
270.306	93.94
270.538	83.94
270.77	84.94
271.002	85.94
271.234	74.94
271.466	71.94
271.698	99.94
271.93	90.94
272.162	81.94
272.394	82.94
272.626	89.94
272.858	91.94
273.09	70.94
273.322	75.94
273.553	91.94
273.785	98.94
274.017	81.94
274.249	100.94
274.481	73.94
274.713	72.94
274.945	88.94
275.176	87.94
275.408	85.94
275.64	81.94
275.872	84.94
276.104	95.94
276.335	90.94
276.567	108.94
276.799	105.94
277.031	84.94
277.262	87.94
277.494	99.94
277.726	82.94
277.957	85.94
278.189	83.94
278.421	81.94
278.652	90.94
278.884	99.94
279.115	93.94
279.347	85.94
279.579	85.94
279.81	90.94
280.042	91.94
280.273	93.94
280.505	83.94
280.736	89.94
280.968	87.94
281.199	83.94
281.431	106.94
281.662	82.94
281.894	81.94
282.125	91.94
282.356	115.94
282.588	122.94
282.819	113.94
283.051	83.94
283.282	95.94
283.513	83.94
283.745	80.94
283.976	89.94
284.207	81.94
284.439	90.94
284.67	90.94
284.901	78.94
285.132	89.94
285.364	69.94
285.595	86.94
285.826	65.94
286.057	84.94
286.288	71.94
286.52	85.94
286.751	86.94
286.982	80.94
287.213	87.94
287.444	79.94
287.675	92.94
287.906	100.94
288.138	81.94
288.369	93.94
288.6	89.94
288.831	86.94
289.062	82.94
289.293	81.94
289.524	96.94
289.755	74.94
289.986	74.94
290.217	77.94
290.448	97.94
290.679	85.94
290.91	82.94
291.141	83.94
291.371	77.94
291.602	84.94
291.833	93.94
292.064	79.94
292.295	100.94
292.526	79.94
292.757	90.94
292.987	89.94
293.218	87.94
293.449	97.94
293.68	91.94
293.91	95.94
294.141	93.94
294.372	88.94
294.603	81.94
294.833	95.94
295.064	93.94
295.295	94.94
295.525	94.94
295.756	104.94
295.987	116.94
296.217	122.94
296.448	105.94
296.679	78.94
296.909	95.94
297.14	88.94
297.37	92.94
297.601	88.94
297.831	90.94
298.062	81.94
298.292	89.94
298.523	98.94
298.753	82.94
298.984	88.94
299.214	96.94
299.445	88.94
299.675	80.94
299.905	90.94
300.136	86.94
300.366	96.94
300.597	85.94
300.827	105.94
301.057	99.94
301.288	99.94
301.518	98.94
301.748	98.94
301.979	101.94
302.209	95.94
302.439	96.94
302.669	90.94
302.9	89.94
303.13	92.94
303.36	84.94
303.59	107.94
303.82	101.94
304.051	95.94
304.281	106.94
304.511	104.94
304.741	91.94
304.971	87.94
305.201	86.94
305.431	86.94
305.661	92.94
305.891	86.94
306.121	88.94
306.352	99.94
306.582	95.94
306.812	92.94
307.042	85.94
307.272	92.94
307.502	98.94
307.731	87.94
307.961	90.94
308.191	81.94
308.421	72.94
308.651	98.94
308.881	97.94
309.111	85.94
309.341	83.94
309.571	98.94
309.8	95.94
310.03	98.94
310.26	94.94
310.49	102.94
310.72	103.94
310.949	117.94
311.179	102.94
311.409	89.94
311.639	90.94
311.868	100.94
312.098	83.94
312.328	94.94
312.557	102.94
312.787	99.94
313.017	95.94
313.246	100.94
313.476	78.94
313.706	98.94
313.935	86.94
314.165	93.94
314.394	112.94
314.624	94.94
314.853	78.94
315.083	102.94
315.312	86.94
315.542	98.94
315.771	87.94
316.001	89.94
316.23	91.94
316.46	94.94
316.689	79.94
316.919	99.94
317.148	91.94
317.377	75.94
317.607	99.94
317.836	84.94
318.065	87.94
318.295	100.94
318.524	92.94
318.753	84.94
318.983	89.94
319.212	95.94
319.441	96.94
319.67	102.94
319.9	92.94
320.129	97.94
320.358	100.94
320.587	101.94
320.816	89.94
321.046	101.94
321.275	88.94
321.504	107.94
321.733	86.94
321.962	98.94
322.191	96.94
322.42	98.94
322.649	92.94
322.878	104.94
323.108	101.94
323.337	109.94
323.566	118.94
323.795	141.94
324.024	201.94
324.253	324.94
324.482	729.94
324.71	1457.94
324.939	1930.94
325.168	703.94
325.397	221.94
325.626	143.94
325.855	129.94
326.084	124.94
326.313	128.94
326.542	153.94
326.77	213.94
326.999	403.94
327.228	814.94
327.457	1513.94
327.686	1175.94
327.914	330.94
328.143	180.94
328.372	125.94
328.6	123.94
328.829	96.94
329.058	119.94
329.287	121.94
329.515	96.94
329.744	107.94
329.972	114.94
330.201	112.94
330.43	99.94
330.658	110.94
330.887	121.94
331.115	118.94
331.344	96.94
331.572	101.94
331.801	101.94
332.03	99.94
332.258	101.94
332.486	96.94
332.715	73.94
332.943	88.94
333.172	86.94
333.4	94.94
333.629	97.94
333.857	120.94
334.085	110.94
334.314	97.94
334.542	113.94
334.771	108.94
334.999	89.94
335.227	80.94
335.455	96.94
335.684	104.94
335.912	85.94
336.14	102.94
336.369	81.94
336.597	88.94
336.825	97.94
337.053	96.94
337.281	87.94
337.51	103.94
337.738	90.94
337.966	82.94
338.194	87.94
338.422	93.94
338.65	77.94
338.878	92.94
339.106	81.94
339.334	86.94
339.562	83.94
339.79	91.94
340.018	84.94
340.246	81.94
340.474	84.94
340.702	91.94
340.93	86.94
341.158	89.94
341.386	99.94
341.614	89.94
341.842	87.94
342.07	89.94
342.298	81.94
342.526	97.94
342.754	91.94
342.981	86.94
343.209	81.94
343.437	99.94
343.665	87.94
343.893	95.94
344.12	107.94
344.348	94.94
344.576	86.94
344.804	85.94
345.031	82.94
345.259	95.94
345.487	95.94
345.714	84.94
345.942	101.94
346.17	94.94
346.397	97.94
346.625	99.94
346.853	88.94
347.08	80.94
347.308	104.94
347.535	73.94
347.763	89.94
347.99	95.94
348.218	104.94
348.445	112.94
348.673	97.94
348.9	91.94
349.128	90.94
349.355	88.94
349.583	80.94
349.81	85.94
350.037	90.94
350.265	90.94
350.492	92.94
350.72	112.94
350.947	97.94
351.174	107.94
351.402	102.94
351.629	99.94
351.856	104.94
352.083	114.94
352.311	97.94
352.538	100.94
352.765	102.94
352.992	105.94
353.22	112.94
353.447	112.94
353.674	114.94
353.901	96.94
354.128	91.94
354.355	94.94
354.583	75.94
354.81	97.94
355.037	120.94
355.264	106.94
355.491	98.94
355.718	88.94
355.945	91.94
356.172	88.94
356.399	99.94
356.626	92.94
356.853	90.94
357.08	98.94
357.307	103.94
357.534	93.94
357.761	78.94
357.988	83.94
358.215	95.94
358.441	99.94
358.668	84.94
358.895	95.94
359.122	90.94
359.349	91.94
359.576	86.94
359.802	94.94
360.029	96.94
360.256	99.94
360.483	93.94
360.709	90.94
360.936	94.94
361.163	97.94
361.39	93.94
361.616	96.94
361.843	98.94
362.07	87.94
362.296	87.94
362.523	76.94
362.749	84.94
362.976	99.94
363.203	98.94
363.429	89.94
363.656	85.94
363.882	96.94
364.109	83.94
364.335	85.94
364.562	98.94
364.788	83.94
365.015	90.94
365.241	96.94
365.468	98.94
365.694	87.94
365.92	93.94
366.147	76.94
366.373	82.94
366.599	82.94
366.826	97.94
367.052	73.94
367.278	87.94
367.505	81.94
367.731	81.94
367.957	78.94
368.184	91.94
368.41	87.94
368.636	104.94
368.862	114.94
369.089	104.94
369.315	76.94
369.541	79.94
369.767	89.94
369.993	82.94
370.219	91.94
370.445	91.94
370.672	81.94
370.898	86.94
371.124	95.94
371.35	96.94
371.576	82.94
371.802	88.94
372.028	93.94
372.254	83.94
372.48	87.94
372.706	84.94
372.932	86.94
373.158	82.94
373.384	96.94
373.61	94.94
373.835	89.94
374.061	85.94
374.287	72.94
374.513	74.94
374.739	87.94
374.965	81.94
375.191	96.94
375.416	83.94
375.642	78.94
375.868	90.94
376.094	77.94
376.319	93.94
376.545	87.94
376.771	95.94
376.997	77.94
377.222	101.94
377.448	95.94
377.674	94.94
377.899	86.94
378.125	99.94
378.35	83.94
378.576	94.94
378.802	80.94
379.027	105.94
379.253	99.94
379.478	88.94
379.704	99.94
379.929	98.94
380.155	93.94
380.38	107.94
380.606	85.94
380.831	78.94
381.057	89.94
381.282	89.94
381.507	101.94
381.733	103.94
381.958	90.94
382.184	91.94
382.409	98.94
382.634	99.94
382.86	93.94
383.085	103.94
383.31	92.94
383.535	108.94
383.761	113.94
383.986	100.94
384.211	97.94
384.436	78.94
384.662	95.94
384.887	90.94
385.112	94.94
385.337	102.94
385.562	100.94
385.787	109.94
386.013	114.94
386.238	111.94
386.463	114.94
386.688	110.94
386.913	99.94
387.138	98.94
387.363	97.94
387.588	98.94
387.813	88.94
388.038	98.94
388.263	100.94
388.488	105.94
388.713	80.94
388.938	90.94
389.163	101.94
389.387	95.94
389.612	94.94
389.837	87.94
390.062	93.94
390.287	100.94
390.512	92.94
390.736	81.94
390.961	88.94
391.186	99.94
391.411	81.94
391.636	110.94
391.86	89.94
392.085	86.94
392.31	81.94
392.534	97.94
392.759	86.94
392.984	75.94
393.208	97.94
393.433	87.94
393.658	106.94
393.882	91.94
394.107	88.94
394.331	79.94
394.556	96.94
394.78	89.94
395.005	82.94
395.229	87.94
395.454	85.94
395.678	98.94
395.903	74.94
396.127	90.94
396.352	86.94
396.576	86.94
396.801	95.94
397.025	100.94
397.249	81.94
397.474	91.94
397.698	85.94
397.922	95.94
398.147	79.94
398.371	79.94
398.595	80.94
398.82	85.94
399.044	88.94
399.268	78.94
399.492	97.94
399.717	85.94
399.941	88.94
400.165	108.94
400.389	90.94
400.613	87.94
400.837	84.94
401.062	82.94
401.286	94.94
401.51	89.94
401.734	76.94
401.958	98.94
402.182	114.94
402.406	154.94
402.63	103.94
402.854	83.94
403.078	74.94
403.302	98.94
403.526	88.94
403.75	92.94
403.974	80.94
404.198	84.94
404.422	86.94
404.645	67.94
404.869	73.94
405.093	95.94
405.317	110.94
405.541	86.94
405.765	94.94
405.988	99.94
406.212	147.94
406.436	190.94
406.66	123.94
406.883	85.94
407.107	101.94
407.331	95.94
407.555	94.94
407.778	94.94
408.002	98.94
408.226	82.94
408.449	77.94
408.673	87.94
408.896	100.94
409.12	106.94
409.344	90.94
409.567	82.94
409.791	91.94
410.014	95.94
410.238	100.94
410.461	85.94
410.685	89.94
410.908	100.94
411.132	119.94
411.355	104.94
411.578	106.94
411.802	92.94
412.025	96.94
412.249	85.94
412.472	90.94
412.695	96.94
412.919	88.94
413.142	98.94
413.365	71.94
413.589	71.94
413.812	92.94
414.035	84.94
414.258	82.94
414.482	95.94
414.705	90.94
414.928	91.94
415.151	85.94
415.374	93.94
415.597	92.94
415.821	90.94
416.044	97.94
416.267	97.94
416.49	70.94
416.713	99.94
416.936	78.94
417.159	87.94
417.382	98.94
417.605	81.94
417.828	94.94
418.051	82.94
418.274	76.94
418.497	85.94
418.72	89.94
418.943	80.94
419.166	96.94
419.389	97.94
419.611	93.94
419.834	91.94
420.057	85.94
420.28	77.94
420.503	93.94
420.726	70.94
420.948	90.94
421.171	86.94
421.394	83.94
421.617	83.94
421.839	81.94
422.062	83.94
422.285	95.94
422.507	102.94
422.73	111.94
422.953	97.94
423.175	97.94
423.398	91.94
423.621	70.94
423.843	86.94
424.066	96.94
424.288	95.94
424.511	86.94
424.733	102.94
424.956	97.94
425.178	94.94
425.401	95.94
425.623	103.94
425.846	79.94
426.068	92.94
426.291	91.94
426.513	103.94
426.735	97.94
426.958	87.94
427.18	114.94
427.402	117.94
427.625	134.94
427.847	125.94
428.069	109.94
428.292	89.94
428.514	100.94
428.736	71.94
428.958	86.94
429.181	71.94
429.403	78.94
429.625	74.94
429.847	82.94
430.069	85.94
430.292	87.94
430.514	97.94
430.736	81.94
430.958	81.94
431.18	69.94
431.402	58.94
431.624	82.94
431.846	79.94
432.068	94.94
432.29	83.94
432.512	74.94
432.734	81.94
432.956	98.94
433.178	89.94
433.4	95.94
433.622	87.94
433.844	90.94
434.066	88.94
434.287	91.94
434.509	78.94
434.731	97.94
434.953	86.94
435.175	82.94
435.397	88.94
435.618	81.94
435.84	88.94
436.062	113.94
436.284	106.94
436.505	91.94
436.727	101.94
436.949	89.94
437.17	89.94
437.392	99.94
437.614	87.94
437.835	78.94
438.057	102.94
438.278	90.94
438.5	99.94
438.721	102.94
438.943	93.94
439.165	81.94
439.386	91.94
439.608	94.94
439.829	86.94
440.05	115.94
440.272	144.94
440.493	88.94
440.715	94.94
440.936	79.94
441.158	86.94
441.379	83.94
441.6	89.94
441.822	99.94
442.043	95.94
442.264	97.94
442.486	79.94
442.707	99.94
442.928	101.94
443.149	113.94
443.371	117.94
443.592	89.94
443.813	101.94
444.034	93.94
444.255	91.94
444.476	77.94
444.698	91.94
444.919	85.94
445.14	134.94
445.361	120.94
445.582	100.94
445.803	131.94
446.024	115.94
446.245	132.94
446.466	94.94
446.687	87.94
446.908	84.94
447.129	85.94
447.35	88.94
447.571	81.94
447.792	88.94
448.013	91.94
448.234	101.94
448.455	82.94
448.675	102.94
448.896	95.94
449.117	82.94
449.338	97.94
449.559	125.94
449.779	113.94
450	95.94
450.221	96.94
450.442	98.94
450.662	85.94
450.883	96.94
451.104	95.94
451.324	91.94
451.545	96.94
451.766	83.94
451.986	97.94
452.207	86.94
452.428	93.94
452.648	93.94
452.869	90.94
453.089	85.94
453.31	112.94
453.53	79.94
453.751	77.94
453.971	82.94
454.192	106.94
454.412	92.94
454.633	81.94
454.853	103.94
455.073	68.94
455.294	81.94
455.514	107.94
455.734	85.94
455.955	81.94
456.175	81.94
456.395	71.94
456.616	86.94
456.836	80.94
457.056	74.94
457.276	77.94
457.497	90.94
457.717	87.94
457.937	91.94
458.157	88.94
458.377	82.94
458.598	98.94
458.818	124.94
459.038	137.94
459.258	111.94
459.478	83.94
459.698	79.94
459.918	82.94
460.138	79.94
460.358	91.94
460.578	90.94
460.798	89.94
461.018	84.94
461.238	91.94
461.458	83.94
461.678	82.94
461.898	89.94
462.118	104.94
462.338	71.94
462.558	89.94
462.777	86.94
462.997	85.94
463.217	77.94
463.437	95.94
463.657	83.94
463.876	86.94
464.096	80.94
464.316	83.94
464.536	88.94
464.755	85.94
464.975	87.94
465.195	131.94
465.414	138.94
465.634	93.94
465.854	84.94
466.073	88.94
466.293	80.94
466.512	73.94
466.732	87.94
466.951	90.94
467.171	82.94
467.391	101.94
467.61	90.94
467.829	90.94
468.049	105.94
468.268	98.94
468.488	70.94
468.707	84.94
468.927	78.94
469.146	94.94
469.365	83.94
469.585	89.94
469.804	101.94
470.023	92.94
470.243	94.94
470.462	86.94
470.681	91.94
470.901	90.94
471.12	91.94
471.339	95.94
471.558	82.94
471.777	90.94
471.997	86.94
472.216	96.94
472.435	102.94
472.654	82.94
472.873	87.94
473.092	68.94
473.311	85.94
473.53	80.94
473.749	87.94
473.968	97.94
474.187	91.94
474.406	80.94
474.625	82.94
474.844	91.94
475.063	83.94
475.282	67.94
475.501	93.94
475.72	83.94
475.939	80.94
476.158	87.94
476.377	91.94
476.596	95.94
476.814	96.94
477.033	93.94
477.252	81.94
477.471	81.94
477.69	90.94
477.908	89.94
478.127	84.94
478.346	80.94
478.564	82.94
478.783	89.94
479.002	95.94
479.22	95.94
479.439	93.94
479.658	104.94
479.876	93.94
480.095	95.94
480.313	73.94
480.532	86.94
480.751	99.94
480.969	93.94
481.188	134.94
481.406	114.94
481.624	106.94
481.843	100.94
482.061	84.94
482.28	87.94
482.498	83.94
482.717	87.94
482.935	98.94
483.153	70.94
483.372	89.94
483.59	84.94
483.808	88.94
484.027	74.94
484.245	98.94
484.463	86.94
484.681	75.94
484.9	96.94
485.118	100.94
485.336	77.94
485.554	98.94
485.772	103.94
485.99	88.94
486.209	108.94
486.427	94.94
486.645	105.94
486.863	112.94
487.081	94.94
487.299	83.94
487.517	91.94
487.735	90.94
487.953	77.94
488.171	87.94
488.389	89.94
488.607	102.94
488.825	74.94
489.043	83.94
489.261	94.94
489.479	88.94
489.696	97.94
489.914	93.94
490.132	81.94
490.35	96.94
490.568	100.94
490.786	94.94
491.003	89.94
491.221	85.94
491.439	95.94
491.657	95.94
491.874	88.94
492.092	87.94
492.31	90.94
492.527	86.94
492.745	84.94
492.963	74.94
493.18	84.94
493.398	91.94
493.615	96.94
493.833	96.94
494.05	90.94
494.268	81.94
494.485	81.94
494.703	89.94
494.92	95.94
495.138	92.94
495.355	90.94
495.573	90.94
495.79	91.94
496.008	96.94
496.225	80.94
496.442	87.94
496.66	104.94
496.877	87.94
497.094	92.94
497.312	94.94
497.529	95.94
497.746	77.94
497.963	87.94
498.181	77.94
498.398	78.94
498.615	107.94
498.832	93.94
499.049	93.94
499.267	90.94
499.484	94.94
499.701	90.94
499.918	91.94
500.135	96.94
500.352	103.94
500.569	76.94
500.786	90.94
501.003	99.94
501.22	84.94
501.437	75.94
501.654	95.94
501.871	98.94
502.088	96.94
502.305	84.94
502.522	89.94
502.739	97.94
502.956	83.94
503.172	90.94
503.389	89.94
503.606	89.94
503.823	92.94
504.04	104.94
504.256	89.94
504.473	99.94
504.69	79.94
504.907	92.94
505.123	71.94
505.34	91.94
505.557	101.94
505.773	85.94
505.99	93.94
506.207	69.94
506.423	82.94
506.64	75.94
506.856	83.94
507.073	86.94
507.289	99.94
507.506	90.94
507.722	85.94
507.939	106.94
508.155	73.94
508.372	100.94
508.588	99.94
508.805	91.94
509.021	103.94
509.238	90.94
509.454	101.94
509.67	90.94
509.887	107.94
510.103	123.94
510.319	199.94
510.536	661.94
510.752	1987.94
510.968	541.94
511.184	146.94
511.401	110.94
511.617	107.94
511.833	99.94
512.049	74.94
512.265	97.94
512.481	74.94
512.698	79.94
512.914	78.94
513.13	82.94
513.346	96.94
513.562	97.94
513.778	91.94
513.994	97.94
514.21	94.94
514.426	102.94
514.642	105.94
514.858	113.94
515.074	136.94
515.29	362.94
515.506	1124.94
515.721	425.94
515.937	142.94
516.153	93.94
516.369	106.94
516.585	78.94
516.801	96.94
