Data from Uncirc_1985_H10_HRD10591_00026.txt Node
Date: Wed Jan 03 12:18:22 EST 2024
User: Yrep
Spectrometer: HR+D1059
Trigger mode: 1
Integration Time (sec): 1.000000E-1
Scans to average: 1
Electric dark correction enabled: true
Nonlinearity correction enabled: false
Boxcar width: 0
XAxis mode: Wavelengths
Number of Pixels in Spectrum: 2048
>>>>>Begin Spectral Data<<<<<
223.165	-23.06
223.4	-23.06
223.635	-23.06
223.869	-3.06
224.104	-25.06
224.338	-22.06
224.573	-17.06
224.808	-15.06
225.042	-3.06
225.277	0.94
225.511	-8.06
225.746	11.94
225.98	12.94
226.215	1.94
226.449	9.94
226.683	30.94
226.918	24.94
227.152	22.94
227.387	35.94
227.621	32.94
227.856	53.94
228.09	37.94
228.324	63.94
228.559	62.94
228.793	66.94
229.027	71.94
229.262	63.94
229.496	69.94
229.73	73.94
229.964	69.94
230.199	69.94
230.433	79.94
230.667	71.94
230.901	90.94
231.136	72.94
231.37	81.94
231.604	88.94
231.838	80.94
232.072	89.94
232.306	94.94
232.541	76.94
232.775	80.94
233.009	94.94
233.243	73.94
233.477	73.94
233.711	65.94
233.945	84.94
234.179	70.94
234.413	74.94
234.647	90.94
234.881	76.94
235.115	86.94
235.349	76.94
235.583	87.94
235.817	71.94
236.051	73.94
236.285	80.94
236.519	75.94
236.753	95.94
236.987	89.94
237.221	91.94
237.455	82.94
237.689	66.94
237.922	71.94
238.156	79.94
238.39	70.94
238.624	86.94
238.858	81.94
239.091	94.94
239.325	72.94
239.559	81.94
239.793	71.94
240.027	72.94
240.26	71.94
240.494	70.94
240.728	82.94
240.961	89.94
241.195	91.94
241.429	71.94
241.662	65.94
241.896	62.94
242.13	59.94
242.363	77.94
242.597	79.94
242.83	78.94
243.064	77.94
243.298	70.94
243.531	78.94
243.765	71.94
243.998	76.94
244.232	68.94
244.465	81.94
244.699	82.94
244.932	73.94
245.166	89.94
245.399	75.94
245.633	74.94
245.866	69.94
246.099	81.94
246.333	82.94
246.566	79.94
246.8	81.94
247.033	75.94
247.266	88.94
247.5	86.94
247.733	70.94
247.966	72.94
248.2	72.94
248.433	89.94
248.666	78.94
248.899	82.94
249.133	87.94
249.366	106.94
249.599	102.94
249.832	76.94
250.066	89.94
250.299	84.94
250.532	77.94
250.765	86.94
250.998	85.94
251.231	85.94
251.465	76.94
251.698	68.94
251.931	66.94
252.164	84.94
252.397	80.94
252.63	90.94
252.863	82.94
253.096	63.94
253.329	70.94
253.562	69.94
253.795	74.94
254.028	68.94
254.261	78.94
254.494	84.94
254.727	85.94
254.96	69.94
255.193	84.94
255.426	81.94
255.659	72.94
255.892	86.94
256.124	74.94
256.357	63.94
256.59	80.94
256.823	82.94
257.056	92.94
257.289	76.94
257.521	95.94
257.754	91.94
257.987	68.94
258.22	78.94
258.452	76.94
258.685	84.94
258.918	78.94
259.151	91.94
259.383	72.94
259.616	69.94
259.849	64.94
260.081	69.94
260.314	80.94
260.547	86.94
260.779	81.94
261.012	85.94
261.244	81.94
261.477	97.94
261.71	96.94
261.942	106.94
262.175	76.94
262.407	67.94
262.64	84.94
262.872	82.94
263.105	60.94
263.337	85.94
263.57	84.94
263.802	78.94
264.035	85.94
264.267	82.94
264.499	79.94
264.732	78.94
264.964	88.94
265.197	87.94
265.429	88.94
265.661	84.94
265.894	81.94
266.126	80.94
266.358	67.94
266.591	83.94
266.823	83.94
267.055	86.94
267.287	83.94
267.52	81.94
267.752	72.94
267.984	75.94
268.216	79.94
268.448	85.94
268.681	65.94
268.913	82.94
269.145	86.94
269.377	83.94
269.609	71.94
269.841	91.94
270.073	70.94
270.306	86.94
270.538	83.94
270.77	70.94
271.002	95.94
271.234	77.94
271.466	76.94
271.698	87.94
271.93	81.94
272.162	92.94
272.394	88.94
272.626	82.94
272.858	87.94
273.09	88.94
273.322	94.94
273.553	93.94
273.785	88.94
274.017	85.94
274.249	87.94
274.481	84.94
274.713	90.94
274.945	97.94
275.176	83.94
275.408	97.94
275.64	86.94
275.872	83.94
276.104	100.94
276.335	91.94
276.567	94.94
276.799	102.94
277.031	90.94
277.262	89.94
277.494	87.94
277.726	79.94
277.957	86.94
278.189	80.94
278.421	88.94
278.652	73.94
278.884	90.94
279.115	90.94
279.347	79.94
279.579	84.94
279.81	73.94
280.042	93.94
280.273	99.94
280.505	82.94
280.736	71.94
280.968	86.94
281.199	91.94
281.431	101.94
281.662	88.94
281.894	83.94
282.125	76.94
282.356	108.94
282.588	122.94
282.819	99.94
283.051	84.94
283.282	98.94
283.513	72.94
283.745	91.94
283.976	82.94
284.207	82.94
284.439	83.94
284.67	95.94
284.901	71.94
285.132	80.94
285.364	84.94
285.595	90.94
285.826	95.94
286.057	90.94
286.288	86.94
286.52	85.94
286.751	79.94
286.982	94.94
287.213	89.94
287.444	86.94
287.675	83.94
287.906	84.94
288.138	98.94
288.369	81.94
288.6	86.94
288.831	79.94
289.062	84.94
289.293	72.94
289.524	84.94
289.755	83.94
289.986	89.94
290.217	82.94
290.448	80.94
290.679	84.94
290.91	89.94
291.141	82.94
291.371	92.94
291.602	91.94
291.833	86.94
292.064	85.94
292.295	88.94
292.526	83.94
292.757	89.94
292.987	94.94
293.218	86.94
293.449	96.94
293.68	94.94
293.91	96.94
294.141	101.94
294.372	85.94
294.603	75.94
294.833	87.94
295.064	80.94
295.295	94.94
295.525	100.94
295.756	96.94
295.987	123.94
296.217	127.94
296.448	124.94
296.679	95.94
296.909	109.94
297.14	96.94
297.37	94.94
297.601	76.94
297.831	84.94
298.062	87.94
298.292	83.94
298.523	90.94
298.753	91.94
298.984	76.94
299.214	100.94
299.445	104.94
299.675	92.94
299.905	96.94
300.136	92.94
300.366	82.94
300.597	111.94
300.827	94.94
301.057	86.94
301.288	107.94
301.518	85.94
301.748	71.94
301.979	103.94
302.209	91.94
302.439	97.94
302.669	104.94
302.9	81.94
303.13	76.94
303.36	105.94
303.59	83.94
303.82	89.94
304.051	89.94
304.281	97.94
304.511	96.94
304.741	80.94
304.971	88.94
305.201	98.94
305.431	82.94
305.661	74.94
305.891	88.94
306.121	93.94
306.352	77.94
306.582	110.94
306.812	84.94
307.042	90.94
307.272	90.94
307.502	84.94
307.731	77.94
307.961	75.94
308.191	88.94
308.421	94.94
308.651	69.94
308.881	94.94
309.111	84.94
309.341	75.94
309.571	96.94
309.8	78.94
310.03	82.94
310.26	84.94
310.49	88.94
310.72	99.94
310.949	94.94
311.179	95.94
311.409	87.94
311.639	87.94
311.868	76.94
312.098	98.94
312.328	101.94
312.557	91.94
312.787	98.94
313.017	91.94
313.246	87.94
313.476	100.94
313.706	82.94
313.935	100.94
314.165	99.94
314.394	75.94
314.624	102.94
314.853	101.94
315.083	99.94
315.312	83.94
315.542	81.94
315.771	68.94
316.001	90.94
316.23	96.94
316.46	72.94
316.689	99.94
316.919	83.94
317.148	110.94
317.377	86.94
317.607	75.94
317.836	96.94
318.065	90.94
318.295	91.94
318.524	92.94
318.753	98.94
318.983	83.94
319.212	102.94
319.441	108.94
319.67	102.94
319.9	96.94
320.129	88.94
320.358	94.94
320.587	97.94
320.816	82.94
321.046	99.94
321.275	94.94
321.504	103.94
321.733	102.94
321.962	83.94
322.191	95.94
322.42	105.94
322.649	101.94
322.878	118.94
323.108	113.94
323.337	114.94
323.566	123.94
323.795	145.94
324.024	175.94
324.253	374.94
324.482	747.94
324.71	1533.94
324.939	1995.94
325.168	744.94
325.397	230.94
325.626	146.94
325.855	126.94
326.084	124.94
326.313	135.94
326.542	131.94
326.77	196.94
326.999	422.94
327.228	867.94
327.457	1559.94
327.686	1235.94
327.914	350.94
328.143	172.94
328.372	129.94
328.6	129.94
328.829	100.94
329.058	136.94
329.287	123.94
329.515	81.94
329.744	89.94
329.972	104.94
330.201	90.94
330.43	113.94
330.658	117.94
330.887	122.94
331.115	100.94
331.344	80.94
331.572	103.94
331.801	98.94
332.03	90.94
332.258	102.94
332.486	92.94
332.715	106.94
332.943	87.94
333.172	85.94
333.4	86.94
333.629	99.94
333.857	112.94
334.085	94.94
334.314	109.94
334.542	122.94
334.771	118.94
334.999	89.94
335.227	81.94
335.455	103.94
335.684	93.94
335.912	83.94
336.14	94.94
336.369	101.94
336.597	88.94
336.825	97.94
337.053	104.94
337.281	80.94
337.51	85.94
337.738	89.94
337.966	91.94
338.194	83.94
338.422	90.94
338.65	91.94
338.878	95.94
339.106	93.94
339.334	93.94
339.562	94.94
339.79	89.94
340.018	92.94
340.246	79.94
340.474	90.94
340.702	94.94
340.93	92.94
341.158	82.94
341.386	97.94
341.614	102.94
341.842	98.94
342.07	89.94
342.298	93.94
342.526	82.94
342.754	82.94
342.981	97.94
343.209	81.94
343.437	87.94
343.665	86.94
343.893	89.94
344.12	89.94
344.348	84.94
344.576	88.94
344.804	96.94
345.031	91.94
345.259	95.94
345.487	82.94
345.714	95.94
345.942	85.94
346.17	103.94
346.397	99.94
346.625	91.94
346.853	76.94
347.08	72.94
347.308	105.94
347.535	104.94
347.763	95.94
347.99	102.94
348.218	94.94
348.445	89.94
348.673	89.94
348.9	97.94
349.128	113.94
349.355	87.94
349.583	95.94
349.81	99.94
350.037	91.94
350.265	103.94
350.492	95.94
350.72	87.94
350.947	95.94
351.174	92.94
351.402	97.94
351.629	93.94
351.856	92.94
352.083	98.94
352.311	100.94
352.538	106.94
352.765	112.94
352.992	105.94
353.22	120.94
353.447	92.94
353.674	94.94
353.901	82.94
354.128	84.94
354.355	110.94
354.583	98.94
354.81	94.94
355.037	100.94
355.264	90.94
355.491	100.94
355.718	92.94
355.945	95.94
356.172	114.94
356.399	80.94
356.626	105.94
356.853	88.94
357.08	94.94
357.307	95.94
357.534	91.94
357.761	96.94
357.988	104.94
358.215	90.94
358.441	96.94
358.668	84.94
358.895	103.94
359.122	99.94
359.349	88.94
359.576	89.94
359.802	112.94
360.029	103.94
360.256	103.94
360.483	86.94
360.709	81.94
360.936	92.94
361.163	110.94
361.39	102.94
361.616	96.94
361.843	80.94
362.07	101.94
362.296	97.94
362.523	89.94
362.749	85.94
362.976	107.94
363.203	94.94
363.429	97.94
363.656	96.94
363.882	87.94
364.109	87.94
364.335	98.94
364.562	89.94
364.788	86.94
365.015	105.94
365.241	98.94
365.468	93.94
365.694	102.94
365.92	86.94
366.147	81.94
366.373	90.94
366.599	90.94
366.826	89.94
367.052	78.94
367.278	86.94
367.505	97.94
367.731	97.94
367.957	98.94
368.184	77.94
368.41	91.94
368.636	95.94
368.862	108.94
369.089	117.94
369.315	87.94
369.541	87.94
369.767	91.94
369.993	73.94
370.219	82.94
370.445	84.94
370.672	94.94
370.898	81.94
371.124	84.94
371.35	89.94
371.576	91.94
371.802	89.94
372.028	100.94
372.254	81.94
372.48	74.94
372.706	72.94
372.932	80.94
373.158	83.94
373.384	91.94
373.61	99.94
373.835	99.94
374.061	78.94
374.287	98.94
374.513	94.94
374.739	108.94
374.965	84.94
375.191	90.94
375.416	91.94
375.642	88.94
375.868	92.94
376.094	101.94
376.319	86.94
376.545	95.94
376.771	87.94
376.997	91.94
377.222	93.94
377.448	78.94
377.674	96.94
377.899	95.94
378.125	95.94
378.35	94.94
378.576	96.94
378.802	101.94
379.027	100.94
379.253	86.94
379.478	91.94
379.704	88.94
379.929	101.94
380.155	94.94
380.38	95.94
380.606	95.94
380.831	88.94
381.057	105.94
381.282	80.94
381.507	85.94
381.733	89.94
381.958	101.94
382.184	87.94
382.409	103.94
382.634	99.94
382.86	95.94
383.085	106.94
383.31	89.94
383.535	95.94
383.761	100.94
383.986	91.94
384.211	91.94
384.436	104.94
384.662	102.94
384.887	97.94
385.112	92.94
385.337	90.94
385.562	98.94
385.787	109.94
386.013	118.94
386.238	118.94
386.463	115.94
386.688	102.94
386.913	98.94
387.138	97.94
387.363	99.94
387.588	114.94
387.813	96.94
388.038	97.94
388.263	106.94
388.488	78.94
388.713	94.94
388.938	102.94
389.163	80.94
389.387	89.94
389.612	84.94
389.837	90.94
390.062	89.94
390.287	96.94
390.512	82.94
390.736	95.94
390.961	88.94
391.186	85.94
391.411	91.94
391.636	83.94
391.86	85.94
392.085	87.94
392.31	93.94
392.534	84.94
392.759	79.94
392.984	79.94
393.208	78.94
393.433	95.94
393.658	96.94
393.882	82.94
394.107	80.94
394.331	84.94
394.556	83.94
394.78	101.94
395.005	64.94
395.229	92.94
395.454	80.94
395.678	88.94
395.903	84.94
396.127	82.94
396.352	87.94
396.576	82.94
396.801	87.94
397.025	92.94
397.249	81.94
397.474	86.94
397.698	94.94
397.922	89.94
398.147	75.94
398.371	65.94
398.595	97.94
398.82	85.94
399.044	94.94
399.268	89.94
399.492	82.94
399.717	82.94
399.941	82.94
400.165	91.94
400.389	88.94
400.613	97.94
400.837	78.94
401.062	87.94
401.286	91.94
401.51	87.94
401.734	91.94
401.958	106.94
402.182	132.94
402.406	134.94
402.63	95.94
402.854	85.94
403.078	96.94
403.302	77.94
403.526	95.94
403.75	74.94
403.974	97.94
404.198	94.94
404.422	93.94
404.645	86.94
404.869	90.94
405.093	84.94
405.317	96.94
405.541	98.94
405.765	110.94
405.988	124.94
406.212	152.94
406.436	194.94
406.66	138.94
406.883	108.94
407.107	95.94
407.331	90.94
407.555	86.94
407.778	94.94
408.002	94.94
408.226	89.94
408.449	103.94
408.673	89.94
408.896	91.94
409.12	89.94
409.344	90.94
409.567	81.94
409.791	90.94
410.014	77.94
410.238	78.94
410.461	87.94
410.685	86.94
410.908	86.94
411.132	100.94
411.355	107.94
411.578	89.94
411.802	89.94
412.025	94.94
412.249	91.94
412.472	86.94
412.695	102.94
412.919	98.94
413.142	81.94
413.365	93.94
413.589	85.94
413.812	85.94
414.035	91.94
414.258	88.94
414.482	88.94
414.705	74.94
414.928	84.94
415.151	91.94
415.374	91.94
415.597	90.94
415.821	93.94
416.044	80.94
416.267	95.94
416.49	83.94
416.713	88.94
416.936	76.94
417.159	75.94
417.382	94.94
417.605	78.94
417.828	91.94
418.051	78.94
418.274	98.94
418.497	89.94
418.72	74.94
418.943	80.94
419.166	80.94
419.389	99.94
419.611	70.94
419.834	91.94
420.057	95.94
420.28	85.94
420.503	96.94
420.726	83.94
420.948	91.94
421.171	85.94
421.394	78.94
421.617	73.94
421.839	82.94
422.062	92.94
422.285	98.94
422.507	99.94
422.73	88.94
422.953	86.94
423.175	102.94
423.398	99.94
423.621	91.94
423.843	87.94
424.066	83.94
424.288	92.94
424.511	85.94
424.733	91.94
424.956	104.94
425.178	89.94
425.401	96.94
425.623	100.94
425.846	86.94
426.068	90.94
426.291	98.94
426.513	88.94
426.735	73.94
426.958	82.94
427.18	92.94
427.402	121.94
427.625	156.94
427.847	114.94
428.069	107.94
428.292	85.94
428.514	89.94
428.736	85.94
428.958	84.94
429.181	87.94
429.403	80.94
429.625	79.94
429.847	94.94
430.069	102.94
430.292	89.94
430.514	85.94
430.736	95.94
430.958	79.94
431.18	90.94
431.402	89.94
431.624	65.94
431.846	80.94
432.068	78.94
432.29	95.94
432.512	98.94
432.734	87.94
432.956	85.94
433.178	87.94
433.4	102.94
433.622	82.94
433.844	88.94
434.066	98.94
434.287	84.94
434.509	103.94
434.731	94.94
434.953	86.94
435.175	82.94
435.397	73.94
435.618	95.94
435.84	87.94
436.062	108.94
436.284	103.94
436.505	92.94
436.727	88.94
436.949	81.94
437.17	86.94
437.392	89.94
437.614	87.94
437.835	97.94
438.057	119.94
438.278	107.94
438.5	98.94
438.721	99.94
438.943	91.94
439.165	95.94
439.386	73.94
439.608	90.94
439.829	94.94
440.05	105.94
440.272	122.94
440.493	89.94
440.715	92.94
440.936	95.94
441.158	98.94
441.379	102.94
441.6	95.94
441.822	103.94
442.043	99.94
442.264	90.94
442.486	93.94
442.707	97.94
442.928	104.94
443.149	136.94
443.371	118.94
443.592	107.94
443.813	103.94
444.034	93.94
444.255	100.94
444.476	89.94
444.698	64.94
444.919	80.94
445.14	138.94
445.361	111.94
445.582	109.94
445.803	117.94
446.024	128.94
446.245	121.94
446.466	95.94
446.687	91.94
446.908	105.94
447.129	78.94
447.35	90.94
447.571	92.94
447.792	95.94
448.013	96.94
448.234	105.94
448.455	91.94
448.675	100.94
448.896	92.94
449.117	98.94
449.338	88.94
449.559	120.94
449.779	120.94
450	103.94
450.221	82.94
450.442	92.94
450.662	95.94
450.883	82.94
451.104	106.94
451.324	86.94
451.545	97.94
451.766	94.94
451.986	98.94
452.207	82.94
452.428	93.94
452.648	91.94
452.869	98.94
453.089	99.94
453.31	111.94
453.53	87.94
453.751	96.94
453.971	87.94
454.192	102.94
454.412	101.94
454.633	99.94
454.853	100.94
455.073	99.94
455.294	73.94
455.514	98.94
455.734	95.94
455.955	84.94
456.175	65.94
456.395	81.94
456.616	91.94
456.836	91.94
457.056	84.94
457.276	74.94
457.497	76.94
457.717	91.94
457.937	94.94
458.157	78.94
458.377	93.94
458.598	99.94
458.818	127.94
459.038	137.94
459.258	105.94
459.478	89.94
459.698	87.94
459.918	91.94
460.138	84.94
460.358	71.94
460.578	88.94
460.798	87.94
461.018	93.94
461.238	86.94
461.458	74.94
461.678	80.94
461.898	94.94
462.118	83.94
462.338	90.94
462.558	78.94
462.777	82.94
462.997	89.94
463.217	81.94
463.437	81.94
463.657	85.94
463.876	98.94
464.096	92.94
464.316	95.94
464.536	90.94
464.755	90.94
464.975	84.94
465.195	143.94
465.414	130.94
465.634	94.94
465.854	86.94
466.073	86.94
466.293	73.94
466.512	79.94
466.732	71.94
466.951	97.94
467.171	86.94
467.391	94.94
467.61	90.94
467.829	100.94
468.049	87.94
468.268	95.94
468.488	79.94
468.707	77.94
468.927	84.94
469.146	79.94
469.365	98.94
469.585	91.94
469.804	87.94
470.023	81.94
470.243	97.94
470.462	91.94
470.681	105.94
470.901	81.94
471.12	74.94
471.339	88.94
471.558	83.94
471.777	87.94
471.997	90.94
472.216	97.94
472.435	115.94
472.654	94.94
472.873	107.94
473.092	88.94
473.311	90.94
473.53	80.94
473.749	82.94
473.968	73.94
474.187	79.94
474.406	85.94
474.625	89.94
474.844	82.94
475.063	106.94
475.282	95.94
475.501	81.94
475.72	94.94
475.939	94.94
476.158	85.94
476.377	100.94
476.596	98.94
476.814	94.94
477.033	88.94
477.252	91.94
477.471	84.94
477.69	74.94
477.908	82.94
478.127	79.94
478.346	94.94
478.564	81.94
478.783	86.94
479.002	83.94
479.22	76.94
479.439	98.94
479.658	91.94
479.876	98.94
480.095	92.94
480.313	81.94
480.532	89.94
480.751	91.94
480.969	100.94
481.188	133.94
481.406	122.94
481.624	88.94
481.843	89.94
482.061	85.94
482.28	83.94
482.498	75.94
482.717	88.94
482.935	82.94
483.153	91.94
483.372	77.94
483.59	73.94
483.808	75.94
484.027	87.94
484.245	82.94
484.463	91.94
484.681	90.94
484.9	81.94
485.118	94.94
485.336	94.94
485.554	97.94
485.772	90.94
485.99	94.94
486.209	103.94
486.427	93.94
486.645	103.94
486.863	103.94
487.081	91.94
487.299	97.94
487.517	87.94
487.735	89.94
487.953	87.94
488.171	97.94
488.389	95.94
488.607	78.94
488.825	74.94
489.043	107.94
489.261	90.94
489.479	79.94
489.696	83.94
489.914	81.94
490.132	89.94
490.35	91.94
490.568	92.94
490.786	85.94
491.003	82.94
491.221	82.94
491.439	86.94
491.657	92.94
491.874	99.94
492.092	74.94
492.31	99.94
492.527	96.94
492.745	87.94
492.963	90.94
493.18	103.94
493.398	91.94
493.615	101.94
493.833	96.94
494.05	97.94
494.268	94.94
494.485	92.94
494.703	87.94
494.92	88.94
495.138	86.94
495.355	93.94
495.573	98.94
495.79	83.94
496.008	87.94
496.225	73.94
496.442	87.94
496.66	89.94
496.877	94.94
497.094	96.94
497.312	78.94
497.529	86.94
497.746	95.94
497.963	95.94
498.181	92.94
498.398	89.94
498.615	91.94
498.832	108.94
499.049	87.94
499.267	92.94
499.484	94.94
499.701	88.94
499.918	87.94
500.135	90.94
500.352	98.94
500.569	80.94
500.786	93.94
501.003	102.94
501.22	98.94
501.437	88.94
501.654	86.94
501.871	105.94
502.088	83.94
502.305	79.94
502.522	100.94
502.739	92.94
502.956	83.94
503.172	87.94
503.389	83.94
503.606	82.94
503.823	89.94
504.04	86.94
504.256	104.94
504.473	80.94
504.69	102.94
504.907	94.94
505.123	80.94
505.34	93.94
505.557	94.94
505.773	99.94
505.99	91.94
506.207	91.94
506.423	83.94
506.64	106.94
506.856	109.94
507.073	95.94
507.289	93.94
507.506	102.94
507.722	100.94
507.939	101.94
508.155	89.94
508.372	78.94
508.588	82.94
508.805	94.94
509.021	89.94
509.238	93.94
509.454	101.94
509.67	98.94
509.887	99.94
510.103	131.94
510.319	195.94
510.536	678.94
510.752	2077.94
510.968	558.94
511.184	146.94
511.401	110.94
511.617	94.94
511.833	95.94
512.049	89.94
512.265	87.94
512.481	101.94
512.698	92.94
512.914	96.94
513.13	77.94
513.346	108.94
513.562	102.94
513.778	88.94
513.994	106.94
514.21	99.94
514.426	112.94
514.642	128.94
514.858	108.94
515.074	143.94
515.29	378.94
515.506	1190.94
515.721	431.94
515.937	129.94
516.153	93.94
516.369	113.94
516.585	93.94
516.801	78.94
