Data from Uncirc_1985_H10_HRD10591_00016.txt Node
Date: Wed Jan 03 12:18:20 EST 2024
User: Yrep
Spectrometer: HR+D1059
Trigger mode: 1
Integration Time (sec): 1.000000E-1
Scans to average: 1
Electric dark correction enabled: true
Nonlinearity correction enabled: false
Boxcar width: 0
XAxis mode: Wavelengths
Number of Pixels in Spectrum: 2048
>>>>>Begin Spectral Data<<<<<
223.165	-21
223.4	-21
223.635	-21
223.869	-4
224.104	-22
224.338	-22
224.573	-24
224.808	-3
225.042	-12
225.277	-7
225.511	-10
225.746	9
225.98	3
226.215	22
226.449	29
226.683	15
226.918	23
227.152	24
227.387	23
227.621	41
227.856	34
228.09	47
228.324	54
228.559	58
228.793	50
229.027	58
229.262	70
229.496	74
229.73	75
229.964	79
230.199	75
230.433	73
230.667	80
230.901	72
231.136	76
231.37	66
231.604	75
231.838	83
232.072	85
232.306	85
232.541	95
232.775	79
233.009	84
233.243	86
233.477	71
233.711	77
233.945	77
234.179	74
234.413	78
234.647	71
234.881	83
235.115	70
235.349	67
235.583	83
235.817	81
236.051	82
236.285	80
236.519	92
236.753	75
236.987	72
237.221	66
237.455	94
237.689	69
237.922	72
238.156	78
238.39	78
238.624	62
238.858	61
239.091	58
239.325	63
239.559	77
239.793	67
240.027	78
240.26	71
240.494	92
240.728	83
240.961	79
241.195	74
241.429	82
241.662	73
241.896	75
242.13	78
242.363	86
242.597	78
242.83	69
243.064	77
243.298	75
243.531	77
243.765	74
243.998	77
244.232	75
244.465	77
244.699	84
244.932	87
245.166	81
245.399	85
245.633	86
245.866	63
246.099	73
246.333	81
246.566	90
246.8	70
247.033	79
247.266	64
247.5	91
247.733	83
247.966	79
248.2	78
248.433	83
248.666	80
248.899	87
249.133	85
249.366	74
249.599	84
249.832	79
250.066	82
250.299	74
250.532	88
250.765	87
250.998	72
251.231	93
251.465	76
251.698	93
251.931	80
252.164	85
252.397	93
252.63	76
252.863	81
253.096	80
253.329	74
253.562	70
253.795	74
254.028	83
254.261	79
254.494	78
254.727	83
254.96	75
255.193	89
255.426	89
255.659	70
255.892	79
256.124	70
256.357	85
256.59	70
256.823	85
257.056	82
257.289	91
257.521	83
257.754	70
257.987	81
258.22	87
258.452	81
258.685	88
258.918	86
259.151	81
259.383	82
259.616	88
259.849	83
260.081	70
260.314	79
260.547	92
260.779	84
261.012	82
261.244	93
261.477	71
261.71	84
261.942	118
262.175	100
262.407	93
262.64	79
262.872	79
263.105	83
263.337	84
263.57	82
263.802	78
264.035	81
264.267	74
264.499	74
264.732	81
264.964	93
265.197	92
265.429	85
265.661	68
265.894	65
266.126	82
266.358	71
266.591	77
266.823	91
267.055	84
267.287	68
267.52	85
267.752	75
267.984	91
268.216	70
268.448	95
268.681	94
268.913	90
269.145	79
269.377	80
269.609	85
269.841	73
270.073	81
270.306	89
270.538	86
270.77	87
271.002	80
271.234	86
271.466	85
271.698	77
271.93	71
272.162	86
272.394	95
272.626	87
272.858	82
273.09	73
273.322	88
273.553	96
273.785	68
274.017	69
274.249	79
274.481	89
274.713	87
274.945	85
275.176	85
275.408	80
275.64	69
275.872	67
276.104	80
276.335	95
276.567	88
276.799	102
277.031	93
277.262	107
277.494	100
277.726	88
277.957	79
278.189	67
278.421	84
278.652	81
278.884	75
279.115	83
279.347	91
279.579	89
279.81	97
280.042	94
280.273	75
280.505	93
280.736	90
280.968	98
281.199	93
281.431	90
281.662	91
281.894	81
282.125	91
282.356	104
282.588	116
282.819	98
283.051	88
283.282	77
283.513	91
283.745	73
283.976	72
284.207	83
284.439	85
284.67	73
284.901	74
285.132	85
285.364	86
285.595	95
285.826	98
286.057	94
286.288	83
286.52	90
286.751	96
286.982	97
287.213	79
287.444	88
287.675	85
287.906	88
288.138	102
288.369	89
288.6	90
288.831	92
289.062	89
289.293	82
289.524	65
289.755	84
289.986	81
290.217	87
290.448	79
290.679	89
290.91	86
291.141	89
291.371	84
291.602	88
291.833	98
292.064	102
292.295	85
292.526	78
292.757	95
292.987	95
293.218	79
293.449	85
293.68	88
293.91	90
294.141	80
294.372	96
294.603	88
294.833	81
295.064	82
295.295	93
295.525	89
295.756	93
295.987	110
296.217	118
296.448	106
296.679	89
296.909	94
297.14	103
297.37	77
297.601	95
297.831	81
298.062	82
298.292	95
298.523	96
298.753	93
298.984	95
299.214	85
299.445	83
299.675	101
299.905	86
300.136	90
300.366	88
300.597	88
300.827	85
301.057	85
301.288	98
301.518	93
301.748	92
301.979	101
302.209	74
302.439	97
302.669	82
302.9	90
303.13	81
303.36	90
303.59	90
303.82	97
304.051	83
304.281	90
304.511	95
304.741	94
304.971	94
305.201	87
305.431	94
305.661	88
305.891	87
306.121	100
306.352	103
306.582	102
306.812	91
307.042	103
307.272	94
307.502	104
307.731	87
307.961	97
308.191	102
308.421	87
308.651	86
308.881	85
309.111	87
309.341	99
309.571	99
309.8	97
310.03	83
310.26	100
310.49	93
310.72	95
310.949	97
311.179	107
311.409	78
311.639	87
311.868	94
312.098	85
312.328	95
312.557	97
312.787	97
313.017	94
313.246	78
313.476	96
313.706	105
313.935	91
314.165	101
314.394	91
314.624	73
314.853	91
315.083	94
315.312	90
315.542	77
315.771	84
316.001	73
316.23	88
316.46	93
316.689	98
316.919	89
317.148	96
317.377	90
317.607	69
317.836	88
318.065	97
318.295	92
318.524	95
318.753	88
318.983	81
319.212	92
319.441	104
319.67	98
319.9	94
320.129	86
320.358	73
320.587	89
320.816	87
321.046	104
321.275	94
321.504	103
321.733	71
321.962	100
322.191	100
322.42	89
322.649	98
322.878	112
323.108	122
323.337	113
323.566	112
323.795	128
324.024	176
324.253	361
324.482	693
324.71	1431
324.939	1869
325.168	706
325.397	221
325.626	132
325.855	106
326.084	121
326.313	123
326.542	157
326.77	218
326.999	407
327.228	793
327.457	1497
327.686	1199
327.914	336
328.143	155
328.372	127
328.6	109
328.829	109
329.058	111
329.287	112
329.515	106
329.744	101
329.972	91
330.201	100
330.43	134
330.658	116
330.887	128
331.115	114
331.344	101
331.572	91
331.801	94
332.03	104
332.258	94
332.486	84
332.715	82
332.943	94
333.172	101
333.4	97
333.629	90
333.857	105
334.085	97
334.314	102
334.542	103
334.771	115
334.999	87
335.227	90
335.455	96
335.684	102
335.912	104
336.14	93
336.369	97
336.597	100
336.825	82
337.053	87
337.281	98
337.51	87
337.738	82
337.966	85
338.194	85
338.422	98
338.65	95
338.878	95
339.106	89
339.334	95
339.562	85
339.79	90
340.018	94
340.246	85
340.474	91
340.702	87
340.93	85
341.158	94
341.386	92
341.614	98
341.842	88
342.07	88
342.298	96
342.526	71
342.754	97
342.981	89
343.209	86
343.437	107
343.665	81
343.893	85
344.12	91
344.348	87
344.576	89
344.804	93
345.031	95
345.259	94
345.487	97
345.714	91
345.942	81
346.17	107
346.397	93
346.625	99
346.853	82
347.08	92
347.308	89
347.535	97
347.763	103
347.99	94
348.218	96
348.445	110
348.673	94
348.9	104
349.128	87
349.355	102
349.583	97
349.81	96
350.037	98
350.265	86
350.492	79
350.72	96
350.947	104
351.174	98
351.402	109
351.629	100
351.856	92
352.083	113
352.311	108
352.538	112
352.765	105
352.992	93
353.22	101
353.447	96
353.674	97
353.901	96
354.128	111
354.355	101
354.583	96
354.81	78
355.037	95
355.264	94
355.491	99
355.718	107
355.945	102
356.172	97
356.399	95
356.626	99
356.853	94
357.08	95
357.307	98
357.534	75
357.761	89
357.988	110
358.215	82
358.441	91
358.668	79
358.895	82
359.122	88
359.349	81
359.576	89
359.802	85
360.029	100
360.256	97
360.483	104
360.709	100
360.936	97
361.163	87
361.39	90
361.616	84
361.843	88
362.07	94
362.296	89
362.523	85
362.749	82
362.976	93
363.203	94
363.429	92
363.656	112
363.882	87
364.109	90
364.335	81
364.562	88
364.788	83
365.015	88
365.241	91
365.468	101
365.694	90
365.92	95
366.147	98
366.373	95
366.599	88
366.826	86
367.052	93
367.278	82
367.505	74
367.731	81
367.957	86
368.184	103
368.41	113
368.636	106
368.862	112
369.089	97
369.315	101
369.541	82
369.767	84
369.993	90
370.219	91
370.445	83
370.672	101
370.898	93
371.124	93
371.35	82
371.576	89
371.802	93
372.028	88
372.254	96
372.48	87
372.706	92
372.932	95
373.158	87
373.384	90
373.61	94
373.835	89
374.061	87
374.287	98
374.513	74
374.739	82
374.965	91
375.191	90
375.416	86
375.642	92
375.868	89
376.094	86
376.319	90
376.545	90
376.771	83
376.997	89
377.222	75
377.448	108
377.674	86
377.899	96
378.125	106
378.35	93
378.576	96
378.802	99
379.027	88
379.253	77
379.478	96
379.704	96
379.929	106
380.155	105
380.38	93
380.606	99
380.831	91
381.057	94
381.282	86
381.507	91
381.733	92
381.958	94
382.184	102
382.409	93
382.634	89
382.86	98
383.085	91
383.31	102
383.535	86
383.761	95
383.986	93
384.211	86
384.436	98
384.662	89
384.887	96
385.112	91
385.337	109
385.562	102
385.787	111
386.013	122
386.238	112
386.463	98
386.688	105
386.913	91
387.138	98
387.363	102
387.588	89
387.813	95
388.038	112
388.263	101
388.488	113
388.713	97
388.938	98
389.163	92
389.387	103
389.612	99
389.837	98
390.062	89
390.287	90
390.512	98
390.736	91
390.961	98
391.186	98
391.411	107
391.636	86
391.86	88
392.085	73
392.31	86
392.534	83
392.759	80
392.984	91
393.208	85
393.433	108
393.658	85
393.882	91
394.107	88
394.331	80
394.556	79
394.78	85
395.005	89
395.229	94
395.454	81
395.678	93
395.903	83
396.127	95
396.352	87
396.576	81
396.801	85
397.025	97
397.249	91
397.474	85
397.698	96
397.922	89
398.147	84
398.371	73
398.595	81
398.82	90
399.044	83
399.268	85
399.492	92
399.717	86
399.941	89
400.165	98
400.389	84
400.613	85
400.837	91
401.062	89
401.286	82
401.51	87
401.734	91
401.958	83
402.182	108
402.406	137
402.63	101
402.854	91
403.078	90
403.302	79
403.526	82
403.75	87
403.974	87
404.198	73
404.422	97
404.645	99
404.869	80
405.093	91
405.317	81
405.541	81
405.765	97
405.988	95
406.212	131
406.436	187
406.66	118
406.883	80
407.107	94
407.331	106
407.555	106
407.778	82
408.002	78
408.226	82
408.449	86
408.673	86
408.896	91
409.12	69
409.344	76
409.567	85
409.791	81
410.014	82
410.238	85
410.461	97
410.685	102
410.908	99
411.132	107
411.355	87
411.578	90
411.802	91
412.025	74
412.249	95
412.472	89
412.695	81
412.919	81
413.142	83
413.365	83
413.589	79
413.812	83
414.035	90
414.258	87
414.482	65
414.705	90
414.928	79
415.151	90
415.374	105
415.597	99
415.821	94
416.044	81
416.267	81
416.49	87
416.713	80
416.936	85
417.159	78
417.382	104
417.605	82
417.828	92
418.051	74
418.274	73
418.497	88
418.72	73
418.943	71
419.166	88
419.389	95
419.611	78
419.834	87
420.057	80
420.28	72
420.503	78
420.726	82
420.948	90
421.171	91
421.394	100
421.617	89
421.839	79
422.062	88
422.285	102
422.507	92
422.73	93
422.953	74
423.175	85
423.398	65
423.621	98
423.843	90
424.066	98
424.288	88
424.511	90
424.733	97
424.956	109
425.178	91
425.401	103
425.623	98
425.846	92
426.068	91
426.291	86
426.513	97
426.735	93
426.958	99
427.18	95
427.402	118
427.625	123
427.847	106
428.069	101
428.292	83
428.514	89
428.736	92
428.958	87
429.181	89
429.403	91
429.625	94
429.847	78
430.069	91
430.292	78
430.514	89
430.736	87
430.958	88
431.18	93
431.402	81
431.624	81
431.846	81
432.068	90
432.29	89
432.512	85
432.734	85
432.956	91
433.178	99
433.4	113
433.622	95
433.844	87
434.066	97
434.287	96
434.509	90
434.731	77
434.953	81
435.175	88
435.397	86
435.618	83
435.84	93
436.062	111
436.284	101
436.505	81
436.727	81
436.949	99
437.17	88
437.392	93
437.614	77
437.835	81
438.057	99
438.278	88
438.5	103
438.721	112
438.943	95
439.165	87
439.386	78
439.608	83
439.829	105
440.05	97
440.272	126
440.493	95
440.715	82
440.936	99
441.158	94
441.379	88
441.6	89
441.822	79
442.043	82
442.264	99
442.486	107
442.707	88
442.928	82
443.149	120
443.371	118
443.592	90
443.813	98
444.034	107
444.255	92
444.476	81
444.698	84
444.919	83
445.14	140
445.361	117
445.582	117
445.803	113
446.024	126
446.245	117
446.466	97
446.687	94
446.908	80
447.129	91
447.35	92
447.571	91
447.792	91
448.013	92
448.234	92
448.455	92
448.675	105
448.896	90
449.117	98
449.338	84
449.559	115
449.779	104
450	89
450.221	91
450.442	78
450.662	93
450.883	83
451.104	98
451.324	93
451.545	99
451.766	98
451.986	81
452.207	82
452.428	83
452.648	98
452.869	99
453.089	96
453.31	94
453.53	81
453.751	93
453.971	94
454.192	104
454.412	84
454.633	73
454.853	98
455.073	78
455.294	79
455.514	99
455.734	93
455.955	83
456.175	76
456.395	82
456.616	82
456.836	74
457.056	105
457.276	79
457.497	82
457.717	90
457.937	81
458.157	100
458.377	79
458.598	96
458.818	127
459.038	120
459.258	92
459.478	81
459.698	90
459.918	77
460.138	86
460.358	97
460.578	85
460.798	87
461.018	114
461.238	75
461.458	81
461.678	79
461.898	94
462.118	79
462.338	81
462.558	93
462.777	89
462.997	82
463.217	86
463.437	82
463.657	88
463.876	77
464.096	96
464.316	104
464.536	90
464.755	89
464.975	86
465.195	138
465.414	147
465.634	84
465.854	87
466.073	92
466.293	89
466.512	69
466.732	70
466.951	90
467.171	97
467.391	81
467.61	104
467.829	91
468.049	105
468.268	77
468.488	73
468.707	83
468.927	81
469.146	82
469.365	89
469.585	93
469.804	83
470.023	72
470.243	90
470.462	86
470.681	106
470.901	92
471.12	84
471.339	79
471.558	97
471.777	84
471.997	77
472.216	72
472.435	103
472.654	83
472.873	101
473.092	73
473.311	83
473.53	70
473.749	93
473.968	104
474.187	89
474.406	79
474.625	95
474.844	73
475.063	74
475.282	92
475.501	86
475.72	87
475.939	87
476.158	85
476.377	81
476.596	87
476.814	82
477.033	101
477.252	77
477.471	75
477.69	89
477.908	101
478.127	81
478.346	82
478.564	89
478.783	92
479.002	97
479.22	93
479.439	88
479.658	95
479.876	93
480.095	84
480.313	88
480.532	84
480.751	106
480.969	105
481.188	120
481.406	101
481.624	90
481.843	81
482.061	85
482.28	100
482.498	83
482.717	79
482.935	95
483.153	94
483.372	88
483.59	81
483.808	89
484.027	100
484.245	97
484.463	97
484.681	100
484.9	85
485.118	98
485.336	95
485.554	90
485.772	98
485.99	113
486.209	103
486.427	103
486.645	104
486.863	115
487.081	91
487.299	102
487.517	109
487.735	77
487.953	91
488.171	88
488.389	99
488.607	82
488.825	82
489.043	83
489.261	94
489.479	88
489.696	81
489.914	89
490.132	101
490.35	81
490.568	84
490.786	97
491.003	77
491.221	92
491.439	88
491.657	80
491.874	100
492.092	86
492.31	97
492.527	87
492.745	90
492.963	103
493.18	96
493.398	83
493.615	107
493.833	105
494.05	97
494.268	102
494.485	105
494.703	88
494.92	75
495.138	99
495.355	106
495.573	83
495.79	89
496.008	88
496.225	95
496.442	81
496.66	86
496.877	81
497.094	99
497.312	82
497.529	81
497.746	72
497.963	81
498.181	90
498.398	103
498.615	90
498.832	98
499.049	86
499.267	86
499.484	87
499.701	87
499.918	96
500.135	97
500.352	86
500.569	87
500.786	96
501.003	90
501.22	86
501.437	100
501.654	83
501.871	96
502.088	96
502.305	91
502.522	74
502.739	79
502.956	68
503.172	101
503.389	104
503.606	109
503.823	74
504.04	79
504.256	89
504.473	88
504.69	117
504.907	95
505.123	85
505.34	97
505.557	74
505.773	97
505.99	80
506.207	92
506.423	85
506.64	87
506.856	84
507.073	79
507.289	89
507.506	98
507.722	101
507.939	92
508.155	100
508.372	91
508.588	97
508.805	107
509.021	98
509.238	105
509.454	91
509.67	109
509.887	109
510.103	102
510.319	193
510.536	647
510.752	1849
510.968	518
511.184	139
511.401	121
511.617	100
511.833	100
512.049	92
512.265	83
512.481	104
512.698	87
512.914	86
513.13	85
513.346	81
513.562	107
513.778	94
513.994	89
514.21	116
514.426	114
514.642	116
514.858	109
515.074	143
515.29	353
515.506	1072
515.721	399
515.937	135
516.153	95
516.369	104
516.585	96
516.801	86
517.016	95
517.232	96
517.448	97
517.664	86
517.879	83
518.095	92
518.311	90
518.527	88
518.742	84
518.958	86
519.173	102
519.389	87
519.605	89
519.82	100
520.036	100
520.251	102
520.467	99
520.682	75
520.898	95
521.113	95
521.329	126
521.544	163
521.76	427
521.975	1782
522.19	1075
522.406	249
522.621	113
522.836	99
523.052	101
523.267	90
523.482	86
523.698	101
523.913	97
524.128	91
524.343	86
524.559	94
524.774	93
524.989	94
525.204	104
525.419	112
525.634	96
525.849	87
526.064	79
526.28	97
526.495	77
526.71	96
526.925	80
527.14	95
527.355	80
527.57	92
527.785	82
527.999	102
528.214	104
528.429	91
528.644	91
528.859	80
529.074	95
529.289	105
529.503	143
529.718	91
529.933	77
530.148	72
530.363	80
530.577	104
530.792	82
531.007	92
531.221	88
531.436	98
531.651	90
531.865	102
532.08	87
532.295	90
532.509	102
532.724	81
532.938	89
533.153	104
533.367	96
533.582	87
533.796	77
534.011	98
534.225	88
534.44	88
534.654	94
534.868	81
535.083	95
535.297	84
535.511	89
535.726	98
535.94	93
536.154	88
536.369	83
536.583	94
536.797	91
537.011	90
537.225	65
537.44	86
537.654	74
537.868	93
538.082	84
538.296	89
538.51	83
538.724	77
538.938	110
539.153	97
539.367	95
539.581	95
539.795	93
540.009	75
540.222	95
540.436	93
540.65	95
540.864	83
541.078	82
541.292	95
541.506	104
541.72	85
541.934	83
542.147	88
542.361	81
542.575	96
542.789	100
543.002	79
543.216	96
543.43	87
543.644	88
543.857	97
544.071	92
544.285	87
544.498	88
544.712	86
544.925	94
545.139	82
545.352	84
545.566	95
545.779	92
545.993	93
546.206	84
546.42	79
546.633	75
546.847	87
547.06	85
547.274	93
547.487	87
547.7	80
547.914	81
548.127	85
548.34	87
548.554	91
548.767	87
548.98	89
549.193	88
549.407	83
549.62	89
549.833	99
550.046	78
550.259	100
550.473	89
550.686	96
550.899	79
551.112	88
551.325	88
551.538	101
551.751	91
551.964	93
552.177	86
552.39	77
552.603	81
552.816	73
553.029	93
553.242	91
553.455	99
553.667	98
553.88	88
554.093	93
554.306	97
554.519	91
554.732	86
554.944	79
555.157	81
555.37	87
555.583	89
555.795	102
556.008	95
556.221	87
556.433	77
556.646	79
556.859	73
557.071	92
557.284	79
557.496	81
557.709	102
557.921	93
558.134	94
558.346	73
558.559	104
558.771	92
558.984	83
559.196	101
559.409	79
559.621	86
559.833	99
560.046	84
560.258	78
560.47	74
560.683	97
560.895	101
561.107	100
561.32	93
561.532	98
561.744	95
561.956	82
562.168	86
562.381	92
562.593	88
562.805	79
563.017	102
563.229	87
563.441	98
563.653	103
563.865	95
564.077	85
564.289	101
564.501	87
564.713	97
564.925	89
565.137	96
565.349	81
565.561	107
565.773	97
565.985	93
566.197	78
566.408	91
566.62	88
566.832	74
567.044	81
567.255	87
567.467	89
567.679	83
567.891	94
568.102	97
568.314	100
568.526	82
568.737	91
568.949	95
569.161	80
569.372	81
569.584	87
569.795	83
570.007	115
570.218	214
570.43	121
570.641	93
570.853	66
571.064	77
571.276	73
571.487	84
571.698	91
571.91	85
572.121	98
572.333	94
572.544	73
572.755	93
572.966	81
573.178	93
573.389	90
573.6	85
573.811	88
574.023	99
574.234	86
574.445	85
574.656	90
574.867	88
575.078	84
575.289	81
575.501	92
575.712	85
575.923	88
576.134	75
576.345	72
576.556	82
576.767	85
576.978	62
577.188	80
577.399	87
577.61	80
577.821	99
578.032	103
578.243	241
578.454	622
578.665	183
578.875	89
579.086	85
579.297	87
579.508	66
579.718	91
579.929	85
580.14	87
580.35	100
580.561	89
580.772	72
580.982	93
581.193	86
581.403	85
581.614	79
581.825	91
582.035	84
582.246	87
582.456	86
582.667	79
582.877	85
583.087	84
583.298	98
583.508	77
583.719	71
583.929	81
584.139	93
584.35	96
584.56	97
584.77	86
584.981	83
585.191	95
585.401	90
585.611	81
585.821	85
