Data from Uncirc_1985_H10_HRD10591_00009.txt Node
Date: Wed Jan 03 12:18:19 EST 2024
User: Yrep
Spectrometer: HR+D1059
Trigger mode: 1
Integration Time (sec): 1.000000E-1
Scans to average: 1
Electric dark correction enabled: true
Nonlinearity correction enabled: false
Boxcar width: 0
XAxis mode: Wavelengths
Number of Pixels in Spectrum: 2048
>>>>>Begin Spectral Data<<<<<
223.165	-1.81
223.4	-1.81
223.635	-1.81
223.869	-25.81
224.104	-30.81
224.338	-22.81
224.573	-17.81
224.808	-15.81
225.042	-21.81
225.277	-15.81
225.511	4.19
225.746	-1.81
225.98	20.19
226.215	7.19
226.449	18.19
226.683	20.19
226.918	34.19
227.152	50.19
227.387	26.19
227.621	41.19
227.856	40.19
228.09	41.19
228.324	43.19
228.559	69.19
228.793	66.19
229.027	70.19
229.262	58.19
229.496	78.19
229.73	75.19
229.964	71.19
230.199	71.19
230.433	80.19
230.667	66.19
230.901	85.19
231.136	67.19
231.37	76.19
231.604	77.19
231.838	80.19
232.072	75.19
232.306	79.19
232.541	84.19
232.775	77.19
233.009	86.19
233.243	75.19
233.477	88.19
233.711	74.19
233.945	65.19
234.179	88.19
234.413	83.19
234.647	76.19
234.881	92.19
235.115	84.19
235.349	75.19
235.583	87.19
235.817	76.19
236.051	89.19
236.285	78.19
236.519	80.19
236.753	74.19
236.987	72.19
237.221	70.19
237.455	77.19
237.689	73.19
237.922	81.19
238.156	81.19
238.39	65.19
238.624	79.19
238.858	76.19
239.091	75.19
239.325	91.19
239.559	80.19
239.793	75.19
240.027	80.19
240.26	68.19
240.494	70.19
240.728	68.19
240.961	74.19
241.195	76.19
241.429	77.19
241.662	91.19
241.896	73.19
242.13	78.19
242.363	85.19
242.597	87.19
242.83	70.19
243.064	69.19
243.298	68.19
243.531	76.19
243.765	75.19
243.998	83.19
244.232	62.19
244.465	80.19
244.699	76.19
244.932	78.19
245.166	83.19
245.399	71.19
245.633	65.19
245.866	82.19
246.099	80.19
246.333	89.19
246.566	81.19
246.8	83.19
247.033	80.19
247.266	76.19
247.5	77.19
247.733	84.19
247.966	80.19
248.2	78.19
248.433	82.19
248.666	86.19
248.899	93.19
249.133	74.19
249.366	98.19
249.599	91.19
249.832	77.19
250.066	83.19
250.299	76.19
250.532	69.19
250.765	84.19
250.998	69.19
251.231	89.19
251.465	75.19
251.698	73.19
251.931	84.19
252.164	88.19
252.397	82.19
252.63	92.19
252.863	78.19
253.096	79.19
253.329	82.19
253.562	74.19
253.795	68.19
254.028	85.19
254.261	86.19
254.494	81.19
254.727	83.19
254.96	84.19
255.193	78.19
255.426	80.19
255.659	84.19
255.892	72.19
256.124	79.19
256.357	80.19
256.59	72.19
256.823	80.19
257.056	83.19
257.289	84.19
257.521	81.19
257.754	78.19
257.987	72.19
258.22	81.19
258.452	82.19
258.685	78.19
258.918	89.19
259.151	80.19
259.383	82.19
259.616	88.19
259.849	86.19
260.081	87.19
260.314	93.19
260.547	82.19
260.779	77.19
261.012	76.19
261.244	73.19
261.477	90.19
261.71	100.19
261.942	94.19
262.175	86.19
262.407	78.19
262.64	91.19
262.872	77.19
263.105	93.19
263.337	90.19
263.57	76.19
263.802	85.19
264.035	76.19
264.267	86.19
264.499	77.19
264.732	76.19
264.964	78.19
265.197	84.19
265.429	80.19
265.661	71.19
265.894	82.19
266.126	84.19
266.358	84.19
266.591	96.19
266.823	82.19
267.055	96.19
267.287	92.19
267.52	86.19
267.752	89.19
267.984	89.19
268.216	88.19
268.448	114.19
268.681	84.19
268.913	87.19
269.145	92.19
269.377	83.19
269.609	108.19
269.841	88.19
270.073	91.19
270.306	72.19
270.538	76.19
270.77	75.19
271.002	85.19
271.234	82.19
271.466	88.19
271.698	85.19
271.93	82.19
272.162	99.19
272.394	92.19
272.626	96.19
272.858	89.19
273.09	91.19
273.322	77.19
273.553	98.19
273.785	83.19
274.017	96.19
274.249	103.19
274.481	98.19
274.713	82.19
274.945	86.19
275.176	90.19
275.408	102.19
275.64	104.19
275.872	83.19
276.104	90.19
276.335	94.19
276.567	89.19
276.799	99.19
277.031	75.19
277.262	75.19
277.494	85.19
277.726	92.19
277.957	96.19
278.189	94.19
278.421	100.19
278.652	89.19
278.884	84.19
279.115	85.19
279.347	92.19
279.579	101.19
279.81	100.19
280.042	101.19
280.273	78.19
280.505	104.19
280.736	77.19
280.968	94.19
281.199	101.19
281.431	87.19
281.662	94.19
281.894	82.19
282.125	94.19
282.356	108.19
282.588	123.19
282.819	109.19
283.051	108.19
283.282	86.19
283.513	88.19
283.745	90.19
283.976	75.19
284.207	108.19
284.439	81.19
284.67	92.19
284.901	88.19
285.132	100.19
285.364	80.19
285.595	75.19
285.826	90.19
286.057	96.19
286.288	96.19
286.52	96.19
286.751	102.19
286.982	96.19
287.213	106.19
287.444	96.19
287.675	85.19
287.906	102.19
288.138	92.19
288.369	95.19
288.6	94.19
288.831	94.19
289.062	97.19
289.293	81.19
289.524	88.19
289.755	81.19
289.986	96.19
290.217	86.19
290.448	81.19
290.679	80.19
290.91	92.19
291.141	81.19
291.371	94.19
291.602	90.19
291.833	85.19
292.064	77.19
292.295	81.19
292.526	93.19
292.757	105.19
292.987	95.19
293.218	90.19
293.449	103.19
293.68	95.19
293.91	95.19
294.141	88.19
294.372	81.19
294.603	84.19
294.833	86.19
295.064	86.19
295.295	100.19
295.525	85.19
295.756	88.19
295.987	99.19
296.217	108.19
296.448	119.19
296.679	84.19
296.909	82.19
297.14	76.19
297.37	76.19
297.601	90.19
297.831	95.19
298.062	98.19
298.292	109.19
298.523	91.19
298.753	87.19
298.984	101.19
299.214	90.19
299.445	97.19
299.675	99.19
299.905	84.19
300.136	87.19
300.366	98.19
300.597	114.19
300.827	100.19
301.057	95.19
301.288	94.19
301.518	97.19
301.748	101.19
301.979	104.19
302.209	82.19
302.439	99.19
302.669	85.19
302.9	98.19
303.13	95.19
303.36	96.19
303.59	94.19
303.82	100.19
304.051	81.19
304.281	92.19
304.511	91.19
304.741	96.19
304.971	88.19
305.201	87.19
305.431	86.19
305.661	98.19
305.891	94.19
306.121	96.19
306.352	96.19
306.582	111.19
306.812	107.19
307.042	86.19
307.272	99.19
307.502	95.19
307.731	108.19
307.961	85.19
308.191	101.19
308.421	92.19
308.651	91.19
308.881	88.19
309.111	86.19
309.341	98.19
309.571	108.19
309.8	111.19
310.03	85.19
310.26	92.19
310.49	93.19
310.72	120.19
310.949	84.19
311.179	88.19
311.409	90.19
311.639	105.19
311.868	107.19
312.098	100.19
312.328	82.19
312.557	88.19
312.787	105.19
313.017	102.19
313.246	94.19
313.476	89.19
313.706	105.19
313.935	90.19
314.165	96.19
314.394	88.19
314.624	94.19
314.853	107.19
315.083	93.19
315.312	95.19
315.542	99.19
315.771	84.19
316.001	104.19
316.23	82.19
316.46	102.19
316.689	89.19
316.919	75.19
317.148	94.19
317.377	84.19
317.607	88.19
317.836	87.19
318.065	96.19
318.295	93.19
318.524	90.19
318.753	98.19
318.983	109.19
319.212	105.19
319.441	96.19
319.67	94.19
319.9	97.19
320.129	84.19
320.358	103.19
320.587	96.19
320.816	85.19
321.046	109.19
321.275	91.19
321.504	100.19
321.733	97.19
321.962	101.19
322.191	110.19
322.42	106.19
322.649	111.19
322.878	100.19
323.108	115.19
323.337	112.19
323.566	115.19
323.795	137.19
324.024	190.19
324.253	322.19
324.482	637.19
324.71	1284.19
324.939	1660.19
325.168	636.19
325.397	199.19
325.626	141.19
325.855	123.19
326.084	105.19
326.313	129.19
326.542	139.19
326.77	190.19
326.999	361.19
327.228	758.19
327.457	1302.19
327.686	1060.19
327.914	303.19
328.143	158.19
328.372	125.19
328.6	117.19
328.829	101.19
329.058	120.19
329.287	96.19
329.515	99.19
329.744	100.19
329.972	96.19
330.201	115.19
330.43	106.19
330.658	103.19
330.887	115.19
331.115	101.19
331.344	95.19
331.572	78.19
331.801	95.19
332.03	104.19
332.258	95.19
332.486	83.19
332.715	88.19
332.943	94.19
333.172	86.19
333.4	103.19
333.629	110.19
333.857	101.19
334.085	115.19
334.314	93.19
334.542	102.19
334.771	104.19
334.999	85.19
335.227	88.19
335.455	92.19
335.684	117.19
335.912	96.19
336.14	92.19
336.369	101.19
336.597	93.19
336.825	93.19
337.053	84.19
337.281	105.19
337.51	89.19
337.738	97.19
337.966	109.19
338.194	82.19
338.422	84.19
338.65	84.19
338.878	99.19
339.106	98.19
339.334	91.19
339.562	99.19
339.79	97.19
340.018	86.19
340.246	97.19
340.474	90.19
340.702	99.19
340.93	92.19
341.158	99.19
341.386	100.19
341.614	96.19
341.842	92.19
342.07	90.19
342.298	86.19
342.526	93.19
342.754	100.19
342.981	93.19
343.209	93.19
343.437	99.19
343.665	74.19
343.893	97.19
344.12	102.19
344.348	91.19
344.576	94.19
344.804	103.19
345.031	79.19
345.259	97.19
345.487	103.19
345.714	89.19
345.942	96.19
346.17	93.19
346.397	93.19
346.625	93.19
346.853	99.19
347.08	104.19
347.308	69.19
347.535	95.19
347.763	95.19
347.99	95.19
348.218	86.19
348.445	91.19
348.673	90.19
348.9	109.19
349.128	100.19
349.355	108.19
349.583	101.19
349.81	94.19
350.037	88.19
350.265	106.19
350.492	104.19
350.72	90.19
350.947	107.19
351.174	105.19
351.402	101.19
351.629	96.19
351.856	107.19
352.083	104.19
352.311	107.19
352.538	103.19
352.765	107.19
352.992	109.19
353.22	110.19
353.447	102.19
353.674	100.19
353.901	103.19
354.128	95.19
354.355	97.19
354.583	93.19
354.81	99.19
355.037	98.19
355.264	105.19
355.491	105.19
355.718	98.19
355.945	90.19
356.172	93.19
356.399	100.19
356.626	98.19
356.853	84.19
357.08	93.19
357.307	109.19
357.534	88.19
357.761	109.19
357.988	104.19
358.215	84.19
358.441	97.19
358.668	105.19
358.895	97.19
359.122	98.19
359.349	75.19
359.576	80.19
359.802	92.19
360.029	83.19
360.256	101.19
360.483	96.19
360.709	94.19
360.936	93.19
361.163	97.19
361.39	94.19
361.616	95.19
361.843	88.19
362.07	97.19
362.296	81.19
362.523	75.19
362.749	97.19
362.976	96.19
363.203	99.19
363.429	82.19
363.656	100.19
363.882	93.19
364.109	90.19
364.335	88.19
364.562	77.19
364.788	100.19
365.015	102.19
365.241	94.19
365.468	100.19
365.694	111.19
365.92	99.19
366.147	93.19
366.373	84.19
366.599	86.19
366.826	88.19
367.052	99.19
367.278	73.19
367.505	78.19
367.731	91.19
367.957	93.19
368.184	92.19
368.41	107.19
368.636	107.19
368.862	109.19
369.089	114.19
369.315	75.19
369.541	92.19
369.767	84.19
369.993	96.19
370.219	110.19
370.445	90.19
370.672	83.19
370.898	99.19
371.124	100.19
371.35	109.19
371.576	89.19
371.802	83.19
372.028	97.19
372.254	86.19
372.48	91.19
372.706	93.19
372.932	86.19
373.158	99.19
373.384	92.19
373.61	83.19
373.835	86.19
374.061	85.19
374.287	97.19
374.513	94.19
374.739	91.19
374.965	93.19
375.191	95.19
375.416	104.19
375.642	82.19
375.868	88.19
376.094	104.19
376.319	88.19
376.545	106.19
376.771	87.19
376.997	91.19
377.222	105.19
377.448	86.19
377.674	77.19
377.899	86.19
378.125	96.19
378.35	87.19
378.576	96.19
378.802	97.19
379.027	93.19
379.253	98.19
379.478	86.19
379.704	96.19
379.929	90.19
380.155	113.19
380.38	94.19
380.606	92.19
380.831	103.19
381.057	98.19
381.282	98.19
381.507	96.19
381.733	88.19
381.958	94.19
382.184	108.19
382.409	104.19
382.634	114.19
382.86	93.19
383.085	96.19
383.31	99.19
383.535	111.19
383.761	102.19
383.986	90.19
384.211	91.19
384.436	96.19
384.662	108.19
384.887	99.19
385.112	95.19
385.337	93.19
385.562	105.19
385.787	98.19
386.013	114.19
386.238	114.19
386.463	111.19
386.688	117.19
386.913	92.19
387.138	113.19
387.363	113.19
387.588	100.19
387.813	113.19
388.038	100.19
388.263	117.19
388.488	94.19
388.713	93.19
388.938	94.19
389.163	107.19
389.387	97.19
389.612	88.19
389.837	85.19
390.062	94.19
390.287	100.19
390.512	92.19
390.736	93.19
390.961	98.19
391.186	99.19
391.411	100.19
391.636	105.19
391.86	91.19
392.085	89.19
392.31	99.19
392.534	94.19
392.759	78.19
392.984	97.19
393.208	81.19
393.433	86.19
393.658	87.19
393.882	96.19
394.107	77.19
394.331	92.19
394.556	87.19
394.78	91.19
395.005	76.19
395.229	82.19
395.454	84.19
395.678	86.19
395.903	89.19
396.127	96.19
396.352	82.19
396.576	97.19
396.801	91.19
397.025	92.19
397.249	88.19
397.474	99.19
397.698	92.19
397.922	84.19
398.147	81.19
398.371	89.19
398.595	98.19
398.82	76.19
399.044	77.19
399.268	83.19
399.492	85.19
399.717	81.19
399.941	92.19
400.165	98.19
400.389	97.19
400.613	103.19
400.837	92.19
401.062	90.19
401.286	93.19
401.51	98.19
401.734	82.19
401.958	95.19
402.182	119.19
402.406	128.19
402.63	121.19
402.854	74.19
403.078	90.19
403.302	84.19
403.526	95.19
403.75	91.19
403.974	101.19
404.198	95.19
404.422	93.19
404.645	94.19
404.869	80.19
405.093	92.19
405.317	108.19
405.541	82.19
405.765	91.19
405.988	102.19
406.212	135.19
406.436	181.19
406.66	127.19
406.883	96.19
407.107	78.19
407.331	93.19
407.555	88.19
407.778	99.19
408.002	97.19
408.226	99.19
408.449	92.19
408.673	77.19
408.896	92.19
409.12	96.19
409.344	82.19
409.567	83.19
409.791	85.19
410.014	101.19
410.238	89.19
410.461	92.19
410.685	94.19
410.908	83.19
411.132	97.19
411.355	100.19
411.578	97.19
411.802	81.19
412.025	86.19
412.249	94.19
412.472	96.19
412.695	92.19
412.919	74.19
413.142	88.19
413.365	82.19
413.589	97.19
413.812	88.19
414.035	96.19
414.258	100.19
414.482	98.19
414.705	92.19
414.928	80.19
415.151	97.19
415.374	86.19
415.597	102.19
415.821	90.19
416.044	81.19
416.267	91.19
416.49	94.19
416.713	81.19
416.936	92.19
417.159	77.19
417.382	87.19
417.605	101.19
417.828	109.19
418.051	89.19
418.274	77.19
418.497	72.19
418.72	86.19
418.943	82.19
419.166	99.19
419.389	105.19
419.611	83.19
419.834	92.19
420.057	81.19
420.28	92.19
420.503	94.19
420.726	76.19
420.948	76.19
421.171	82.19
421.394	104.19
421.617	73.19
421.839	91.19
422.062	107.19
422.285	90.19
422.507	81.19
422.73	113.19
422.953	97.19
423.175	83.19
423.398	71.19
423.621	85.19
423.843	89.19
424.066	78.19
424.288	96.19
424.511	94.19
424.733	101.19
424.956	102.19
425.178	89.19
425.401	92.19
425.623	103.19
425.846	100.19
426.068	97.19
426.291	96.19
426.513	91.19
426.735	102.19
426.958	79.19
427.18	110.19
427.402	138.19
427.625	151.19
427.847	111.19
428.069	108.19
428.292	83.19
428.514	87.19
428.736	107.19
428.958	87.19
429.181	95.19
429.403	102.19
429.625	96.19
429.847	90.19
430.069	92.19
430.292	88.19
430.514	83.19
430.736	84.19
430.958	97.19
431.18	90.19
431.402	80.19
431.624	86.19
431.846	62.19
432.068	82.19
432.29	80.19
432.512	83.19
432.734	92.19
432.956	96.19
433.178	99.19
433.4	110.19
433.622	95.19
433.844	81.19
434.066	95.19
434.287	98.19
434.509	92.19
434.731	89.19
434.953	93.19
435.175	81.19
435.397	95.19
435.618	100.19
435.84	96.19
436.062	111.19
436.284	82.19
436.505	90.19
436.727	104.19
436.949	88.19
437.17	80.19
437.392	87.19
437.614	87.19
437.835	94.19
438.057	120.19
438.278	104.19
438.5	96.19
438.721	110.19
438.943	82.19
439.165	100.19
439.386	86.19
439.608	86.19
439.829	82.19
440.05	109.19
440.272	124.19
440.493	99.19
440.715	90.19
440.936	101.19
441.158	84.19
441.379	85.19
441.6	88.19
441.822	96.19
442.043	85.19
442.264	98.19
442.486	92.19
442.707	88.19
442.928	88.19
443.149	124.19
443.371	123.19
443.592	109.19
443.813	107.19
444.034	98.19
444.255	87.19
444.476	90.19
444.698	88.19
444.919	80.19
445.14	121.19
445.361	113.19
445.582	105.19
445.803	109.19
446.024	118.19
446.245	127.19
446.466	116.19
446.687	80.19
446.908	83.19
447.129	96.19
447.35	80.19
447.571	97.19
447.792	90.19
448.013	93.19
448.234	87.19
448.455	90.19
448.675	107.19
448.896	119.19
449.117	100.19
449.338	108.19
449.559	117.19
449.779	92.19
450	89.19
450.221	64.19
450.442	77.19
450.662	89.19
450.883	102.19
451.104	96.19
451.324	92.19
451.545	97.19
451.766	82.19
451.986	88.19
452.207	74.19
452.428	87.19
452.648	95.19
452.869	111.19
453.089	96.19
453.31	98.19
453.53	104.19
453.751	94.19
453.971	88.19
454.192	94.19
454.412	81.19
454.633	85.19
454.853	90.19
455.073	82.19
455.294	105.19
455.514	96.19
455.734	92.19
455.955	66.19
456.175	76.19
456.395	71.19
456.616	80.19
456.836	83.19
457.056	93.19
457.276	90.19
457.497	75.19
457.717	84.19
457.937	97.19
458.157	90.19
458.377	81.19
458.598	114.19
458.818	129.19
459.038	119.19
459.258	103.19
459.478	83.19
459.698	91.19
459.918	81.19
460.138	98.19
460.358	89.19
460.578	96.19
460.798	98.19
461.018	84.19
461.238	88.19
461.458	90.19
461.678	96.19
461.898	88.19
462.118	101.19
462.338	90.19
462.558	77.19
462.777	85.19
462.997	80.19
463.217	92.19
463.437	88.19
463.657	76.19
463.876	84.19
464.096	92.19
464.316	90.19
464.536	113.19
464.755	110.19
464.975	106.19
465.195	131.19
465.414	120.19
465.634	99.19
465.854	84.19
466.073	94.19
466.293	87.19
466.512	84.19
466.732	80.19
466.951	86.19
467.171	81.19
467.391	99.19
467.61	110.19
467.829	87.19
468.049	95.19
468.268	84.19
468.488	93.19
468.707	101.19
468.927	97.19
469.146	82.19
469.365	80.19
469.585	90.19
469.804	91.19
470.023	86.19
470.243	96.19
470.462	85.19
470.681	89.19
470.901	97.19
471.12	88.19
471.339	83.19
471.558	96.19
471.777	84.19
471.997	92.19
472.216	88.19
472.435	111.19
472.654	96.19
472.873	83.19
473.092	97.19
473.311	89.19
473.53	91.19
473.749	84.19
473.968	82.19
474.187	97.19
474.406	109.19
474.625	85.19
474.844	76.19
475.063	77.19
475.282	73.19
475.501	74.19
475.72	96.19
475.939	82.19
476.158	97.19
476.377	92.19
476.596	90.19
476.814	87.19
477.033	87.19
477.252	70.19
477.471	80.19
477.69	90.19
477.908	88.19
478.127	92.19
478.346	83.19
478.564	90.19
478.783	83.19
479.002	96.19
479.22	79.19
479.439	99.19
479.658	97.19
479.876	98.19
480.095	104.19
480.313	95.19
480.532	93.19
480.751	85.19
480.969	113.19
481.188	114.19
481.406	89.19
481.624	93.19
481.843	90.19
482.061	78.19
482.28	113.19
482.498	93.19
482.717	88.19
482.935	96.19
483.153	101.19
483.372	86.19
483.59	84.19
483.808	88.19
484.027	94.19
484.245	107.19
484.463	92.19
484.681	93.19
484.9	90.19
485.118	100.19
485.336	106.19
485.554	104.19
485.772	106.19
485.99	106.19
486.209	110.19
486.427	98.19
486.645	104.19
486.863	99.19
487.081	86.19
487.299	92.19
487.517	93.19
487.735	102.19
487.953	92.19
488.171	92.19
488.389	100.19
488.607	97.19
488.825	103.19
489.043	85.19
489.261	89.19
489.479	102.19
489.696	90.19
489.914	83.19
490.132	78.19
490.35	88.19
490.568	90.19
490.786	83.19
491.003	103.19
491.221	96.19
491.439	91.19
491.657	95.19
491.874	90.19
492.092	105.19
492.31	98.19
492.527	88.19
492.745	89.19
492.963	76.19
493.18	96.19
493.398	98.19
493.615	107.19
493.833	103.19
494.05	87.19
494.268	86.19
494.485	96.19
494.703	94.19
494.92	86.19
495.138	101.19
495.355	98.19
495.573	108.19
495.79	90.19
496.008	97.19
496.225	92.19
496.442	93.19
496.66	91.19
496.877	97.19
497.094	109.19
497.312	85.19
497.529	99.19
497.746	85.19
497.963	92.19
498.181	109.19
498.398	77.19
498.615	99.19
498.832	94.19
499.049	78.19
499.267	90.19
499.484	110.19
499.701	93.19
499.918	93.19
500.135	81.19
500.352	98.19
500.569	95.19
500.786	104.19
501.003	99.19
501.22	108.19
501.437	98.19
501.654	92.19
501.871	100.19
502.088	91.19
502.305	84.19
502.522	91.19
502.739	87.19
502.956	99.19
503.172	98.19
503.389	92.19
503.606	100.19
503.823	83.19
504.04	95.19
504.256	89.19
504.473	75.19
504.69	92.19
504.907	85.19
505.123	88.19
505.34	96.19
505.557	92.19
505.773	104.19
505.99	101.19
506.207	78.19
506.423	87.19
506.64	86.19
506.856	93.19
507.073	75.19
507.289	97.19
507.506	88.19
507.722	101.19
507.939	118.19
508.155	97.19
508.372	80.19
508.588	115.19
508.805	95.19
509.021	104.19
509.238	103.19
509.454	101.19
509.67	110.19
509.887	110.19
510.103	114.19
510.319	205.19
510.536	593.19
510.752	1773.19
510.968	513.19
511.184	146.19
511.401	106.19
511.617	85.19
511.833	93.19
512.049	101.19
512.265	88.19
512.481	94.19
512.698	97.19
512.914	108.19
513.13	102.19
513.346	98.19
513.562	97.19
513.778	101.19
513.994	99.19
514.21	104.19
514.426	108.19
514.642	116.19
514.858	113.19
515.074	144.19
515.29	331.19
515.506	972.19
515.721	375.19
