Data from Uncirc_1985_H10_HRD10591_00091.txt Node
Date: Wed Jan 03 12:18:35 EST 2024
User: Yrep
Spectrometer: HR+D1059
Trigger mode: 1
Integration Time (sec): 1.000000E-1
Scans to average: 1
Electric dark correction enabled: true
Nonlinearity correction enabled: false
Boxcar width: 0
XAxis mode: Wavelengths
Number of Pixels in Spectrum: 2048
>>>>>Begin Spectral Data<<<<<
223.165	-33.75
223.4	-33.75
223.635	-33.75
223.869	-11.75
224.104	-18.75
224.338	-10.75
224.573	-6.75
224.808	-17.75
225.042	-7.75
225.277	1.25
225.511	-3.75
225.746	-2.75
225.98	10.25
226.215	-1.75
226.449	5.25
226.683	32.25
226.918	32.25
227.152	34.25
227.387	30.25
227.621	44.25
227.856	44.25
228.09	63.25
228.324	60.25
228.559	57.25
228.793	70.25
229.027	70.25
229.262	57.25
229.496	73.25
229.73	74.25
229.964	81.25
230.199	73.25
230.433	74.25
230.667	79.25
230.901	86.25
231.136	88.25
231.37	84.25
231.604	81.25
231.838	84.25
232.072	84.25
232.306	86.25
232.541	87.25
232.775	93.25
233.009	79.25
233.243	87.25
233.477	74.25
233.711	99.25
233.945	87.25
234.179	95.25
234.413	84.25
234.647	93.25
234.881	77.25
235.115	86.25
235.349	75.25
235.583	84.25
235.817	81.25
236.051	80.25
236.285	82.25
236.519	72.25
236.753	96.25
236.987	99.25
237.221	107.25
237.455	90.25
237.689	84.25
237.922	81.25
238.156	63.25
238.39	70.25
238.624	82.25
238.858	89.25
239.091	88.25
239.325	90.25
239.559	77.25
239.793	76.25
240.027	93.25
240.26	72.25
240.494	86.25
240.728	69.25
240.961	78.25
241.195	89.25
241.429	82.25
241.662	81.25
241.896	75.25
242.13	80.25
242.363	79.25
242.597	86.25
242.83	88.25
243.064	81.25
243.298	91.25
243.531	95.25
243.765	76.25
243.998	84.25
244.232	99.25
244.465	78.25
244.699	90.25
244.932	79.25
245.166	74.25
245.399	70.25
245.633	68.25
245.866	87.25
246.099	97.25
246.333	74.25
246.566	90.25
246.8	80.25
247.033	96.25
247.266	84.25
247.5	81.25
247.733	85.25
247.966	76.25
248.2	86.25
248.433	76.25
248.666	91.25
248.899	89.25
249.133	92.25
249.366	93.25
249.599	100.25
249.832	81.25
250.066	81.25
250.299	86.25
250.532	81.25
250.765	73.25
250.998	84.25
251.231	76.25
251.465	81.25
251.698	96.25
251.931	96.25
252.164	82.25
252.397	89.25
252.63	90.25
252.863	95.25
253.096	93.25
253.329	86.25
253.562	72.25
253.795	81.25
254.028	98.25
254.261	81.25
254.494	81.25
254.727	79.25
254.96	96.25
255.193	86.25
255.426	76.25
255.659	94.25
255.892	94.25
256.124	89.25
256.357	90.25
256.59	90.25
256.823	98.25
257.056	81.25
257.289	82.25
257.521	86.25
257.754	94.25
257.987	88.25
258.22	98.25
258.452	98.25
258.685	91.25
258.918	92.25
259.151	79.25
259.383	89.25
259.616	64.25
259.849	89.25
260.081	93.25
260.314	84.25
260.547	90.25
260.779	110.25
261.012	100.25
261.244	88.25
261.477	96.25
261.71	97.25
261.942	109.25
262.175	133.25
262.407	102.25
262.64	74.25
262.872	96.25
263.105	95.25
263.337	85.25
263.57	94.25
263.802	82.25
264.035	87.25
264.267	81.25
264.499	97.25
264.732	87.25
264.964	85.25
265.197	101.25
265.429	86.25
265.661	92.25
265.894	87.25
266.126	88.25
266.358	88.25
266.591	86.25
266.823	78.25
267.055	86.25
267.287	100.25
267.52	79.25
267.752	88.25
267.984	90.25
268.216	82.25
268.448	92.25
268.681	92.25
268.913	96.25
269.145	85.25
269.377	98.25
269.609	89.25
269.841	87.25
270.073	104.25
270.306	81.25
270.538	90.25
270.77	90.25
271.002	87.25
271.234	78.25
271.466	92.25
271.698	86.25
271.93	82.25
272.162	83.25
272.394	87.25
272.626	95.25
272.858	90.25
273.09	81.25
273.322	98.25
273.553	88.25
273.785	83.25
274.017	92.25
274.249	83.25
274.481	82.25
274.713	80.25
274.945	97.25
275.176	90.25
275.408	78.25
275.64	95.25
275.872	86.25
276.104	103.25
276.335	96.25
276.567	97.25
276.799	112.25
277.031	114.25
277.262	86.25
277.494	94.25
277.726	83.25
277.957	94.25
278.189	108.25
278.421	72.25
278.652	94.25
278.884	106.25
279.115	82.25
279.347	85.25
279.579	88.25
279.81	93.25
280.042	103.25
280.273	101.25
280.505	94.25
280.736	97.25
280.968	88.25
281.199	99.25
281.431	90.25
281.662	97.25
281.894	90.25
282.125	96.25
282.356	122.25
282.588	170.25
282.819	106.25
283.051	94.25
283.282	101.25
283.513	98.25
283.745	96.25
283.976	89.25
284.207	93.25
284.439	101.25
284.67	112.25
284.901	90.25
285.132	90.25
285.364	97.25
285.595	82.25
285.826	88.25
286.057	103.25
286.288	95.25
286.52	82.25
286.751	88.25
286.982	84.25
287.213	88.25
287.444	91.25
287.675	98.25
287.906	94.25
288.138	102.25
288.369	85.25
288.6	96.25
288.831	79.25
289.062	87.25
289.293	104.25
289.524	100.25
289.755	101.25
289.986	91.25
290.217	102.25
290.448	84.25
290.679	101.25
290.91	95.25
291.141	98.25
291.371	101.25
291.602	93.25
291.833	92.25
292.064	93.25
292.295	97.25
292.526	91.25
292.757	94.25
292.987	88.25
293.218	95.25
293.449	98.25
293.68	96.25
293.91	81.25
294.141	86.25
294.372	99.25
294.603	89.25
294.833	101.25
295.064	95.25
295.295	101.25
295.525	94.25
295.756	100.25
295.987	129.25
296.217	135.25
296.448	131.25
296.679	95.25
296.909	92.25
297.14	94.25
297.37	106.25
297.601	90.25
297.831	103.25
298.062	103.25
298.292	98.25
298.523	95.25
298.753	87.25
298.984	88.25
299.214	102.25
299.445	84.25
299.675	94.25
299.905	123.25
300.136	85.25
300.366	86.25
300.597	93.25
300.827	113.25
301.057	93.25
301.288	106.25
301.518	105.25
301.748	93.25
301.979	103.25
302.209	88.25
302.439	84.25
302.669	85.25
302.9	101.25
303.13	90.25
303.36	107.25
303.59	122.25
303.82	105.25
304.051	86.25
304.281	88.25
304.511	94.25
304.741	90.25
304.971	101.25
305.201	83.25
305.431	100.25
305.661	91.25
305.891	95.25
306.121	107.25
306.352	104.25
306.582	111.25
306.812	93.25
307.042	93.25
307.272	105.25
307.502	104.25
307.731	102.25
307.961	97.25
308.191	88.25
308.421	96.25
308.651	97.25
308.881	89.25
309.111	98.25
309.341	118.25
309.571	101.25
309.8	108.25
310.03	101.25
310.26	107.25
310.49	101.25
310.72	98.25
310.949	89.25
311.179	100.25
311.409	104.25
311.639	101.25
311.868	112.25
312.098	108.25
312.328	104.25
312.557	101.25
312.787	108.25
313.017	99.25
313.246	98.25
313.476	114.25
313.706	90.25
313.935	106.25
314.165	94.25
314.394	93.25
314.624	103.25
314.853	84.25
315.083	85.25
315.312	93.25
315.542	98.25
315.771	95.25
316.001	100.25
316.23	94.25
316.46	94.25
316.689	100.25
316.919	107.25
317.148	113.25
317.377	96.25
317.607	111.25
317.836	99.25
318.065	89.25
318.295	100.25
318.524	89.25
318.753	97.25
318.983	94.25
319.212	109.25
319.441	106.25
319.67	114.25
319.9	99.25
320.129	92.25
320.358	85.25
320.587	110.25
320.816	107.25
321.046	108.25
321.275	109.25
321.504	100.25
321.733	101.25
321.962	108.25
322.191	106.25
322.42	113.25
322.649	121.25
322.878	120.25
323.108	112.25
323.337	118.25
323.566	150.25
323.795	149.25
324.024	209.25
324.253	373.25
324.482	814.25
324.71	1650.25
324.939	2236.25
325.168	823.25
325.397	234.25
325.626	160.25
325.855	137.25
326.084	126.25
326.313	117.25
326.542	140.25
326.77	224.25
326.999	465.25
327.228	956.25
327.457	1751.25
327.686	1386.25
327.914	392.25
328.143	202.25
328.372	170.25
328.6	141.25
328.829	128.25
329.058	133.25
329.287	130.25
329.515	116.25
329.744	116.25
329.972	115.25
330.201	146.25
330.43	154.25
330.658	137.25
330.887	152.25
331.115	132.25
331.344	94.25
331.572	120.25
331.801	103.25
332.03	110.25
332.258	113.25
332.486	97.25
332.715	107.25
332.943	109.25
333.172	92.25
333.4	105.25
333.629	102.25
333.857	121.25
334.085	127.25
334.314	145.25
334.542	170.25
334.771	180.25
334.999	113.25
335.227	115.25
335.455	113.25
335.684	110.25
335.912	108.25
336.14	98.25
336.369	91.25
336.597	91.25
336.825	99.25
337.053	113.25
337.281	92.25
337.51	104.25
337.738	90.25
337.966	109.25
338.194	100.25
338.422	112.25
338.65	103.25
338.878	92.25
339.106	99.25
339.334	100.25
339.562	93.25
339.79	99.25
340.018	84.25
340.246	94.25
340.474	86.25
340.702	89.25
340.93	99.25
341.158	107.25
341.386	110.25
341.614	101.25
341.842	110.25
342.07	87.25
342.298	90.25
342.526	92.25
342.754	103.25
342.981	86.25
343.209	89.25
343.437	106.25
343.665	97.25
343.893	98.25
344.12	96.25
344.348	102.25
344.576	94.25
344.804	93.25
345.031	101.25
345.259	98.25
345.487	94.25
345.714	101.25
345.942	97.25
346.17	96.25
346.397	97.25
346.625	90.25
346.853	111.25
347.08	101.25
347.308	97.25
347.535	97.25
347.763	106.25
347.99	113.25
348.218	100.25
348.445	106.25
348.673	94.25
348.9	99.25
349.128	94.25
349.355	104.25
349.583	102.25
349.81	92.25
350.037	109.25
350.265	90.25
350.492	95.25
350.72	114.25
350.947	107.25
351.174	114.25
351.402	121.25
351.629	113.25
351.856	110.25
352.083	113.25
352.311	101.25
352.538	91.25
352.765	107.25
352.992	109.25
353.22	106.25
353.447	104.25
353.674	105.25
353.901	97.25
354.128	109.25
354.355	108.25
354.583	97.25
354.81	96.25
355.037	102.25
355.264	102.25
355.491	104.25
355.718	103.25
355.945	104.25
356.172	94.25
356.399	85.25
356.626	97.25
356.853	100.25
357.08	97.25
357.307	96.25
357.534	84.25
357.761	91.25
357.988	92.25
358.215	92.25
358.441	100.25
358.668	94.25
358.895	98.25
359.122	95.25
359.349	82.25
359.576	103.25
359.802	105.25
360.029	114.25
360.256	128.25
360.483	90.25
360.709	87.25
360.936	100.25
361.163	113.25
361.39	107.25
361.616	114.25
361.843	86.25
362.07	96.25
362.296	103.25
362.523	95.25
362.749	99.25
362.976	93.25
363.203	104.25
363.429	94.25
363.656	106.25
363.882	92.25
364.109	90.25
364.335	107.25
364.562	96.25
364.788	99.25
365.015	113.25
365.241	102.25
365.468	105.25
365.694	104.25
365.92	112.25
366.147	90.25
366.373	101.25
366.599	91.25
366.826	101.25
367.052	92.25
367.278	109.25
367.505	88.25
367.731	92.25
367.957	99.25
368.184	93.25
368.41	110.25
368.636	116.25
368.862	121.25
369.089	116.25
369.315	108.25
369.541	105.25
369.767	93.25
369.993	97.25
370.219	100.25
370.445	93.25
370.672	81.25
370.898	92.25
371.124	88.25
371.35	88.25
371.576	95.25
371.802	100.25
372.028	98.25
372.254	99.25
372.48	106.25
372.706	113.25
372.932	97.25
373.158	103.25
373.384	101.25
373.61	111.25
373.835	101.25
374.061	106.25
374.287	98.25
374.513	91.25
374.739	101.25
374.965	93.25
375.191	109.25
375.416	87.25
375.642	90.25
375.868	94.25
376.094	85.25
376.319	100.25
376.545	91.25
376.771	99.25
376.997	88.25
377.222	92.25
377.448	88.25
377.674	93.25
377.899	115.25
378.125	94.25
378.35	102.25
378.576	89.25
378.802	86.25
379.027	94.25
379.253	84.25
379.478	102.25
379.704	85.25
379.929	109.25
380.155	88.25
380.38	92.25
380.606	98.25
380.831	86.25
381.057	101.25
381.282	88.25
381.507	78.25
381.733	100.25
381.958	81.25
382.184	100.25
382.409	106.25
382.634	98.25
382.86	90.25
383.085	108.25
383.31	95.25
383.535	97.25
383.761	103.25
383.986	92.25
384.211	85.25
384.436	106.25
384.662	88.25
384.887	106.25
385.112	102.25
385.337	90.25
385.562	94.25
385.787	98.25
386.013	106.25
386.238	110.25
386.463	92.25
386.688	108.25
386.913	110.25
387.138	110.25
387.363	101.25
387.588	100.25
387.813	98.25
388.038	101.25
388.263	97.25
388.488	100.25
388.713	88.25
388.938	103.25
389.163	94.25
389.387	96.25
389.612	74.25
389.837	107.25
390.062	104.25
390.287	100.25
390.512	94.25
390.736	100.25
390.961	102.25
391.186	107.25
391.411	108.25
391.636	96.25
391.86	82.25
392.085	88.25
392.31	98.25
392.534	102.25
392.759	87.25
392.984	94.25
393.208	93.25
393.433	94.25
393.658	84.25
393.882	97.25
394.107	94.25
394.331	85.25
394.556	100.25
394.78	100.25
395.005	98.25
395.229	91.25
395.454	102.25
395.678	87.25
395.903	105.25
396.127	80.25
396.352	90.25
396.576	86.25
396.801	101.25
397.025	93.25
397.249	89.25
397.474	101.25
397.698	84.25
397.922	84.25
398.147	92.25
398.371	89.25
398.595	100.25
398.82	81.25
399.044	96.25
399.268	82.25
399.492	107.25
399.717	101.25
399.941	96.25
400.165	85.25
400.389	79.25
400.613	81.25
400.837	89.25
401.062	89.25
401.286	90.25
401.51	91.25
401.734	97.25
401.958	93.25
402.182	133.25
402.406	153.25
402.63	129.25
402.854	104.25
403.078	96.25
403.302	93.25
403.526	92.25
403.75	86.25
403.974	94.25
404.198	97.25
404.422	96.25
404.645	101.25
404.869	104.25
405.093	111.25
405.317	115.25
405.541	101.25
405.765	94.25
405.988	123.25
406.212	158.25
406.436	208.25
406.66	146.25
406.883	97.25
407.107	102.25
407.331	88.25
407.555	101.25
407.778	99.25
408.002	90.25
408.226	102.25
408.449	107.25
408.673	100.25
408.896	96.25
409.12	102.25
409.344	89.25
409.567	98.25
409.791	95.25
410.014	96.25
410.238	101.25
410.461	95.25
410.685	97.25
410.908	100.25
411.132	98.25
411.355	90.25
411.578	91.25
411.802	96.25
412.025	92.25
412.249	90.25
412.472	93.25
412.695	104.25
412.919	82.25
413.142	93.25
413.365	96.25
413.589	95.25
413.812	101.25
414.035	77.25
414.258	81.25
414.482	90.25
414.705	98.25
414.928	94.25
415.151	100.25
415.374	95.25
415.597	101.25
415.821	102.25
416.044	101.25
416.267	95.25
416.49	97.25
416.713	101.25
416.936	99.25
417.159	97.25
417.382	117.25
417.605	90.25
417.828	88.25
418.051	89.25
418.274	92.25
418.497	88.25
418.72	79.25
418.943	89.25
419.166	95.25
419.389	98.25
419.611	109.25
419.834	91.25
420.057	102.25
420.28	93.25
420.503	102.25
420.726	99.25
420.948	93.25
421.171	87.25
421.394	95.25
421.617	103.25
421.839	115.25
422.062	90.25
422.285	106.25
422.507	95.25
422.73	121.25
422.953	112.25
423.175	84.25
423.398	89.25
423.621	88.25
423.843	101.25
424.066	79.25
424.288	103.25
424.511	93.25
424.733	91.25
424.956	107.25
425.178	111.25
425.401	102.25
425.623	109.25
425.846	93.25
426.068	93.25
426.291	89.25
426.513	101.25
426.735	103.25
426.958	88.25
427.18	115.25
427.402	133.25
427.625	172.25
427.847	132.25
428.069	121.25
428.292	109.25
428.514	104.25
428.736	90.25
428.958	87.25
429.181	96.25
429.403	96.25
429.625	99.25
429.847	109.25
430.069	98.25
430.292	100.25
430.514	100.25
430.736	100.25
430.958	78.25
431.18	79.25
431.402	104.25
431.624	87.25
431.846	76.25
432.068	94.25
432.29	93.25
432.512	102.25
432.734	98.25
432.956	89.25
433.178	105.25
433.4	103.25
433.622	115.25
433.844	93.25
434.066	90.25
434.287	90.25
434.509	98.25
434.731	81.25
434.953	94.25
435.175	101.25
435.397	105.25
435.618	104.25
435.84	112.25
436.062	121.25
436.284	120.25
436.505	113.25
436.727	105.25
436.949	92.25
437.17	102.25
437.392	97.25
437.614	102.25
437.835	120.25
438.057	114.25
438.278	115.25
438.5	93.25
438.721	125.25
438.943	122.25
439.165	93.25
439.386	100.25
439.608	87.25
439.829	85.25
440.05	137.25
440.272	127.25
440.493	99.25
440.715	98.25
440.936	100.25
441.158	78.25
441.379	100.25
441.6	101.25
441.822	96.25
442.043	113.25
442.264	105.25
442.486	85.25
442.707	105.25
442.928	117.25
443.149	149.25
443.371	134.25
443.592	100.25
443.813	107.25
444.034	114.25
444.255	108.25
444.476	93.25
444.698	97.25
444.919	94.25
445.14	144.25
445.361	145.25
445.582	119.25
445.803	142.25
446.024	150.25
446.245	141.25
446.466	104.25
446.687	86.25
446.908	92.25
447.129	92.25
447.35	112.25
447.571	104.25
447.792	108.25
448.013	94.25
448.234	94.25
448.455	108.25
448.675	104.25
448.896	117.25
449.117	108.25
449.338	117.25
449.559	130.25
449.779	121.25
450	116.25
450.221	80.25
450.442	82.25
450.662	103.25
450.883	111.25
451.104	109.25
451.324	102.25
451.545	96.25
451.766	89.25
451.986	81.25
452.207	92.25
452.428	89.25
452.648	108.25
452.869	120.25
453.089	111.25
453.31	125.25
453.53	106.25
453.751	102.25
453.971	114.25
454.192	132.25
454.412	95.25
454.633	95.25
454.853	100.25
455.073	84.25
455.294	94.25
455.514	102.25
455.734	97.25
455.955	98.25
456.175	101.25
456.395	86.25
456.616	92.25
456.836	86.25
457.056	90.25
457.276	96.25
457.497	92.25
457.717	97.25
457.937	89.25
458.157	86.25
458.377	96.25
458.598	109.25
458.818	133.25
459.038	157.25
459.258	114.25
459.478	104.25
459.698	101.25
459.918	84.25
460.138	80.25
460.358	93.25
460.578	91.25
460.798	105.25
461.018	84.25
461.238	87.25
461.458	96.25
461.678	88.25
461.898	79.25
462.118	98.25
462.338	92.25
462.558	91.25
462.777	90.25
462.997	92.25
463.217	98.25
463.437	95.25
463.657	89.25
463.876	94.25
464.096	98.25
464.316	95.25
464.536	99.25
464.755	104.25
464.975	101.25
465.195	167.25
465.414	161.25
465.634	99.25
465.854	94.25
466.073	89.25
466.293	86.25
466.512	80.25
466.732	93.25
466.951	97.25
467.171	96.25
467.391	96.25
467.61	110.25
467.829	88.25
468.049	107.25
468.268	125.25
468.488	86.25
468.707	95.25
468.927	87.25
469.146	90.25
469.365	100.25
469.585	87.25
469.804	102.25
470.023	110.25
470.243	96.25
470.462	90.25
470.681	109.25
470.901	89.25
471.12	95.25
471.339	82.25
471.558	103.25
471.777	103.25
471.997	124.25
472.216	151.25
472.435	214.25
472.654	107.25
472.873	98.25
473.092	90.25
473.311	92.25
473.53	85.25
473.749	97.25
473.968	106.25
474.187	105.25
474.406	92.25
474.625	87.25
474.844	81.25
475.063	100.25
475.282	86.25
475.501	96.25
475.72	92.25
475.939	66.25
476.158	92.25
476.377	100.25
476.596	86.25
476.814	109.25
477.033	97.25
477.252	91.25
477.471	103.25
477.69	87.25
477.908	95.25
478.127	86.25
478.346	71.25
478.564	85.25
478.783	108.25
479.002	104.25
479.22	91.25
479.439	96.25
479.658	99.25
479.876	87.25
480.095	100.25
480.313	105.25
480.532	97.25
480.751	102.25
480.969	149.25
481.188	318.25
481.406	209.25
481.624	113.25
481.843	102.25
482.061	86.25
482.28	87.25
482.498	102.25
482.717	102.25
482.935	96.25
483.153	88.25
483.372	95.25
483.59	88.25
483.808	94.25
484.027	86.25
484.245	95.25
484.463	111.25
484.681	100.25
484.9	92.25
485.118	95.25
485.336	101.25
485.554	97.25
485.772	115.25
485.99	98.25
486.209	110.25
486.427	107.25
486.645	114.25
486.863	108.25
487.081	97.25
487.299	109.25
487.517	93.25
487.735	111.25
487.953	89.25
488.171	94.25
488.389	93.25
488.607	103.25
488.825	90.25
489.043	92.25
489.261	93.25
489.479	101.25
489.696	95.25
489.914	96.25
490.132	97.25
490.35	92.25
490.568	94.25
490.786	101.25
491.003	96.25
491.221	108.25
491.439	90.25
491.657	97.25
491.874	92.25
492.092	95.25
492.31	105.25
492.527	101.25
492.745	95.25
492.963	90.25
493.18	89.25
493.398	113.25
493.615	96.25
493.833	87.25
494.05	88.25
494.268	92.25
494.485	91.25
494.703	103.25
494.92	98.25
495.138	99.25
495.355	100.25
495.573	99.25
495.79	89.25
496.008	94.25
496.225	92.25
496.442	102.25
496.66	95.25
496.877	100.25
497.094	94.25
497.312	96.25
497.529	95.25
497.746	102.25
497.963	102.25
498.181	98.25
498.398	109.25
498.615	106.25
498.832	101.25
499.049	107.25
499.267	77.25
499.484	95.25
499.701	92.25
499.918	102.25
500.135	106.25
500.352	113.25
500.569	101.25
500.786	92.25
501.003	90.25
501.22	96.25
501.437	110.25
501.654	110.25
501.871	118.25
502.088	93.25
502.305	81.25
502.522	76.25
502.739	80.25
502.956	102.25
503.172	108.25
503.389	101.25
503.606	97.25
503.823	104.25
504.04	94.25
504.256	82.25
504.473	85.25
504.69	89.25
504.907	101.25
505.123	95.25
505.34	96.25
505.557	84.25
505.773	86.25
505.99	87.25
506.207	98.25
506.423	99.25
506.64	89.25
506.856	101.25
507.073	88.25
507.289	80.25
507.506	100.25
507.722	110.25
507.939	122.25
508.155	94.25
508.372	107.25
508.588	105.25
508.805	108.25
509.021	118.25
509.238	107.25
509.454	105.25
509.67	116.25
509.887	119.25
510.103	127.25
510.319	203.25
510.536	715.25
510.752	2333.25
510.968	638.25
511.184	153.25
511.401	105.25
511.617	111.25
511.833	89.25
512.049	107.25
512.265	89.25
512.481	93.25
512.698	78.25
512.914	86.25
