Data from Uncirc_1985_H10_HRD10591_00033.txt Node
Date: Wed Jan 03 12:18:24 EST 2024
User: Yrep
Spectrometer: HR+D1059
Trigger mode: 1
Integration Time (sec): 1.000000E-1
Scans to average: 1
Electric dark correction enabled: true
Nonlinearity correction enabled: false
Boxcar width: 0
XAxis mode: Wavelengths
Number of Pixels in Spectrum: 2048
>>>>>Begin Spectral Data<<<<<
223.165	-13.94
223.4	-13.94
223.635	-13.94
223.869	-21.94
224.104	-13.94
224.338	-12.94
224.573	-5.94
224.808	-14.94
225.042	-8.94
225.277	-20.94
225.511	6.06
225.746	3.06
225.98	-4.94
226.215	2.06
226.449	15.06
226.683	36.06
226.918	26.06
227.152	30.06
227.387	38.06
227.621	42.06
227.856	50.06
228.09	42.06
228.324	71.06
228.559	61.06
228.793	64.06
229.027	62.06
229.262	68.06
229.496	70.06
229.73	69.06
229.964	63.06
230.199	75.06
230.433	69.06
230.667	65.06
230.901	72.06
231.136	77.06
231.37	81.06
231.604	66.06
231.838	94.06
232.072	84.06
232.306	68.06
232.541	92.06
232.775	72.06
233.009	82.06
233.243	80.06
233.477	68.06
233.711	88.06
233.945	82.06
234.179	81.06
234.413	78.06
234.647	82.06
234.881	50.06
235.115	79.06
235.349	71.06
235.583	81.06
235.817	82.06
236.051	76.06
236.285	80.06
236.519	84.06
236.753	81.06
236.987	76.06
237.221	88.06
237.455	85.06
237.689	72.06
237.922	82.06
238.156	75.06
238.39	75.06
238.624	87.06
238.858	76.06
239.091	67.06
239.325	75.06
239.559	70.06
239.793	75.06
240.027	79.06
240.26	68.06
240.494	64.06
240.728	68.06
240.961	70.06
241.195	67.06
241.429	81.06
241.662	66.06
241.896	72.06
242.13	58.06
242.363	70.06
242.597	87.06
242.83	78.06
243.064	58.06
243.298	76.06
243.531	77.06
243.765	76.06
243.998	81.06
244.232	71.06
244.465	92.06
244.699	83.06
244.932	72.06
245.166	81.06
245.399	66.06
245.633	73.06
245.866	83.06
246.099	55.06
246.333	81.06
246.566	58.06
246.8	74.06
247.033	78.06
247.266	86.06
247.5	77.06
247.733	97.06
247.966	76.06
248.2	75.06
248.433	86.06
248.666	69.06
248.899	74.06
249.133	84.06
249.366	95.06
249.599	82.06
249.832	86.06
250.066	76.06
250.299	80.06
250.532	72.06
250.765	75.06
250.998	80.06
251.231	75.06
251.465	78.06
251.698	85.06
251.931	76.06
252.164	78.06
252.397	67.06
252.63	72.06
252.863	82.06
253.096	78.06
253.329	94.06
253.562	80.06
253.795	85.06
254.028	79.06
254.261	74.06
254.494	70.06
254.727	76.06
254.96	68.06
255.193	80.06
255.426	81.06
255.659	84.06
255.892	78.06
256.124	101.06
256.357	88.06
256.59	90.06
256.823	71.06
257.056	84.06
257.289	90.06
257.521	85.06
257.754	90.06
257.987	71.06
258.22	72.06
258.452	67.06
258.685	95.06
258.918	83.06
259.151	74.06
259.383	81.06
259.616	84.06
259.849	76.06
260.081	88.06
260.314	97.06
260.547	97.06
260.779	70.06
261.012	82.06
261.244	74.06
261.477	93.06
261.71	86.06
261.942	97.06
262.175	106.06
262.407	103.06
262.64	87.06
262.872	86.06
263.105	79.06
263.337	88.06
263.57	71.06
263.802	81.06
264.035	74.06
264.267	82.06
264.499	99.06
264.732	82.06
264.964	74.06
265.197	84.06
265.429	74.06
265.661	92.06
265.894	96.06
266.126	75.06
266.358	85.06
266.591	82.06
266.823	74.06
267.055	72.06
267.287	75.06
267.52	68.06
267.752	91.06
267.984	86.06
268.216	86.06
268.448	79.06
268.681	89.06
268.913	79.06
269.145	73.06
269.377	78.06
269.609	79.06
269.841	94.06
270.073	84.06
270.306	81.06
270.538	80.06
270.77	83.06
271.002	83.06
271.234	83.06
271.466	89.06
271.698	90.06
271.93	82.06
272.162	86.06
272.394	95.06
272.626	96.06
272.858	83.06
273.09	85.06
273.322	87.06
273.553	86.06
273.785	94.06
274.017	83.06
274.249	88.06
274.481	73.06
274.713	98.06
274.945	106.06
275.176	88.06
275.408	78.06
275.64	88.06
275.872	98.06
276.104	94.06
276.335	85.06
276.567	96.06
276.799	102.06
277.031	97.06
277.262	98.06
277.494	82.06
277.726	79.06
277.957	87.06
278.189	91.06
278.421	85.06
278.652	119.06
278.884	86.06
279.115	98.06
279.347	88.06
279.579	72.06
279.81	89.06
280.042	99.06
280.273	86.06
280.505	92.06
280.736	95.06
280.968	79.06
281.199	71.06
281.431	89.06
281.662	80.06
281.894	82.06
282.125	100.06
282.356	100.06
282.588	127.06
282.819	103.06
283.051	93.06
283.282	81.06
283.513	82.06
283.745	85.06
283.976	98.06
284.207	80.06
284.439	86.06
284.67	85.06
284.901	79.06
285.132	81.06
285.364	88.06
285.595	80.06
285.826	94.06
286.057	82.06
286.288	82.06
286.52	94.06
286.751	84.06
286.982	83.06
287.213	90.06
287.444	80.06
287.675	88.06
287.906	74.06
288.138	83.06
288.369	93.06
288.6	84.06
288.831	75.06
289.062	91.06
289.293	86.06
289.524	100.06
289.755	89.06
289.986	79.06
290.217	87.06
290.448	86.06
290.679	91.06
290.91	88.06
291.141	79.06
291.371	94.06
291.602	84.06
291.833	96.06
292.064	92.06
292.295	87.06
292.526	86.06
292.757	75.06
292.987	80.06
293.218	93.06
293.449	94.06
293.68	79.06
293.91	75.06
294.141	83.06
294.372	83.06
294.603	73.06
294.833	95.06
295.064	88.06
295.295	88.06
295.525	97.06
295.756	99.06
295.987	104.06
296.217	132.06
296.448	123.06
296.679	91.06
296.909	96.06
297.14	84.06
297.37	75.06
297.601	86.06
297.831	82.06
298.062	88.06
298.292	97.06
298.523	86.06
298.753	88.06
298.984	93.06
299.214	86.06
299.445	95.06
299.675	88.06
299.905	89.06
300.136	89.06
300.366	97.06
300.597	89.06
300.827	90.06
301.057	96.06
301.288	79.06
301.518	87.06
301.748	86.06
301.979	90.06
302.209	81.06
302.439	80.06
302.669	86.06
302.9	91.06
303.13	96.06
303.36	102.06
303.59	96.06
303.82	103.06
304.051	101.06
304.281	100.06
304.511	92.06
304.741	81.06
304.971	85.06
305.201	102.06
305.431	83.06
305.661	94.06
305.891	89.06
306.121	86.06
306.352	102.06
306.582	105.06
306.812	98.06
307.042	94.06
307.272	96.06
307.502	85.06
307.731	86.06
307.961	94.06
308.191	86.06
308.421	94.06
308.651	91.06
308.881	96.06
309.111	86.06
309.341	87.06
309.571	97.06
309.8	88.06
310.03	102.06
310.26	82.06
310.49	90.06
310.72	96.06
310.949	97.06
311.179	103.06
311.409	101.06
311.639	106.06
311.868	80.06
312.098	102.06
312.328	87.06
312.557	99.06
312.787	93.06
313.017	102.06
313.246	92.06
313.476	83.06
313.706	82.06
313.935	84.06
314.165	91.06
314.394	90.06
314.624	79.06
314.853	92.06
315.083	94.06
315.312	105.06
315.542	82.06
315.771	96.06
316.001	95.06
316.23	92.06
316.46	84.06
316.689	80.06
316.919	83.06
317.148	107.06
317.377	88.06
317.607	88.06
317.836	87.06
318.065	96.06
318.295	82.06
318.524	89.06
318.753	89.06
318.983	76.06
319.212	95.06
319.441	90.06
319.67	114.06
319.9	75.06
320.129	82.06
320.358	83.06
320.587	98.06
320.816	89.06
321.046	92.06
321.275	93.06
321.504	91.06
321.733	81.06
321.962	89.06
322.191	110.06
322.42	104.06
322.649	101.06
322.878	99.06
323.108	101.06
323.337	121.06
323.566	139.06
323.795	150.06
324.024	176.06
324.253	348.06
324.482	684.06
324.71	1415.06
324.939	1835.06
325.168	695.06
325.397	218.06
325.626	142.06
325.855	123.06
326.084	139.06
326.313	125.06
326.542	140.06
326.77	222.06
326.999	393.06
327.228	790.06
327.457	1446.06
327.686	1149.06
327.914	319.06
328.143	182.06
328.372	124.06
328.6	107.06
328.829	110.06
329.058	123.06
329.287	120.06
329.515	103.06
329.744	105.06
329.972	84.06
330.201	97.06
330.43	112.06
330.658	130.06
330.887	146.06
331.115	98.06
331.344	90.06
331.572	96.06
331.801	108.06
332.03	84.06
332.258	103.06
332.486	87.06
332.715	96.06
332.943	96.06
333.172	98.06
333.4	94.06
333.629	99.06
333.857	115.06
334.085	92.06
334.314	90.06
334.542	114.06
334.771	120.06
334.999	84.06
335.227	105.06
335.455	94.06
335.684	95.06
335.912	107.06
336.14	100.06
336.369	89.06
336.597	92.06
336.825	103.06
337.053	90.06
337.281	99.06
337.51	91.06
337.738	98.06
337.966	90.06
338.194	80.06
338.422	94.06
338.65	98.06
338.878	94.06
339.106	83.06
339.334	92.06
339.562	101.06
339.79	81.06
340.018	74.06
340.246	104.06
340.474	96.06
340.702	94.06
340.93	80.06
341.158	81.06
341.386	99.06
341.614	95.06
341.842	95.06
342.07	98.06
342.298	82.06
342.526	80.06
342.754	86.06
342.981	94.06
343.209	82.06
343.437	94.06
343.665	97.06
343.893	91.06
344.12	90.06
344.348	95.06
344.576	97.06
344.804	85.06
345.031	86.06
345.259	108.06
345.487	99.06
345.714	78.06
345.942	67.06
346.17	90.06
346.397	89.06
346.625	93.06
346.853	94.06
347.08	88.06
347.308	101.06
347.535	90.06
347.763	103.06
347.99	99.06
348.218	104.06
348.445	103.06
348.673	78.06
348.9	91.06
349.128	103.06
349.355	75.06
349.583	97.06
349.81	86.06
350.037	87.06
350.265	101.06
350.492	92.06
350.72	101.06
350.947	91.06
351.174	114.06
351.402	108.06
351.629	112.06
351.856	96.06
352.083	97.06
352.311	96.06
352.538	105.06
352.765	92.06
352.992	100.06
353.22	107.06
353.447	99.06
353.674	94.06
353.901	92.06
354.128	78.06
354.355	95.06
354.583	90.06
354.81	87.06
355.037	81.06
355.264	90.06
355.491	97.06
355.718	84.06
355.945	93.06
356.172	91.06
356.399	81.06
356.626	100.06
356.853	93.06
357.08	92.06
357.307	90.06
357.534	100.06
357.761	91.06
357.988	73.06
358.215	87.06
358.441	106.06
358.668	85.06
358.895	82.06
359.122	81.06
359.349	97.06
359.576	88.06
359.802	87.06
360.029	107.06
360.256	92.06
360.483	92.06
360.709	87.06
360.936	91.06
361.163	86.06
361.39	98.06
361.616	84.06
361.843	94.06
362.07	95.06
362.296	90.06
362.523	90.06
362.749	84.06
362.976	98.06
363.203	97.06
363.429	94.06
363.656	84.06
363.882	81.06
364.109	72.06
364.335	95.06
364.562	92.06
364.788	95.06
365.015	103.06
365.241	74.06
365.468	105.06
365.694	94.06
365.92	95.06
366.147	85.06
366.373	94.06
366.599	92.06
366.826	72.06
367.052	93.06
367.278	83.06
367.505	90.06
367.731	104.06
367.957	87.06
368.184	95.06
368.41	97.06
368.636	98.06
368.862	103.06
369.089	83.06
369.315	89.06
369.541	84.06
369.767	78.06
369.993	77.06
370.219	96.06
370.445	80.06
370.672	80.06
370.898	89.06
371.124	86.06
371.35	72.06
371.576	98.06
371.802	85.06
372.028	100.06
372.254	93.06
372.48	82.06
372.706	89.06
372.932	91.06
373.158	103.06
373.384	105.06
373.61	96.06
373.835	100.06
374.061	85.06
374.287	88.06
374.513	81.06
374.739	86.06
374.965	88.06
375.191	87.06
375.416	101.06
375.642	92.06
375.868	87.06
376.094	75.06
376.319	84.06
376.545	84.06
376.771	76.06
376.997	77.06
377.222	92.06
377.448	95.06
377.674	70.06
377.899	74.06
378.125	107.06
378.35	95.06
378.576	76.06
378.802	81.06
379.027	83.06
379.253	78.06
379.478	86.06
379.704	99.06
379.929	86.06
380.155	86.06
380.38	94.06
380.606	88.06
380.831	96.06
381.057	97.06
381.282	79.06
381.507	97.06
381.733	107.06
381.958	99.06
382.184	92.06
382.409	100.06
382.634	113.06
382.86	90.06
383.085	103.06
383.31	100.06
383.535	102.06
383.761	89.06
383.986	104.06
384.211	89.06
384.436	98.06
384.662	86.06
384.887	98.06
385.112	102.06
385.337	103.06
385.562	102.06
385.787	97.06
386.013	102.06
386.238	114.06
386.463	100.06
386.688	113.06
386.913	96.06
387.138	116.06
387.363	97.06
387.588	109.06
387.813	94.06
388.038	86.06
388.263	102.06
388.488	116.06
388.713	95.06
388.938	91.06
389.163	84.06
389.387	92.06
389.612	98.06
389.837	93.06
390.062	92.06
390.287	90.06
390.512	89.06
390.736	83.06
390.961	100.06
391.186	103.06
391.411	97.06
391.636	111.06
391.86	79.06
392.085	86.06
392.31	82.06
392.534	91.06
392.759	97.06
392.984	91.06
393.208	76.06
393.433	95.06
393.658	91.06
393.882	81.06
394.107	106.06
394.331	91.06
394.556	83.06
394.78	86.06
395.005	90.06
395.229	82.06
395.454	84.06
395.678	100.06
395.903	87.06
396.127	97.06
396.352	96.06
396.576	89.06
396.801	101.06
397.025	89.06
397.249	72.06
397.474	82.06
397.698	75.06
397.922	74.06
398.147	92.06
398.371	88.06
398.595	98.06
398.82	93.06
399.044	91.06
399.268	96.06
399.492	90.06
399.717	107.06
399.941	82.06
400.165	94.06
400.389	84.06
400.613	90.06
400.837	94.06
401.062	77.06
401.286	74.06
401.51	100.06
401.734	87.06
401.958	75.06
402.182	104.06
402.406	140.06
402.63	123.06
402.854	82.06
403.078	88.06
403.302	102.06
403.526	80.06
403.75	90.06
403.974	86.06
404.198	82.06
404.422	95.06
404.645	99.06
404.869	97.06
405.093	105.06
405.317	101.06
405.541	100.06
405.765	97.06
405.988	108.06
406.212	157.06
406.436	200.06
406.66	121.06
406.883	106.06
407.107	92.06
407.331	87.06
407.555	88.06
407.778	94.06
408.002	84.06
408.226	105.06
408.449	88.06
408.673	101.06
408.896	90.06
409.12	89.06
409.344	81.06
409.567	88.06
409.791	79.06
410.014	91.06
410.238	79.06
410.461	79.06
410.685	86.06
410.908	90.06
411.132	104.06
411.355	96.06
411.578	83.06
411.802	94.06
412.025	95.06
412.249	91.06
412.472	98.06
412.695	94.06
412.919	80.06
413.142	90.06
413.365	92.06
413.589	85.06
413.812	87.06
414.035	101.06
414.258	85.06
414.482	101.06
414.705	89.06
414.928	88.06
415.151	86.06
415.374	79.06
415.597	71.06
415.821	95.06
416.044	74.06
416.267	78.06
416.49	90.06
416.713	90.06
416.936	80.06
417.159	83.06
417.382	72.06
417.605	74.06
417.828	92.06
418.051	82.06
418.274	92.06
418.497	92.06
418.72	90.06
418.943	82.06
419.166	91.06
419.389	89.06
419.611	88.06
419.834	88.06
420.057	96.06
420.28	83.06
420.503	88.06
420.726	94.06
420.948	80.06
421.171	85.06
421.394	82.06
421.617	85.06
421.839	90.06
422.062	88.06
422.285	83.06
422.507	100.06
422.73	97.06
422.953	87.06
423.175	85.06
423.398	94.06
423.621	78.06
423.843	99.06
424.066	104.06
424.288	98.06
424.511	89.06
424.733	75.06
424.956	100.06
425.178	84.06
425.401	91.06
425.623	96.06
425.846	79.06
426.068	94.06
426.291	100.06
426.513	90.06
426.735	82.06
426.958	95.06
427.18	101.06
427.402	126.06
427.625	148.06
427.847	104.06
428.069	101.06
428.292	92.06
428.514	95.06
428.736	92.06
428.958	92.06
429.181	91.06
429.403	86.06
429.625	71.06
429.847	91.06
430.069	89.06
430.292	82.06
430.514	75.06
430.736	83.06
430.958	100.06
431.18	80.06
431.402	76.06
431.624	87.06
431.846	95.06
432.068	74.06
432.29	84.06
432.512	92.06
432.734	82.06
432.956	82.06
433.178	99.06
433.4	97.06
433.622	96.06
433.844	75.06
434.066	88.06
434.287	90.06
434.509	84.06
434.731	91.06
434.953	96.06
435.175	93.06
435.397	80.06
435.618	100.06
435.84	95.06
436.062	105.06
436.284	107.06
436.505	101.06
436.727	95.06
436.949	86.06
437.17	82.06
437.392	80.06
437.614	90.06
437.835	96.06
438.057	97.06
438.278	117.06
438.5	107.06
438.721	111.06
438.943	108.06
439.165	93.06
439.386	88.06
439.608	83.06
439.829	91.06
440.05	114.06
440.272	126.06
440.493	97.06
440.715	90.06
440.936	95.06
441.158	90.06
441.379	76.06
441.6	97.06
441.822	80.06
442.043	92.06
442.264	90.06
442.486	75.06
442.707	93.06
442.928	87.06
443.149	134.06
443.371	128.06
443.592	107.06
443.813	92.06
444.034	91.06
444.255	90.06
444.476	98.06
444.698	86.06
444.919	89.06
445.14	118.06
445.361	119.06
445.582	98.06
445.803	134.06
446.024	114.06
446.245	124.06
446.466	92.06
446.687	98.06
446.908	92.06
447.129	85.06
447.35	89.06
447.571	93.06
447.792	93.06
448.013	97.06
448.234	88.06
448.455	100.06
448.675	84.06
448.896	98.06
449.117	90.06
449.338	95.06
449.559	122.06
449.779	138.06
450	97.06
450.221	97.06
450.442	88.06
450.662	84.06
450.883	91.06
451.104	108.06
451.324	92.06
451.545	86.06
451.766	80.06
451.986	83.06
452.207	94.06
452.428	73.06
452.648	83.06
452.869	88.06
453.089	101.06
453.31	123.06
453.53	96.06
453.751	100.06
453.971	117.06
454.192	100.06
454.412	89.06
454.633	94.06
454.853	68.06
455.073	83.06
455.294	82.06
455.514	95.06
455.734	79.06
455.955	84.06
456.175	91.06
456.395	82.06
456.616	90.06
456.836	95.06
457.056	83.06
457.276	86.06
457.497	87.06
457.717	97.06
457.937	100.06
458.157	94.06
458.377	92.06
458.598	100.06
458.818	139.06
459.038	139.06
459.258	124.06
459.478	86.06
459.698	86.06
459.918	85.06
460.138	94.06
460.358	75.06
460.578	88.06
460.798	80.06
461.018	76.06
461.238	88.06
461.458	94.06
461.678	79.06
461.898	86.06
462.118	75.06
462.338	84.06
462.558	109.06
462.777	108.06
462.997	76.06
463.217	84.06
463.437	87.06
463.657	73.06
463.876	96.06
464.096	94.06
464.316	88.06
464.536	99.06
464.755	103.06
464.975	101.06
465.195	160.06
465.414	150.06
465.634	78.06
465.854	95.06
466.073	93.06
466.293	78.06
466.512	87.06
466.732	74.06
466.951	90.06
467.171	99.06
467.391	87.06
467.61	105.06
467.829	103.06
468.049	106.06
468.268	75.06
468.488	90.06
468.707	92.06
468.927	73.06
469.146	88.06
469.365	87.06
469.585	92.06
469.804	99.06
470.023	110.06
470.243	82.06
470.462	94.06
470.681	100.06
470.901	97.06
471.12	89.06
471.339	97.06
471.558	98.06
471.777	92.06
471.997	87.06
472.216	97.06
472.435	120.06
472.654	90.06
472.873	104.06
473.092	88.06
473.311	92.06
473.53	99.06
473.749	87.06
473.968	95.06
474.187	99.06
474.406	94.06
474.625	91.06
474.844	90.06
475.063	82.06
475.282	98.06
475.501	88.06
475.72	84.06
475.939	85.06
476.158	78.06
476.377	81.06
476.596	80.06
476.814	91.06
477.033	98.06
477.252	91.06
477.471	76.06
477.69	90.06
477.908	83.06
478.127	89.06
478.346	72.06
478.564	93.06
478.783	90.06
479.002	99.06
479.22	100.06
479.439	96.06
479.658	87.06
479.876	94.06
480.095	74.06
480.313	84.06
480.532	86.06
480.751	106.06
480.969	99.06
481.188	149.06
481.406	112.06
481.624	78.06
481.843	68.06
482.061	88.06
482.28	84.06
482.498	77.06
482.717	85.06
482.935	91.06
483.153	86.06
483.372	82.06
483.59	83.06
483.808	73.06
484.027	99.06
484.245	76.06
484.463	89.06
484.681	87.06
484.9	89.06
485.118	80.06
485.336	99.06
485.554	99.06
485.772	106.06
485.99	102.06
486.209	110.06
486.427	90.06
486.645	109.06
486.863	116.06
487.081	101.06
487.299	89.06
487.517	90.06
487.735	79.06
487.953	94.06
488.171	95.06
488.389	96.06
488.607	111.06
488.825	99.06
489.043	80.06
489.261	95.06
489.479	81.06
489.696	78.06
489.914	94.06
490.132	89.06
490.35	91.06
490.568	91.06
490.786	89.06
491.003	78.06
491.221	92.06
491.439	95.06
491.657	82.06
491.874	100.06
492.092	99.06
492.31	91.06
492.527	89.06
492.745	102.06
492.963	72.06
493.18	98.06
493.398	102.06
493.615	95.06
493.833	102.06
494.05	88.06
494.268	99.06
494.485	92.06
494.703	85.06
494.92	91.06
495.138	98.06
495.355	86.06
495.573	81.06
495.79	96.06
496.008	95.06
496.225	93.06
496.442	87.06
496.66	96.06
496.877	81.06
497.094	91.06
497.312	89.06
497.529	92.06
497.746	92.06
497.963	92.06
498.181	98.06
498.398	100.06
498.615	99.06
498.832	100.06
499.049	79.06
499.267	81.06
499.484	89.06
499.701	84.06
499.918	88.06
500.135	94.06
500.352	95.06
500.569	97.06
500.786	88.06
501.003	92.06
501.22	94.06
501.437	84.06
501.654	107.06
501.871	97.06
502.088	88.06
502.305	93.06
502.522	79.06
502.739	95.06
502.956	100.06
503.172	96.06
503.389	80.06
503.606	102.06
503.823	110.06
504.04	98.06
504.256	89.06
504.473	80.06
504.69	84.06
504.907	89.06
505.123	90.06
505.34	84.06
505.557	80.06
505.773	88.06
505.99	98.06
506.207	97.06
506.423	86.06
506.64	86.06
506.856	97.06
507.073	83.06
507.289	88.06
507.506	98.06
507.722	95.06
507.939	94.06
508.155	106.06
508.372	94.06
508.588	90.06
508.805	84.06
509.021	100.06
509.238	101.06
509.454	96.06
509.67	97.06
509.887	103.06
510.103	117.06
510.319	190.06
510.536	642.06
510.752	2056.06
510.968	562.06
511.184	127.06
511.401	112.06
511.617	114.06
511.833	90.06
512.049	103.06
512.265	82.06
512.481	86.06
512.698	75.06
512.914	84.06
513.13	72.06
513.346	96.06
513.562	94.06
513.778	101.06
513.994	87.06
514.21	99.06
514.426	109.06
514.642	117.06
514.858	112.06
515.074	142.06
515.29	371.06
515.506	1182.06
515.721	442.06
515.937	135.06
516.153	110.06
516.369	87.06
516.585	96.06
