Data from Uncirc_1985_H10_HRD10591_00008.txt Node
Date: Wed Jan 03 12:18:19 EST 2024
User: Yrep
Spectrometer: HR+D1059
Trigger mode: 1
Integration Time (sec): 1.000000E-1
Scans to average: 1
Electric dark correction enabled: true
Nonlinearity correction enabled: false
Boxcar width: 0
XAxis mode: Wavelengths
Number of Pixels in Spectrum: 2048
>>>>>Begin Spectral Data<<<<<
223.165	-11.31
223.4	-11.31
223.635	-11.31
223.869	-20.31
224.104	-22.31
224.338	-13.31
224.573	-23.31
224.808	-13.31
225.042	-7.31
225.277	-5.31
225.511	-4.31
225.746	3.69
225.98	10.69
226.215	3.69
226.449	23.69
226.683	29.69
226.918	19.69
227.152	29.69
227.387	38.69
227.621	22.69
227.856	45.69
228.09	53.69
228.324	36.69
228.559	60.69
228.793	61.69
229.027	59.69
229.262	67.69
229.496	74.69
229.73	74.69
229.964	93.69
230.199	78.69
230.433	80.69
230.667	97.69
230.901	84.69
231.136	80.69
231.37	79.69
231.604	73.69
231.838	77.69
232.072	89.69
232.306	84.69
232.541	74.69
232.775	84.69
233.009	84.69
233.243	77.69
233.477	83.69
233.711	87.69
233.945	73.69
234.179	78.69
234.413	68.69
234.647	89.69
234.881	68.69
235.115	90.69
235.349	92.69
235.583	87.69
235.817	82.69
236.051	90.69
236.285	77.69
236.519	79.69
236.753	79.69
236.987	92.69
237.221	94.69
237.455	82.69
237.689	87.69
237.922	86.69
238.156	79.69
238.39	80.69
238.624	84.69
238.858	80.69
239.091	74.69
239.325	84.69
239.559	84.69
239.793	77.69
240.027	73.69
240.26	76.69
240.494	73.69
240.728	88.69
240.961	89.69
241.195	73.69
241.429	88.69
241.662	90.69
241.896	88.69
242.13	79.69
242.363	69.69
242.597	74.69
242.83	80.69
243.064	74.69
243.298	94.69
243.531	69.69
243.765	77.69
243.998	74.69
244.232	66.69
244.465	91.69
244.699	84.69
244.932	73.69
245.166	85.69
245.399	76.69
245.633	70.69
245.866	98.69
246.099	92.69
246.333	85.69
246.566	87.69
246.8	89.69
247.033	74.69
247.266	94.69
247.5	86.69
247.733	85.69
247.966	79.69
248.2	93.69
248.433	90.69
248.666	72.69
248.899	76.69
249.133	93.69
249.366	94.69
249.599	93.69
249.832	95.69
250.066	92.69
250.299	88.69
250.532	94.69
250.765	76.69
250.998	87.69
251.231	82.69
251.465	78.69
251.698	69.69
251.931	75.69
252.164	82.69
252.397	78.69
252.63	91.69
252.863	71.69
253.096	84.69
253.329	87.69
253.562	89.69
253.795	108.69
254.028	87.69
254.261	86.69
254.494	90.69
254.727	78.69
254.96	90.69
255.193	91.69
255.426	88.69
255.659	89.69
255.892	84.69
256.124	79.69
256.357	84.69
256.59	88.69
256.823	84.69
257.056	83.69
257.289	90.69
257.521	73.69
257.754	83.69
257.987	88.69
258.22	99.69
258.452	89.69
258.685	74.69
258.918	86.69
259.151	70.69
259.383	79.69
259.616	77.69
259.849	85.69
260.081	80.69
260.314	91.69
260.547	86.69
260.779	83.69
261.012	77.69
261.244	86.69
261.477	91.69
261.71	90.69
261.942	106.69
262.175	93.69
262.407	88.69
262.64	76.69
262.872	82.69
263.105	71.69
263.337	94.69
263.57	80.69
263.802	86.69
264.035	95.69
264.267	75.69
264.499	90.69
264.732	99.69
264.964	77.69
265.197	98.69
265.429	93.69
265.661	95.69
265.894	86.69
266.126	84.69
266.358	83.69
266.591	93.69
266.823	90.69
267.055	73.69
267.287	82.69
267.52	108.69
267.752	78.69
267.984	84.69
268.216	92.69
268.448	88.69
268.681	88.69
268.913	107.69
269.145	92.69
269.377	94.69
269.609	101.69
269.841	99.69
270.073	91.69
270.306	90.69
270.538	83.69
270.77	80.69
271.002	80.69
271.234	84.69
271.466	91.69
271.698	74.69
271.93	82.69
272.162	93.69
272.394	92.69
272.626	91.69
272.858	89.69
273.09	91.69
273.322	86.69
273.553	77.69
273.785	79.69
274.017	89.69
274.249	88.69
274.481	84.69
274.713	90.69
274.945	79.69
275.176	98.69
275.408	90.69
275.64	91.69
275.872	86.69
276.104	95.69
276.335	109.69
276.567	100.69
276.799	95.69
277.031	95.69
277.262	91.69
277.494	100.69
277.726	94.69
277.957	89.69
278.189	99.69
278.421	94.69
278.652	95.69
278.884	79.69
279.115	91.69
279.347	88.69
279.579	83.69
279.81	94.69
280.042	78.69
280.273	94.69
280.505	100.69
280.736	68.69
280.968	92.69
281.199	79.69
281.431	88.69
281.662	91.69
281.894	87.69
282.125	99.69
282.356	112.69
282.588	135.69
282.819	111.69
283.051	89.69
283.282	84.69
283.513	101.69
283.745	99.69
283.976	98.69
284.207	82.69
284.439	86.69
284.67	86.69
284.901	104.69
285.132	90.69
285.364	104.69
285.595	100.69
285.826	85.69
286.057	86.69
286.288	94.69
286.52	94.69
286.751	82.69
286.982	90.69
287.213	94.69
287.444	106.69
287.675	99.69
287.906	93.69
288.138	72.69
288.369	91.69
288.6	94.69
288.831	89.69
289.062	85.69
289.293	91.69
289.524	85.69
289.755	85.69
289.986	90.69
290.217	85.69
290.448	82.69
290.679	85.69
290.91	93.69
291.141	89.69
291.371	93.69
291.602	95.69
291.833	100.69
292.064	91.69
292.295	80.69
292.526	88.69
292.757	88.69
292.987	94.69
293.218	86.69
293.449	75.69
293.68	83.69
293.91	90.69
294.141	98.69
294.372	106.69
294.603	101.69
294.833	96.69
295.064	88.69
295.295	94.69
295.525	106.69
295.756	108.69
295.987	99.69
296.217	117.69
296.448	103.69
296.679	92.69
296.909	104.69
297.14	100.69
297.37	89.69
297.601	93.69
297.831	95.69
298.062	96.69
298.292	95.69
298.523	97.69
298.753	91.69
298.984	79.69
299.214	86.69
299.445	96.69
299.675	98.69
299.905	94.69
300.136	101.69
300.366	90.69
300.597	76.69
300.827	90.69
301.057	108.69
301.288	107.69
301.518	84.69
301.748	93.69
301.979	103.69
302.209	87.69
302.439	93.69
302.669	107.69
302.9	95.69
303.13	99.69
303.36	82.69
303.59	94.69
303.82	102.69
304.051	78.69
304.281	102.69
304.511	99.69
304.741	99.69
304.971	102.69
305.201	83.69
305.431	85.69
305.661	90.69
305.891	88.69
306.121	98.69
306.352	108.69
306.582	113.69
306.812	98.69
307.042	94.69
307.272	95.69
307.502	92.69
307.731	78.69
307.961	94.69
308.191	98.69
308.421	96.69
308.651	109.69
308.881	95.69
309.111	82.69
309.341	85.69
309.571	107.69
309.8	88.69
310.03	99.69
310.26	98.69
310.49	87.69
310.72	92.69
310.949	110.69
311.179	99.69
311.409	105.69
311.639	102.69
311.868	112.69
312.098	95.69
312.328	100.69
312.557	104.69
312.787	108.69
313.017	112.69
313.246	96.69
313.476	95.69
313.706	84.69
313.935	101.69
314.165	93.69
314.394	101.69
314.624	81.69
314.853	110.69
315.083	90.69
315.312	87.69
315.542	92.69
315.771	109.69
316.001	99.69
316.23	88.69
316.46	98.69
316.689	86.69
316.919	93.69
317.148	87.69
317.377	98.69
317.607	97.69
317.836	104.69
318.065	102.69
318.295	92.69
318.524	95.69
318.753	94.69
318.983	98.69
319.212	99.69
319.441	110.69
319.67	104.69
319.9	102.69
320.129	106.69
320.358	98.69
320.587	93.69
320.816	101.69
321.046	113.69
321.275	103.69
321.504	105.69
321.733	96.69
321.962	105.69
322.191	90.69
322.42	105.69
322.649	111.69
322.878	127.69
323.108	114.69
323.337	114.69
323.566	139.69
323.795	148.69
324.024	196.69
324.253	362.69
324.482	770.69
324.71	1559.69
324.939	2102.69
325.168	766.69
325.397	228.69
325.626	154.69
325.855	126.69
326.084	114.69
326.313	130.69
326.542	146.69
326.77	227.69
326.999	424.69
327.228	869.69
327.457	1582.69
327.686	1250.69
327.914	356.69
328.143	173.69
328.372	139.69
328.6	132.69
328.829	117.69
329.058	129.69
329.287	128.69
329.515	107.69
329.744	106.69
329.972	117.69
330.201	98.69
330.43	101.69
330.658	122.69
330.887	118.69
331.115	110.69
331.344	107.69
331.572	98.69
331.801	93.69
332.03	107.69
332.258	90.69
332.486	111.69
332.715	105.69
332.943	87.69
333.172	117.69
333.4	96.69
333.629	95.69
333.857	95.69
334.085	107.69
334.314	101.69
334.542	107.69
334.771	103.69
334.999	110.69
335.227	108.69
335.455	102.69
335.684	106.69
335.912	103.69
336.14	86.69
336.369	102.69
336.597	97.69
336.825	100.69
337.053	103.69
337.281	97.69
337.51	85.69
337.738	99.69
337.966	83.69
338.194	84.69
338.422	92.69
338.65	98.69
338.878	93.69
339.106	90.69
339.334	99.69
339.562	74.69
339.79	82.69
340.018	90.69
340.246	90.69
340.474	103.69
340.702	101.69
340.93	99.69
341.158	96.69
341.386	94.69
341.614	111.69
341.842	90.69
342.07	91.69
342.298	98.69
342.526	101.69
342.754	95.69
342.981	95.69
343.209	93.69
343.437	106.69
343.665	88.69
343.893	107.69
344.12	94.69
344.348	84.69
344.576	99.69
344.804	91.69
345.031	112.69
345.259	109.69
345.487	93.69
345.714	98.69
345.942	98.69
346.17	100.69
346.397	96.69
346.625	79.69
346.853	93.69
347.08	108.69
347.308	108.69
347.535	104.69
347.763	88.69
347.99	91.69
348.218	99.69
348.445	95.69
348.673	98.69
348.9	96.69
349.128	99.69
349.355	94.69
349.583	95.69
349.81	114.69
350.037	109.69
350.265	119.69
350.492	96.69
350.72	87.69
350.947	109.69
351.174	105.69
351.402	120.69
351.629	104.69
351.856	90.69
352.083	98.69
352.311	102.69
352.538	102.69
352.765	107.69
352.992	117.69
353.22	107.69
353.447	110.69
353.674	111.69
353.901	104.69
354.128	88.69
354.355	115.69
354.583	113.69
354.81	107.69
355.037	92.69
355.264	107.69
355.491	108.69
355.718	108.69
355.945	96.69
356.172	87.69
356.399	102.69
356.626	102.69
356.853	101.69
357.08	112.69
357.307	93.69
357.534	100.69
357.761	93.69
357.988	98.69
358.215	98.69
358.441	95.69
358.668	95.69
358.895	99.69
359.122	85.69
359.349	88.69
359.576	95.69
359.802	98.69
360.029	120.69
360.256	112.69
360.483	104.69
360.709	93.69
360.936	110.69
361.163	98.69
361.39	101.69
361.616	94.69
361.843	111.69
362.07	111.69
362.296	113.69
362.523	92.69
362.749	95.69
362.976	92.69
363.203	98.69
363.429	86.69
363.656	106.69
363.882	106.69
364.109	90.69
364.335	101.69
364.562	79.69
364.788	102.69
365.015	98.69
365.241	105.69
365.468	107.69
365.694	99.69
365.92	87.69
366.147	88.69
366.373	96.69
366.599	99.69
366.826	88.69
367.052	106.69
367.278	93.69
367.505	98.69
367.731	90.69
367.957	91.69
368.184	105.69
368.41	105.69
368.636	107.69
368.862	119.69
369.089	107.69
369.315	93.69
369.541	90.69
369.767	100.69
369.993	108.69
370.219	94.69
370.445	93.69
370.672	100.69
370.898	98.69
371.124	91.69
371.35	92.69
371.576	97.69
371.802	92.69
372.028	84.69
372.254	100.69
372.48	95.69
372.706	86.69
372.932	91.69
373.158	90.69
373.384	99.69
373.61	112.69
373.835	96.69
374.061	79.69
374.287	93.69
374.513	98.69
374.739	102.69
374.965	102.69
375.191	103.69
375.416	97.69
375.642	101.69
375.868	84.69
376.094	91.69
376.319	104.69
376.545	88.69
376.771	74.69
376.997	90.69
377.222	92.69
377.448	91.69
377.674	93.69
377.899	92.69
378.125	91.69
378.35	89.69
378.576	110.69
378.802	96.69
379.027	102.69
379.253	105.69
379.478	104.69
379.704	74.69
379.929	94.69
380.155	90.69
380.38	106.69
380.606	101.69
380.831	96.69
381.057	102.69
381.282	98.69
381.507	82.69
381.733	84.69
381.958	109.69
382.184	112.69
382.409	96.69
382.634	104.69
382.86	111.69
383.085	108.69
383.31	116.69
383.535	101.69
383.761	106.69
383.986	122.69
384.211	96.69
384.436	99.69
384.662	104.69
384.887	101.69
385.112	112.69
385.337	111.69
385.562	101.69
385.787	112.69
386.013	117.69
386.238	114.69
386.463	110.69
386.688	115.69
386.913	105.69
387.138	115.69
387.363	109.69
387.588	110.69
387.813	101.69
388.038	97.69
388.263	114.69
388.488	126.69
388.713	117.69
388.938	88.69
389.163	94.69
389.387	95.69
389.612	88.69
389.837	96.69
390.062	118.69
390.287	87.69
390.512	91.69
390.736	101.69
390.961	110.69
391.186	103.69
391.411	92.69
391.636	99.69
391.86	104.69
392.085	102.69
392.31	85.69
392.534	91.69
392.759	87.69
392.984	101.69
393.208	85.69
393.433	96.69
393.658	102.69
393.882	92.69
394.107	93.69
394.331	93.69
394.556	85.69
394.78	88.69
395.005	93.69
395.229	102.69
395.454	88.69
395.678	80.69
395.903	92.69
396.127	94.69
396.352	90.69
396.576	83.69
396.801	100.69
397.025	99.69
397.249	87.69
397.474	77.69
397.698	82.69
397.922	89.69
398.147	90.69
398.371	86.69
398.595	79.69
398.82	106.69
399.044	96.69
399.268	106.69
399.492	85.69
399.717	98.69
399.941	88.69
400.165	107.69
400.389	86.69
400.613	94.69
400.837	84.69
401.062	87.69
401.286	86.69
401.51	95.69
401.734	101.69
401.958	94.69
402.182	123.69
402.406	143.69
402.63	108.69
402.854	96.69
403.078	100.69
403.302	91.69
403.526	86.69
403.75	107.69
403.974	94.69
404.198	92.69
404.422	92.69
404.645	87.69
404.869	93.69
405.093	100.69
405.317	99.69
405.541	98.69
405.765	108.69
405.988	108.69
406.212	167.69
406.436	193.69
406.66	126.69
406.883	104.69
407.107	95.69
407.331	92.69
407.555	105.69
407.778	106.69
408.002	85.69
408.226	84.69
408.449	92.69
408.673	87.69
408.896	86.69
409.12	102.69
409.344	97.69
409.567	88.69
409.791	91.69
410.014	86.69
410.238	104.69
410.461	93.69
410.685	111.69
410.908	99.69
411.132	89.69
411.355	101.69
411.578	103.69
411.802	102.69
412.025	95.69
412.249	104.69
412.472	92.69
412.695	124.69
412.919	94.69
413.142	96.69
413.365	103.69
413.589	83.69
413.812	85.69
414.035	94.69
414.258	103.69
414.482	96.69
414.705	93.69
414.928	100.69
415.151	100.69
415.374	111.69
415.597	88.69
415.821	95.69
416.044	99.69
416.267	106.69
416.49	91.69
416.713	91.69
416.936	91.69
417.159	97.69
417.382	89.69
417.605	79.69
417.828	99.69
418.051	107.69
418.274	98.69
418.497	92.69
418.72	112.69
418.943	96.69
419.166	91.69
419.389	102.69
419.611	88.69
419.834	94.69
420.057	86.69
420.28	78.69
420.503	93.69
420.726	86.69
420.948	94.69
421.171	90.69
421.394	82.69
421.617	89.69
421.839	98.69
422.062	105.69
422.285	101.69
422.507	96.69
422.73	115.69
422.953	92.69
423.175	88.69
423.398	95.69
423.621	98.69
423.843	94.69
424.066	92.69
424.288	101.69
424.511	98.69
424.733	97.69
424.956	92.69
425.178	86.69
425.401	86.69
425.623	106.69
425.846	92.69
426.068	98.69
426.291	87.69
426.513	87.69
426.735	94.69
426.958	97.69
427.18	96.69
427.402	130.69
427.625	142.69
427.847	119.69
428.069	98.69
428.292	87.69
428.514	109.69
428.736	90.69
428.958	92.69
429.181	80.69
429.403	88.69
429.625	76.69
429.847	93.69
430.069	102.69
430.292	106.69
430.514	95.69
430.736	96.69
430.958	91.69
431.18	86.69
431.402	82.69
431.624	98.69
431.846	89.69
432.068	92.69
432.29	85.69
432.512	81.69
432.734	90.69
432.956	94.69
433.178	93.69
433.4	99.69
433.622	89.69
433.844	91.69
434.066	100.69
434.287	108.69
434.509	88.69
434.731	107.69
434.953	90.69
435.175	98.69
435.397	76.69
435.618	82.69
435.84	100.69
436.062	134.69
436.284	117.69
436.505	103.69
436.727	105.69
436.949	102.69
437.17	95.69
437.392	93.69
437.614	98.69
437.835	106.69
438.057	122.69
438.278	106.69
438.5	104.69
438.721	109.69
438.943	100.69
439.165	92.69
439.386	93.69
439.608	97.69
439.829	96.69
440.05	119.69
440.272	125.69
440.493	91.69
440.715	99.69
440.936	103.69
441.158	100.69
441.379	86.69
441.6	80.69
441.822	88.69
442.043	78.69
442.264	105.69
442.486	109.69
442.707	93.69
442.928	96.69
443.149	120.69
443.371	116.69
443.592	116.69
443.813	113.69
444.034	107.69
444.255	102.69
444.476	88.69
444.698	73.69
444.919	94.69
445.14	134.69
445.361	131.69
445.582	120.69
445.803	128.69
446.024	133.69
446.245	126.69
446.466	116.69
446.687	83.69
446.908	94.69
447.129	90.69
447.35	101.69
447.571	90.69
447.792	105.69
448.013	99.69
448.234	112.69
448.455	104.69
448.675	105.69
448.896	102.69
449.117	94.69
449.338	103.69
449.559	111.69
449.779	116.69
450	81.69
450.221	89.69
450.442	87.69
450.662	95.69
450.883	101.69
451.104	119.69
451.324	91.69
451.545	93.69
451.766	96.69
451.986	87.69
452.207	86.69
452.428	91.69
452.648	100.69
452.869	109.69
453.089	104.69
453.31	114.69
453.53	83.69
453.751	95.69
453.971	101.69
454.192	108.69
454.412	114.69
454.633	90.69
454.853	104.69
455.073	78.69
455.294	91.69
455.514	87.69
455.734	102.69
455.955	91.69
456.175	92.69
456.395	92.69
456.616	91.69
456.836	89.69
457.056	93.69
457.276	89.69
457.497	90.69
457.717	87.69
457.937	104.69
458.157	92.69
458.377	83.69
458.598	117.69
458.818	121.69
459.038	148.69
459.258	108.69
459.478	105.69
459.698	79.69
459.918	89.69
460.138	88.69
460.358	83.69
460.578	91.69
460.798	102.69
461.018	110.69
461.238	95.69
461.458	84.69
461.678	91.69
461.898	90.69
462.118	85.69
462.338	93.69
462.558	95.69
462.777	99.69
462.997	81.69
463.217	95.69
463.437	87.69
463.657	88.69
463.876	97.69
464.096	79.69
464.316	99.69
464.536	84.69
464.755	93.69
464.975	122.69
465.195	155.69
465.414	127.69
465.634	104.69
465.854	104.69
466.073	79.69
466.293	99.69
466.512	93.69
466.732	84.69
466.951	96.69
467.171	92.69
467.391	98.69
467.61	100.69
467.829	82.69
468.049	91.69
468.268	88.69
468.488	96.69
468.707	85.69
468.927	90.69
469.146	82.69
469.365	99.69
469.585	92.69
469.804	99.69
470.023	91.69
470.243	88.69
470.462	90.69
470.681	99.69
470.901	97.69
471.12	94.69
471.339	92.69
471.558	94.69
471.777	79.69
471.997	86.69
472.216	91.69
472.435	116.69
472.654	82.69
472.873	93.69
473.092	92.69
473.311	87.69
473.53	88.69
473.749	83.69
473.968	92.69
474.187	99.69
474.406	94.69
474.625	98.69
474.844	91.69
475.063	95.69
475.282	88.69
475.501	83.69
475.72	83.69
475.939	82.69
476.158	88.69
476.377	90.69
476.596	90.69
476.814	79.69
477.033	90.69
477.252	98.69
477.471	102.69
477.69	83.69
477.908	89.69
478.127	88.69
478.346	101.69
478.564	96.69
478.783	92.69
479.002	102.69
479.22	87.69
479.439	114.69
479.658	96.69
479.876	88.69
480.095	93.69
480.313	94.69
480.532	105.69
480.751	99.69
480.969	99.69
481.188	113.69
481.406	108.69
481.624	95.69
481.843	99.69
482.061	91.69
482.28	91.69
482.498	92.69
482.717	84.69
482.935	98.69
483.153	103.69
483.372	88.69
483.59	95.69
483.808	91.69
484.027	86.69
484.245	94.69
484.463	92.69
484.681	90.69
484.9	92.69
485.118	100.69
485.336	88.69
485.554	113.69
485.772	93.69
485.99	82.69
486.209	108.69
486.427	108.69
486.645	115.69
486.863	117.69
487.081	95.69
487.299	86.69
487.517	101.69
487.735	94.69
487.953	92.69
488.171	94.69
488.389	109.69
488.607	100.69
488.825	98.69
489.043	92.69
489.261	86.69
489.479	93.69
489.696	94.69
489.914	97.69
490.132	87.69
490.35	95.69
490.568	100.69
490.786	103.69
491.003	85.69
491.221	83.69
491.439	93.69
491.657	85.69
491.874	83.69
492.092	87.69
492.31	73.69
492.527	83.69
492.745	92.69
492.963	106.69
493.18	83.69
493.398	109.69
493.615	106.69
493.833	110.69
494.05	104.69
494.268	101.69
494.485	98.69
494.703	87.69
494.92	92.69
495.138	76.69
495.355	92.69
495.573	100.69
495.79	98.69
496.008	98.69
496.225	99.69
496.442	94.69
496.66	97.69
496.877	82.69
497.094	92.69
497.312	89.69
497.529	103.69
497.746	90.69
497.963	104.69
498.181	101.69
498.398	102.69
498.615	101.69
498.832	106.69
499.049	89.69
499.267	91.69
499.484	96.69
499.701	88.69
499.918	93.69
500.135	100.69
500.352	81.69
500.569	86.69
500.786	88.69
501.003	92.69
501.22	72.69
501.437	95.69
501.654	84.69
501.871	96.69
502.088	110.69
502.305	104.69
502.522	100.69
502.739	96.69
502.956	78.69
503.172	93.69
503.389	106.69
503.606	112.69
503.823	99.69
504.04	87.69
504.256	101.69
504.473	98.69
504.69	106.69
504.907	94.69
505.123	92.69
505.34	88.69
505.557	99.69
505.773	105.69
505.99	100.69
506.207	91.69
506.423	94.69
506.64	91.69
506.856	90.69
507.073	99.69
507.289	97.69
507.506	89.69
507.722	105.69
507.939	124.69
508.155	102.69
508.372	90.69
508.588	81.69
508.805	92.69
509.021	89.69
509.238	100.69
509.454	94.69
509.67	109.69
509.887	113.69
510.103	120.69
510.319	192.69
510.536	674.69
510.752	1997.69
510.968	550.69
511.184	149.69
511.401	118.69
511.617	110.69
511.833	90.69
512.049	90.69
512.265	75.69
512.481	98.69
512.698	102.69
512.914	103.69
513.13	97.69
513.346	90.69
513.562	90.69
513.778	91.69
513.994	92.69
514.21	110.69
