Data from Uncirc_1985_H10_HRD10591_00056.txt Node
Date: Wed Jan 03 12:18:28 EST 2024
User: Yrep
Spectrometer: HR+D1059
Trigger mode: 1
Integration Time (sec): 1.000000E-1
Scans to average: 1
Electric dark correction enabled: true
Nonlinearity correction enabled: false
Boxcar width: 0
XAxis mode: Wavelengths
Number of Pixels in Spectrum: 2048
>>>>>Begin Spectral Data<<<<<
223.165	-7
223.4	-7
223.635	-7
223.869	-18
224.104	-42
224.338	-10
224.573	-20
224.808	-15
225.042	1
225.277	-12
225.511	-7
225.746	10
225.98	16
226.215	16
226.449	17
226.683	15
226.918	24
227.152	32
227.387	32
227.621	31
227.856	43
228.09	44
228.324	55
228.559	55
228.793	54
229.027	80
229.262	82
229.496	79
229.73	70
229.964	80
230.199	73
230.433	78
230.667	76
230.901	70
231.136	71
231.37	71
231.604	86
231.838	94
232.072	67
232.306	73
232.541	95
232.775	80
233.009	79
233.243	91
233.477	76
233.711	92
233.945	90
234.179	87
234.413	77
234.647	85
234.881	72
235.115	76
235.349	74
235.583	93
235.817	66
236.051	79
236.285	68
236.519	89
236.753	82
236.987	65
237.221	75
237.455	76
237.689	92
237.922	87
238.156	73
238.39	70
238.624	68
238.858	68
239.091	87
239.325	72
239.559	73
239.793	87
240.027	84
240.26	89
240.494	72
240.728	76
240.961	84
241.195	72
241.429	80
241.662	86
241.896	84
242.13	78
242.363	82
242.597	73
242.83	69
243.064	78
243.298	71
243.531	74
243.765	73
243.998	85
244.232	89
244.465	83
244.699	71
244.932	68
245.166	76
245.399	79
245.633	76
245.866	74
246.099	79
246.333	85
246.566	75
246.8	70
247.033	79
247.266	82
247.5	81
247.733	72
247.966	86
248.2	82
248.433	101
248.666	78
248.899	73
249.133	96
249.366	84
249.599	92
249.832	96
250.066	92
250.299	86
250.532	78
250.765	83
250.998	70
251.231	82
251.465	74
251.698	67
251.931	87
252.164	87
252.397	78
252.63	73
252.863	76
253.096	83
253.329	66
253.562	80
253.795	82
254.028	75
254.261	82
254.494	75
254.727	77
254.96	94
255.193	79
255.426	87
255.659	69
255.892	81
256.124	81
256.357	94
256.59	94
256.823	84
257.056	75
257.289	80
257.521	86
257.754	75
257.987	82
258.22	74
258.452	88
258.685	80
258.918	94
259.151	77
259.383	82
259.616	88
259.849	99
260.081	88
260.314	84
260.547	99
260.779	73
261.012	93
261.244	74
261.477	88
261.71	88
261.942	124
262.175	124
262.407	94
262.64	83
262.872	96
263.105	73
263.337	87
263.57	76
263.802	86
264.035	85
264.267	90
264.499	80
264.732	86
264.964	95
265.197	83
265.429	83
265.661	81
265.894	87
266.126	88
266.358	90
266.591	80
266.823	78
267.055	66
267.287	72
267.52	87
267.752	94
267.984	85
268.216	71
268.448	89
268.681	70
268.913	91
269.145	84
269.377	69
269.609	82
269.841	93
270.073	79
270.306	86
270.538	84
270.77	75
271.002	84
271.234	85
271.466	72
271.698	94
271.93	97
272.162	93
272.394	83
272.626	85
272.858	82
273.09	86
273.322	82
273.553	84
273.785	87
274.017	94
274.249	87
274.481	81
274.713	80
274.945	79
275.176	75
275.408	85
275.64	90
275.872	84
276.104	94
276.335	86
276.567	96
276.799	113
277.031	116
277.262	96
277.494	99
277.726	86
277.957	86
278.189	88
278.421	87
278.652	80
278.884	78
279.115	87
279.347	74
279.579	85
279.81	82
280.042	86
280.273	77
280.505	75
280.736	72
280.968	89
281.199	83
281.431	83
281.662	82
281.894	76
282.125	88
282.356	128
282.588	117
282.819	98
283.051	87
283.282	97
283.513	83
283.745	83
283.976	79
284.207	71
284.439	80
284.67	90
284.901	91
285.132	74
285.364	72
285.595	98
285.826	81
286.057	82
286.288	82
286.52	91
286.751	90
286.982	90
287.213	88
287.444	85
287.675	77
287.906	90
288.138	93
288.369	106
288.6	90
288.831	82
289.062	94
289.293	79
289.524	75
289.755	89
289.986	83
290.217	82
290.448	90
290.679	83
290.91	78
291.141	87
291.371	96
291.602	72
291.833	79
292.064	85
292.295	96
292.526	86
292.757	96
292.987	94
293.218	84
293.449	94
293.68	83
293.91	92
294.141	96
294.372	87
294.603	90
294.833	83
295.064	88
295.295	96
295.525	90
295.756	102
295.987	115
296.217	138
296.448	125
296.679	106
296.909	88
297.14	98
297.37	94
297.601	85
297.831	90
298.062	81
298.292	85
298.523	89
298.753	96
298.984	97
299.214	94
299.445	94
299.675	84
299.905	97
300.136	79
300.366	92
300.597	82
300.827	94
301.057	115
301.288	116
301.518	98
301.748	87
301.979	115
302.209	80
302.439	94
302.669	81
302.9	98
303.13	86
303.36	95
303.59	103
303.82	96
304.051	101
304.281	82
304.511	83
304.741	84
304.971	86
305.201	78
305.431	97
305.661	73
305.891	90
306.121	86
306.352	96
306.582	106
306.812	99
307.042	88
307.272	82
307.502	91
307.731	106
307.961	88
308.191	105
308.421	91
308.651	100
308.881	107
309.111	109
309.341	88
309.571	88
309.8	100
310.03	91
310.26	91
310.49	84
310.72	100
310.949	103
311.179	105
311.409	82
311.639	84
311.868	97
312.098	101
312.328	92
312.557	84
312.787	99
313.017	108
313.246	89
313.476	88
313.706	82
313.935	95
314.165	94
314.394	96
314.624	99
314.853	100
315.083	83
315.312	89
315.542	94
315.771	93
316.001	91
316.23	89
316.46	75
316.689	86
316.919	109
317.148	88
317.377	90
317.607	115
317.836	98
318.065	99
318.295	95
318.524	102
318.753	98
318.983	92
319.212	101
319.441	108
319.67	110
319.9	94
320.129	102
320.358	87
320.587	84
320.816	107
321.046	98
321.275	90
321.504	81
321.733	99
321.962	94
322.191	99
322.42	95
322.649	106
322.878	114
323.108	118
323.337	131
323.566	129
323.795	163
324.024	224
324.253	401
324.482	850
324.71	1726
324.939	2338
325.168	816
325.397	255
325.626	151
325.855	114
326.084	123
326.313	128
326.542	158
326.77	234
326.999	493
327.228	964
327.457	1787
327.686	1428
327.914	389
328.143	194
328.372	137
328.6	123
328.829	114
329.058	123
329.287	138
329.515	91
329.744	97
329.972	105
330.201	131
330.43	145
330.658	139
330.887	125
331.115	123
331.344	103
331.572	89
331.801	100
332.03	96
332.258	83
332.486	101
332.715	83
332.943	86
333.172	103
333.4	90
333.629	101
333.857	106
334.085	115
334.314	113
334.542	149
334.771	142
334.999	103
335.227	88
335.455	99
335.684	94
335.912	90
336.14	97
336.369	87
336.597	93
336.825	98
337.053	98
337.281	103
337.51	101
337.738	82
337.966	83
338.194	82
338.422	94
338.65	79
338.878	82
339.106	87
339.334	81
339.562	93
339.79	98
340.018	94
340.246	95
340.474	96
340.702	99
340.93	76
341.158	105
341.386	87
341.614	99
341.842	88
342.07	91
342.298	93
342.526	92
342.754	92
342.981	81
343.209	84
343.437	92
343.665	95
343.893	104
344.12	96
344.348	84
344.576	88
344.804	93
345.031	90
345.259	88
345.487	95
345.714	84
345.942	98
346.17	108
346.397	92
346.625	98
346.853	93
347.08	96
347.308	103
347.535	90
347.763	111
347.99	96
348.218	110
348.445	112
348.673	103
348.9	87
349.128	94
349.355	91
349.583	84
349.81	93
350.037	89
350.265	100
350.492	94
350.72	89
350.947	102
351.174	120
351.402	110
351.629	87
351.856	99
352.083	114
352.311	100
352.538	120
352.765	105
352.992	104
353.22	96
353.447	91
353.674	92
353.901	94
354.128	102
354.355	97
354.583	100
354.81	107
355.037	100
355.264	86
355.491	84
355.718	95
355.945	84
356.172	101
356.399	88
356.626	100
356.853	95
357.08	105
357.307	91
357.534	93
357.761	94
357.988	99
358.215	87
358.441	100
358.668	99
358.895	93
359.122	94
359.349	85
359.576	92
359.802	90
360.029	106
360.256	114
360.483	103
360.709	94
360.936	95
361.163	90
361.39	102
361.616	106
361.843	88
362.07	101
362.296	82
362.523	86
362.749	82
362.976	78
363.203	96
363.429	80
363.656	90
363.882	81
364.109	90
364.335	84
364.562	90
364.788	84
365.015	97
365.241	97
365.468	79
365.694	120
365.92	96
366.147	90
366.373	72
366.599	95
366.826	85
367.052	90
367.278	82
367.505	99
367.731	82
367.957	90
368.184	96
368.41	96
368.636	101
368.862	111
369.089	116
369.315	96
369.541	92
369.767	103
369.993	105
370.219	94
370.445	89
370.672	94
370.898	90
371.124	73
371.35	91
371.576	84
371.802	83
372.028	103
372.254	73
372.48	89
372.706	82
372.932	88
373.158	91
373.384	92
373.61	89
373.835	98
374.061	88
374.287	87
374.513	89
374.739	94
374.965	91
375.191	88
375.416	90
375.642	95
375.868	89
376.094	90
376.319	81
376.545	83
376.771	85
376.997	93
377.222	90
377.448	90
377.674	105
377.899	83
378.125	83
378.35	91
378.576	84
378.802	81
379.027	81
379.253	80
379.478	72
379.704	112
379.929	92
380.155	89
380.38	95
380.606	91
380.831	91
381.057	91
381.282	95
381.507	91
381.733	106
381.958	94
382.184	96
382.409	95
382.634	99
382.86	91
383.085	102
383.31	80
383.535	85
383.761	92
383.986	105
384.211	86
384.436	79
384.662	94
384.887	102
385.112	104
385.337	107
385.562	93
385.787	105
386.013	102
386.238	98
386.463	108
386.688	104
386.913	95
387.138	91
387.363	102
387.588	96
387.813	102
388.038	108
388.263	111
388.488	103
388.713	99
388.938	114
389.163	99
389.387	104
389.612	89
389.837	89
390.062	97
390.287	87
390.512	82
390.736	78
390.961	87
391.186	96
391.411	103
391.636	93
391.86	83
392.085	82
392.31	90
392.534	100
392.759	102
392.984	91
393.208	97
393.433	91
393.658	76
393.882	81
394.107	80
394.331	79
394.556	64
394.78	75
395.005	75
395.229	90
395.454	78
395.678	79
395.903	90
396.127	86
396.352	84
396.576	93
396.801	82
397.025	92
397.249	88
397.474	94
397.698	91
397.922	87
398.147	72
398.371	67
398.595	89
398.82	100
399.044	76
399.268	84
399.492	82
399.717	91
399.941	80
400.165	89
400.389	92
400.613	78
400.837	89
401.062	81
401.286	88
401.51	93
401.734	91
401.958	108
402.182	107
402.406	165
402.63	101
402.854	95
403.078	87
403.302	74
403.526	76
403.75	90
403.974	79
404.198	82
404.422	97
404.645	91
404.869	86
405.093	89
405.317	105
405.541	101
405.765	96
405.988	120
406.212	184
406.436	225
406.66	152
406.883	93
407.107	92
407.331	82
407.555	94
407.778	90
408.002	85
408.226	92
408.449	87
408.673	83
408.896	99
409.12	87
409.344	100
409.567	98
409.791	80
410.014	100
410.238	88
410.461	101
410.685	89
410.908	102
411.132	91
411.355	103
411.578	91
411.802	75
412.025	89
412.249	90
412.472	87
412.695	98
412.919	78
413.142	93
413.365	92
413.589	67
413.812	70
414.035	95
414.258	108
414.482	85
414.705	91
414.928	94
415.151	86
415.374	87
415.597	90
415.821	79
416.044	82
416.267	90
416.49	105
416.713	109
416.936	72
417.159	87
417.382	87
417.605	94
417.828	92
418.051	93
418.274	84
418.497	90
418.72	86
418.943	82
419.166	92
419.389	95
419.611	99
419.834	97
420.057	87
420.28	84
420.503	70
420.726	94
420.948	90
421.171	96
421.394	91
421.617	91
421.839	82
422.062	86
422.285	90
422.507	88
422.73	102
422.953	97
423.175	92
423.398	80
423.621	99
423.843	87
424.066	88
424.288	76
424.511	80
424.733	102
424.956	99
425.178	105
425.401	92
425.623	99
425.846	86
426.068	94
426.291	88
426.513	89
426.735	72
426.958	97
427.18	112
427.402	142
427.625	170
427.847	133
428.069	124
428.292	108
428.514	101
428.736	82
428.958	79
429.181	82
429.403	79
429.625	86
429.847	87
430.069	96
430.292	100
430.514	72
430.736	79
430.958	90
431.18	85
431.402	78
431.624	83
431.846	90
432.068	87
432.29	96
432.512	70
432.734	97
432.956	95
433.178	101
433.4	96
433.622	89
433.844	82
434.066	100
434.287	83
434.509	91
434.731	84
434.953	89
435.175	89
435.397	93
435.618	90
435.84	91
436.062	122
436.284	121
436.505	97
436.727	107
436.949	79
437.17	85
437.392	71
437.614	99
437.835	102
438.057	115
438.278	120
438.5	99
438.721	115
438.943	103
439.165	76
439.386	82
439.608	81
439.829	90
440.05	121
440.272	114
440.493	97
440.715	78
440.936	95
441.158	92
441.379	101
441.6	87
441.822	95
442.043	98
442.264	94
442.486	99
442.707	97
442.928	94
443.149	144
443.371	118
443.592	100
443.813	117
444.034	107
444.255	101
444.476	93
444.698	91
444.919	84
445.14	126
445.361	124
445.582	99
445.803	145
446.024	123
446.245	126
446.466	108
446.687	101
446.908	94
447.129	90
447.35	83
447.571	84
447.792	84
448.013	98
448.234	96
448.455	101
448.675	111
448.896	113
449.117	95
449.338	105
449.559	130
449.779	115
450	96
450.221	82
450.442	88
450.662	94
450.883	94
451.104	120
451.324	89
451.545	92
451.766	87
451.986	89
452.207	85
452.428	88
452.648	93
452.869	110
453.089	104
453.31	118
453.53	83
453.751	84
453.971	97
454.192	90
454.412	96
454.633	96
454.853	74
455.073	91
455.294	86
455.514	98
455.734	94
455.955	90
456.175	88
456.395	97
456.616	81
456.836	85
457.056	79
457.276	92
457.497	87
457.717	78
457.937	89
458.157	96
458.377	78
458.598	112
458.818	137
459.038	162
459.258	111
459.478	89
459.698	84
459.918	75
460.138	95
460.358	85
460.578	82
460.798	90
461.018	88
461.238	88
461.458	87
461.678	84
461.898	84
462.118	81
462.338	83
462.558	80
462.777	81
462.997	78
463.217	80
463.437	93
463.657	90
463.876	104
464.096	101
464.316	84
464.536	98
464.755	94
464.975	100
465.195	155
465.414	145
465.634	98
465.854	98
466.073	79
466.293	91
466.512	76
466.732	84
466.951	93
467.171	91
467.391	94
467.61	116
467.829	90
468.049	86
468.268	98
468.488	84
468.707	88
468.927	82
469.146	90
469.365	97
469.585	97
469.804	99
470.023	105
470.243	92
470.462	107
470.681	106
470.901	83
471.12	94
471.339	100
471.558	99
471.777	88
471.997	90
472.216	120
472.435	163
472.654	98
472.873	97
473.092	87
473.311	73
473.53	89
473.749	104
473.968	98
474.187	94
474.406	88
474.625	90
474.844	70
475.063	93
475.282	94
475.501	82
475.72	88
475.939	81
476.158	75
476.377	98
476.596	87
476.814	90
477.033	94
477.252	91
477.471	86
477.69	95
477.908	92
478.127	87
478.346	101
478.564	72
478.783	91
479.002	93
479.22	92
479.439	98
479.658	104
479.876	83
480.095	86
480.313	106
480.532	92
480.751	91
480.969	119
481.188	240
481.406	170
481.624	98
481.843	87
482.061	80
482.28	100
482.498	92
482.717	94
482.935	92
483.153	96
483.372	80
483.59	94
483.808	91
484.027	103
484.245	88
484.463	84
484.681	101
484.9	93
485.118	98
485.336	96
485.554	82
485.772	104
485.99	100
486.209	105
486.427	101
486.645	106
486.863	100
487.081	95
487.299	100
487.517	80
487.735	97
487.953	89
488.171	101
488.389	97
488.607	100
488.825	92
489.043	110
489.261	87
489.479	65
489.696	97
489.914	78
490.132	99
490.35	88
490.568	101
490.786	95
491.003	101
491.221	88
491.439	93
491.657	82
491.874	90
492.092	79
492.31	91
492.527	86
492.745	90
492.963	97
493.18	90
493.398	79
493.615	86
493.833	102
494.05	99
494.268	82
494.485	84
494.703	75
494.92	81
495.138	94
495.355	96
495.573	104
495.79	95
496.008	88
496.225	99
496.442	100
496.66	92
496.877	90
497.094	82
497.312	82
497.529	103
497.746	88
497.963	86
498.181	105
498.398	93
498.615	115
498.832	102
499.049	78
499.267	88
499.484	87
499.701	103
499.918	99
500.135	83
500.352	79
500.569	101
500.786	74
501.003	84
501.22	79
501.437	67
501.654	91
501.871	106
502.088	88
502.305	82
502.522	75
502.739	78
502.956	92
503.172	106
503.389	87
503.606	117
503.823	88
504.04	85
504.256	95
504.473	92
504.69	87
504.907	96
505.123	103
505.34	82
505.557	93
505.773	99
505.99	82
506.207	90
506.423	91
506.64	91
506.856	78
507.073	78
507.289	97
507.506	103
507.722	107
507.939	101
508.155	105
508.372	88
508.588	97
508.805	98
509.021	103
509.238	92
509.454	96
509.67	103
509.887	112
510.103	139
510.319	224
510.536	843
510.752	2592
510.968	688
511.184	166
511.401	109
511.617	108
511.833	96
512.049	86
512.265	81
512.481	90
512.698	92
512.914	95
513.13	91
513.346	99
513.562	107
513.778	99
513.994	99
514.21	100
514.426	115
514.642	132
514.858	120
515.074	166
515.29	482
515.506	1568
515.721	554
515.937	151
516.153	102
516.369	89
516.585	91
516.801	98
517.016	105
517.232	107
517.448	107
517.664	106
517.879	90
518.095	98
518.311	90
518.527	75
518.742	89
518.958	74
519.173	105
519.389	93
519.605	106
519.82	83
520.036	90
520.251	111
520.467	114
520.682	103
520.898	90
521.113	103
521.329	131
521.544	188
521.76	599
521.975	2618
522.19	1509
522.406	322
522.621	115
522.836	118
523.052	107
523.267	86
523.482	96
523.698	108
523.913	123
524.128	102
524.343	98
524.559	96
524.774	92
524.989	79
525.204	96
525.419	95
525.634	87
525.849	95
526.064	97
526.28	82
526.495	73
526.71	82
526.925	85
527.14	100
527.355	99
527.57	87
527.785	91
527.999	86
528.214	104
528.429	87
528.644	95
528.859	92
529.074	97
529.289	128
529.503	187
529.718	102
529.933	100
530.148	73
530.363	102
530.577	78
530.792	88
531.007	99
531.221	90
531.436	102
531.651	91
531.865	99
532.08	96
532.295	90
532.509	73
532.724	94
532.938	102
533.153	89
533.367	87
533.582	88
533.796	91
534.011	99
534.225	86
534.44	84
534.654	99
534.868	96
535.083	95
535.297	74
535.511	97
535.726	94
535.94	96
536.154	112
536.369	88
536.583	94
536.797	70
537.011	83
537.225	91
537.44	95
537.654	87
537.868	85
538.082	82
538.296	80
538.51	94
538.724	99
538.938	85
539.153	80
539.367	99
539.581	91
539.795	95
540.009	87
540.222	84
540.436	81
540.65	72
540.864	79
541.078	90
541.292	85
541.506	89
541.72	94
541.934	63
542.147	91
542.361	98
542.575	75
542.789	84
543.002	82
543.216	88
543.43	107
543.644	85
543.857	84
544.071	100
544.285	99
544.498	86
544.712	86
544.925	95
545.139	95
545.352	86
545.566	90
545.779	78
545.993	88
546.206	93
546.42	78
546.633	87
546.847	92
547.06	87
547.274	74
547.487	83
547.7	84
547.914	93
548.127	86
548.34	93
548.554	84
548.767	94
548.98	87
549.193	94
549.407	80
549.62	94
549.833	91
550.046	94
550.259	95
550.473	95
550.686	95
550.899	88
551.112	99
551.325	96
551.538	86
551.751	90
551.964	92
552.177	86
552.39	86
552.603	88
552.816	87
553.029	106
553.242	103
553.455	99
553.667	114
553.88	105
554.093	99
554.306	96
554.519	71
554.732	99
554.944	90
555.157	95
555.37	107
555.583	101
555.795	87
556.008	81
556.221	97
556.433	84
556.646	80
556.859	79
557.071	87
557.284	91
557.496	97
557.709	90
557.921	89
558.134	97
558.346	101
558.559	94
558.771	78
558.984	77
559.196	81
559.409	89
559.621	80
559.833	87
560.046	95
560.258	87
560.47	83
560.683	96
560.895	92
561.107	91
561.32	89
561.532	79
561.744	73
561.956	94
562.168	80
562.381	88
562.593	88
562.805	103
563.017	90
563.229	89
563.441	94
563.653	102
563.865	89
564.077	83
564.289	76
564.501	88
564.713	95
564.925	103
565.137	107
565.349	102
565.561	73
565.773	96
565.985	75
566.197	92
566.408	92
566.62	84
566.832	82
567.044	84
567.255	89
567.467	87
567.679	90
567.891	90
568.102	84
568.314	73
568.526	84
568.737	85
568.949	80
569.161	94
569.372	89
569.584	82
569.795	85
570.007	110
570.218	263
570.43	120
570.641	101
570.853	80
571.064	94
571.276	81
571.487	85
571.698	81
571.91	87
572.121	87
572.333	84
572.544	90
572.755	87
572.966	86
573.178	82
573.389	83
573.6	85
573.811	74
574.023	90
574.234	101
574.445	87
574.656	82
574.867	100
575.078	96
575.289	81
575.501	78
575.712	99
575.923	97
576.134	87
576.345	88
576.556	79
576.767	86
576.978	88
577.188	92
577.399	95
577.61	88
577.821	103
578.032	125
578.243	297
578.454	812
578.665	231
578.875	119
579.086	89
579.297	84
579.508	84
579.718	100
579.929	80
580.14	81
580.35	75
580.561	78
580.772	84
580.982	90
581.193	75
581.403	87
581.614	95
581.825	95
582.035	94
582.246	97
582.456	100
582.667	85
582.877	87
583.087	82
583.298	92
583.508	94
583.719	98
583.929	84
584.139	89
584.35	83
584.56	79
584.77	90
