Data from Uncirc_1985_H10_HRD10591_00085.txt Node
Date: Wed Jan 03 12:18:34 EST 2024
User: Yrep
Spectrometer: HR+D1059
Trigger mode: 1
Integration Time (sec): 1.000000E-1
Scans to average: 1
Electric dark correction enabled: true
Nonlinearity correction enabled: false
Boxcar width: 0
XAxis mode: Wavelengths
Number of Pixels in Spectrum: 2048
>>>>>Begin Spectral Data<<<<<
223.165	-17.06
223.4	-17.06
223.635	-17.06
223.869	-13.06
224.104	-22.06
224.338	-18.06
224.573	-20.06
224.808	0.94
225.042	2.94
225.277	-7.06
225.511	-2.06
225.746	-13.06
225.98	-2.06
226.215	17.94
226.449	25.94
226.683	7.94
226.918	22.94
227.152	35.94
227.387	26.94
227.621	33.94
227.856	43.94
228.09	56.94
228.324	52.94
228.559	58.94
228.793	53.94
229.027	61.94
229.262	64.94
229.496	84.94
229.73	88.94
229.964	71.94
230.199	79.94
230.433	90.94
230.667	87.94
230.901	79.94
231.136	84.94
231.37	82.94
231.604	91.94
231.838	70.94
232.072	92.94
232.306	79.94
232.541	85.94
232.775	90.94
233.009	74.94
233.243	78.94
233.477	64.94
233.711	86.94
233.945	91.94
234.179	81.94
234.413	89.94
234.647	91.94
234.881	66.94
235.115	85.94
235.349	71.94
235.583	79.94
235.817	67.94
236.051	83.94
236.285	77.94
236.519	85.94
236.753	61.94
236.987	80.94
237.221	87.94
237.455	91.94
237.689	92.94
237.922	82.94
238.156	68.94
238.39	85.94
238.624	92.94
238.858	82.94
239.091	87.94
239.325	81.94
239.559	89.94
239.793	92.94
240.027	84.94
240.26	86.94
240.494	69.94
240.728	71.94
240.961	80.94
241.195	73.94
241.429	69.94
241.662	79.94
241.896	83.94
242.13	72.94
242.363	70.94
242.597	68.94
242.83	79.94
243.064	81.94
243.298	72.94
243.531	85.94
243.765	81.94
243.998	82.94
244.232	82.94
244.465	76.94
244.699	87.94
244.932	85.94
245.166	76.94
245.399	83.94
245.633	86.94
245.866	88.94
246.099	68.94
246.333	71.94
246.566	80.94
246.8	69.94
247.033	73.94
247.266	90.94
247.5	79.94
247.733	79.94
247.966	82.94
248.2	63.94
248.433	73.94
248.666	84.94
248.899	76.94
249.133	66.94
249.366	101.94
249.599	96.94
249.832	76.94
250.066	85.94
250.299	85.94
250.532	88.94
250.765	87.94
250.998	65.94
251.231	86.94
251.465	82.94
251.698	75.94
251.931	83.94
252.164	85.94
252.397	93.94
252.63	72.94
252.863	55.94
253.096	83.94
253.329	83.94
253.562	70.94
253.795	86.94
254.028	90.94
254.261	87.94
254.494	77.94
254.727	76.94
254.96	73.94
255.193	79.94
255.426	72.94
255.659	79.94
255.892	69.94
256.124	91.94
256.357	74.94
256.59	81.94
256.823	79.94
257.056	79.94
257.289	82.94
257.521	81.94
257.754	97.94
257.987	98.94
258.22	100.94
258.452	86.94
258.685	79.94
258.918	86.94
259.151	83.94
259.383	67.94
259.616	88.94
259.849	74.94
260.081	75.94
260.314	75.94
260.547	96.94
260.779	87.94
261.012	85.94
261.244	80.94
261.477	81.94
261.71	86.94
261.942	113.94
262.175	116.94
262.407	91.94
262.64	85.94
262.872	82.94
263.105	88.94
263.337	86.94
263.57	87.94
263.802	79.94
264.035	87.94
264.267	97.94
264.499	79.94
264.732	83.94
264.964	81.94
265.197	77.94
265.429	77.94
265.661	92.94
265.894	80.94
266.126	95.94
266.358	91.94
266.591	77.94
266.823	70.94
267.055	80.94
267.287	89.94
267.52	73.94
267.752	88.94
267.984	103.94
268.216	83.94
268.448	81.94
268.681	95.94
268.913	85.94
269.145	79.94
269.377	82.94
269.609	88.94
269.841	76.94
270.073	95.94
270.306	92.94
270.538	86.94
270.77	103.94
271.002	74.94
271.234	66.94
271.466	90.94
271.698	99.94
271.93	92.94
272.162	91.94
272.394	88.94
272.626	81.94
272.858	83.94
273.09	74.94
273.322	97.94
273.553	82.94
273.785	87.94
274.017	87.94
274.249	83.94
274.481	86.94
274.713	97.94
274.945	100.94
275.176	99.94
275.408	87.94
275.64	92.94
275.872	75.94
276.104	91.94
276.335	81.94
276.567	98.94
276.799	97.94
277.031	103.94
277.262	105.94
277.494	82.94
277.726	83.94
277.957	87.94
278.189	82.94
278.421	86.94
278.652	91.94
278.884	107.94
279.115	82.94
279.347	87.94
279.579	97.94
279.81	91.94
280.042	96.94
280.273	98.94
280.505	93.94
280.736	75.94
280.968	101.94
281.199	75.94
281.431	77.94
281.662	83.94
281.894	96.94
282.125	99.94
282.356	120.94
282.588	153.94
282.819	111.94
283.051	100.94
283.282	97.94
283.513	83.94
283.745	90.94
283.976	92.94
284.207	93.94
284.439	85.94
284.67	80.94
284.901	76.94
285.132	90.94
285.364	95.94
285.595	79.94
285.826	85.94
286.057	92.94
286.288	86.94
286.52	89.94
286.751	77.94
286.982	106.94
287.213	79.94
287.444	85.94
287.675	81.94
287.906	95.94
288.138	97.94
288.369	100.94
288.6	102.94
288.831	81.94
289.062	102.94
289.293	87.94
289.524	85.94
289.755	81.94
289.986	89.94
290.217	92.94
290.448	100.94
290.679	80.94
290.91	100.94
291.141	96.94
291.371	88.94
291.602	76.94
291.833	87.94
292.064	82.94
292.295	85.94
292.526	89.94
292.757	93.94
292.987	86.94
293.218	85.94
293.449	85.94
293.68	91.94
293.91	91.94
294.141	99.94
294.372	89.94
294.603	88.94
294.833	85.94
295.064	87.94
295.295	97.94
295.525	87.94
295.756	96.94
295.987	123.94
296.217	148.94
296.448	122.94
296.679	91.94
296.909	92.94
297.14	88.94
297.37	85.94
297.601	86.94
297.831	93.94
298.062	86.94
298.292	83.94
298.523	91.94
298.753	96.94
298.984	92.94
299.214	83.94
299.445	91.94
299.675	91.94
299.905	99.94
300.136	88.94
300.366	93.94
300.597	77.94
300.827	85.94
301.057	105.94
301.288	108.94
301.518	106.94
301.748	94.94
301.979	98.94
302.209	94.94
302.439	84.94
302.669	96.94
302.9	94.94
303.13	97.94
303.36	100.94
303.59	100.94
303.82	97.94
304.051	92.94
304.281	99.94
304.511	99.94
304.741	85.94
304.971	92.94
305.201	83.94
305.431	91.94
305.661	81.94
305.891	98.94
306.121	102.94
306.352	97.94
306.582	99.94
306.812	102.94
307.042	96.94
307.272	82.94
307.502	96.94
307.731	103.94
307.961	90.94
308.191	73.94
308.421	103.94
308.651	94.94
308.881	91.94
309.111	95.94
309.341	96.94
309.571	92.94
309.8	106.94
310.03	103.94
310.26	96.94
310.49	115.94
310.72	114.94
310.949	85.94
311.179	95.94
311.409	101.94
311.639	91.94
311.868	95.94
312.098	103.94
312.328	104.94
312.557	107.94
312.787	110.94
313.017	107.94
313.246	101.94
313.476	92.94
313.706	95.94
313.935	87.94
314.165	90.94
314.394	99.94
314.624	92.94
314.853	90.94
315.083	88.94
315.312	95.94
315.542	90.94
315.771	97.94
316.001	72.94
316.23	93.94
316.46	99.94
316.689	91.94
316.919	95.94
317.148	99.94
317.377	100.94
317.607	103.94
317.836	97.94
318.065	93.94
318.295	87.94
318.524	86.94
318.753	107.94
318.983	102.94
319.212	109.94
319.441	124.94
319.67	112.94
319.9	88.94
320.129	99.94
320.358	95.94
320.587	98.94
320.816	107.94
321.046	108.94
321.275	103.94
321.504	93.94
321.733	91.94
321.962	93.94
322.191	88.94
322.42	107.94
322.649	111.94
322.878	112.94
323.108	97.94
323.337	116.94
323.566	128.94
323.795	161.94
324.024	208.94
324.253	405.94
324.482	796.94
324.71	1698.94
324.939	2243.94
325.168	813.94
325.397	259.94
325.626	169.94
325.855	135.94
326.084	131.94
326.313	142.94
326.542	142.94
326.77	212.94
326.999	417.94
327.228	915.94
327.457	1703.94
327.686	1364.94
327.914	378.94
328.143	214.94
328.372	167.94
328.6	140.94
328.829	126.94
329.058	121.94
329.287	129.94
329.515	126.94
329.744	108.94
329.972	117.94
330.201	148.94
330.43	172.94
330.658	132.94
330.887	144.94
331.115	119.94
331.344	104.94
331.572	92.94
331.801	87.94
332.03	101.94
332.258	111.94
332.486	97.94
332.715	112.94
332.943	84.94
333.172	86.94
333.4	102.94
333.629	101.94
333.857	106.94
334.085	108.94
334.314	128.94
334.542	194.94
334.771	167.94
334.999	108.94
335.227	104.94
335.455	97.94
335.684	92.94
335.912	97.94
336.14	95.94
336.369	98.94
336.597	95.94
336.825	91.94
337.053	85.94
337.281	98.94
337.51	90.94
337.738	73.94
337.966	92.94
338.194	85.94
338.422	96.94
338.65	106.94
338.878	90.94
339.106	87.94
339.334	92.94
339.562	79.94
339.79	97.94
340.018	88.94
340.246	82.94
340.474	109.94
340.702	95.94
340.93	88.94
341.158	103.94
341.386	85.94
341.614	93.94
341.842	94.94
342.07	107.94
342.298	94.94
342.526	93.94
342.754	82.94
342.981	90.94
343.209	94.94
343.437	89.94
343.665	91.94
343.893	98.94
344.12	105.94
344.348	89.94
344.576	87.94
344.804	111.94
345.031	100.94
345.259	95.94
345.487	86.94
345.714	88.94
345.942	111.94
346.17	89.94
346.397	91.94
346.625	88.94
346.853	98.94
347.08	85.94
347.308	92.94
347.535	98.94
347.763	93.94
347.99	85.94
348.218	105.94
348.445	115.94
348.673	102.94
348.9	111.94
349.128	106.94
349.355	83.94
349.583	92.94
349.81	101.94
350.037	92.94
350.265	101.94
350.492	99.94
350.72	88.94
350.947	96.94
351.174	129.94
351.402	117.94
351.629	104.94
351.856	97.94
352.083	104.94
352.311	118.94
352.538	107.94
352.765	111.94
352.992	106.94
353.22	109.94
353.447	95.94
353.674	97.94
353.901	100.94
354.128	100.94
354.355	107.94
354.583	102.94
354.81	99.94
355.037	94.94
355.264	97.94
355.491	83.94
355.718	101.94
355.945	89.94
356.172	74.94
356.399	94.94
356.626	107.94
356.853	94.94
357.08	89.94
357.307	92.94
357.534	79.94
357.761	96.94
357.988	101.94
358.215	85.94
358.441	88.94
358.668	98.94
358.895	83.94
359.122	87.94
359.349	107.94
359.576	92.94
359.802	93.94
360.029	112.94
360.256	115.94
360.483	91.94
360.709	92.94
360.936	96.94
361.163	116.94
361.39	97.94
361.616	87.94
361.843	97.94
362.07	89.94
362.296	99.94
362.523	95.94
362.749	100.94
362.976	93.94
363.203	91.94
363.429	84.94
363.656	97.94
363.882	107.94
364.109	92.94
364.335	74.94
364.562	85.94
364.788	106.94
365.015	96.94
365.241	88.94
365.468	113.94
365.694	103.94
365.92	91.94
366.147	82.94
366.373	79.94
366.599	96.94
366.826	98.94
367.052	68.94
367.278	86.94
367.505	95.94
367.731	90.94
367.957	86.94
368.184	101.94
368.41	100.94
368.636	100.94
368.862	119.94
369.089	104.94
369.315	107.94
369.541	91.94
369.767	102.94
369.993	89.94
370.219	95.94
370.445	79.94
370.672	84.94
370.898	95.94
371.124	87.94
371.35	87.94
371.576	78.94
371.802	91.94
372.028	99.94
372.254	97.94
372.48	89.94
372.706	92.94
372.932	94.94
373.158	99.94
373.384	85.94
373.61	93.94
373.835	107.94
374.061	86.94
374.287	89.94
374.513	94.94
374.739	96.94
374.965	93.94
375.191	94.94
375.416	90.94
375.642	86.94
375.868	91.94
376.094	80.94
376.319	90.94
376.545	74.94
376.771	95.94
376.997	90.94
377.222	82.94
377.448	88.94
377.674	75.94
377.899	87.94
378.125	99.94
378.35	87.94
378.576	93.94
378.802	108.94
379.027	93.94
379.253	108.94
379.478	95.94
379.704	87.94
379.929	96.94
380.155	81.94
380.38	90.94
380.606	103.94
380.831	87.94
381.057	104.94
381.282	91.94
381.507	97.94
381.733	90.94
381.958	109.94
382.184	102.94
382.409	90.94
382.634	77.94
382.86	105.94
383.085	93.94
383.31	106.94
383.535	87.94
383.761	91.94
383.986	77.94
384.211	87.94
384.436	81.94
384.662	85.94
384.887	95.94
385.112	96.94
385.337	87.94
385.562	102.94
385.787	87.94
386.013	115.94
386.238	94.94
386.463	92.94
386.688	109.94
386.913	114.94
387.138	102.94
387.363	83.94
387.588	102.94
387.813	95.94
388.038	111.94
388.263	104.94
388.488	104.94
388.713	96.94
388.938	85.94
389.163	105.94
389.387	88.94
389.612	102.94
389.837	84.94
390.062	99.94
390.287	79.94
390.512	72.94
390.736	71.94
390.961	96.94
391.186	86.94
391.411	90.94
391.636	90.94
391.86	93.94
392.085	99.94
392.31	105.94
392.534	83.94
392.759	93.94
392.984	82.94
393.208	93.94
393.433	88.94
393.658	85.94
393.882	97.94
394.107	81.94
394.331	84.94
394.556	75.94
394.78	96.94
395.005	83.94
395.229	89.94
395.454	91.94
395.678	97.94
395.903	95.94
396.127	98.94
396.352	73.94
396.576	84.94
396.801	89.94
397.025	70.94
397.249	82.94
397.474	87.94
397.698	84.94
397.922	87.94
398.147	84.94
398.371	79.94
398.595	76.94
398.82	92.94
399.044	76.94
399.268	82.94
399.492	96.94
399.717	94.94
399.941	80.94
400.165	104.94
400.389	81.94
400.613	62.94
400.837	86.94
401.062	95.94
401.286	93.94
401.51	86.94
401.734	93.94
401.958	104.94
402.182	137.94
402.406	140.94
402.63	107.94
402.854	99.94
403.078	90.94
403.302	99.94
403.526	103.94
403.75	84.94
403.974	87.94
404.198	95.94
404.422	90.94
404.645	74.94
404.869	93.94
405.093	100.94
405.317	102.94
405.541	97.94
405.765	97.94
405.988	110.94
406.212	180.94
406.436	234.94
406.66	151.94
406.883	95.94
407.107	104.94
407.331	97.94
407.555	106.94
407.778	109.94
408.002	84.94
408.226	102.94
408.449	86.94
408.673	103.94
408.896	88.94
409.12	92.94
409.344	92.94
409.567	90.94
409.791	101.94
410.014	83.94
410.238	100.94
410.461	85.94
410.685	88.94
410.908	99.94
411.132	108.94
411.355	86.94
411.578	92.94
411.802	85.94
412.025	84.94
412.249	83.94
412.472	109.94
412.695	95.94
412.919	98.94
413.142	94.94
413.365	99.94
413.589	90.94
413.812	87.94
414.035	89.94
414.258	99.94
414.482	92.94
414.705	83.94
414.928	65.94
415.151	101.94
415.374	109.94
415.597	88.94
415.821	90.94
416.044	82.94
416.267	95.94
416.49	85.94
416.713	92.94
416.936	93.94
417.159	86.94
417.382	95.94
417.605	89.94
417.828	89.94
418.051	84.94
418.274	99.94
418.497	85.94
418.72	101.94
418.943	91.94
419.166	94.94
419.389	93.94
419.611	83.94
419.834	72.94
420.057	96.94
420.28	86.94
420.503	74.94
420.726	79.94
420.948	75.94
421.171	81.94
421.394	83.94
421.617	65.94
421.839	94.94
422.062	98.94
422.285	88.94
422.507	90.94
422.73	101.94
422.953	100.94
423.175	93.94
423.398	96.94
423.621	87.94
423.843	84.94
424.066	100.94
424.288	94.94
424.511	95.94
424.733	92.94
424.956	111.94
425.178	92.94
425.401	109.94
425.623	86.94
425.846	91.94
426.068	91.94
426.291	102.94
426.513	96.94
426.735	82.94
426.958	102.94
427.18	105.94
427.402	139.94
427.625	166.94
427.847	152.94
428.069	123.94
428.292	88.94
428.514	93.94
428.736	102.94
428.958	88.94
429.181	84.94
429.403	86.94
429.625	94.94
429.847	87.94
430.069	99.94
430.292	92.94
430.514	86.94
430.736	73.94
430.958	81.94
431.18	72.94
431.402	85.94
431.624	99.94
431.846	99.94
432.068	80.94
432.29	82.94
432.512	84.94
432.734	101.94
432.956	98.94
433.178	101.94
433.4	100.94
433.622	97.94
433.844	104.94
434.066	91.94
434.287	91.94
434.509	89.94
434.731	99.94
434.953	83.94
435.175	89.94
435.397	87.94
435.618	90.94
435.84	99.94
436.062	124.94
436.284	116.94
436.505	103.94
436.727	101.94
436.949	113.94
437.17	87.94
437.392	81.94
437.614	93.94
437.835	103.94
438.057	118.94
438.278	107.94
438.5	118.94
438.721	107.94
438.943	106.94
439.165	68.94
439.386	87.94
439.608	101.94
439.829	90.94
440.05	107.94
440.272	127.94
440.493	92.94
440.715	114.94
440.936	85.94
441.158	87.94
441.379	91.94
441.6	104.94
441.822	105.94
442.043	98.94
442.264	99.94
442.486	97.94
442.707	83.94
442.928	105.94
443.149	123.94
443.371	136.94
443.592	120.94
443.813	119.94
444.034	104.94
444.255	109.94
444.476	101.94
444.698	87.94
444.919	99.94
445.14	149.94
445.361	127.94
445.582	123.94
445.803	123.94
446.024	119.94
446.245	126.94
446.466	97.94
446.687	86.94
446.908	94.94
447.129	89.94
447.35	75.94
447.571	103.94
447.792	110.94
448.013	101.94
448.234	104.94
448.455	103.94
448.675	101.94
448.896	99.94
449.117	97.94
449.338	101.94
449.559	119.94
449.779	108.94
450	103.94
450.221	94.94
450.442	87.94
450.662	99.94
450.883	108.94
451.104	106.94
451.324	97.94
451.545	93.94
451.766	97.94
451.986	95.94
452.207	88.94
452.428	87.94
452.648	112.94
452.869	113.94
453.089	102.94
453.31	121.94
453.53	104.94
453.751	99.94
453.971	111.94
454.192	98.94
454.412	84.94
454.633	84.94
454.853	83.94
455.073	102.94
455.294	87.94
455.514	105.94
455.734	87.94
455.955	97.94
456.175	82.94
456.395	73.94
456.616	85.94
456.836	93.94
457.056	98.94
457.276	87.94
457.497	91.94
457.717	91.94
457.937	90.94
458.157	91.94
458.377	86.94
458.598	91.94
458.818	145.94
459.038	146.94
459.258	107.94
459.478	88.94
459.698	85.94
459.918	81.94
460.138	71.94
460.358	86.94
460.578	80.94
460.798	82.94
461.018	97.94
461.238	87.94
461.458	88.94
461.678	75.94
461.898	95.94
462.118	72.94
462.338	81.94
462.558	92.94
462.777	86.94
462.997	77.94
463.217	77.94
463.437	77.94
463.657	89.94
463.876	96.94
464.096	81.94
464.316	81.94
464.536	90.94
464.755	85.94
464.975	105.94
465.195	161.94
465.414	145.94
465.634	95.94
465.854	93.94
466.073	102.94
466.293	73.94
466.512	95.94
466.732	77.94
466.951	90.94
467.171	87.94
467.391	97.94
467.61	100.94
467.829	104.94
468.049	107.94
468.268	117.94
468.488	81.94
468.707	79.94
468.927	91.94
469.146	97.94
469.365	89.94
469.585	86.94
469.804	108.94
470.023	100.94
470.243	117.94
470.462	102.94
470.681	104.94
470.901	76.94
471.12	86.94
471.339	73.94
471.558	94.94
471.777	93.94
471.997	97.94
472.216	158.94
472.435	227.94
472.654	108.94
472.873	95.94
473.092	91.94
473.311	95.94
473.53	86.94
473.749	99.94
473.968	97.94
474.187	96.94
474.406	97.94
474.625	87.94
474.844	94.94
475.063	99.94
475.282	89.94
475.501	84.94
475.72	94.94
475.939	84.94
476.158	87.94
476.377	91.94
476.596	85.94
476.814	89.94
477.033	90.94
477.252	100.94
477.471	96.94
477.69	91.94
477.908	88.94
478.127	77.94
478.346	83.94
478.564	93.94
478.783	108.94
479.002	87.94
479.22	79.94
479.439	99.94
479.658	107.94
479.876	97.94
480.095	89.94
480.313	88.94
480.532	90.94
480.751	97.94
480.969	148.94
481.188	328.94
481.406	220.94
481.624	103.94
481.843	76.94
482.061	85.94
482.28	67.94
482.498	88.94
482.717	87.94
482.935	95.94
483.153	81.94
483.372	89.94
483.59	83.94
483.808	84.94
484.027	96.94
484.245	103.94
484.463	88.94
484.681	89.94
484.9	89.94
485.118	88.94
485.336	73.94
485.554	91.94
485.772	103.94
485.99	105.94
486.209	93.94
486.427	101.94
486.645	106.94
486.863	109.94
487.081	105.94
487.299	100.94
487.517	75.94
487.735	85.94
487.953	76.94
488.171	90.94
488.389	86.94
488.607	101.94
488.825	90.94
489.043	100.94
489.261	106.94
489.479	99.94
489.696	91.94
489.914	87.94
490.132	94.94
490.35	90.94
490.568	83.94
490.786	82.94
491.003	93.94
491.221	81.94
491.439	97.94
491.657	87.94
491.874	99.94
492.092	89.94
492.31	97.94
492.527	94.94
492.745	82.94
492.963	87.94
493.18	93.94
493.398	93.94
493.615	99.94
493.833	93.94
494.05	87.94
494.268	99.94
494.485	105.94
494.703	81.94
494.92	83.94
495.138	81.94
495.355	94.94
495.573	98.94
495.79	94.94
496.008	93.94
496.225	83.94
496.442	87.94
496.66	98.94
496.877	92.94
497.094	89.94
497.312	88.94
497.529	97.94
497.746	86.94
497.963	99.94
498.181	87.94
498.398	102.94
498.615	105.94
498.832	113.94
499.049	81.94
499.267	97.94
499.484	99.94
499.701	85.94
499.918	88.94
500.135	91.94
500.352	96.94
500.569	89.94
500.786	101.94
501.003	87.94
501.22	76.94
501.437	83.94
501.654	100.94
501.871	107.94
502.088	94.94
502.305	92.94
502.522	93.94
502.739	96.94
502.956	64.94
503.172	96.94
503.389	101.94
503.606	95.94
503.823	106.94
504.04	91.94
504.256	80.94
504.473	81.94
504.69	84.94
504.907	86.94
505.123	85.94
505.34	87.94
505.557	78.94
505.773	64.94
505.99	100.94
506.207	97.94
506.423	97.94
506.64	102.94
506.856	77.94
507.073	96.94
507.289	99.94
507.506	109.94
507.722	119.94
507.939	106.94
508.155	99.94
508.372	89.94
508.588	89.94
508.805	112.94
509.021	103.94
509.238	95.94
509.454	92.94
509.67	99.94
509.887	113.94
510.103	134.94
510.319	239.94
510.536	840.94
510.752	2730.94
510.968	728.94
511.184	164.94
511.401	105.94
511.617	88.94
511.833	100.94
512.049	79.94
512.265	92.94
512.481	93.94
512.698	103.94
512.914	96.94
513.13	81.94
513.346	100.94
513.562	96.94
513.778	96.94
513.994	98.94
514.21	99.94
514.426	120.94
514.642	147.94
514.858	113.94
515.074	187.94
515.29	510.94
