Data from Uncirc_1985_H10_HRD10591_00027.txt Node
Date: Wed Jan 03 12:18:22 EST 2024
User: Yrep
Spectrometer: HR+D1059
Trigger mode: 1
Integration Time (sec): 1.000000E-1
Scans to average: 1
Electric dark correction enabled: true
Nonlinearity correction enabled: false
Boxcar width: 0
XAxis mode: Wavelengths
Number of Pixels in Spectrum: 2048
>>>>>Begin Spectral Data<<<<<
223.165	-7
223.4	-7
223.635	-7
223.869	-24
224.104	-16
224.338	-17
224.573	-11
224.808	-12
225.042	-7
225.277	-18
225.511	-5
225.746	6
225.98	11
226.215	6
226.449	19
226.683	15
226.918	21
227.152	39
227.387	21
227.621	39
227.856	49
228.09	51
228.324	54
228.559	47
228.793	49
229.027	61
229.262	46
229.496	61
229.73	70
229.964	81
230.199	75
230.433	89
230.667	82
230.901	73
231.136	87
231.37	72
231.604	77
231.838	86
232.072	70
232.306	91
232.541	79
232.775	76
233.009	81
233.243	87
233.477	71
233.711	78
233.945	68
234.179	85
234.413	77
234.647	78
234.881	73
235.115	70
235.349	77
235.583	87
235.817	75
236.051	81
236.285	57
236.519	70
236.753	71
236.987	79
237.221	81
237.455	76
237.689	70
237.922	77
238.156	77
238.39	75
238.624	54
238.858	79
239.091	72
239.325	76
239.559	82
239.793	72
240.027	81
240.26	81
240.494	66
240.728	77
240.961	85
241.195	91
241.429	72
241.662	80
241.896	63
242.13	69
242.363	77
242.597	59
242.83	75
243.064	85
243.298	70
243.531	77
243.765	70
243.998	74
244.232	69
244.465	79
244.699	77
244.932	68
245.166	85
245.399	76
245.633	71
245.866	68
246.099	69
246.333	70
246.566	64
246.8	78
247.033	65
247.266	70
247.5	71
247.733	71
247.966	82
248.2	69
248.433	67
248.666	89
248.899	77
249.133	80
249.366	94
249.599	87
249.832	76
250.066	75
250.299	80
250.532	82
250.765	82
250.998	76
251.231	81
251.465	82
251.698	76
251.931	83
252.164	91
252.397	82
252.63	88
252.863	91
253.096	83
253.329	88
253.562	85
253.795	67
254.028	53
254.261	71
254.494	67
254.727	81
254.96	86
255.193	79
255.426	76
255.659	86
255.892	88
256.124	77
256.357	76
256.59	77
256.823	71
257.056	85
257.289	82
257.521	89
257.754	68
257.987	65
258.22	70
258.452	76
258.685	91
258.918	80
259.151	84
259.383	74
259.616	76
259.849	72
260.081	83
260.314	79
260.547	86
260.779	69
261.012	88
261.244	83
261.477	87
261.71	79
261.942	94
262.175	96
262.407	85
262.64	79
262.872	88
263.105	87
263.337	75
263.57	88
263.802	88
264.035	93
264.267	75
264.499	86
264.732	70
264.964	81
265.197	70
265.429	71
265.661	72
265.894	77
266.126	85
266.358	80
266.591	76
266.823	80
267.055	84
267.287	80
267.52	81
267.752	89
267.984	62
268.216	85
268.448	68
268.681	86
268.913	88
269.145	89
269.377	88
269.609	72
269.841	68
270.073	73
270.306	80
270.538	70
270.77	77
271.002	96
271.234	73
271.466	85
271.698	76
271.93	86
272.162	85
272.394	80
272.626	85
272.858	91
273.09	76
273.322	84
273.553	71
273.785	71
274.017	83
274.249	76
274.481	87
274.713	80
274.945	82
275.176	80
275.408	89
275.64	71
275.872	80
276.104	89
276.335	95
276.567	84
276.799	87
277.031	87
277.262	70
277.494	83
277.726	75
277.957	81
278.189	91
278.421	74
278.652	81
278.884	92
279.115	82
279.347	81
279.579	82
279.81	80
280.042	79
280.273	95
280.505	92
280.736	85
280.968	90
281.199	86
281.431	94
281.662	82
281.894	93
282.125	106
282.356	108
282.588	108
282.819	94
283.051	99
283.282	84
283.513	92
283.745	78
283.976	81
284.207	88
284.439	86
284.67	85
284.901	77
285.132	92
285.364	83
285.595	87
285.826	71
286.057	92
286.288	75
286.52	73
286.751	79
286.982	72
287.213	77
287.444	83
287.675	79
287.906	88
288.138	82
288.369	84
288.6	93
288.831	86
289.062	75
289.293	94
289.524	81
289.755	79
289.986	92
290.217	87
290.448	81
290.679	80
290.91	85
291.141	85
291.371	91
291.602	103
291.833	81
292.064	84
292.295	92
292.526	87
292.757	87
292.987	87
293.218	94
293.449	88
293.68	77
293.91	91
294.141	85
294.372	96
294.603	79
294.833	82
295.064	73
295.295	86
295.525	87
295.756	109
295.987	101
296.217	107
296.448	111
296.679	102
296.909	89
297.14	96
297.37	78
297.601	78
297.831	78
298.062	89
298.292	80
298.523	84
298.753	95
298.984	85
299.214	80
299.445	88
299.675	97
299.905	89
300.136	83
300.366	93
300.597	82
300.827	71
301.057	79
301.288	100
301.518	80
301.748	75
301.979	100
302.209	89
302.439	93
302.669	78
302.9	87
303.13	90
303.36	106
303.59	86
303.82	94
304.051	79
304.281	81
304.511	77
304.741	79
304.971	105
305.201	86
305.431	90
305.661	77
305.891	89
306.121	95
306.352	89
306.582	93
306.812	87
307.042	89
307.272	77
307.502	84
307.731	95
307.961	85
308.191	84
308.421	93
308.651	77
308.881	88
309.111	96
309.341	88
309.571	92
309.8	86
310.03	85
310.26	100
310.49	88
310.72	84
310.949	88
311.179	89
311.409	76
311.639	79
311.868	100
312.098	92
312.328	99
312.557	89
312.787	108
313.017	88
313.246	86
313.476	89
313.706	97
313.935	81
314.165	88
314.394	89
314.624	100
314.853	83
315.083	88
315.312	83
315.542	102
315.771	96
316.001	92
316.23	82
316.46	83
316.689	91
316.919	88
317.148	87
317.377	101
317.607	83
317.836	77
318.065	82
318.295	95
318.524	75
318.753	93
318.983	86
319.212	85
319.441	111
319.67	115
319.9	87
320.129	98
320.358	103
320.587	109
320.816	104
321.046	85
321.275	91
321.504	95
321.733	93
321.962	91
322.191	96
322.42	97
322.649	101
322.878	102
323.108	108
323.337	118
323.566	132
323.795	129
324.024	169
324.253	342
324.482	726
324.71	1476
324.939	1918
325.168	704
325.397	234
325.626	125
325.855	111
326.084	119
326.313	137
326.542	136
326.77	201
326.999	404
327.228	847
327.457	1536
327.686	1201
327.914	327
328.143	161
328.372	141
328.6	104
328.829	95
329.058	111
329.287	121
329.515	92
329.744	99
329.972	99
330.201	100
330.43	100
330.658	125
330.887	130
331.115	97
331.344	83
331.572	92
331.801	82
332.03	86
332.258	84
332.486	99
332.715	91
332.943	93
333.172	112
333.4	83
333.629	87
333.857	102
334.085	87
334.314	102
334.542	108
334.771	111
334.999	101
335.227	84
335.455	94
335.684	95
335.912	102
336.14	91
336.369	79
336.597	91
336.825	73
337.053	91
337.281	96
337.51	89
337.738	92
337.966	98
338.194	85
338.422	93
338.65	84
338.878	89
339.106	81
339.334	80
339.562	93
339.79	79
340.018	90
340.246	85
340.474	83
340.702	81
340.93	87
341.158	90
341.386	101
341.614	101
341.842	111
342.07	87
342.298	88
342.526	87
342.754	81
342.981	85
343.209	84
343.437	88
343.665	91
343.893	90
344.12	95
344.348	96
344.576	77
344.804	73
345.031	87
345.259	90
345.487	85
345.714	93
345.942	84
346.17	84
346.397	93
346.625	93
346.853	91
347.08	84
347.308	97
347.535	96
347.763	85
347.99	93
348.218	96
348.445	85
348.673	99
348.9	93
349.128	89
349.355	105
349.583	91
349.81	87
350.037	79
350.265	90
350.492	103
350.72	86
350.947	86
351.174	113
351.402	112
351.629	92
351.856	87
352.083	96
352.311	93
352.538	123
352.765	95
352.992	100
353.22	89
353.447	85
353.674	88
353.901	102
354.128	93
354.355	85
354.583	103
354.81	92
355.037	102
355.264	91
355.491	93
355.718	100
355.945	95
356.172	90
356.399	75
356.626	84
356.853	93
357.08	85
357.307	92
357.534	99
357.761	78
357.988	85
358.215	99
358.441	88
358.668	88
358.895	85
359.122	88
359.349	87
359.576	72
359.802	103
360.029	88
360.256	101
360.483	91
360.709	87
360.936	86
361.163	95
361.39	103
361.616	104
361.843	96
362.07	110
362.296	84
362.523	86
362.749	84
362.976	85
363.203	88
363.429	85
363.656	91
363.882	85
364.109	92
364.335	94
364.562	89
364.788	84
365.015	100
365.241	87
365.468	90
365.694	99
365.92	80
366.147	80
366.373	95
366.599	89
366.826	90
367.052	91
367.278	95
367.505	86
367.731	85
367.957	88
368.184	93
368.41	82
368.636	95
368.862	118
369.089	101
369.315	84
369.541	84
369.767	90
369.993	88
370.219	87
370.445	81
370.672	72
370.898	83
371.124	87
371.35	89
371.576	91
371.802	84
372.028	79
372.254	68
372.48	96
372.706	88
372.932	75
373.158	99
373.384	99
373.61	82
373.835	73
374.061	84
374.287	85
374.513	75
374.739	87
374.965	75
375.191	83
375.416	90
375.642	95
375.868	90
376.094	88
376.319	77
376.545	73
376.771	85
376.997	77
377.222	87
377.448	85
377.674	83
377.899	97
378.125	81
378.35	99
378.576	81
378.802	70
379.027	71
379.253	78
379.478	89
379.704	98
379.929	94
380.155	91
380.38	101
380.606	87
380.831	81
381.057	84
381.282	75
381.507	86
381.733	81
381.958	73
382.184	89
382.409	83
382.634	90
382.86	97
383.085	102
383.31	87
383.535	100
383.761	88
383.986	104
384.211	108
384.436	83
384.662	84
384.887	96
385.112	88
385.337	105
385.562	117
385.787	94
386.013	87
386.238	99
386.463	94
386.688	110
386.913	87
387.138	91
387.363	103
387.588	109
387.813	84
388.038	99
388.263	111
388.488	107
388.713	93
388.938	80
389.163	87
389.387	80
389.612	105
389.837	84
390.062	84
390.287	88
390.512	100
390.736	87
390.961	91
391.186	87
391.411	88
391.636	97
391.86	69
392.085	86
392.31	85
392.534	71
392.759	75
392.984	86
393.208	70
393.433	103
393.658	72
393.882	86
394.107	92
394.331	85
394.556	77
394.78	79
395.005	84
395.229	84
395.454	96
395.678	88
395.903	95
396.127	102
396.352	87
396.576	82
396.801	91
397.025	85
397.249	96
397.474	83
397.698	84
397.922	97
398.147	77
398.371	79
398.595	75
398.82	93
399.044	85
399.268	80
399.492	80
399.717	96
399.941	93
400.165	100
400.389	111
400.613	79
400.837	84
401.062	89
401.286	71
401.51	89
401.734	87
401.958	105
402.182	126
402.406	131
402.63	116
402.854	85
403.078	84
403.302	78
403.526	87
403.75	91
403.974	95
404.198	86
404.422	96
404.645	90
404.869	77
405.093	92
405.317	105
405.541	86
405.765	96
405.988	92
406.212	149
406.436	183
406.66	122
406.883	76
407.107	88
407.331	89
407.555	95
407.778	95
408.002	86
408.226	95
408.449	84
408.673	81
408.896	89
409.12	79
409.344	84
409.567	93
409.791	83
410.014	94
410.238	92
410.461	95
410.685	83
410.908	97
411.132	82
411.355	91
411.578	82
411.802	90
412.025	88
412.249	81
412.472	88
412.695	85
412.919	85
413.142	79
413.365	68
413.589	95
413.812	83
414.035	98
414.258	105
414.482	79
414.705	83
414.928	74
415.151	70
415.374	90
415.597	76
415.821	96
416.044	80
416.267	84
416.49	69
416.713	80
416.936	93
417.159	84
417.382	94
417.605	81
417.828	100
418.051	91
418.274	80
418.497	89
418.72	88
418.943	94
419.166	83
419.389	71
419.611	104
419.834	77
420.057	66
420.28	96
420.503	87
420.726	96
420.948	73
421.171	77
421.394	85
421.617	90
421.839	75
422.062	88
422.285	83
422.507	94
422.73	101
422.953	72
423.175	87
423.398	91
423.621	86
423.843	73
424.066	91
424.288	83
424.511	72
424.733	95
424.956	90
425.178	81
425.401	99
425.623	93
425.846	84
426.068	87
426.291	92
426.513	86
426.735	97
426.958	92
427.18	93
427.402	112
427.625	140
427.847	111
428.069	103
428.292	75
428.514	84
428.736	86
428.958	100
429.181	75
429.403	68
429.625	85
429.847	80
430.069	95
430.292	91
430.514	81
430.736	83
430.958	95
431.18	71
431.402	86
431.624	89
431.846	93
432.068	78
432.29	78
432.512	92
432.734	84
432.956	89
433.178	85
433.4	87
433.622	80
433.844	79
434.066	83
434.287	84
434.509	83
434.731	84
434.953	91
435.175	80
435.397	88
435.618	90
435.84	106
436.062	105
436.284	97
436.505	88
436.727	83
436.949	83
437.17	88
437.392	87
437.614	83
437.835	112
438.057	93
438.278	110
438.5	93
438.721	117
438.943	96
439.165	91
439.386	83
439.608	97
439.829	98
440.05	96
440.272	136
440.493	94
440.715	84
440.936	88
441.158	100
441.379	81
441.6	83
441.822	77
442.043	89
442.264	98
442.486	105
442.707	87
442.928	77
443.149	124
443.371	120
443.592	99
443.813	103
444.034	97
444.255	94
444.476	84
444.698	83
444.919	85
445.14	120
445.361	111
445.582	107
445.803	115
446.024	127
446.245	119
446.466	85
446.687	83
446.908	87
447.129	108
447.35	81
447.571	96
447.792	81
448.013	93
448.234	108
448.455	96
448.675	104
448.896	104
449.117	100
449.338	103
449.559	124
449.779	121
450	96
450.221	90
450.442	75
450.662	83
450.883	93
451.104	106
451.324	102
451.545	83
451.766	91
451.986	88
452.207	81
452.428	74
452.648	98
452.869	104
453.089	103
453.31	106
453.53	69
453.751	100
453.971	88
454.192	103
454.412	79
454.633	94
454.853	82
455.073	89
455.294	81
455.514	103
455.734	82
455.955	86
456.175	79
456.395	71
456.616	84
456.836	94
457.056	83
457.276	87
457.497	70
457.717	80
457.937	89
458.157	88
458.377	96
458.598	112
458.818	133
459.038	110
459.258	97
459.478	82
459.698	87
459.918	82
460.138	86
460.358	88
460.578	83
460.798	91
461.018	83
461.238	83
461.458	73
461.678	85
461.898	99
462.118	84
462.338	85
462.558	89
462.777	83
462.997	84
463.217	92
463.437	86
463.657	81
463.876	87
464.096	86
464.316	91
464.536	96
464.755	97
464.975	99
465.195	121
465.414	129
465.634	93
465.854	92
466.073	89
466.293	92
466.512	65
466.732	76
466.951	88
467.171	96
467.391	91
467.61	99
467.829	97
468.049	93
468.268	100
468.488	79
468.707	74
468.927	76
469.146	94
469.365	92
469.585	110
469.804	88
470.023	81
470.243	88
470.462	88
470.681	91
470.901	82
471.12	104
471.339	81
471.558	87
471.777	76
471.997	89
472.216	100
472.435	116
472.654	88
472.873	87
473.092	83
473.311	86
473.53	83
473.749	80
473.968	85
474.187	109
474.406	87
474.625	88
474.844	88
475.063	85
475.282	79
475.501	93
475.72	88
475.939	81
476.158	57
476.377	70
476.596	80
476.814	85
477.033	87
477.252	80
477.471	87
477.69	78
477.908	87
478.127	80
478.346	81
478.564	79
478.783	93
479.002	79
479.22	93
479.439	99
479.658	96
479.876	87
480.095	85
480.313	87
480.532	96
480.751	98
480.969	99
481.188	129
481.406	102
481.624	97
481.843	89
482.061	88
482.28	84
482.498	93
482.717	83
482.935	82
483.153	70
483.372	86
483.59	84
483.808	95
484.027	82
484.245	90
484.463	87
484.681	83
484.9	85
485.118	103
485.336	81
485.554	101
485.772	96
485.99	94
486.209	99
486.427	86
486.645	95
486.863	91
487.081	95
487.299	104
487.517	101
487.735	94
487.953	92
488.171	92
488.389	89
488.607	89
488.825	88
489.043	79
489.261	98
489.479	91
489.696	91
489.914	85
490.132	77
490.35	80
490.568	97
490.786	77
491.003	79
491.221	100
491.439	93
491.657	93
491.874	102
492.092	82
492.31	74
492.527	85
492.745	97
492.963	89
493.18	79
493.398	91
493.615	101
493.833	94
494.05	83
494.268	77
494.485	92
494.703	86
494.92	88
495.138	102
495.355	94
495.573	84
495.79	80
496.008	87
496.225	94
496.442	93
496.66	81
496.877	86
497.094	86
497.312	89
497.529	105
497.746	88
497.963	88
498.181	89
498.398	81
498.615	104
498.832	86
499.049	94
499.267	84
499.484	90
499.701	87
499.918	80
500.135	84
500.352	85
500.569	84
500.786	102
501.003	91
501.22	80
501.437	104
501.654	81
501.871	89
502.088	83
502.305	90
502.522	73
502.739	98
502.956	85
503.172	83
503.389	94
503.606	100
503.823	92
504.04	84
504.256	87
504.473	77
504.69	83
504.907	95
505.123	84
505.34	83
505.557	82
505.773	89
505.99	85
506.207	91
506.423	87
506.64	85
506.856	92
507.073	88
507.289	92
507.506	80
507.722	104
507.939	108
508.155	94
508.372	97
508.588	99
508.805	90
509.021	93
509.238	97
509.454	84
509.67	101
509.887	104
510.103	119
510.319	203
510.536	659
510.752	1985
510.968	547
511.184	135
511.401	95
511.617	93
511.833	92
512.049	93
512.265	99
512.481	95
512.698	87
512.914	83
513.13	84
513.346	87
513.562	82
513.778	94
513.994	99
514.21	79
514.426	98
514.642	119
514.858	103
515.074	157
515.29	370
515.506	1166
515.721	424
515.937	121
516.153	87
516.369	99
516.585	80
516.801	101
517.016	81
517.232	86
517.448	87
517.664	87
517.879	101
518.095	93
518.311	88
518.527	90
518.742	83
518.958	94
519.173	77
519.389	96
519.605	83
519.82	88
520.036	113
520.251	116
520.467	89
520.682	91
520.898	91
521.113	103
521.329	123
521.544	183
521.76	446
521.975	1904
522.19	1133
522.406	237
522.621	103
522.836	87
523.052	93
523.267	99
523.482	92
523.698	93
523.913	116
524.128	107
524.343	83
524.559	79
524.774	80
524.989	91
525.204	100
525.419	90
525.634	85
525.849	96
526.064	81
526.28	102
526.495	85
526.71	81
526.925	82
527.14	79
527.355	87
527.57	86
527.785	80
527.999	89
528.214	91
528.429	88
528.644	80
528.859	85
529.074	77
529.289	126
529.503	173
529.718	100
529.933	85
530.148	84
530.363	87
530.577	87
530.792	85
531.007	98
531.221	87
531.436	78
531.651	92
531.865	82
532.08	93
532.295	91
532.509	102
532.724	65
532.938	106
533.153	94
533.367	100
533.582	89
533.796	83
534.011	93
534.225	102
534.44	91
534.654	81
534.868	84
535.083	91
535.297	80
535.511	94
535.726	100
535.94	100
536.154	93
536.369	100
536.583	83
536.797	85
537.011	88
537.225	92
537.44	81
537.654	77
537.868	67
538.082	100
538.296	73
538.51	77
538.724	97
538.938	83
539.153	79
539.367	103
539.581	88
539.795	87
540.009	92
540.222	95
540.436	79
540.65	99
540.864	95
541.078	90
541.292	91
541.506	99
541.72	84
541.934	69
542.147	83
542.361	96
542.575	100
542.789	79
543.002	81
543.216	77
543.43	77
543.644	84
543.857	88
544.071	88
544.285	85
544.498	82
544.712	81
544.925	91
545.139	79
545.352	90
545.566	94
545.779	91
545.993	99
546.206	93
546.42	84
546.633	92
546.847	91
547.06	75
547.274	80
547.487	108
547.7	81
547.914	83
548.127	92
548.34	91
548.554	76
548.767	83
548.98	95
549.193	99
549.407	89
549.62	80
549.833	98
550.046	89
550.259	88
550.473	92
550.686	102
550.899	77
551.112	83
551.325	74
551.538	77
551.751	88
551.964	79
552.177	83
552.39	98
552.603	97
552.816	79
553.029	102
553.242	95
553.455	91
553.667	95
553.88	93
554.093	87
554.306	88
554.519	91
554.732	95
554.944	87
555.157	85
555.37	86
555.583	82
555.795	89
556.008	85
556.221	94
556.433	81
556.646	83
556.859	95
557.071	86
557.284	83
557.496	91
557.709	92
557.921	85
558.134	82
558.346	82
558.559	87
558.771	91
558.984	85
559.196	87
559.409	86
559.621	97
559.833	84
560.046	83
560.258	87
560.47	88
560.683	93
560.895	89
561.107	94
561.32	81
561.532	73
561.744	89
561.956	83
562.168	82
562.381	90
562.593	79
562.805	92
563.017	83
563.229	91
563.441	91
563.653	66
563.865	83
564.077	90
564.289	83
564.501	76
564.713	87
564.925	72
565.137	95
565.349	91
565.561	82
565.773	88
565.985	91
566.197	80
566.408	92
566.62	102
566.832	94
567.044	88
567.255	87
567.467	102
567.679	92
567.891	91
568.102	77
568.314	89
568.526	80
568.737	94
568.949	80
569.161	84
569.372	82
569.584	75
569.795	105
570.007	119
570.218	226
570.43	123
570.641	93
570.853	99
571.064	95
571.276	89
571.487	68
571.698	65
571.91	77
572.121	96
572.333	80
572.544	84
572.755	77
572.966	81
573.178	86
573.389	106
573.6	90
573.811	77
574.023	81
574.234	88
574.445	82
574.656	83
574.867	110
575.078	84
575.289	88
575.501	88
575.712	82
575.923	81
576.134	75
576.345	94
576.556	97
576.767	89
576.978	93
577.188	87
577.399	91
577.61	79
577.821	95
578.032	97
578.243	248
578.454	629
578.665	185
578.875	102
579.086	72
579.297	86
579.508	89
579.718	66
579.929	81
580.14	92
580.35	66
580.561	75
580.772	100
580.982	94
581.193	91
581.403	77
581.614	87
581.825	81
582.035	101
582.246	83
582.456	81
582.667	87
582.877	75
583.087	77
583.298	80
583.508	85
583.719	74
583.929	84
584.139	75
584.35	74
584.56	80
584.77	80
584.981	69
585.191	92
585.401	84
585.611	103
585.821	93
586.032	78
586.242	90
586.452	92
586.662	104
