Data from Uncirc_1985_H10_HRD10591_00032.txt Node
Date: Wed Jan 03 12:18:23 EST 2024
User: Yrep
Spectrometer: HR+D1059
Trigger mode: 1
Integration Time (sec): 1.000000E-1
Scans to average: 1
Electric dark correction enabled: true
Nonlinearity correction enabled: false
Boxcar width: 0
XAxis mode: Wavelengths
Number of Pixels in Spectrum: 2048
>>>>>Begin Spectral Data<<<<<
223.165	-18.25
223.4	-18.25
223.635	-18.25
223.869	-10.25
224.104	-15.25
224.338	-4.25
224.573	-24.25
224.808	-19.25
225.042	-17.25
225.277	-21.25
225.511	-3.25
225.746	-9.25
225.98	10.75
226.215	12.75
226.449	21.75
226.683	34.75
226.918	24.75
227.152	37.75
227.387	40.75
227.621	47.75
227.856	36.75
228.09	57.75
228.324	51.75
228.559	49.75
228.793	66.75
229.027	53.75
229.262	59.75
229.496	52.75
229.73	68.75
229.964	93.75
230.199	79.75
230.433	63.75
230.667	68.75
230.901	70.75
231.136	70.75
231.37	87.75
231.604	68.75
231.838	74.75
232.072	80.75
232.306	77.75
232.541	72.75
232.775	89.75
233.009	94.75
233.243	76.75
233.477	84.75
233.711	79.75
233.945	94.75
234.179	69.75
234.413	83.75
234.647	81.75
234.881	90.75
235.115	72.75
235.349	82.75
235.583	71.75
235.817	80.75
236.051	74.75
236.285	69.75
236.519	67.75
236.753	71.75
236.987	73.75
237.221	76.75
237.455	98.75
237.689	84.75
237.922	69.75
238.156	73.75
238.39	64.75
238.624	85.75
238.858	84.75
239.091	74.75
239.325	76.75
239.559	74.75
239.793	82.75
240.027	93.75
240.26	68.75
240.494	80.75
240.728	84.75
240.961	67.75
241.195	73.75
241.429	71.75
241.662	68.75
241.896	83.75
242.13	77.75
242.363	79.75
242.597	66.75
242.83	80.75
243.064	67.75
243.298	74.75
243.531	69.75
243.765	68.75
243.998	78.75
244.232	72.75
244.465	87.75
244.699	73.75
244.932	65.75
245.166	62.75
245.399	68.75
245.633	76.75
245.866	83.75
246.099	77.75
246.333	81.75
246.566	66.75
246.8	68.75
247.033	68.75
247.266	61.75
247.5	73.75
247.733	85.75
247.966	90.75
248.2	83.75
248.433	95.75
248.666	84.75
248.899	76.75
249.133	71.75
249.366	91.75
249.599	88.75
249.832	85.75
250.066	82.75
250.299	57.75
250.532	78.75
250.765	75.75
250.998	62.75
251.231	68.75
251.465	87.75
251.698	73.75
251.931	72.75
252.164	69.75
252.397	85.75
252.63	73.75
252.863	80.75
253.096	69.75
253.329	92.75
253.562	87.75
253.795	83.75
254.028	79.75
254.261	85.75
254.494	70.75
254.727	78.75
254.96	71.75
255.193	78.75
255.426	68.75
255.659	69.75
255.892	72.75
256.124	76.75
256.357	82.75
256.59	86.75
256.823	85.75
257.056	85.75
257.289	80.75
257.521	80.75
257.754	85.75
257.987	70.75
258.22	92.75
258.452	74.75
258.685	84.75
258.918	80.75
259.151	79.75
259.383	75.75
259.616	76.75
259.849	86.75
260.081	77.75
260.314	78.75
260.547	82.75
260.779	78.75
261.012	88.75
261.244	86.75
261.477	83.75
261.71	79.75
261.942	97.75
262.175	104.75
262.407	88.75
262.64	84.75
262.872	76.75
263.105	76.75
263.337	86.75
263.57	70.75
263.802	92.75
264.035	69.75
264.267	82.75
264.499	86.75
264.732	94.75
264.964	75.75
265.197	76.75
265.429	77.75
265.661	80.75
265.894	76.75
266.126	82.75
266.358	80.75
266.591	80.75
266.823	82.75
267.055	95.75
267.287	54.75
267.52	80.75
267.752	82.75
267.984	90.75
268.216	84.75
268.448	95.75
268.681	84.75
268.913	81.75
269.145	84.75
269.377	69.75
269.609	74.75
269.841	97.75
270.073	81.75
270.306	76.75
270.538	79.75
270.77	78.75
271.002	71.75
271.234	82.75
271.466	84.75
271.698	78.75
271.93	79.75
272.162	77.75
272.394	78.75
272.626	76.75
272.858	95.75
273.09	82.75
273.322	87.75
273.553	70.75
273.785	84.75
274.017	80.75
274.249	83.75
274.481	82.75
274.713	84.75
274.945	85.75
275.176	86.75
275.408	85.75
275.64	84.75
275.872	70.75
276.104	87.75
276.335	78.75
276.567	95.75
276.799	93.75
277.031	97.75
277.262	95.75
277.494	84.75
277.726	74.75
277.957	86.75
278.189	80.75
278.421	89.75
278.652	72.75
278.884	82.75
279.115	80.75
279.347	86.75
279.579	84.75
279.81	91.75
280.042	90.75
280.273	82.75
280.505	94.75
280.736	71.75
280.968	78.75
281.199	88.75
281.431	77.75
281.662	93.75
281.894	68.75
282.125	89.75
282.356	116.75
282.588	135.75
282.819	108.75
283.051	85.75
283.282	101.75
283.513	89.75
283.745	83.75
283.976	81.75
284.207	85.75
284.439	92.75
284.67	89.75
284.901	85.75
285.132	94.75
285.364	78.75
285.595	76.75
285.826	79.75
286.057	93.75
286.288	82.75
286.52	84.75
286.751	90.75
286.982	73.75
287.213	74.75
287.444	80.75
287.675	88.75
287.906	89.75
288.138	87.75
288.369	80.75
288.6	106.75
288.831	94.75
289.062	100.75
289.293	76.75
289.524	79.75
289.755	78.75
289.986	79.75
290.217	103.75
290.448	84.75
290.679	92.75
290.91	96.75
291.141	76.75
291.371	91.75
291.602	85.75
291.833	77.75
292.064	97.75
292.295	82.75
292.526	93.75
292.757	84.75
292.987	88.75
293.218	97.75
293.449	96.75
293.68	80.75
293.91	75.75
294.141	86.75
294.372	92.75
294.603	86.75
294.833	84.75
295.064	90.75
295.295	90.75
295.525	86.75
295.756	95.75
295.987	113.75
296.217	135.75
296.448	126.75
296.679	102.75
296.909	97.75
297.14	82.75
297.37	86.75
297.601	93.75
297.831	80.75
298.062	95.75
298.292	68.75
298.523	89.75
298.753	82.75
298.984	82.75
299.214	85.75
299.445	87.75
299.675	86.75
299.905	85.75
300.136	86.75
300.366	74.75
300.597	78.75
300.827	89.75
301.057	88.75
301.288	88.75
301.518	80.75
301.748	86.75
301.979	92.75
302.209	84.75
302.439	87.75
302.669	85.75
302.9	74.75
303.13	83.75
303.36	87.75
303.59	84.75
303.82	98.75
304.051	84.75
304.281	90.75
304.511	88.75
304.741	89.75
304.971	90.75
305.201	71.75
305.431	96.75
305.661	101.75
305.891	88.75
306.121	93.75
306.352	94.75
306.582	101.75
306.812	89.75
307.042	94.75
307.272	80.75
307.502	92.75
307.731	93.75
307.961	99.75
308.191	80.75
308.421	89.75
308.651	87.75
308.881	88.75
309.111	112.75
309.341	78.75
309.571	92.75
309.8	84.75
310.03	96.75
310.26	94.75
310.49	78.75
310.72	96.75
310.949	102.75
311.179	82.75
311.409	108.75
311.639	93.75
311.868	94.75
312.098	99.75
312.328	85.75
312.557	96.75
312.787	110.75
313.017	94.75
313.246	91.75
313.476	92.75
313.706	88.75
313.935	102.75
314.165	95.75
314.394	91.75
314.624	94.75
314.853	90.75
315.083	96.75
315.312	89.75
315.542	95.75
315.771	89.75
316.001	91.75
316.23	76.75
316.46	93.75
316.689	85.75
316.919	90.75
317.148	90.75
317.377	111.75
317.607	83.75
317.836	87.75
318.065	93.75
318.295	91.75
318.524	83.75
318.753	92.75
318.983	68.75
319.212	85.75
319.441	102.75
319.67	99.75
319.9	90.75
320.129	78.75
320.358	89.75
320.587	106.75
320.816	84.75
321.046	86.75
321.275	92.75
321.504	82.75
321.733	88.75
321.962	93.75
322.191	102.75
322.42	110.75
322.649	89.75
322.878	95.75
323.108	106.75
323.337	129.75
323.566	132.75
323.795	133.75
324.024	193.75
324.253	369.75
324.482	769.75
324.71	1580.75
324.939	2086.75
325.168	767.75
325.397	231.75
325.626	139.75
325.855	129.75
326.084	108.75
326.313	116.75
326.542	133.75
326.77	186.75
326.999	424.75
327.228	888.75
327.457	1660.75
327.686	1313.75
327.914	337.75
328.143	186.75
328.372	137.75
328.6	114.75
328.829	121.75
329.058	116.75
329.287	116.75
329.515	113.75
329.744	104.75
329.972	109.75
330.201	106.75
330.43	128.75
330.658	97.75
330.887	121.75
331.115	102.75
331.344	100.75
331.572	91.75
331.801	95.75
332.03	86.75
332.258	101.75
332.486	97.75
332.715	83.75
332.943	102.75
333.172	93.75
333.4	100.75
333.629	118.75
333.857	101.75
334.085	114.75
334.314	90.75
334.542	115.75
334.771	112.75
334.999	100.75
335.227	99.75
335.455	80.75
335.684	85.75
335.912	80.75
336.14	90.75
336.369	100.75
336.597	100.75
336.825	104.75
337.053	96.75
337.281	86.75
337.51	89.75
337.738	93.75
337.966	87.75
338.194	87.75
338.422	88.75
338.65	98.75
338.878	85.75
339.106	88.75
339.334	85.75
339.562	90.75
339.79	84.75
340.018	88.75
340.246	96.75
340.474	99.75
340.702	87.75
340.93	84.75
341.158	93.75
341.386	87.75
341.614	105.75
341.842	86.75
342.07	76.75
342.298	101.75
342.526	84.75
342.754	80.75
342.981	76.75
343.209	80.75
343.437	84.75
343.665	92.75
343.893	87.75
344.12	92.75
344.348	76.75
344.576	74.75
344.804	74.75
345.031	94.75
345.259	91.75
345.487	103.75
345.714	88.75
345.942	84.75
346.17	97.75
346.397	90.75
346.625	89.75
346.853	91.75
347.08	96.75
347.308	101.75
347.535	100.75
347.763	92.75
347.99	118.75
348.218	99.75
348.445	108.75
348.673	85.75
348.9	101.75
349.128	105.75
349.355	94.75
349.583	97.75
349.81	86.75
350.037	76.75
350.265	88.75
350.492	87.75
350.72	88.75
350.947	99.75
351.174	100.75
351.402	101.75
351.629	106.75
351.856	98.75
352.083	111.75
352.311	96.75
352.538	104.75
352.765	87.75
352.992	111.75
353.22	103.75
353.447	93.75
353.674	103.75
353.901	94.75
354.128	98.75
354.355	93.75
354.583	95.75
354.81	104.75
355.037	101.75
355.264	106.75
355.491	89.75
355.718	85.75
355.945	110.75
356.172	96.75
356.399	90.75
356.626	92.75
356.853	80.75
357.08	84.75
357.307	97.75
357.534	101.75
357.761	90.75
357.988	96.75
358.215	108.75
358.441	97.75
358.668	90.75
358.895	85.75
359.122	89.75
359.349	99.75
359.576	93.75
359.802	95.75
360.029	96.75
360.256	94.75
360.483	85.75
360.709	79.75
360.936	92.75
361.163	93.75
361.39	80.75
361.616	96.75
361.843	77.75
362.07	92.75
362.296	91.75
362.523	84.75
362.749	84.75
362.976	86.75
363.203	86.75
363.429	81.75
363.656	92.75
363.882	82.75
364.109	88.75
364.335	96.75
364.562	91.75
364.788	78.75
365.015	97.75
365.241	92.75
365.468	97.75
365.694	87.75
365.92	88.75
366.147	87.75
366.373	104.75
366.599	82.75
366.826	86.75
367.052	86.75
367.278	102.75
367.505	88.75
367.731	96.75
367.957	84.75
368.184	77.75
368.41	87.75
368.636	103.75
368.862	105.75
369.089	96.75
369.315	100.75
369.541	84.75
369.767	96.75
369.993	97.75
370.219	89.75
370.445	81.75
370.672	80.75
370.898	93.75
371.124	90.75
371.35	77.75
371.576	77.75
371.802	89.75
372.028	92.75
372.254	88.75
372.48	81.75
372.706	81.75
372.932	94.75
373.158	72.75
373.384	72.75
373.61	79.75
373.835	91.75
374.061	95.75
374.287	85.75
374.513	94.75
374.739	86.75
374.965	80.75
375.191	84.75
375.416	86.75
375.642	85.75
375.868	93.75
376.094	90.75
376.319	99.75
376.545	84.75
376.771	74.75
376.997	84.75
377.222	82.75
377.448	85.75
377.674	99.75
377.899	80.75
378.125	83.75
378.35	84.75
378.576	96.75
378.802	76.75
379.027	81.75
379.253	90.75
379.478	89.75
379.704	98.75
379.929	103.75
380.155	87.75
380.38	96.75
380.606	82.75
380.831	82.75
381.057	81.75
381.282	95.75
381.507	93.75
381.733	98.75
381.958	100.75
382.184	105.75
382.409	96.75
382.634	104.75
382.86	90.75
383.085	85.75
383.31	89.75
383.535	91.75
383.761	95.75
383.986	90.75
384.211	94.75
384.436	86.75
384.662	94.75
384.887	90.75
385.112	90.75
385.337	110.75
385.562	91.75
385.787	90.75
386.013	101.75
386.238	103.75
386.463	91.75
386.688	87.75
386.913	97.75
387.138	94.75
387.363	100.75
387.588	113.75
387.813	97.75
388.038	88.75
388.263	100.75
388.488	100.75
388.713	86.75
388.938	84.75
389.163	92.75
389.387	91.75
389.612	89.75
389.837	85.75
390.062	90.75
390.287	77.75
390.512	78.75
390.736	84.75
390.961	88.75
391.186	88.75
391.411	98.75
391.636	87.75
391.86	75.75
392.085	87.75
392.31	85.75
392.534	86.75
392.759	88.75
392.984	95.75
393.208	77.75
393.433	69.75
393.658	84.75
393.882	88.75
394.107	76.75
394.331	71.75
394.556	95.75
394.78	87.75
395.005	82.75
395.229	96.75
395.454	79.75
395.678	102.75
395.903	92.75
396.127	87.75
396.352	92.75
396.576	74.75
396.801	78.75
397.025	102.75
397.249	95.75
397.474	84.75
397.698	88.75
397.922	83.75
398.147	96.75
398.371	80.75
398.595	73.75
398.82	80.75
399.044	88.75
399.268	93.75
399.492	89.75
399.717	97.75
399.941	88.75
400.165	93.75
400.389	87.75
400.613	99.75
400.837	88.75
401.062	100.75
401.286	93.75
401.51	85.75
401.734	75.75
401.958	85.75
402.182	113.75
402.406	138.75
402.63	106.75
402.854	90.75
403.078	83.75
403.302	76.75
403.526	86.75
403.75	103.75
403.974	86.75
404.198	86.75
404.422	65.75
404.645	98.75
404.869	94.75
405.093	96.75
405.317	97.75
405.541	82.75
405.765	78.75
405.988	111.75
406.212	154.75
406.436	204.75
406.66	120.75
406.883	96.75
407.107	100.75
407.331	101.75
407.555	87.75
407.778	89.75
408.002	84.75
408.226	80.75
408.449	84.75
408.673	92.75
408.896	83.75
409.12	98.75
409.344	85.75
409.567	81.75
409.791	90.75
410.014	87.75
410.238	82.75
410.461	82.75
410.685	86.75
410.908	93.75
411.132	94.75
411.355	81.75
411.578	85.75
411.802	82.75
412.025	95.75
412.249	89.75
412.472	88.75
412.695	94.75
412.919	99.75
413.142	94.75
413.365	69.75
413.589	86.75
413.812	91.75
414.035	90.75
414.258	92.75
414.482	89.75
414.705	80.75
414.928	82.75
415.151	72.75
415.374	78.75
415.597	70.75
415.821	89.75
416.044	92.75
416.267	78.75
416.49	72.75
416.713	82.75
416.936	89.75
417.159	78.75
417.382	92.75
417.605	88.75
417.828	78.75
418.051	95.75
418.274	80.75
418.497	87.75
418.72	84.75
418.943	87.75
419.166	84.75
419.389	89.75
419.611	92.75
419.834	94.75
420.057	77.75
420.28	76.75
420.503	89.75
420.726	90.75
420.948	80.75
421.171	93.75
421.394	90.75
421.617	89.75
421.839	81.75
422.062	87.75
422.285	97.75
422.507	102.75
422.73	105.75
422.953	87.75
423.175	80.75
423.398	85.75
423.621	94.75
423.843	89.75
424.066	80.75
424.288	86.75
424.511	94.75
424.733	92.75
424.956	101.75
425.178	87.75
425.401	100.75
425.623	94.75
425.846	73.75
426.068	82.75
426.291	100.75
426.513	85.75
426.735	83.75
426.958	105.75
427.18	92.75
427.402	129.75
427.625	143.75
427.847	117.75
428.069	103.75
428.292	84.75
428.514	77.75
428.736	81.75
428.958	81.75
429.181	87.75
429.403	90.75
429.625	92.75
429.847	88.75
430.069	86.75
430.292	82.75
430.514	94.75
430.736	90.75
430.958	87.75
431.18	77.75
431.402	86.75
431.624	80.75
431.846	89.75
432.068	64.75
432.29	94.75
432.512	97.75
432.734	83.75
432.956	82.75
433.178	96.75
433.4	90.75
433.622	80.75
433.844	100.75
434.066	70.75
434.287	79.75
434.509	74.75
434.731	90.75
434.953	91.75
435.175	71.75
435.397	80.75
435.618	90.75
435.84	88.75
436.062	118.75
436.284	102.75
436.505	96.75
436.727	100.75
436.949	81.75
437.17	80.75
437.392	94.75
437.614	80.75
437.835	96.75
438.057	118.75
438.278	104.75
438.5	91.75
438.721	120.75
438.943	100.75
439.165	97.75
439.386	90.75
439.608	95.75
439.829	94.75
440.05	120.75
440.272	119.75
440.493	94.75
440.715	91.75
440.936	85.75
441.158	73.75
441.379	91.75
441.6	103.75
441.822	112.75
442.043	84.75
442.264	107.75
442.486	94.75
442.707	67.75
442.928	111.75
443.149	105.75
443.371	121.75
443.592	107.75
443.813	95.75
444.034	111.75
444.255	82.75
444.476	96.75
444.698	102.75
444.919	79.75
445.14	119.75
445.361	121.75
445.582	111.75
445.803	130.75
446.024	130.75
446.245	132.75
446.466	101.75
446.687	89.75
446.908	81.75
447.129	88.75
447.35	78.75
447.571	81.75
447.792	76.75
448.013	90.75
448.234	97.75
448.455	93.75
448.675	86.75
448.896	103.75
449.117	92.75
449.338	102.75
449.559	123.75
449.779	128.75
450	85.75
450.221	85.75
450.442	94.75
450.662	101.75
450.883	86.75
451.104	102.75
451.324	93.75
451.545	79.75
451.766	78.75
451.986	83.75
452.207	80.75
452.428	93.75
452.648	96.75
452.869	101.75
453.089	109.75
453.31	111.75
453.53	103.75
453.751	76.75
453.971	94.75
454.192	83.75
454.412	84.75
454.633	82.75
454.853	86.75
455.073	83.75
455.294	72.75
455.514	104.75
455.734	89.75
455.955	104.75
456.175	79.75
456.395	80.75
456.616	96.75
456.836	83.75
457.056	63.75
457.276	71.75
457.497	92.75
457.717	74.75
457.937	78.75
458.157	96.75
458.377	91.75
458.598	115.75
458.818	135.75
459.038	139.75
459.258	100.75
459.478	87.75
459.698	90.75
459.918	93.75
460.138	92.75
460.358	84.75
460.578	83.75
460.798	82.75
461.018	79.75
461.238	74.75
461.458	88.75
461.678	71.75
461.898	85.75
462.118	82.75
462.338	88.75
462.558	80.75
462.777	74.75
462.997	70.75
463.217	97.75
463.437	80.75
463.657	88.75
463.876	82.75
464.096	78.75
464.316	99.75
464.536	93.75
464.755	79.75
464.975	96.75
465.195	137.75
465.414	133.75
465.634	63.75
465.854	94.75
466.073	80.75
466.293	83.75
466.512	90.75
466.732	89.75
466.951	79.75
467.171	73.75
467.391	87.75
467.61	106.75
467.829	91.75
468.049	101.75
468.268	98.75
468.488	67.75
468.707	68.75
468.927	84.75
469.146	73.75
469.365	78.75
469.585	84.75
469.804	90.75
470.023	94.75
470.243	96.75
470.462	103.75
470.681	93.75
470.901	90.75
471.12	90.75
471.339	83.75
471.558	76.75
471.777	76.75
471.997	86.75
472.216	109.75
472.435	115.75
472.654	88.75
472.873	89.75
473.092	81.75
473.311	87.75
473.53	72.75
473.749	91.75
473.968	83.75
474.187	100.75
474.406	90.75
474.625	78.75
474.844	91.75
475.063	74.75
475.282	91.75
475.501	95.75
475.72	85.75
475.939	94.75
476.158	76.75
476.377	80.75
476.596	76.75
476.814	85.75
477.033	88.75
477.252	88.75
477.471	72.75
477.69	82.75
477.908	93.75
478.127	84.75
478.346	82.75
478.564	80.75
478.783	82.75
479.002	100.75
479.22	77.75
479.439	97.75
479.658	92.75
479.876	89.75
480.095	78.75
480.313	100.75
480.532	65.75
480.751	83.75
480.969	101.75
481.188	149.75
481.406	135.75
481.624	100.75
481.843	88.75
482.061	80.75
482.28	85.75
482.498	96.75
482.717	86.75
482.935	85.75
483.153	84.75
483.372	89.75
483.59	87.75
483.808	85.75
484.027	90.75
484.245	101.75
484.463	94.75
484.681	89.75
484.9	78.75
485.118	94.75
485.336	92.75
485.554	85.75
485.772	101.75
485.99	85.75
486.209	87.75
486.427	94.75
486.645	106.75
486.863	96.75
487.081	108.75
487.299	89.75
487.517	85.75
487.735	85.75
487.953	98.75
488.171	76.75
488.389	95.75
488.607	100.75
488.825	89.75
489.043	93.75
489.261	85.75
489.479	90.75
489.696	90.75
489.914	80.75
490.132	95.75
490.35	80.75
490.568	84.75
490.786	88.75
491.003	94.75
491.221	88.75
491.439	94.75
491.657	93.75
491.874	79.75
492.092	94.75
492.31	83.75
492.527	98.75
492.745	90.75
492.963	90.75
493.18	85.75
493.398	90.75
493.615	89.75
493.833	80.75
494.05	71.75
494.268	97.75
494.485	94.75
494.703	92.75
494.92	84.75
495.138	79.75
495.355	104.75
495.573	81.75
495.79	79.75
496.008	81.75
496.225	92.75
496.442	101.75
496.66	94.75
496.877	89.75
497.094	97.75
497.312	78.75
497.529	80.75
497.746	87.75
497.963	89.75
498.181	92.75
498.398	99.75
498.615	106.75
498.832	97.75
499.049	88.75
499.267	89.75
499.484	78.75
499.701	94.75
499.918	91.75
500.135	94.75
500.352	93.75
500.569	87.75
500.786	86.75
501.003	83.75
501.22	89.75
501.437	95.75
501.654	93.75
501.871	104.75
502.088	108.75
502.305	92.75
502.522	97.75
502.739	83.75
502.956	96.75
503.172	92.75
503.389	89.75
503.606	90.75
503.823	89.75
504.04	85.75
504.256	89.75
504.473	84.75
504.69	88.75
504.907	93.75
505.123	86.75
505.34	76.75
505.557	93.75
505.773	92.75
505.99	87.75
506.207	97.75
506.423	84.75
506.64	88.75
506.856	93.75
507.073	93.75
507.289	85.75
507.506	80.75
507.722	98.75
507.939	103.75
508.155	95.75
508.372	92.75
508.588	103.75
508.805	89.75
509.021	89.75
509.238	86.75
509.454	110.75
509.67	85.75
509.887	126.75
510.103	122.75
510.319	180.75
510.536	678.75
510.752	1999.75
510.968	540.75
511.184	134.75
511.401	95.75
511.617	82.75
511.833	79.75
512.049	83.75
512.265	82.75
512.481	80.75
512.698	95.75
512.914	92.75
513.13	88.75
513.346	83.75
513.562	94.75
513.778	93.75
513.994	82.75
514.21	94.75
514.426	109.75
514.642	127.75
514.858	122.75
515.074	140.75
515.29	384.75
515.506	1205.75
515.721	444.75
515.937	131.75
516.153	103.75
516.369	99.75
516.585	92.75
516.801	93.75
