Data from Uncirc_1985_H10_HRD10591_00046.txt Node
Date: Wed Jan 03 12:18:26 EST 2024
User: Yrep
Spectrometer: HR+D1059
Trigger mode: 1
Integration Time (sec): 1.000000E-1
Scans to average: 1
Electric dark correction enabled: true
Nonlinearity correction enabled: false
Boxcar width: 0
XAxis mode: Wavelengths
Number of Pixels in Spectrum: 2048
>>>>>Begin Spectral Data<<<<<
223.165	-19.06
223.4	-19.06
223.635	-19.06
223.869	-20.06
224.104	-35.06
224.338	-12.06
224.573	-15.06
224.808	-19.06
225.042	-3.06
225.277	1.94
225.511	2.94
225.746	4.94
225.98	8.94
226.215	2.94
226.449	17.94
226.683	31.94
226.918	22.94
227.152	28.94
227.387	32.94
227.621	38.94
227.856	57.94
228.09	23.94
228.324	56.94
228.559	62.94
228.793	48.94
229.027	74.94
229.262	62.94
229.496	85.94
229.73	89.94
229.964	80.94
230.199	70.94
230.433	68.94
230.667	73.94
230.901	88.94
231.136	81.94
231.37	92.94
231.604	87.94
231.838	85.94
232.072	70.94
232.306	86.94
232.541	69.94
232.775	72.94
233.009	97.94
233.243	84.94
233.477	73.94
233.711	86.94
233.945	83.94
234.179	77.94
234.413	81.94
234.647	79.94
234.881	90.94
235.115	97.94
235.349	88.94
235.583	91.94
235.817	78.94
236.051	79.94
236.285	68.94
236.519	81.94
236.753	72.94
236.987	82.94
237.221	89.94
237.455	90.94
237.689	84.94
237.922	80.94
238.156	75.94
238.39	64.94
238.624	74.94
238.858	81.94
239.091	75.94
239.325	83.94
239.559	68.94
239.793	76.94
240.027	66.94
240.26	59.94
240.494	83.94
240.728	84.94
240.961	77.94
241.195	83.94
241.429	89.94
241.662	76.94
241.896	85.94
242.13	72.94
242.363	79.94
242.597	81.94
242.83	80.94
243.064	64.94
243.298	85.94
243.531	82.94
243.765	85.94
243.998	82.94
244.232	88.94
244.465	88.94
244.699	83.94
244.932	79.94
245.166	81.94
245.399	79.94
245.633	73.94
245.866	63.94
246.099	76.94
246.333	88.94
246.566	76.94
246.8	72.94
247.033	66.94
247.266	95.94
247.5	79.94
247.733	79.94
247.966	86.94
248.2	75.94
248.433	87.94
248.666	70.94
248.899	89.94
249.133	87.94
249.366	89.94
249.599	98.94
249.832	77.94
250.066	75.94
250.299	85.94
250.532	72.94
250.765	74.94
250.998	79.94
251.231	65.94
251.465	65.94
251.698	90.94
251.931	76.94
252.164	88.94
252.397	91.94
252.63	88.94
252.863	77.94
253.096	86.94
253.329	79.94
253.562	75.94
253.795	77.94
254.028	76.94
254.261	89.94
254.494	83.94
254.727	87.94
254.96	93.94
255.193	95.94
255.426	88.94
255.659	67.94
255.892	88.94
256.124	79.94
256.357	74.94
256.59	87.94
256.823	85.94
257.056	84.94
257.289	86.94
257.521	98.94
257.754	83.94
257.987	82.94
258.22	80.94
258.452	89.94
258.685	79.94
258.918	82.94
259.151	79.94
259.383	83.94
259.616	89.94
259.849	89.94
260.081	86.94
260.314	97.94
260.547	85.94
260.779	83.94
261.012	74.94
261.244	71.94
261.477	84.94
261.71	104.94
261.942	108.94
262.175	112.94
262.407	82.94
262.64	89.94
262.872	76.94
263.105	84.94
263.337	76.94
263.57	74.94
263.802	90.94
264.035	82.94
264.267	85.94
264.499	83.94
264.732	84.94
264.964	87.94
265.197	74.94
265.429	76.94
265.661	84.94
265.894	81.94
266.126	83.94
266.358	80.94
266.591	74.94
266.823	96.94
267.055	83.94
267.287	72.94
267.52	76.94
267.752	87.94
267.984	83.94
268.216	93.94
268.448	88.94
268.681	82.94
268.913	90.94
269.145	88.94
269.377	84.94
269.609	69.94
269.841	89.94
270.073	83.94
270.306	75.94
270.538	95.94
270.77	74.94
271.002	86.94
271.234	104.94
271.466	90.94
271.698	79.94
271.93	89.94
272.162	85.94
272.394	103.94
272.626	77.94
272.858	105.94
273.09	82.94
273.322	79.94
273.553	72.94
273.785	91.94
274.017	76.94
274.249	89.94
274.481	87.94
274.713	91.94
274.945	90.94
275.176	87.94
275.408	86.94
275.64	77.94
275.872	83.94
276.104	90.94
276.335	93.94
276.567	92.94
276.799	96.94
277.031	91.94
277.262	83.94
277.494	97.94
277.726	105.94
277.957	76.94
278.189	83.94
278.421	87.94
278.652	90.94
278.884	93.94
279.115	89.94
279.347	83.94
279.579	83.94
279.81	84.94
280.042	79.94
280.273	86.94
280.505	100.94
280.736	104.94
280.968	102.94
281.199	82.94
281.431	82.94
281.662	82.94
281.894	77.94
282.125	100.94
282.356	112.94
282.588	128.94
282.819	114.94
283.051	76.94
283.282	90.94
283.513	84.94
283.745	83.94
283.976	89.94
284.207	97.94
284.439	86.94
284.67	83.94
284.901	85.94
285.132	94.94
285.364	87.94
285.595	94.94
285.826	92.94
286.057	74.94
286.288	81.94
286.52	100.94
286.751	83.94
286.982	99.94
287.213	79.94
287.444	93.94
287.675	79.94
287.906	88.94
288.138	90.94
288.369	91.94
288.6	87.94
288.831	95.94
289.062	95.94
289.293	84.94
289.524	83.94
289.755	84.94
289.986	100.94
290.217	92.94
290.448	85.94
290.679	89.94
290.91	90.94
291.141	95.94
291.371	86.94
291.602	87.94
291.833	87.94
292.064	92.94
292.295	74.94
292.526	86.94
292.757	90.94
292.987	95.94
293.218	91.94
293.449	73.94
293.68	87.94
293.91	96.94
294.141	84.94
294.372	91.94
294.603	97.94
294.833	95.94
295.064	96.94
295.295	101.94
295.525	97.94
295.756	96.94
295.987	114.94
296.217	134.94
296.448	111.94
296.679	111.94
296.909	101.94
297.14	99.94
297.37	89.94
297.601	85.94
297.831	89.94
298.062	103.94
298.292	101.94
298.523	96.94
298.753	95.94
298.984	93.94
299.214	86.94
299.445	93.94
299.675	97.94
299.905	105.94
300.136	83.94
300.366	92.94
300.597	92.94
300.827	90.94
301.057	111.94
301.288	98.94
301.518	95.94
301.748	87.94
301.979	90.94
302.209	97.94
302.439	91.94
302.669	95.94
302.9	96.94
303.13	81.94
303.36	101.94
303.59	108.94
303.82	104.94
304.051	85.94
304.281	100.94
304.511	84.94
304.741	90.94
304.971	90.94
305.201	102.94
305.431	100.94
305.661	94.94
305.891	91.94
306.121	95.94
306.352	99.94
306.582	94.94
306.812	93.94
307.042	103.94
307.272	109.94
307.502	106.94
307.731	87.94
307.961	87.94
308.191	94.94
308.421	102.94
308.651	89.94
308.881	102.94
309.111	96.94
309.341	107.94
309.571	100.94
309.8	99.94
310.03	96.94
310.26	93.94
310.49	99.94
310.72	89.94
310.949	85.94
311.179	91.94
311.409	89.94
311.639	106.94
311.868	96.94
312.098	95.94
312.328	112.94
312.557	106.94
312.787	106.94
313.017	105.94
313.246	85.94
313.476	88.94
313.706	88.94
313.935	102.94
314.165	94.94
314.394	95.94
314.624	96.94
314.853	101.94
315.083	96.94
315.312	76.94
315.542	90.94
315.771	85.94
316.001	81.94
316.23	111.94
316.46	90.94
316.689	99.94
316.919	97.94
317.148	100.94
317.377	95.94
317.607	80.94
317.836	105.94
318.065	83.94
318.295	85.94
318.524	96.94
318.753	90.94
318.983	95.94
319.212	85.94
319.441	93.94
319.67	103.94
319.9	96.94
320.129	93.94
320.358	98.94
320.587	90.94
320.816	97.94
321.046	108.94
321.275	103.94
321.504	88.94
321.733	80.94
321.962	98.94
322.191	95.94
322.42	104.94
322.649	92.94
322.878	113.94
323.108	115.94
323.337	129.94
323.566	129.94
323.795	148.94
324.024	198.94
324.253	372.94
324.482	803.94
324.71	1610.94
324.939	2211.94
325.168	773.94
325.397	225.94
325.626	143.94
325.855	129.94
326.084	122.94
326.313	127.94
326.542	140.94
326.77	219.94
326.999	453.94
327.228	912.94
327.457	1727.94
327.686	1343.94
327.914	355.94
328.143	179.94
328.372	155.94
328.6	121.94
328.829	113.94
329.058	123.94
329.287	121.94
329.515	104.94
329.744	108.94
329.972	100.94
330.201	114.94
330.43	133.94
330.658	122.94
330.887	115.94
331.115	114.94
331.344	92.94
331.572	101.94
331.801	117.94
332.03	93.94
332.258	94.94
332.486	93.94
332.715	100.94
332.943	99.94
333.172	93.94
333.4	101.94
333.629	116.94
333.857	113.94
334.085	103.94
334.314	112.94
334.542	125.94
334.771	123.94
334.999	106.94
335.227	96.94
335.455	94.94
335.684	92.94
335.912	103.94
336.14	105.94
336.369	91.94
336.597	96.94
336.825	100.94
337.053	80.94
337.281	74.94
337.51	92.94
337.738	93.94
337.966	85.94
338.194	96.94
338.422	95.94
338.65	91.94
338.878	95.94
339.106	108.94
339.334	86.94
339.562	94.94
339.79	91.94
340.018	87.94
340.246	73.94
340.474	88.94
340.702	96.94
340.93	73.94
341.158	97.94
341.386	103.94
341.614	95.94
341.842	98.94
342.07	91.94
342.298	91.94
342.526	80.94
342.754	92.94
342.981	85.94
343.209	88.94
343.437	92.94
343.665	89.94
343.893	90.94
344.12	87.94
344.348	98.94
344.576	83.94
344.804	79.94
345.031	79.94
345.259	100.94
345.487	99.94
345.714	94.94
345.942	79.94
346.17	103.94
346.397	87.94
346.625	86.94
346.853	77.94
347.08	95.94
347.308	93.94
347.535	88.94
347.763	98.94
347.99	107.94
348.218	89.94
348.445	78.94
348.673	93.94
348.9	97.94
349.128	76.94
349.355	95.94
349.583	85.94
349.81	96.94
350.037	87.94
350.265	97.94
350.492	93.94
350.72	86.94
350.947	108.94
351.174	110.94
351.402	98.94
351.629	99.94
351.856	105.94
352.083	98.94
352.311	103.94
352.538	103.94
352.765	103.94
352.992	115.94
353.22	94.94
353.447	106.94
353.674	91.94
353.901	103.94
354.128	80.94
354.355	107.94
354.583	90.94
354.81	91.94
355.037	105.94
355.264	102.94
355.491	107.94
355.718	96.94
355.945	90.94
356.172	88.94
356.399	93.94
356.626	89.94
356.853	90.94
357.08	95.94
357.307	88.94
357.534	90.94
357.761	80.94
357.988	93.94
358.215	100.94
358.441	83.94
358.668	93.94
358.895	103.94
359.122	102.94
359.349	98.94
359.576	79.94
359.802	102.94
360.029	103.94
360.256	105.94
360.483	103.94
360.709	81.94
360.936	100.94
361.163	94.94
361.39	101.94
361.616	86.94
361.843	88.94
362.07	83.94
362.296	103.94
362.523	88.94
362.749	96.94
362.976	101.94
363.203	104.94
363.429	92.94
363.656	96.94
363.882	92.94
364.109	90.94
364.335	75.94
364.562	92.94
364.788	86.94
365.015	90.94
365.241	98.94
365.468	98.94
365.694	91.94
365.92	105.94
366.147	95.94
366.373	92.94
366.599	83.94
366.826	104.94
367.052	82.94
367.278	82.94
367.505	86.94
367.731	81.94
367.957	106.94
368.184	79.94
368.41	88.94
368.636	113.94
368.862	113.94
369.089	91.94
369.315	97.94
369.541	88.94
369.767	83.94
369.993	92.94
370.219	89.94
370.445	99.94
370.672	85.94
370.898	84.94
371.124	86.94
371.35	74.94
371.576	85.94
371.802	91.94
372.028	88.94
372.254	84.94
372.48	83.94
372.706	85.94
372.932	96.94
373.158	97.94
373.384	68.94
373.61	99.94
373.835	102.94
374.061	89.94
374.287	90.94
374.513	92.94
374.739	95.94
374.965	95.94
375.191	94.94
375.416	97.94
375.642	87.94
375.868	104.94
376.094	87.94
376.319	95.94
376.545	84.94
376.771	80.94
376.997	82.94
377.222	95.94
377.448	89.94
377.674	84.94
377.899	87.94
378.125	96.94
378.35	91.94
378.576	83.94
378.802	93.94
379.027	94.94
379.253	98.94
379.478	86.94
379.704	99.94
379.929	89.94
380.155	99.94
380.38	103.94
380.606	98.94
380.831	75.94
381.057	87.94
381.282	91.94
381.507	100.94
381.733	80.94
381.958	99.94
382.184	91.94
382.409	97.94
382.634	85.94
382.86	111.94
383.085	113.94
383.31	105.94
383.535	103.94
383.761	101.94
383.986	93.94
384.211	89.94
384.436	101.94
384.662	100.94
384.887	106.94
385.112	109.94
385.337	93.94
385.562	106.94
385.787	90.94
386.013	100.94
386.238	103.94
386.463	116.94
386.688	109.94
386.913	98.94
387.138	104.94
387.363	104.94
387.588	93.94
387.813	92.94
388.038	107.94
388.263	109.94
388.488	82.94
388.713	99.94
388.938	86.94
389.163	102.94
389.387	101.94
389.612	91.94
389.837	100.94
390.062	88.94
390.287	88.94
390.512	83.94
390.736	72.94
390.961	98.94
391.186	90.94
391.411	90.94
391.636	92.94
391.86	88.94
392.085	87.94
392.31	82.94
392.534	91.94
392.759	97.94
392.984	88.94
393.208	102.94
393.433	92.94
393.658	90.94
393.882	82.94
394.107	92.94
394.331	86.94
394.556	88.94
394.78	103.94
395.005	82.94
395.229	83.94
395.454	78.94
395.678	90.94
395.903	90.94
396.127	91.94
396.352	96.94
396.576	90.94
396.801	90.94
397.025	88.94
397.249	95.94
397.474	99.94
397.698	81.94
397.922	86.94
398.147	87.94
398.371	83.94
398.595	89.94
398.82	89.94
399.044	93.94
399.268	102.94
399.492	102.94
399.717	81.94
399.941	94.94
400.165	80.94
400.389	79.94
400.613	86.94
400.837	90.94
401.062	91.94
401.286	99.94
401.51	91.94
401.734	101.94
401.958	105.94
402.182	98.94
402.406	142.94
402.63	91.94
402.854	85.94
403.078	108.94
403.302	91.94
403.526	84.94
403.75	89.94
403.974	82.94
404.198	93.94
404.422	91.94
404.645	105.94
404.869	97.94
405.093	101.94
405.317	96.94
405.541	101.94
405.765	83.94
405.988	108.94
406.212	157.94
406.436	195.94
406.66	131.94
406.883	98.94
407.107	97.94
407.331	85.94
407.555	96.94
407.778	99.94
408.002	92.94
408.226	76.94
408.449	77.94
408.673	100.94
408.896	100.94
409.12	96.94
409.344	87.94
409.567	89.94
409.791	101.94
410.014	98.94
410.238	91.94
410.461	84.94
410.685	87.94
410.908	95.94
411.132	119.94
411.355	90.94
411.578	94.94
411.802	91.94
412.025	75.94
412.249	84.94
412.472	88.94
412.695	91.94
412.919	90.94
413.142	77.94
413.365	81.94
413.589	93.94
413.812	79.94
414.035	95.94
414.258	95.94
414.482	82.94
414.705	82.94
414.928	80.94
415.151	91.94
415.374	87.94
415.597	101.94
415.821	83.94
416.044	91.94
416.267	86.94
416.49	95.94
416.713	99.94
416.936	100.94
417.159	102.94
417.382	81.94
417.605	106.94
417.828	84.94
418.051	66.94
418.274	92.94
418.497	87.94
418.72	74.94
418.943	73.94
419.166	95.94
419.389	82.94
419.611	97.94
419.834	87.94
420.057	84.94
420.28	83.94
420.503	92.94
420.726	103.94
420.948	94.94
421.171	91.94
421.394	101.94
421.617	92.94
421.839	102.94
422.062	89.94
422.285	99.94
422.507	94.94
422.73	102.94
422.953	76.94
423.175	93.94
423.398	87.94
423.621	90.94
423.843	95.94
424.066	76.94
424.288	103.94
424.511	94.94
424.733	96.94
424.956	105.94
425.178	94.94
425.401	84.94
425.623	82.94
425.846	93.94
426.068	97.94
426.291	88.94
426.513	99.94
426.735	97.94
426.958	101.94
427.18	100.94
427.402	144.94
427.625	167.94
427.847	119.94
428.069	115.94
428.292	85.94
428.514	84.94
428.736	91.94
428.958	92.94
429.181	90.94
429.403	88.94
429.625	63.94
429.847	102.94
430.069	88.94
430.292	91.94
430.514	90.94
430.736	92.94
430.958	84.94
431.18	77.94
431.402	87.94
431.624	95.94
431.846	81.94
432.068	79.94
432.29	80.94
432.512	86.94
432.734	77.94
432.956	94.94
433.178	89.94
433.4	93.94
433.622	73.94
433.844	94.94
434.066	81.94
434.287	83.94
434.509	96.94
434.731	81.94
434.953	93.94
435.175	83.94
435.397	95.94
435.618	96.94
435.84	107.94
436.062	113.94
436.284	115.94
436.505	94.94
436.727	92.94
436.949	85.94
437.17	90.94
437.392	86.94
437.614	92.94
437.835	95.94
438.057	108.94
438.278	91.94
438.5	102.94
438.721	126.94
438.943	100.94
439.165	95.94
439.386	77.94
439.608	97.94
439.829	91.94
440.05	107.94
440.272	121.94
440.493	84.94
440.715	87.94
440.936	81.94
441.158	87.94
441.379	83.94
441.6	88.94
441.822	75.94
442.043	91.94
442.264	91.94
442.486	92.94
442.707	88.94
442.928	92.94
443.149	119.94
443.371	119.94
443.592	101.94
443.813	117.94
444.034	96.94
444.255	95.94
444.476	101.94
444.698	100.94
444.919	75.94
445.14	143.94
445.361	118.94
445.582	113.94
445.803	137.94
446.024	123.94
446.245	140.94
446.466	83.94
446.687	95.94
446.908	86.94
447.129	91.94
447.35	96.94
447.571	100.94
447.792	96.94
448.013	99.94
448.234	99.94
448.455	88.94
448.675	93.94
448.896	106.94
449.117	106.94
449.338	92.94
449.559	137.94
449.779	122.94
450	93.94
450.221	98.94
450.442	91.94
450.662	88.94
450.883	96.94
451.104	79.94
451.324	86.94
451.545	75.94
451.766	80.94
451.986	87.94
452.207	98.94
452.428	83.94
452.648	96.94
452.869	113.94
453.089	89.94
453.31	101.94
453.53	104.94
453.751	87.94
453.971	98.94
454.192	105.94
454.412	101.94
454.633	98.94
454.853	107.94
455.073	100.94
455.294	99.94
455.514	91.94
455.734	93.94
455.955	84.94
456.175	97.94
456.395	78.94
456.616	87.94
456.836	97.94
457.056	85.94
457.276	82.94
457.497	83.94
457.717	79.94
457.937	90.94
458.157	79.94
458.377	81.94
458.598	91.94
458.818	141.94
459.038	136.94
459.258	97.94
459.478	93.94
459.698	93.94
459.918	72.94
460.138	78.94
460.358	91.94
460.578	76.94
460.798	89.94
461.018	82.94
461.238	92.94
461.458	77.94
461.678	75.94
461.898	83.94
462.118	83.94
462.338	82.94
462.558	71.94
462.777	97.94
462.997	77.94
463.217	90.94
463.437	83.94
463.657	79.94
463.876	99.94
464.096	96.94
464.316	98.94
464.536	95.94
464.755	91.94
464.975	94.94
465.195	136.94
465.414	148.94
465.634	100.94
465.854	93.94
466.073	90.94
466.293	90.94
466.512	96.94
466.732	99.94
466.951	86.94
467.171	87.94
467.391	96.94
467.61	106.94
467.829	79.94
468.049	89.94
468.268	97.94
468.488	84.94
468.707	77.94
468.927	75.94
469.146	83.94
469.365	93.94
469.585	82.94
469.804	75.94
470.023	98.94
470.243	87.94
470.462	79.94
470.681	106.94
470.901	86.94
471.12	80.94
471.339	66.94
471.558	94.94
471.777	91.94
471.997	86.94
472.216	103.94
472.435	130.94
472.654	93.94
472.873	104.94
473.092	98.94
473.311	76.94
473.53	84.94
473.749	91.94
473.968	100.94
474.187	102.94
474.406	98.94
474.625	87.94
474.844	77.94
475.063	69.94
475.282	80.94
475.501	91.94
475.72	93.94
475.939	99.94
476.158	80.94
476.377	88.94
476.596	83.94
476.814	92.94
477.033	98.94
477.252	92.94
477.471	86.94
477.69	87.94
477.908	74.94
478.127	88.94
478.346	81.94
478.564	99.94
478.783	85.94
479.002	93.94
479.22	104.94
479.439	103.94
479.658	103.94
479.876	88.94
480.095	89.94
480.313	89.94
480.532	98.94
480.751	84.94
480.969	120.94
481.188	173.94
481.406	124.94
481.624	91.94
481.843	93.94
482.061	84.94
482.28	90.94
482.498	89.94
482.717	95.94
482.935	108.94
483.153	89.94
483.372	86.94
483.59	72.94
483.808	70.94
484.027	101.94
484.245	76.94
484.463	84.94
484.681	95.94
484.9	101.94
485.118	96.94
485.336	92.94
485.554	84.94
485.772	88.94
485.99	97.94
486.209	96.94
486.427	99.94
486.645	104.94
486.863	117.94
487.081	93.94
487.299	99.94
487.517	83.94
487.735	86.94
487.953	90.94
488.171	98.94
488.389	93.94
488.607	96.94
488.825	101.94
489.043	95.94
489.261	104.94
489.479	91.94
489.696	93.94
489.914	87.94
490.132	88.94
490.35	112.94
490.568	88.94
490.786	102.94
491.003	79.94
491.221	79.94
491.439	85.94
491.657	101.94
491.874	82.94
492.092	76.94
492.31	87.94
492.527	97.94
492.745	90.94
492.963	87.94
493.18	84.94
493.398	95.94
493.615	81.94
493.833	81.94
494.05	99.94
494.268	89.94
494.485	92.94
494.703	90.94
494.92	91.94
495.138	74.94
495.355	85.94
495.573	89.94
495.79	87.94
496.008	97.94
496.225	80.94
496.442	95.94
496.66	81.94
496.877	92.94
497.094	89.94
497.312	89.94
497.529	81.94
497.746	88.94
497.963	104.94
498.181	110.94
498.398	101.94
498.615	128.94
498.832	100.94
499.049	75.94
499.267	90.94
499.484	101.94
499.701	88.94
499.918	99.94
500.135	90.94
500.352	88.94
500.569	99.94
500.786	114.94
501.003	100.94
501.22	104.94
501.437	101.94
501.654	86.94
501.871	105.94
502.088	101.94
502.305	90.94
502.522	87.94
502.739	69.94
502.956	89.94
503.172	87.94
503.389	79.94
503.606	93.94
503.823	95.94
504.04	87.94
504.256	91.94
504.473	89.94
504.69	83.94
504.907	108.94
505.123	94.94
505.34	92.94
505.557	84.94
505.773	91.94
505.99	87.94
506.207	86.94
506.423	100.94
506.64	77.94
506.856	85.94
507.073	74.94
507.289	93.94
507.506	97.94
507.722	106.94
507.939	95.94
508.155	102.94
508.372	99.94
508.588	94.94
508.805	91.94
509.021	97.94
509.238	91.94
509.454	85.94
509.67	104.94
509.887	111.94
510.103	129.94
510.319	209.94
510.536	688.94
510.752	2089.94
510.968	572.94
511.184	143.94
511.401	103.94
511.617	112.94
511.833	93.94
512.049	98.94
512.265	88.94
512.481	74.94
512.698	73.94
512.914	88.94
513.13	113.94
513.346	97.94
513.562	98.94
513.778	113.94
513.994	89.94
514.21	104.94
514.426	106.94
514.642	137.94
514.858	122.94
515.074	147.94
515.29	376.94
515.506	1237.94
515.721	467.94
515.937	131.94
