Data from Uncirc_1985_H10_HRD10591_00079.txt Node
Date: Wed Jan 03 12:18:33 EST 2024
User: Yrep
Spectrometer: HR+D1059
Trigger mode: 1
Integration Time (sec): 1.000000E-1
Scans to average: 1
Electric dark correction enabled: true
Nonlinearity correction enabled: false
Boxcar width: 0
XAxis mode: Wavelengths
Number of Pixels in Spectrum: 2048
>>>>>Begin Spectral Data<<<<<
223.165	-12.88
223.4	-12.88
223.635	-12.88
223.869	-13.88
224.104	-17.88
224.338	-18.88
224.573	-25.88
224.808	-13.88
225.042	-9.88
225.277	-10.88
225.511	0.12
225.746	4.12
225.98	2.12
226.215	7.12
226.449	24.12
226.683	26.12
226.918	30.12
227.152	30.12
227.387	35.12
227.621	35.12
227.856	34.12
228.09	57.12
228.324	65.12
228.559	55.12
228.793	69.12
229.027	58.12
229.262	63.12
229.496	70.12
229.73	72.12
229.964	90.12
230.199	60.12
230.433	73.12
230.667	62.12
230.901	96.12
231.136	71.12
231.37	79.12
231.604	71.12
231.838	80.12
232.072	94.12
232.306	90.12
232.541	79.12
232.775	94.12
233.009	70.12
233.243	98.12
233.477	88.12
233.711	81.12
233.945	84.12
234.179	88.12
234.413	86.12
234.647	71.12
234.881	86.12
235.115	78.12
235.349	85.12
235.583	78.12
235.817	76.12
236.051	91.12
236.285	81.12
236.519	69.12
236.753	84.12
236.987	85.12
237.221	70.12
237.455	87.12
237.689	80.12
237.922	79.12
238.156	94.12
238.39	78.12
238.624	79.12
238.858	84.12
239.091	75.12
239.325	70.12
239.559	74.12
239.793	79.12
240.027	78.12
240.26	74.12
240.494	66.12
240.728	82.12
240.961	91.12
241.195	74.12
241.429	74.12
241.662	82.12
241.896	76.12
242.13	65.12
242.363	90.12
242.597	84.12
242.83	85.12
243.064	87.12
243.298	89.12
243.531	67.12
243.765	70.12
243.998	80.12
244.232	89.12
244.465	71.12
244.699	96.12
244.932	75.12
245.166	94.12
245.399	74.12
245.633	66.12
245.866	75.12
246.099	71.12
246.333	85.12
246.566	84.12
246.8	78.12
247.033	71.12
247.266	84.12
247.5	70.12
247.733	80.12
247.966	70.12
248.2	100.12
248.433	87.12
248.666	85.12
248.899	91.12
249.133	88.12
249.366	90.12
249.599	98.12
249.832	90.12
250.066	74.12
250.299	84.12
250.532	92.12
250.765	81.12
250.998	87.12
251.231	66.12
251.465	94.12
251.698	83.12
251.931	69.12
252.164	66.12
252.397	66.12
252.63	80.12
252.863	59.12
253.096	72.12
253.329	78.12
253.562	91.12
253.795	82.12
254.028	65.12
254.261	74.12
254.494	71.12
254.727	83.12
254.96	88.12
255.193	72.12
255.426	76.12
255.659	74.12
255.892	90.12
256.124	85.12
256.357	75.12
256.59	81.12
256.823	94.12
257.056	78.12
257.289	88.12
257.521	90.12
257.754	81.12
257.987	87.12
258.22	105.12
258.452	84.12
258.685	84.12
258.918	79.12
259.151	70.12
259.383	99.12
259.616	80.12
259.849	94.12
260.081	86.12
260.314	92.12
260.547	94.12
260.779	101.12
261.012	83.12
261.244	99.12
261.477	76.12
261.71	91.12
261.942	106.12
262.175	102.12
262.407	85.12
262.64	86.12
262.872	83.12
263.105	87.12
263.337	86.12
263.57	89.12
263.802	84.12
264.035	90.12
264.267	59.12
264.499	78.12
264.732	82.12
264.964	78.12
265.197	78.12
265.429	95.12
265.661	87.12
265.894	82.12
266.126	73.12
266.358	106.12
266.591	96.12
266.823	70.12
267.055	85.12
267.287	76.12
267.52	76.12
267.752	75.12
267.984	73.12
268.216	99.12
268.448	85.12
268.681	90.12
268.913	88.12
269.145	83.12
269.377	88.12
269.609	93.12
269.841	86.12
270.073	92.12
270.306	83.12
270.538	92.12
270.77	87.12
271.002	88.12
271.234	84.12
271.466	86.12
271.698	78.12
271.93	98.12
272.162	82.12
272.394	100.12
272.626	85.12
272.858	75.12
273.09	88.12
273.322	84.12
273.553	80.12
273.785	89.12
274.017	89.12
274.249	95.12
274.481	90.12
274.713	91.12
274.945	89.12
275.176	88.12
275.408	90.12
275.64	84.12
275.872	94.12
276.104	86.12
276.335	101.12
276.567	87.12
276.799	93.12
277.031	94.12
277.262	97.12
277.494	85.12
277.726	88.12
277.957	69.12
278.189	73.12
278.421	79.12
278.652	78.12
278.884	88.12
279.115	89.12
279.347	75.12
279.579	85.12
279.81	88.12
280.042	91.12
280.273	95.12
280.505	91.12
280.736	79.12
280.968	88.12
281.199	75.12
281.431	81.12
281.662	82.12
281.894	100.12
282.125	96.12
282.356	127.12
282.588	137.12
282.819	118.12
283.051	86.12
283.282	90.12
283.513	89.12
283.745	99.12
283.976	95.12
284.207	79.12
284.439	86.12
284.67	83.12
284.901	78.12
285.132	99.12
285.364	95.12
285.595	79.12
285.826	92.12
286.057	87.12
286.288	96.12
286.52	82.12
286.751	79.12
286.982	86.12
287.213	81.12
287.444	96.12
287.675	93.12
287.906	92.12
288.138	73.12
288.369	86.12
288.6	84.12
288.831	83.12
289.062	80.12
289.293	88.12
289.524	81.12
289.755	86.12
289.986	96.12
290.217	73.12
290.448	83.12
290.679	91.12
290.91	83.12
291.141	86.12
291.371	89.12
291.602	95.12
291.833	81.12
292.064	86.12
292.295	102.12
292.526	81.12
292.757	79.12
292.987	87.12
293.218	86.12
293.449	73.12
293.68	93.12
293.91	105.12
294.141	90.12
294.372	89.12
294.603	87.12
294.833	84.12
295.064	88.12
295.295	81.12
295.525	94.12
295.756	114.12
295.987	109.12
296.217	130.12
296.448	122.12
296.679	95.12
296.909	89.12
297.14	91.12
297.37	90.12
297.601	84.12
297.831	96.12
298.062	90.12
298.292	82.12
298.523	77.12
298.753	87.12
298.984	80.12
299.214	90.12
299.445	92.12
299.675	92.12
299.905	89.12
300.136	85.12
300.366	98.12
300.597	99.12
300.827	83.12
301.057	97.12
301.288	108.12
301.518	88.12
301.748	72.12
301.979	93.12
302.209	97.12
302.439	91.12
302.669	82.12
302.9	90.12
303.13	81.12
303.36	92.12
303.59	97.12
303.82	101.12
304.051	100.12
304.281	83.12
304.511	89.12
304.741	81.12
304.971	103.12
305.201	75.12
305.431	80.12
305.661	102.12
305.891	91.12
306.121	98.12
306.352	84.12
306.582	101.12
306.812	90.12
307.042	88.12
307.272	91.12
307.502	108.12
307.731	96.12
307.961	98.12
308.191	77.12
308.421	81.12
308.651	97.12
308.881	91.12
309.111	87.12
309.341	92.12
309.571	101.12
309.8	95.12
310.03	84.12
310.26	87.12
310.49	92.12
310.72	92.12
310.949	94.12
311.179	88.12
311.409	99.12
311.639	87.12
311.868	111.12
312.098	98.12
312.328	88.12
312.557	108.12
312.787	84.12
313.017	87.12
313.246	101.12
313.476	84.12
313.706	99.12
313.935	87.12
314.165	89.12
314.394	107.12
314.624	93.12
314.853	97.12
315.083	94.12
315.312	95.12
315.542	89.12
315.771	92.12
316.001	104.12
316.23	94.12
316.46	89.12
316.689	91.12
316.919	93.12
317.148	90.12
317.377	90.12
317.607	96.12
317.836	91.12
318.065	93.12
318.295	87.12
318.524	75.12
318.753	90.12
318.983	80.12
319.212	87.12
319.441	103.12
319.67	104.12
319.9	100.12
320.129	105.12
320.358	90.12
320.587	92.12
320.816	95.12
321.046	103.12
321.275	101.12
321.504	82.12
321.733	98.12
321.962	99.12
322.191	102.12
322.42	107.12
322.649	112.12
322.878	98.12
323.108	104.12
323.337	126.12
323.566	114.12
323.795	129.12
324.024	201.12
324.253	355.12
324.482	772.12
324.71	1535.12
324.939	2024.12
325.168	752.12
325.397	230.12
325.626	155.12
325.855	130.12
326.084	120.12
326.313	121.12
326.542	153.12
326.77	228.12
326.999	438.12
327.228	904.12
327.457	1590.12
327.686	1279.12
327.914	370.12
328.143	192.12
328.372	156.12
328.6	124.12
328.829	106.12
329.058	118.12
329.287	126.12
329.515	99.12
329.744	111.12
329.972	105.12
330.201	136.12
330.43	158.12
330.658	133.12
330.887	138.12
331.115	105.12
331.344	101.12
331.572	96.12
331.801	89.12
332.03	79.12
332.258	109.12
332.486	91.12
332.715	80.12
332.943	101.12
333.172	81.12
333.4	94.12
333.629	100.12
333.857	112.12
334.085	120.12
334.314	134.12
334.542	169.12
334.771	158.12
334.999	108.12
335.227	106.12
335.455	95.12
335.684	102.12
335.912	99.12
336.14	101.12
336.369	95.12
336.597	80.12
336.825	103.12
337.053	97.12
337.281	92.12
337.51	75.12
337.738	73.12
337.966	98.12
338.194	108.12
338.422	98.12
338.65	107.12
338.878	101.12
339.106	105.12
339.334	103.12
339.562	86.12
339.79	90.12
340.018	87.12
340.246	79.12
340.474	95.12
340.702	97.12
340.93	100.12
341.158	100.12
341.386	91.12
341.614	94.12
341.842	85.12
342.07	77.12
342.298	95.12
342.526	89.12
342.754	65.12
342.981	89.12
343.209	100.12
343.437	82.12
343.665	82.12
343.893	85.12
344.12	84.12
344.348	98.12
344.576	90.12
344.804	85.12
345.031	103.12
345.259	112.12
345.487	99.12
345.714	103.12
345.942	95.12
346.17	104.12
346.397	85.12
346.625	90.12
346.853	87.12
347.08	87.12
347.308	90.12
347.535	93.12
347.763	98.12
347.99	96.12
348.218	97.12
348.445	88.12
348.673	101.12
348.9	83.12
349.128	111.12
349.355	89.12
349.583	95.12
349.81	88.12
350.037	101.12
350.265	92.12
350.492	84.12
350.72	82.12
350.947	94.12
351.174	94.12
351.402	98.12
351.629	113.12
351.856	99.12
352.083	104.12
352.311	96.12
352.538	86.12
352.765	98.12
352.992	104.12
353.22	112.12
353.447	99.12
353.674	85.12
353.901	110.12
354.128	100.12
354.355	92.12
354.583	102.12
354.81	115.12
355.037	100.12
355.264	89.12
355.491	100.12
355.718	92.12
355.945	84.12
356.172	98.12
356.399	99.12
356.626	92.12
356.853	92.12
357.08	91.12
357.307	89.12
357.534	88.12
357.761	104.12
357.988	91.12
358.215	95.12
358.441	93.12
358.668	93.12
358.895	96.12
359.122	86.12
359.349	85.12
359.576	99.12
359.802	79.12
360.029	108.12
360.256	95.12
360.483	100.12
360.709	84.12
360.936	89.12
361.163	86.12
361.39	98.12
361.616	99.12
361.843	98.12
362.07	85.12
362.296	98.12
362.523	94.12
362.749	94.12
362.976	84.12
363.203	88.12
363.429	75.12
363.656	76.12
363.882	88.12
364.109	106.12
364.335	98.12
364.562	89.12
364.788	86.12
365.015	84.12
365.241	93.12
365.468	116.12
365.694	109.12
365.92	103.12
366.147	96.12
366.373	91.12
366.599	78.12
366.826	84.12
367.052	84.12
367.278	90.12
367.505	83.12
367.731	98.12
367.957	85.12
368.184	86.12
368.41	111.12
368.636	98.12
368.862	106.12
369.089	98.12
369.315	97.12
369.541	89.12
369.767	92.12
369.993	99.12
370.219	90.12
370.445	89.12
370.672	88.12
370.898	88.12
371.124	80.12
371.35	91.12
371.576	82.12
371.802	91.12
372.028	79.12
372.254	87.12
372.48	75.12
372.706	72.12
372.932	98.12
373.158	86.12
373.384	94.12
373.61	96.12
373.835	103.12
374.061	100.12
374.287	90.12
374.513	89.12
374.739	91.12
374.965	100.12
375.191	79.12
375.416	93.12
375.642	90.12
375.868	96.12
376.094	88.12
376.319	89.12
376.545	95.12
376.771	94.12
376.997	82.12
377.222	72.12
377.448	98.12
377.674	77.12
377.899	89.12
378.125	94.12
378.35	80.12
378.576	89.12
378.802	94.12
379.027	80.12
379.253	88.12
379.478	87.12
379.704	88.12
379.929	98.12
380.155	89.12
380.38	80.12
380.606	94.12
380.831	94.12
381.057	106.12
381.282	84.12
381.507	94.12
381.733	92.12
381.958	92.12
382.184	103.12
382.409	91.12
382.634	84.12
382.86	114.12
383.085	98.12
383.31	91.12
383.535	86.12
383.761	88.12
383.986	94.12
384.211	78.12
384.436	102.12
384.662	85.12
384.887	100.12
385.112	94.12
385.337	102.12
385.562	107.12
385.787	91.12
386.013	102.12
386.238	108.12
386.463	103.12
386.688	90.12
386.913	91.12
387.138	108.12
387.363	100.12
387.588	85.12
387.813	98.12
388.038	92.12
388.263	99.12
388.488	95.12
388.713	96.12
388.938	86.12
389.163	94.12
389.387	96.12
389.612	81.12
389.837	78.12
390.062	85.12
390.287	89.12
390.512	93.12
390.736	68.12
390.961	86.12
391.186	90.12
391.411	83.12
391.636	83.12
391.86	86.12
392.085	86.12
392.31	79.12
392.534	84.12
392.759	78.12
392.984	92.12
393.208	77.12
393.433	82.12
393.658	74.12
393.882	101.12
394.107	86.12
394.331	90.12
394.556	92.12
394.78	69.12
395.005	63.12
395.229	90.12
395.454	90.12
395.678	97.12
395.903	94.12
396.127	90.12
396.352	96.12
396.576	82.12
396.801	94.12
397.025	95.12
397.249	87.12
397.474	87.12
397.698	96.12
397.922	98.12
398.147	83.12
398.371	82.12
398.595	71.12
398.82	75.12
399.044	73.12
399.268	83.12
399.492	86.12
399.717	97.12
399.941	90.12
400.165	90.12
400.389	88.12
400.613	82.12
400.837	99.12
401.062	81.12
401.286	94.12
401.51	88.12
401.734	94.12
401.958	86.12
402.182	110.12
402.406	148.12
402.63	112.12
402.854	109.12
403.078	87.12
403.302	94.12
403.526	80.12
403.75	69.12
403.974	92.12
404.198	83.12
404.422	82.12
404.645	80.12
404.869	90.12
405.093	82.12
405.317	90.12
405.541	100.12
405.765	101.12
405.988	115.12
406.212	168.12
406.436	215.12
406.66	137.12
406.883	110.12
407.107	92.12
407.331	83.12
407.555	85.12
407.778	101.12
408.002	83.12
408.226	97.12
408.449	81.12
408.673	95.12
408.896	101.12
409.12	92.12
409.344	98.12
409.567	82.12
409.791	73.12
410.014	101.12
410.238	106.12
410.461	83.12
410.685	95.12
410.908	89.12
411.132	101.12
411.355	99.12
411.578	96.12
411.802	92.12
412.025	96.12
412.249	97.12
412.472	89.12
412.695	88.12
412.919	97.12
413.142	98.12
413.365	87.12
413.589	97.12
413.812	89.12
414.035	97.12
414.258	91.12
414.482	86.12
414.705	88.12
414.928	103.12
415.151	96.12
415.374	88.12
415.597	84.12
415.821	91.12
416.044	105.12
416.267	87.12
416.49	94.12
416.713	87.12
416.936	86.12
417.159	88.12
417.382	91.12
417.605	88.12
417.828	106.12
418.051	82.12
418.274	78.12
418.497	92.12
418.72	96.12
418.943	88.12
419.166	90.12
419.389	81.12
419.611	86.12
419.834	91.12
420.057	90.12
420.28	91.12
420.503	94.12
420.726	79.12
420.948	86.12
421.171	90.12
421.394	94.12
421.617	80.12
421.839	87.12
422.062	82.12
422.285	99.12
422.507	87.12
422.73	98.12
422.953	82.12
423.175	82.12
423.398	100.12
423.621	83.12
423.843	87.12
424.066	82.12
424.288	81.12
424.511	78.12
424.733	95.12
424.956	101.12
425.178	102.12
425.401	107.12
425.623	87.12
425.846	99.12
426.068	88.12
426.291	82.12
426.513	95.12
426.735	90.12
426.958	95.12
427.18	104.12
427.402	141.12
427.625	144.12
427.847	125.12
428.069	120.12
428.292	94.12
428.514	96.12
428.736	88.12
428.958	82.12
429.181	85.12
429.403	97.12
429.625	91.12
429.847	98.12
430.069	100.12
430.292	92.12
430.514	80.12
430.736	84.12
430.958	85.12
431.18	82.12
431.402	81.12
431.624	82.12
431.846	99.12
432.068	87.12
432.29	91.12
432.512	89.12
432.734	91.12
432.956	80.12
433.178	95.12
433.4	87.12
433.622	93.12
433.844	91.12
434.066	85.12
434.287	78.12
434.509	83.12
434.731	89.12
434.953	90.12
435.175	98.12
435.397	91.12
435.618	83.12
435.84	99.12
436.062	117.12
436.284	94.12
436.505	86.12
436.727	101.12
436.949	103.12
437.17	84.12
437.392	81.12
437.614	91.12
437.835	119.12
438.057	106.12
438.278	90.12
438.5	103.12
438.721	117.12
438.943	103.12
439.165	83.12
439.386	81.12
439.608	97.12
439.829	100.12
440.05	131.12
440.272	117.12
440.493	96.12
440.715	82.12
440.936	87.12
441.158	80.12
441.379	73.12
441.6	100.12
441.822	86.12
442.043	75.12
442.264	86.12
442.486	96.12
442.707	87.12
442.928	96.12
443.149	130.12
443.371	130.12
443.592	115.12
443.813	109.12
444.034	107.12
444.255	107.12
444.476	87.12
444.698	83.12
444.919	88.12
445.14	133.12
445.361	111.12
445.582	130.12
445.803	125.12
446.024	129.12
446.245	123.12
446.466	102.12
446.687	88.12
446.908	79.12
447.129	86.12
447.35	82.12
447.571	88.12
447.792	102.12
448.013	101.12
448.234	99.12
448.455	103.12
448.675	112.12
448.896	110.12
449.117	96.12
449.338	105.12
449.559	136.12
449.779	106.12
450	76.12
450.221	96.12
450.442	82.12
450.662	86.12
450.883	112.12
451.104	104.12
451.324	96.12
451.545	87.12
451.766	83.12
451.986	85.12
452.207	72.12
452.428	79.12
452.648	98.12
452.869	107.12
453.089	97.12
453.31	118.12
453.53	73.12
453.751	88.12
453.971	91.12
454.192	97.12
454.412	80.12
454.633	90.12
454.853	90.12
455.073	87.12
455.294	105.12
455.514	95.12
455.734	89.12
455.955	78.12
456.175	74.12
456.395	86.12
456.616	84.12
456.836	82.12
457.056	82.12
457.276	83.12
457.497	67.12
457.717	79.12
457.937	82.12
458.157	90.12
458.377	91.12
458.598	96.12
458.818	131.12
459.038	144.12
459.258	107.12
459.478	83.12
459.698	86.12
459.918	102.12
460.138	87.12
460.358	79.12
460.578	88.12
460.798	87.12
461.018	88.12
461.238	85.12
461.458	81.12
461.678	91.12
461.898	77.12
462.118	87.12
462.338	82.12
462.558	92.12
462.777	88.12
462.997	86.12
463.217	83.12
463.437	84.12
463.657	68.12
463.876	83.12
464.096	84.12
464.316	81.12
464.536	95.12
464.755	85.12
464.975	104.12
465.195	162.12
465.414	141.12
465.634	89.12
465.854	78.12
466.073	76.12
466.293	87.12
466.512	84.12
466.732	79.12
466.951	75.12
467.171	83.12
467.391	95.12
467.61	87.12
467.829	97.12
468.049	103.12
468.268	120.12
468.488	72.12
468.707	95.12
468.927	89.12
469.146	95.12
469.365	80.12
469.585	89.12
469.804	91.12
470.023	90.12
470.243	85.12
470.462	85.12
470.681	90.12
470.901	107.12
471.12	93.12
471.339	88.12
471.558	77.12
471.777	85.12
471.997	95.12
472.216	126.12
472.435	186.12
472.654	99.12
472.873	95.12
473.092	82.12
473.311	95.12
473.53	95.12
473.749	98.12
473.968	89.12
474.187	89.12
474.406	95.12
474.625	85.12
474.844	93.12
475.063	78.12
475.282	89.12
475.501	98.12
475.72	88.12
475.939	96.12
476.158	89.12
476.377	105.12
476.596	83.12
476.814	95.12
477.033	100.12
477.252	74.12
477.471	86.12
477.69	95.12
477.908	83.12
478.127	75.12
478.346	84.12
478.564	101.12
478.783	93.12
479.002	99.12
479.22	108.12
479.439	95.12
479.658	101.12
479.876	100.12
480.095	98.12
480.313	82.12
480.532	94.12
480.751	93.12
480.969	114.12
481.188	301.12
481.406	198.12
481.624	105.12
481.843	83.12
482.061	96.12
482.28	72.12
482.498	90.12
482.717	94.12
482.935	88.12
483.153	92.12
483.372	70.12
483.59	84.12
483.808	91.12
484.027	88.12
484.245	98.12
484.463	92.12
484.681	85.12
484.9	101.12
485.118	92.12
485.336	76.12
485.554	86.12
485.772	107.12
485.99	97.12
486.209	93.12
486.427	110.12
486.645	104.12
486.863	104.12
487.081	95.12
487.299	86.12
487.517	87.12
487.735	87.12
487.953	91.12
488.171	92.12
488.389	94.12
488.607	115.12
488.825	87.12
489.043	91.12
489.261	84.12
489.479	89.12
489.696	100.12
489.914	91.12
490.132	88.12
490.35	86.12
490.568	88.12
490.786	95.12
491.003	88.12
491.221	91.12
491.439	87.12
491.657	95.12
491.874	104.12
492.092	92.12
492.31	105.12
492.527	80.12
492.745	80.12
492.963	93.12
493.18	96.12
493.398	100.12
493.615	103.12
493.833	87.12
494.05	100.12
494.268	81.12
494.485	90.12
494.703	87.12
494.92	91.12
495.138	84.12
495.355	86.12
495.573	80.12
495.79	90.12
496.008	86.12
496.225	96.12
496.442	78.12
496.66	85.12
496.877	84.12
497.094	94.12
497.312	95.12
497.529	92.12
497.746	89.12
497.963	94.12
498.181	93.12
498.398	89.12
498.615	104.12
498.832	111.12
499.049	96.12
499.267	105.12
499.484	95.12
499.701	89.12
499.918	82.12
500.135	96.12
500.352	90.12
500.569	99.12
500.786	79.12
501.003	90.12
501.22	85.12
501.437	80.12
501.654	90.12
501.871	107.12
502.088	88.12
502.305	99.12
502.522	84.12
502.739	76.12
502.956	74.12
503.172	86.12
503.389	92.12
503.606	102.12
503.823	92.12
504.04	102.12
504.256	92.12
504.473	90.12
504.69	86.12
504.907	100.12
505.123	92.12
505.34	99.12
505.557	92.12
505.773	99.12
505.99	84.12
506.207	95.12
506.423	85.12
506.64	95.12
506.856	85.12
507.073	70.12
507.289	93.12
507.506	98.12
507.722	107.12
507.939	104.12
508.155	103.12
508.372	90.12
508.588	93.12
508.805	101.12
509.021	96.12
509.238	82.12
509.454	118.12
509.67	101.12
509.887	103.12
510.103	119.12
510.319	186.12
510.536	732.12
510.752	2272.12
510.968	612.12
511.184	142.12
511.401	109.12
511.617	99.12
511.833	89.12
512.049	98.12
512.265	79.12
512.481	86.12
512.698	100.12
512.914	104.12
513.13	90.12
513.346	67.12
513.562	99.12
513.778	73.12
513.994	95.12
514.21	89.12
514.426	97.12
514.642	133.12
514.858	115.12
515.074	154.12
515.29	398.12
515.506	1343.12
515.721	491.12
515.937	130.12
516.153	106.12
