Data from Uncirc_1985_H10_HRD10591_00075.txt Node
Date: Wed Jan 03 12:18:32 EST 2024
User: Yrep
Spectrometer: HR+D1059
Trigger mode: 1
Integration Time (sec): 1.000000E-1
Scans to average: 1
Electric dark correction enabled: true
Nonlinearity correction enabled: false
Boxcar width: 0
XAxis mode: Wavelengths
Number of Pixels in Spectrum: 2048
>>>>>Begin Spectral Data<<<<<
223.165	-11.12
223.4	-11.12
223.635	-11.12
223.869	-11.12
224.104	-15.12
224.338	-19.12
224.573	-22.12
224.808	-8.12
225.042	-16.12
225.277	-1.12
225.511	-8.12
225.746	1.88
225.98	6.88
226.215	14.88
226.449	13.88
226.683	32.88
226.918	21.88
227.152	19.88
227.387	23.88
227.621	49.88
227.856	50.88
228.09	48.88
228.324	55.88
228.559	54.88
228.793	59.88
229.027	62.88
229.262	46.88
229.496	52.88
229.73	86.88
229.964	85.88
230.199	67.88
230.433	63.88
230.667	74.88
230.901	76.88
231.136	75.88
231.37	67.88
231.604	82.88
231.838	83.88
232.072	75.88
232.306	80.88
232.541	72.88
232.775	57.88
233.009	81.88
233.243	65.88
233.477	80.88
233.711	70.88
233.945	62.88
234.179	68.88
234.413	84.88
234.647	63.88
234.881	76.88
235.115	74.88
235.349	62.88
235.583	84.88
235.817	79.88
236.051	76.88
236.285	72.88
236.519	63.88
236.753	85.88
236.987	77.88
237.221	70.88
237.455	74.88
237.689	62.88
237.922	67.88
238.156	66.88
238.39	78.88
238.624	71.88
238.858	82.88
239.091	66.88
239.325	64.88
239.559	70.88
239.793	77.88
240.027	71.88
240.26	83.88
240.494	82.88
240.728	62.88
240.961	83.88
241.195	76.88
241.429	87.88
241.662	71.88
241.896	67.88
242.13	77.88
242.363	65.88
242.597	79.88
242.83	76.88
243.064	67.88
243.298	84.88
243.531	70.88
243.765	69.88
243.998	86.88
244.232	81.88
244.465	85.88
244.699	68.88
244.932	74.88
245.166	80.88
245.399	67.88
245.633	69.88
245.866	88.88
246.099	74.88
246.333	74.88
246.566	64.88
246.8	80.88
247.033	65.88
247.266	78.88
247.5	77.88
247.733	80.88
247.966	95.88
248.2	71.88
248.433	78.88
248.666	74.88
248.899	70.88
249.133	79.88
249.366	95.88
249.599	86.88
249.832	88.88
250.066	76.88
250.299	80.88
250.532	67.88
250.765	92.88
250.998	86.88
251.231	72.88
251.465	80.88
251.698	74.88
251.931	79.88
252.164	92.88
252.397	67.88
252.63	82.88
252.863	84.88
253.096	83.88
253.329	68.88
253.562	68.88
253.795	82.88
254.028	75.88
254.261	80.88
254.494	87.88
254.727	71.88
254.96	77.88
255.193	88.88
255.426	76.88
255.659	72.88
255.892	83.88
256.124	83.88
256.357	67.88
256.59	80.88
256.823	81.88
257.056	75.88
257.289	82.88
257.521	76.88
257.754	83.88
257.987	88.88
258.22	77.88
258.452	83.88
258.685	79.88
258.918	84.88
259.151	88.88
259.383	70.88
259.616	92.88
259.849	75.88
260.081	76.88
260.314	80.88
260.547	78.88
260.779	69.88
261.012	72.88
261.244	84.88
261.477	76.88
261.71	85.88
261.942	115.88
262.175	115.88
262.407	88.88
262.64	91.88
262.872	74.88
263.105	64.88
263.337	77.88
263.57	80.88
263.802	83.88
264.035	84.88
264.267	82.88
264.499	94.88
264.732	82.88
264.964	69.88
265.197	75.88
265.429	90.88
265.661	80.88
265.894	77.88
266.126	77.88
266.358	70.88
266.591	78.88
266.823	65.88
267.055	91.88
267.287	60.88
267.52	80.88
267.752	77.88
267.984	76.88
268.216	63.88
268.448	73.88
268.681	82.88
268.913	91.88
269.145	82.88
269.377	74.88
269.609	85.88
269.841	82.88
270.073	87.88
270.306	78.88
270.538	90.88
270.77	87.88
271.002	55.88
271.234	69.88
271.466	68.88
271.698	80.88
271.93	71.88
272.162	79.88
272.394	94.88
272.626	83.88
272.858	85.88
273.09	78.88
273.322	72.88
273.553	82.88
273.785	80.88
274.017	83.88
274.249	70.88
274.481	77.88
274.713	93.88
274.945	83.88
275.176	82.88
275.408	83.88
275.64	78.88
275.872	79.88
276.104	87.88
276.335	96.88
276.567	90.88
276.799	97.88
277.031	91.88
277.262	85.88
277.494	92.88
277.726	80.88
277.957	87.88
278.189	87.88
278.421	86.88
278.652	86.88
278.884	71.88
279.115	92.88
279.347	77.88
279.579	77.88
279.81	78.88
280.042	84.88
280.273	81.88
280.505	84.88
280.736	68.88
280.968	72.88
281.199	88.88
281.431	90.88
281.662	75.88
281.894	84.88
282.125	91.88
282.356	110.88
282.588	124.88
282.819	109.88
283.051	76.88
283.282	100.88
283.513	83.88
283.745	92.88
283.976	81.88
284.207	69.88
284.439	80.88
284.67	69.88
284.901	82.88
285.132	72.88
285.364	83.88
285.595	67.88
285.826	74.88
286.057	71.88
286.288	82.88
286.52	66.88
286.751	86.88
286.982	81.88
287.213	80.88
287.444	87.88
287.675	67.88
287.906	72.88
288.138	99.88
288.369	90.88
288.6	68.88
288.831	70.88
289.062	83.88
289.293	81.88
289.524	87.88
289.755	85.88
289.986	90.88
290.217	81.88
290.448	77.88
290.679	79.88
290.91	86.88
291.141	92.88
291.371	81.88
291.602	63.88
291.833	76.88
292.064	71.88
292.295	84.88
292.526	90.88
292.757	90.88
292.987	69.88
293.218	79.88
293.449	77.88
293.68	66.88
293.91	94.88
294.141	82.88
294.372	80.88
294.603	80.88
294.833	79.88
295.064	78.88
295.295	86.88
295.525	83.88
295.756	98.88
295.987	119.88
296.217	142.88
296.448	118.88
296.679	96.88
296.909	87.88
297.14	84.88
297.37	89.88
297.601	77.88
297.831	88.88
298.062	94.88
298.292	67.88
298.523	90.88
298.753	86.88
298.984	96.88
299.214	91.88
299.445	92.88
299.675	78.88
299.905	96.88
300.136	86.88
300.366	75.88
300.597	70.88
300.827	74.88
301.057	84.88
301.288	107.88
301.518	92.88
301.748	80.88
301.979	95.88
302.209	77.88
302.439	85.88
302.669	93.88
302.9	78.88
303.13	103.88
303.36	96.88
303.59	91.88
303.82	96.88
304.051	85.88
304.281	86.88
304.511	91.88
304.741	90.88
304.971	92.88
305.201	65.88
305.431	81.88
305.661	70.88
305.891	92.88
306.121	93.88
306.352	97.88
306.582	86.88
306.812	78.88
307.042	79.88
307.272	92.88
307.502	102.88
307.731	93.88
307.961	76.88
308.191	87.88
308.421	81.88
308.651	86.88
308.881	86.88
309.111	97.88
309.341	92.88
309.571	99.88
309.8	87.88
310.03	91.88
310.26	87.88
310.49	92.88
310.72	88.88
310.949	97.88
311.179	108.88
311.409	95.88
311.639	86.88
311.868	86.88
312.098	86.88
312.328	84.88
312.557	97.88
312.787	93.88
313.017	96.88
313.246	102.88
313.476	94.88
313.706	92.88
313.935	90.88
314.165	93.88
314.394	81.88
314.624	88.88
314.853	92.88
315.083	92.88
315.312	89.88
315.542	98.88
315.771	88.88
316.001	91.88
316.23	93.88
316.46	73.88
316.689	87.88
316.919	94.88
317.148	92.88
317.377	93.88
317.607	98.88
317.836	88.88
318.065	95.88
318.295	99.88
318.524	83.88
318.753	88.88
318.983	97.88
319.212	101.88
319.441	99.88
319.67	103.88
319.9	84.88
320.129	80.88
320.358	87.88
320.587	94.88
320.816	103.88
321.046	81.88
321.275	99.88
321.504	95.88
321.733	91.88
321.962	84.88
322.191	94.88
322.42	109.88
322.649	118.88
322.878	104.88
323.108	116.88
323.337	112.88
323.566	126.88
323.795	137.88
324.024	191.88
324.253	398.88
324.482	835.88
324.71	1694.88
324.939	2273.88
325.168	840.88
325.397	242.88
325.626	150.88
325.855	127.88
326.084	122.88
326.313	125.88
326.542	129.88
326.77	230.88
326.999	454.88
327.228	952.88
327.457	1734.88
327.686	1358.88
327.914	362.88
328.143	202.88
328.372	157.88
328.6	129.88
328.829	114.88
329.058	121.88
329.287	108.88
329.515	114.88
329.744	103.88
329.972	114.88
330.201	121.88
330.43	147.88
330.658	135.88
330.887	137.88
331.115	115.88
331.344	106.88
331.572	88.88
331.801	95.88
332.03	92.88
332.258	95.88
332.486	104.88
332.715	79.88
332.943	80.88
333.172	108.88
333.4	85.88
333.629	113.88
333.857	112.88
334.085	111.88
334.314	120.88
334.542	153.88
334.771	145.88
334.999	101.88
335.227	101.88
335.455	75.88
335.684	94.88
335.912	94.88
336.14	94.88
336.369	94.88
336.597	94.88
336.825	99.88
337.053	89.88
337.281	78.88
337.51	100.88
337.738	84.88
337.966	70.88
338.194	91.88
338.422	92.88
338.65	82.88
338.878	90.88
339.106	87.88
339.334	86.88
339.562	87.88
339.79	94.88
340.018	92.88
340.246	83.88
340.474	89.88
340.702	82.88
340.93	79.88
341.158	84.88
341.386	91.88
341.614	92.88
341.842	88.88
342.07	72.88
342.298	98.88
342.526	99.88
342.754	85.88
342.981	94.88
343.209	68.88
343.437	100.88
343.665	86.88
343.893	86.88
344.12	102.88
344.348	93.88
344.576	76.88
344.804	95.88
345.031	97.88
345.259	104.88
345.487	87.88
345.714	95.88
345.942	91.88
346.17	82.88
346.397	86.88
346.625	83.88
346.853	88.88
347.08	85.88
347.308	87.88
347.535	94.88
347.763	86.88
347.99	102.88
348.218	83.88
348.445	98.88
348.673	102.88
348.9	92.88
349.128	78.88
349.355	85.88
349.583	105.88
349.81	80.88
350.037	95.88
350.265	84.88
350.492	98.88
350.72	94.88
350.947	101.88
351.174	95.88
351.402	95.88
351.629	96.88
351.856	94.88
352.083	96.88
352.311	103.88
352.538	84.88
352.765	104.88
352.992	110.88
353.22	110.88
353.447	93.88
353.674	95.88
353.901	90.88
354.128	94.88
354.355	81.88
354.583	96.88
354.81	88.88
355.037	105.88
355.264	88.88
355.491	83.88
355.718	95.88
355.945	91.88
356.172	84.88
356.399	80.88
356.626	94.88
356.853	88.88
357.08	68.88
357.307	82.88
357.534	82.88
357.761	87.88
357.988	84.88
358.215	80.88
358.441	75.88
358.668	92.88
358.895	79.88
359.122	79.88
359.349	73.88
359.576	85.88
359.802	91.88
360.029	112.88
360.256	96.88
360.483	97.88
360.709	80.88
360.936	84.88
361.163	72.88
361.39	91.88
361.616	98.88
361.843	74.88
362.07	85.88
362.296	71.88
362.523	84.88
362.749	86.88
362.976	87.88
363.203	79.88
363.429	85.88
363.656	78.88
363.882	74.88
364.109	98.88
364.335	98.88
364.562	98.88
364.788	91.88
365.015	82.88
365.241	110.88
365.468	103.88
365.694	94.88
365.92	87.88
366.147	76.88
366.373	79.88
366.599	81.88
366.826	83.88
367.052	78.88
367.278	96.88
367.505	70.88
367.731	83.88
367.957	81.88
368.184	90.88
368.41	88.88
368.636	94.88
368.862	91.88
369.089	103.88
369.315	89.88
369.541	99.88
369.767	85.88
369.993	91.88
370.219	87.88
370.445	80.88
370.672	90.88
370.898	82.88
371.124	82.88
371.35	66.88
371.576	82.88
371.802	81.88
372.028	75.88
372.254	90.88
372.48	84.88
372.706	69.88
372.932	83.88
373.158	78.88
373.384	84.88
373.61	88.88
373.835	94.88
374.061	74.88
374.287	87.88
374.513	91.88
374.739	91.88
374.965	80.88
375.191	93.88
375.416	90.88
375.642	80.88
375.868	90.88
376.094	87.88
376.319	78.88
376.545	79.88
376.771	83.88
376.997	91.88
377.222	85.88
377.448	94.88
377.674	104.88
377.899	91.88
378.125	76.88
378.35	95.88
378.576	88.88
378.802	79.88
379.027	69.88
379.253	87.88
379.478	94.88
379.704	88.88
379.929	97.88
380.155	82.88
380.38	80.88
380.606	88.88
380.831	86.88
381.057	93.88
381.282	95.88
381.507	87.88
381.733	91.88
381.958	86.88
382.184	76.88
382.409	79.88
382.634	83.88
382.86	98.88
383.085	96.88
383.31	93.88
383.535	90.88
383.761	63.88
383.986	82.88
384.211	82.88
384.436	99.88
384.662	95.88
384.887	85.88
385.112	99.88
385.337	84.88
385.562	92.88
385.787	95.88
386.013	99.88
386.238	100.88
386.463	90.88
386.688	104.88
386.913	87.88
387.138	100.88
387.363	98.88
387.588	95.88
387.813	88.88
388.038	90.88
388.263	87.88
388.488	100.88
388.713	94.88
388.938	87.88
389.163	90.88
389.387	67.88
389.612	87.88
389.837	72.88
390.062	91.88
390.287	72.88
390.512	84.88
390.736	77.88
390.961	76.88
391.186	92.88
391.411	83.88
391.636	70.88
391.86	90.88
392.085	79.88
392.31	69.88
392.534	83.88
392.759	86.88
392.984	70.88
393.208	77.88
393.433	65.88
393.658	72.88
393.882	76.88
394.107	88.88
394.331	87.88
394.556	84.88
394.78	72.88
395.005	90.88
395.229	82.88
395.454	75.88
395.678	83.88
395.903	88.88
396.127	85.88
396.352	80.88
396.576	78.88
396.801	77.88
397.025	76.88
397.249	85.88
397.474	67.88
397.698	76.88
397.922	92.88
398.147	89.88
398.371	84.88
398.595	89.88
398.82	74.88
399.044	79.88
399.268	87.88
399.492	75.88
399.717	79.88
399.941	86.88
400.165	88.88
400.389	76.88
400.613	71.88
400.837	86.88
401.062	84.88
401.286	98.88
401.51	88.88
401.734	85.88
401.958	87.88
402.182	117.88
402.406	144.88
402.63	111.88
402.854	94.88
403.078	79.88
403.302	90.88
403.526	88.88
403.75	76.88
403.974	84.88
404.198	72.88
404.422	84.88
404.645	80.88
404.869	90.88
405.093	91.88
405.317	105.88
405.541	104.88
405.765	92.88
405.988	124.88
406.212	160.88
406.436	227.88
406.66	126.88
406.883	91.88
407.107	86.88
407.331	78.88
407.555	90.88
407.778	97.88
408.002	84.88
408.226	96.88
408.449	78.88
408.673	95.88
408.896	92.88
409.12	94.88
409.344	78.88
409.567	85.88
409.791	82.88
410.014	92.88
410.238	82.88
410.461	83.88
410.685	87.88
410.908	96.88
411.132	99.88
411.355	92.88
411.578	84.88
411.802	100.88
412.025	81.88
412.249	70.88
412.472	80.88
412.695	76.88
412.919	79.88
413.142	90.88
413.365	79.88
413.589	86.88
413.812	90.88
414.035	83.88
414.258	70.88
414.482	81.88
414.705	81.88
414.928	82.88
415.151	84.88
415.374	84.88
415.597	92.88
415.821	91.88
416.044	90.88
416.267	90.88
416.49	81.88
416.713	84.88
416.936	82.88
417.159	94.88
417.382	86.88
417.605	88.88
417.828	96.88
418.051	100.88
418.274	82.88
418.497	73.88
418.72	91.88
418.943	93.88
419.166	83.88
419.389	81.88
419.611	75.88
419.834	95.88
420.057	71.88
420.28	94.88
420.503	74.88
420.726	78.88
420.948	83.88
421.171	71.88
421.394	78.88
421.617	84.88
421.839	90.88
422.062	60.88
422.285	79.88
422.507	88.88
422.73	93.88
422.953	83.88
423.175	76.88
423.398	98.88
423.621	82.88
423.843	84.88
424.066	68.88
424.288	86.88
424.511	93.88
424.733	92.88
424.956	88.88
425.178	96.88
425.401	102.88
425.623	95.88
425.846	80.88
426.068	88.88
426.291	84.88
426.513	84.88
426.735	87.88
426.958	102.88
427.18	98.88
427.402	122.88
427.625	144.88
427.847	119.88
428.069	123.88
428.292	80.88
428.514	80.88
428.736	78.88
428.958	67.88
429.181	89.88
429.403	82.88
429.625	85.88
429.847	84.88
430.069	99.88
430.292	95.88
430.514	85.88
430.736	79.88
430.958	74.88
431.18	85.88
431.402	80.88
431.624	96.88
431.846	85.88
432.068	87.88
432.29	66.88
432.512	82.88
432.734	76.88
432.956	76.88
433.178	94.88
433.4	98.88
433.622	80.88
433.844	91.88
434.066	86.88
434.287	90.88
434.509	77.88
434.731	79.88
434.953	70.88
435.175	84.88
435.397	86.88
435.618	80.88
435.84	97.88
436.062	103.88
436.284	101.88
436.505	93.88
436.727	95.88
436.949	77.88
437.17	78.88
437.392	85.88
437.614	84.88
437.835	88.88
438.057	102.88
438.278	99.88
438.5	94.88
438.721	99.88
438.943	86.88
439.165	72.88
439.386	86.88
439.608	82.88
439.829	97.88
440.05	117.88
440.272	131.88
440.493	87.88
440.715	78.88
440.936	84.88
441.158	94.88
441.379	80.88
441.6	79.88
441.822	92.88
442.043	89.88
442.264	97.88
442.486	86.88
442.707	96.88
442.928	94.88
443.149	117.88
443.371	125.88
443.592	82.88
443.813	108.88
444.034	94.88
444.255	92.88
444.476	87.88
444.698	86.88
444.919	84.88
445.14	130.88
445.361	113.88
445.582	106.88
445.803	126.88
446.024	138.88
446.245	115.88
446.466	97.88
446.687	98.88
446.908	88.88
447.129	86.88
447.35	86.88
447.571	93.88
447.792	91.88
448.013	89.88
448.234	116.88
448.455	88.88
448.675	91.88
448.896	98.88
449.117	80.88
449.338	88.88
449.559	99.88
449.779	115.88
450	106.88
450.221	80.88
450.442	77.88
450.662	88.88
450.883	96.88
451.104	104.88
451.324	86.88
451.545	80.88
451.766	93.88
451.986	83.88
452.207	94.88
452.428	91.88
452.648	91.88
452.869	111.88
453.089	107.88
453.31	110.88
453.53	90.88
453.751	96.88
453.971	95.88
454.192	123.88
454.412	87.88
454.633	76.88
454.853	78.88
455.073	69.88
455.294	99.88
455.514	89.88
455.734	76.88
455.955	81.88
456.175	93.88
456.395	74.88
456.616	73.88
456.836	74.88
457.056	80.88
457.276	80.88
457.497	67.88
457.717	95.88
457.937	85.88
458.157	83.88
458.377	78.88
458.598	114.88
458.818	144.88
459.038	147.88
459.258	119.88
459.478	103.88
459.698	82.88
459.918	86.88
460.138	90.88
460.358	81.88
460.578	74.88
460.798	72.88
461.018	75.88
461.238	78.88
461.458	66.88
461.678	94.88
461.898	83.88
462.118	76.88
462.338	94.88
462.558	101.88
462.777	72.88
462.997	68.88
463.217	69.88
463.437	84.88
463.657	74.88
463.876	86.88
464.096	95.88
464.316	77.88
464.536	81.88
464.755	88.88
464.975	100.88
465.195	158.88
465.414	150.88
465.634	102.88
465.854	90.88
466.073	89.88
466.293	79.88
466.512	92.88
466.732	83.88
466.951	89.88
467.171	86.88
467.391	77.88
467.61	94.88
467.829	106.88
468.049	109.88
468.268	124.88
468.488	72.88
468.707	72.88
468.927	75.88
469.146	58.88
469.365	79.88
469.585	76.88
469.804	83.88
470.023	86.88
470.243	83.88
470.462	83.88
470.681	99.88
470.901	68.88
471.12	75.88
471.339	78.88
471.558	79.88
471.777	71.88
471.997	100.88
472.216	126.88
472.435	182.88
472.654	90.88
472.873	88.88
473.092	78.88
473.311	94.88
473.53	77.88
473.749	84.88
473.968	92.88
474.187	96.88
474.406	84.88
474.625	81.88
474.844	80.88
475.063	85.88
475.282	87.88
475.501	76.88
475.72	76.88
475.939	75.88
476.158	74.88
476.377	77.88
476.596	80.88
476.814	84.88
477.033	85.88
477.252	78.88
477.471	85.88
477.69	79.88
477.908	91.88
478.127	77.88
478.346	78.88
478.564	93.88
478.783	92.88
479.002	90.88
479.22	91.88
479.439	102.88
479.658	95.88
479.876	105.88
480.095	79.88
480.313	95.88
480.532	87.88
480.751	87.88
480.969	142.88
481.188	292.88
481.406	206.88
481.624	87.88
481.843	98.88
482.061	83.88
482.28	78.88
482.498	81.88
482.717	80.88
482.935	82.88
483.153	71.88
483.372	85.88
483.59	84.88
483.808	79.88
484.027	80.88
484.245	94.88
484.463	90.88
484.681	82.88
484.9	74.88
485.118	87.88
485.336	74.88
485.554	83.88
485.772	95.88
485.99	87.88
486.209	82.88
486.427	86.88
486.645	114.88
486.863	103.88
487.081	96.88
487.299	80.88
487.517	87.88
487.735	98.88
487.953	90.88
488.171	87.88
488.389	88.88
488.607	90.88
488.825	86.88
489.043	71.88
489.261	89.88
489.479	96.88
489.696	90.88
489.914	80.88
490.132	83.88
490.35	76.88
490.568	102.88
490.786	84.88
491.003	70.88
491.221	84.88
491.439	95.88
491.657	89.88
491.874	71.88
492.092	71.88
492.31	80.88
492.527	75.88
492.745	75.88
492.963	74.88
493.18	86.88
493.398	95.88
493.615	96.88
493.833	84.88
494.05	87.88
494.268	83.88
494.485	94.88
494.703	76.88
494.92	74.88
495.138	86.88
495.355	92.88
495.573	79.88
495.79	87.88
496.008	87.88
496.225	75.88
496.442	90.88
496.66	91.88
496.877	82.88
497.094	90.88
497.312	83.88
497.529	86.88
497.746	96.88
497.963	85.88
498.181	87.88
498.398	92.88
498.615	111.88
498.832	88.88
499.049	90.88
499.267	79.88
499.484	65.88
499.701	77.88
499.918	87.88
500.135	84.88
500.352	86.88
500.569	76.88
500.786	71.88
501.003	92.88
501.22	77.88
501.437	66.88
501.654	93.88
501.871	99.88
502.088	90.88
502.305	86.88
502.522	86.88
502.739	87.88
502.956	85.88
503.172	86.88
503.389	87.88
503.606	88.88
503.823	91.88
504.04	86.88
504.256	88.88
504.473	86.88
504.69	80.88
504.907	78.88
505.123	84.88
505.34	77.88
505.557	83.88
505.773	86.88
505.99	89.88
506.207	84.88
506.423	93.88
506.64	88.88
506.856	92.88
507.073	95.88
507.289	70.88
507.506	83.88
507.722	99.88
507.939	100.88
508.155	76.88
508.372	95.88
508.588	105.88
508.805	81.88
509.021	101.88
509.238	74.88
509.454	103.88
509.67	101.88
509.887	92.88
510.103	139.88
510.319	224.88
510.536	812.88
510.752	2609.88
510.968	683.88
511.184	139.88
511.401	106.88
511.617	88.88
511.833	87.88
512.049	79.88
512.265	79.88
512.481	86.88
512.698	94.88
512.914	84.88
513.13	85.88
513.346	76.88
513.562	88.88
513.778	89.88
513.994	90.88
514.21	103.88
514.426	116.88
514.642	129.88
514.858	119.88
515.074	154.88
515.29	471.88
515.506	1624.88
515.721	574.88
515.937	165.88
516.153	110.88
516.369	98.88
516.585	99.88
516.801	81.88
517.016	75.88
517.232	87.88
517.448	92.88
517.664	93.88
