Data from Uncirc_1985_H10_HRD10591_00042.txt Node
Date: Wed Jan 03 12:18:25 EST 2024
User: Yrep
Spectrometer: HR+D1059
Trigger mode: 1
Integration Time (sec): 1.000000E-1
Scans to average: 1
Electric dark correction enabled: true
Nonlinearity correction enabled: false
Boxcar width: 0
XAxis mode: Wavelengths
Number of Pixels in Spectrum: 2048
>>>>>Begin Spectral Data<<<<<
223.165	-3.44
223.4	-3.44
223.635	-3.44
223.869	-19.44
224.104	-26.44
224.338	-16.44
224.573	-22.44
224.808	-12.44
225.042	-1.44
225.277	-14.44
225.511	0.56
225.746	9.56
225.98	-4.44
226.215	14.56
226.449	24.56
226.683	25.56
226.918	18.56
227.152	27.56
227.387	36.56
227.621	51.56
227.856	54.56
228.09	40.56
228.324	47.56
228.559	44.56
228.793	68.56
229.027	70.56
229.262	75.56
229.496	68.56
229.73	84.56
229.964	83.56
230.199	80.56
230.433	80.56
230.667	80.56
230.901	92.56
231.136	90.56
231.37	78.56
231.604	78.56
231.838	83.56
232.072	85.56
232.306	100.56
232.541	74.56
232.775	79.56
233.009	70.56
233.243	86.56
233.477	85.56
233.711	88.56
233.945	91.56
234.179	76.56
234.413	75.56
234.647	79.56
234.881	86.56
235.115	79.56
235.349	71.56
235.583	84.56
235.817	70.56
236.051	78.56
236.285	81.56
236.519	68.56
236.753	84.56
236.987	69.56
237.221	72.56
237.455	89.56
237.689	90.56
237.922	98.56
238.156	92.56
238.39	84.56
238.624	90.56
238.858	66.56
239.091	74.56
239.325	80.56
239.559	74.56
239.793	91.56
240.027	75.56
240.26	83.56
240.494	87.56
240.728	74.56
240.961	77.56
241.195	84.56
241.429	70.56
241.662	82.56
241.896	74.56
242.13	85.56
242.363	84.56
242.597	67.56
242.83	75.56
243.064	78.56
243.298	80.56
243.531	72.56
243.765	69.56
243.998	81.56
244.232	82.56
244.465	77.56
244.699	86.56
244.932	73.56
245.166	73.56
245.399	76.56
245.633	92.56
245.866	73.56
246.099	72.56
246.333	88.56
246.566	73.56
246.8	90.56
247.033	76.56
247.266	67.56
247.5	75.56
247.733	92.56
247.966	74.56
248.2	75.56
248.433	84.56
248.666	78.56
248.899	84.56
249.133	91.56
249.366	87.56
249.599	95.56
249.832	76.56
250.066	74.56
250.299	86.56
250.532	75.56
250.765	74.56
250.998	75.56
251.231	88.56
251.465	83.56
251.698	76.56
251.931	75.56
252.164	76.56
252.397	75.56
252.63	95.56
252.863	72.56
253.096	89.56
253.329	71.56
253.562	82.56
253.795	76.56
254.028	83.56
254.261	85.56
254.494	82.56
254.727	92.56
254.96	75.56
255.193	74.56
255.426	89.56
255.659	73.56
255.892	75.56
256.124	75.56
256.357	84.56
256.59	88.56
256.823	78.56
257.056	79.56
257.289	66.56
257.521	87.56
257.754	88.56
257.987	79.56
258.22	79.56
258.452	78.56
258.685	69.56
258.918	84.56
259.151	71.56
259.383	84.56
259.616	77.56
259.849	83.56
260.081	87.56
260.314	95.56
260.547	82.56
260.779	86.56
261.012	82.56
261.244	86.56
261.477	90.56
261.71	89.56
261.942	102.56
262.175	114.56
262.407	76.56
262.64	82.56
262.872	80.56
263.105	98.56
263.337	97.56
263.57	74.56
263.802	68.56
264.035	74.56
264.267	85.56
264.499	80.56
264.732	74.56
264.964	75.56
265.197	97.56
265.429	84.56
265.661	86.56
265.894	67.56
266.126	76.56
266.358	73.56
266.591	84.56
266.823	87.56
267.055	84.56
267.287	89.56
267.52	72.56
267.752	74.56
267.984	81.56
268.216	80.56
268.448	79.56
268.681	80.56
268.913	80.56
269.145	83.56
269.377	93.56
269.609	84.56
269.841	91.56
270.073	97.56
270.306	84.56
270.538	80.56
270.77	94.56
271.002	90.56
271.234	88.56
271.466	92.56
271.698	75.56
271.93	94.56
272.162	80.56
272.394	78.56
272.626	97.56
272.858	88.56
273.09	94.56
273.322	89.56
273.553	83.56
273.785	86.56
274.017	80.56
274.249	84.56
274.481	74.56
274.713	90.56
274.945	96.56
275.176	95.56
275.408	78.56
275.64	78.56
275.872	58.56
276.104	95.56
276.335	94.56
276.567	102.56
276.799	97.56
277.031	104.56
277.262	82.56
277.494	105.56
277.726	66.56
277.957	75.56
278.189	72.56
278.421	86.56
278.652	89.56
278.884	87.56
279.115	84.56
279.347	88.56
279.579	85.56
279.81	88.56
280.042	86.56
280.273	80.56
280.505	84.56
280.736	71.56
280.968	84.56
281.199	75.56
281.431	87.56
281.662	96.56
281.894	104.56
282.125	99.56
282.356	115.56
282.588	127.56
282.819	111.56
283.051	95.56
283.282	95.56
283.513	96.56
283.745	68.56
283.976	94.56
284.207	98.56
284.439	84.56
284.67	80.56
284.901	78.56
285.132	89.56
285.364	85.56
285.595	84.56
285.826	83.56
286.057	87.56
286.288	86.56
286.52	85.56
286.751	92.56
286.982	84.56
287.213	91.56
287.444	86.56
287.675	78.56
287.906	93.56
288.138	87.56
288.369	89.56
288.6	89.56
288.831	81.56
289.062	92.56
289.293	94.56
289.524	82.56
289.755	94.56
289.986	76.56
290.217	80.56
290.448	80.56
290.679	94.56
290.91	88.56
291.141	87.56
291.371	86.56
291.602	91.56
291.833	85.56
292.064	96.56
292.295	89.56
292.526	91.56
292.757	83.56
292.987	74.56
293.218	78.56
293.449	91.56
293.68	79.56
293.91	97.56
294.141	86.56
294.372	79.56
294.603	92.56
294.833	97.56
295.064	80.56
295.295	103.56
295.525	101.56
295.756	87.56
295.987	122.56
296.217	134.56
296.448	94.56
296.679	82.56
296.909	89.56
297.14	85.56
297.37	71.56
297.601	91.56
297.831	73.56
298.062	77.56
298.292	92.56
298.523	82.56
298.753	92.56
298.984	88.56
299.214	90.56
299.445	86.56
299.675	94.56
299.905	96.56
300.136	89.56
300.366	90.56
300.597	80.56
300.827	94.56
301.057	88.56
301.288	104.56
301.518	103.56
301.748	84.56
301.979	96.56
302.209	88.56
302.439	88.56
302.669	82.56
302.9	80.56
303.13	102.56
303.36	86.56
303.59	95.56
303.82	100.56
304.051	87.56
304.281	94.56
304.511	105.56
304.741	78.56
304.971	86.56
305.201	91.56
305.431	98.56
305.661	87.56
305.891	83.56
306.121	103.56
306.352	92.56
306.582	106.56
306.812	87.56
307.042	94.56
307.272	94.56
307.502	102.56
307.731	89.56
307.961	84.56
308.191	67.56
308.421	92.56
308.651	94.56
308.881	87.56
309.111	106.56
309.341	106.56
309.571	96.56
309.8	109.56
310.03	90.56
310.26	80.56
310.49	98.56
310.72	93.56
310.949	82.56
311.179	96.56
311.409	93.56
311.639	98.56
311.868	94.56
312.098	93.56
312.328	104.56
312.557	90.56
312.787	110.56
313.017	100.56
313.246	98.56
313.476	98.56
313.706	82.56
313.935	102.56
314.165	85.56
314.394	99.56
314.624	95.56
314.853	104.56
315.083	87.56
315.312	75.56
315.542	83.56
315.771	92.56
316.001	82.56
316.23	98.56
316.46	102.56
316.689	100.56
316.919	97.56
317.148	88.56
317.377	83.56
317.607	100.56
317.836	84.56
318.065	100.56
318.295	78.56
318.524	95.56
318.753	90.56
318.983	92.56
319.212	96.56
319.441	114.56
319.67	107.56
319.9	101.56
320.129	95.56
320.358	87.56
320.587	95.56
320.816	94.56
321.046	95.56
321.275	97.56
321.504	94.56
321.733	82.56
321.962	78.56
322.191	103.56
322.42	111.56
322.649	105.56
322.878	111.56
323.108	110.56
323.337	122.56
323.566	137.56
323.795	143.56
324.024	194.56
324.253	373.56
324.482	810.56
324.71	1630.56
324.939	2127.56
325.168	766.56
325.397	246.56
325.626	136.56
325.855	135.56
326.084	127.56
326.313	132.56
326.542	158.56
326.77	218.56
326.999	456.56
327.228	894.56
327.457	1660.56
327.686	1326.56
327.914	364.56
328.143	178.56
328.372	138.56
328.6	122.56
328.829	111.56
329.058	131.56
329.287	126.56
329.515	101.56
329.744	95.56
329.972	103.56
330.201	112.56
330.43	114.56
330.658	116.56
330.887	117.56
331.115	111.56
331.344	96.56
331.572	101.56
331.801	106.56
332.03	97.56
332.258	98.56
332.486	100.56
332.715	105.56
332.943	97.56
333.172	105.56
333.4	97.56
333.629	111.56
333.857	110.56
334.085	92.56
334.314	105.56
334.542	121.56
334.771	96.56
334.999	97.56
335.227	97.56
335.455	94.56
335.684	83.56
335.912	99.56
336.14	91.56
336.369	106.56
336.597	99.56
336.825	91.56
337.053	81.56
337.281	99.56
337.51	105.56
337.738	95.56
337.966	91.56
338.194	81.56
338.422	100.56
338.65	90.56
338.878	95.56
339.106	90.56
339.334	88.56
339.562	97.56
339.79	94.56
340.018	87.56
340.246	90.56
340.474	86.56
340.702	105.56
340.93	86.56
341.158	92.56
341.386	90.56
341.614	84.56
341.842	95.56
342.07	83.56
342.298	87.56
342.526	99.56
342.754	87.56
342.981	94.56
343.209	88.56
343.437	99.56
343.665	90.56
343.893	94.56
344.12	97.56
344.348	91.56
344.576	89.56
344.804	81.56
345.031	96.56
345.259	99.56
345.487	89.56
345.714	102.56
345.942	88.56
346.17	105.56
346.397	82.56
346.625	94.56
346.853	92.56
347.08	79.56
347.308	86.56
347.535	94.56
347.763	94.56
347.99	105.56
348.218	103.56
348.445	98.56
348.673	91.56
348.9	93.56
349.128	107.56
349.355	94.56
349.583	99.56
349.81	99.56
350.037	93.56
350.265	96.56
350.492	104.56
350.72	106.56
350.947	109.56
351.174	108.56
351.402	106.56
351.629	90.56
351.856	84.56
352.083	100.56
352.311	108.56
352.538	106.56
352.765	106.56
352.992	105.56
353.22	103.56
353.447	104.56
353.674	107.56
353.901	95.56
354.128	102.56
354.355	102.56
354.583	90.56
354.81	105.56
355.037	95.56
355.264	86.56
355.491	95.56
355.718	104.56
355.945	91.56
356.172	114.56
356.399	108.56
356.626	89.56
356.853	100.56
357.08	105.56
357.307	99.56
357.534	95.56
357.761	99.56
357.988	99.56
358.215	104.56
358.441	86.56
358.668	82.56
358.895	78.56
359.122	93.56
359.349	98.56
359.576	86.56
359.802	91.56
360.029	103.56
360.256	119.56
360.483	104.56
360.709	82.56
360.936	87.56
361.163	100.56
361.39	86.56
361.616	89.56
361.843	90.56
362.07	100.56
362.296	97.56
362.523	96.56
362.749	98.56
362.976	87.56
363.203	100.56
363.429	91.56
363.656	101.56
363.882	69.56
364.109	94.56
364.335	96.56
364.562	90.56
364.788	100.56
365.015	96.56
365.241	100.56
365.468	109.56
365.694	94.56
365.92	89.56
366.147	98.56
366.373	85.56
366.599	88.56
366.826	95.56
367.052	84.56
367.278	96.56
367.505	90.56
367.731	103.56
367.957	78.56
368.184	83.56
368.41	102.56
368.636	89.56
368.862	103.56
369.089	116.56
369.315	112.56
369.541	88.56
369.767	84.56
369.993	78.56
370.219	102.56
370.445	91.56
370.672	92.56
370.898	95.56
371.124	91.56
371.35	94.56
371.576	99.56
371.802	86.56
372.028	88.56
372.254	85.56
372.48	84.56
372.706	84.56
372.932	82.56
373.158	81.56
373.384	97.56
373.61	108.56
373.835	86.56
374.061	86.56
374.287	88.56
374.513	106.56
374.739	75.56
374.965	94.56
375.191	93.56
375.416	90.56
375.642	107.56
375.868	95.56
376.094	98.56
376.319	112.56
376.545	95.56
376.771	96.56
376.997	87.56
377.222	83.56
377.448	91.56
377.674	85.56
377.899	92.56
378.125	106.56
378.35	93.56
378.576	75.56
378.802	87.56
379.027	88.56
379.253	95.56
379.478	84.56
379.704	94.56
379.929	85.56
380.155	85.56
380.38	93.56
380.606	94.56
380.831	75.56
381.057	94.56
381.282	86.56
381.507	81.56
381.733	98.56
381.958	102.56
382.184	104.56
382.409	102.56
382.634	106.56
382.86	104.56
383.085	92.56
383.31	91.56
383.535	102.56
383.761	100.56
383.986	98.56
384.211	98.56
384.436	95.56
384.662	106.56
384.887	85.56
385.112	98.56
385.337	108.56
385.562	89.56
385.787	94.56
386.013	103.56
386.238	99.56
386.463	101.56
386.688	100.56
386.913	109.56
387.138	101.56
387.363	95.56
387.588	98.56
387.813	96.56
388.038	95.56
388.263	102.56
388.488	107.56
388.713	83.56
388.938	92.56
389.163	95.56
389.387	90.56
389.612	91.56
389.837	90.56
390.062	97.56
390.287	89.56
390.512	92.56
390.736	80.56
390.961	83.56
391.186	86.56
391.411	94.56
391.636	103.56
391.86	86.56
392.085	98.56
392.31	84.56
392.534	80.56
392.759	89.56
392.984	88.56
393.208	83.56
393.433	89.56
393.658	90.56
393.882	94.56
394.107	85.56
394.331	78.56
394.556	87.56
394.78	84.56
395.005	86.56
395.229	91.56
395.454	90.56
395.678	91.56
395.903	72.56
396.127	100.56
396.352	81.56
396.576	97.56
396.801	101.56
397.025	83.56
397.249	85.56
397.474	96.56
397.698	83.56
397.922	80.56
398.147	90.56
398.371	79.56
398.595	78.56
398.82	88.56
399.044	89.56
399.268	88.56
399.492	101.56
399.717	93.56
399.941	81.56
400.165	93.56
400.389	78.56
400.613	89.56
400.837	86.56
401.062	86.56
401.286	86.56
401.51	96.56
401.734	89.56
401.958	93.56
402.182	104.56
402.406	138.56
402.63	92.56
402.854	84.56
403.078	84.56
403.302	87.56
403.526	80.56
403.75	93.56
403.974	87.56
404.198	94.56
404.422	106.56
404.645	73.56
404.869	102.56
405.093	96.56
405.317	88.56
405.541	96.56
405.765	95.56
405.988	104.56
406.212	174.56
406.436	228.56
406.66	135.56
406.883	95.56
407.107	89.56
407.331	104.56
407.555	97.56
407.778	86.56
408.002	85.56
408.226	100.56
408.449	86.56
408.673	87.56
408.896	98.56
409.12	74.56
409.344	95.56
409.567	86.56
409.791	84.56
410.014	94.56
410.238	93.56
410.461	89.56
410.685	81.56
410.908	96.56
411.132	107.56
411.355	95.56
411.578	104.56
411.802	96.56
412.025	80.56
412.249	89.56
412.472	77.56
412.695	99.56
412.919	84.56
413.142	81.56
413.365	87.56
413.589	78.56
413.812	84.56
414.035	94.56
414.258	83.56
414.482	88.56
414.705	86.56
414.928	83.56
415.151	84.56
415.374	85.56
415.597	85.56
415.821	74.56
416.044	84.56
416.267	84.56
416.49	91.56
416.713	94.56
416.936	92.56
417.159	94.56
417.382	88.56
417.605	67.56
417.828	96.56
418.051	93.56
418.274	93.56
418.497	86.56
418.72	77.56
418.943	97.56
419.166	83.56
419.389	90.56
419.611	78.56
419.834	73.56
420.057	87.56
420.28	70.56
420.503	89.56
420.726	96.56
420.948	91.56
421.171	98.56
421.394	88.56
421.617	95.56
421.839	91.56
422.062	88.56
422.285	80.56
422.507	85.56
422.73	116.56
422.953	96.56
423.175	90.56
423.398	91.56
423.621	84.56
423.843	101.56
424.066	96.56
424.288	88.56
424.511	93.56
424.733	96.56
424.956	90.56
425.178	112.56
425.401	99.56
425.623	103.56
425.846	90.56
426.068	97.56
426.291	86.56
426.513	82.56
426.735	83.56
426.958	83.56
427.18	93.56
427.402	119.56
427.625	152.56
427.847	124.56
428.069	95.56
428.292	82.56
428.514	82.56
428.736	78.56
428.958	87.56
429.181	75.56
429.403	84.56
429.625	80.56
429.847	80.56
430.069	92.56
430.292	99.56
430.514	82.56
430.736	88.56
430.958	87.56
431.18	76.56
431.402	81.56
431.624	91.56
431.846	79.56
432.068	81.56
432.29	80.56
432.512	91.56
432.734	94.56
432.956	101.56
433.178	101.56
433.4	100.56
433.622	73.56
433.844	77.56
434.066	84.56
434.287	80.56
434.509	94.56
434.731	97.56
434.953	77.56
435.175	83.56
435.397	97.56
435.618	82.56
435.84	103.56
436.062	120.56
436.284	106.56
436.505	90.56
436.727	105.56
436.949	87.56
437.17	86.56
437.392	101.56
437.614	95.56
437.835	84.56
438.057	118.56
438.278	92.56
438.5	106.56
438.721	115.56
438.943	99.56
439.165	92.56
439.386	89.56
439.608	96.56
439.829	112.56
440.05	118.56
440.272	123.56
440.493	104.56
440.715	98.56
440.936	88.56
441.158	94.56
441.379	88.56
441.6	91.56
441.822	88.56
442.043	87.56
442.264	90.56
442.486	98.56
442.707	97.56
442.928	97.56
443.149	107.56
443.371	115.56
443.592	97.56
443.813	103.56
444.034	105.56
444.255	98.56
444.476	91.56
444.698	88.56
444.919	86.56
445.14	117.56
445.361	127.56
445.582	107.56
445.803	115.56
446.024	125.56
446.245	127.56
446.466	99.56
446.687	94.56
446.908	90.56
447.129	82.56
447.35	90.56
447.571	87.56
447.792	92.56
448.013	106.56
448.234	94.56
448.455	94.56
448.675	89.56
448.896	117.56
449.117	96.56
449.338	114.56
449.559	124.56
449.779	118.56
450	88.56
450.221	80.56
450.442	79.56
450.662	83.56
450.883	115.56
451.104	102.56
451.324	92.56
451.545	82.56
451.766	76.56
451.986	75.56
452.207	106.56
452.428	109.56
452.648	89.56
452.869	99.56
453.089	107.56
453.31	96.56
453.53	83.56
453.751	104.56
453.971	113.56
454.192	101.56
454.412	96.56
454.633	88.56
454.853	80.56
455.073	94.56
455.294	99.56
455.514	108.56
455.734	89.56
455.955	89.56
456.175	98.56
456.395	91.56
456.616	75.56
456.836	85.56
457.056	87.56
457.276	91.56
457.497	85.56
457.717	84.56
457.937	89.56
458.157	81.56
458.377	88.56
458.598	93.56
458.818	130.56
459.038	162.56
459.258	127.56
459.478	88.56
459.698	88.56
459.918	87.56
460.138	89.56
460.358	97.56
460.578	82.56
460.798	91.56
461.018	81.56
461.238	82.56
461.458	72.56
461.678	86.56
461.898	86.56
462.118	99.56
462.338	94.56
462.558	79.56
462.777	95.56
462.997	89.56
463.217	63.56
463.437	76.56
463.657	107.56
463.876	92.56
464.096	91.56
464.316	83.56
464.536	95.56
464.755	92.56
464.975	105.56
465.195	132.56
465.414	151.56
465.634	86.56
465.854	104.56
466.073	80.56
466.293	82.56
466.512	86.56
466.732	86.56
466.951	91.56
467.171	82.56
467.391	86.56
467.61	95.56
467.829	71.56
468.049	94.56
468.268	108.56
468.488	73.56
468.707	83.56
468.927	100.56
469.146	88.56
469.365	80.56
469.585	88.56
469.804	91.56
470.023	86.56
470.243	85.56
470.462	100.56
470.681	107.56
470.901	91.56
471.12	59.56
471.339	89.56
471.558	69.56
471.777	82.56
471.997	93.56
472.216	100.56
472.435	131.56
472.654	94.56
472.873	87.56
473.092	70.56
473.311	84.56
473.53	82.56
473.749	95.56
473.968	100.56
474.187	99.56
474.406	105.56
474.625	93.56
474.844	70.56
475.063	73.56
475.282	83.56
475.501	92.56
475.72	91.56
475.939	102.56
476.158	96.56
476.377	91.56
476.596	82.56
476.814	91.56
477.033	99.56
477.252	86.56
477.471	72.56
477.69	87.56
477.908	94.56
478.127	100.56
478.346	97.56
478.564	82.56
478.783	91.56
479.002	95.56
479.22	86.56
479.439	104.56
479.658	112.56
479.876	102.56
480.095	97.56
480.313	85.56
480.532	81.56
480.751	95.56
480.969	112.56
481.188	170.56
481.406	145.56
481.624	94.56
481.843	85.56
482.061	95.56
482.28	87.56
482.498	79.56
482.717	82.56
482.935	92.56
483.153	89.56
483.372	84.56
483.59	82.56
483.808	96.56
484.027	88.56
484.245	79.56
484.463	98.56
484.681	102.56
484.9	96.56
485.118	101.56
485.336	90.56
485.554	96.56
485.772	111.56
485.99	95.56
486.209	87.56
486.427	91.56
486.645	100.56
486.863	116.56
487.081	94.56
487.299	106.56
487.517	93.56
487.735	102.56
487.953	88.56
488.171	83.56
488.389	82.56
488.607	94.56
488.825	93.56
489.043	87.56
489.261	71.56
489.479	84.56
489.696	99.56
489.914	104.56
490.132	71.56
490.35	101.56
490.568	91.56
490.786	95.56
491.003	99.56
491.221	84.56
491.439	95.56
491.657	96.56
491.874	94.56
492.092	95.56
492.31	87.56
492.527	84.56
492.745	98.56
492.963	90.56
493.18	85.56
493.398	111.56
493.615	96.56
493.833	84.56
494.05	94.56
494.268	94.56
494.485	93.56
494.703	96.56
494.92	89.56
495.138	92.56
495.355	87.56
495.573	88.56
495.79	103.56
496.008	103.56
496.225	86.56
496.442	85.56
496.66	82.56
496.877	95.56
497.094	98.56
497.312	104.56
497.529	70.56
497.746	92.56
497.963	84.56
498.181	74.56
498.398	90.56
498.615	110.56
498.832	112.56
499.049	101.56
499.267	100.56
499.484	95.56
499.701	75.56
499.918	94.56
500.135	90.56
500.352	113.56
500.569	94.56
500.786	92.56
501.003	80.56
501.22	88.56
501.437	92.56
501.654	75.56
501.871	110.56
502.088	80.56
502.305	94.56
502.522	92.56
502.739	101.56
502.956	95.56
503.172	83.56
503.389	101.56
503.606	92.56
503.823	96.56
504.04	100.56
504.256	90.56
504.473	89.56
504.69	93.56
504.907	112.56
505.123	88.56
505.34	81.56
505.557	86.56
505.773	98.56
505.99	96.56
506.207	89.56
506.423	98.56
506.64	91.56
506.856	86.56
507.073	74.56
507.289	87.56
507.506	102.56
507.722	121.56
507.939	102.56
508.155	86.56
508.372	98.56
508.588	96.56
508.805	101.56
509.021	92.56
509.238	92.56
509.454	84.56
509.67	96.56
509.887	116.56
510.103	128.56
510.319	211.56
510.536	723.56
510.752	2202.56
510.968	608.56
511.184	158.56
511.401	119.56
511.617	100.56
511.833	110.56
512.049	88.56
512.265	98.56
512.481	80.56
512.698	81.56
512.914	83.56
513.13	106.56
513.346	95.56
513.562	82.56
513.778	98.56
513.994	102.56
514.21	99.56
514.426	108.56
514.642	123.56
514.858	120.56
515.074	144.56
515.29	398.56
515.506	1296.56
515.721	482.56
515.937	134.56
