Data from Uncirc_1985_H10_HRD10591_00005.txt Node
Date: Wed Jan 03 12:18:18 EST 2024
User: Yrep
Spectrometer: HR+D1059
Trigger mode: 1
Integration Time (sec): 1.000000E-1
Scans to average: 1
Electric dark correction enabled: true
Nonlinearity correction enabled: false
Boxcar width: 0
XAxis mode: Wavelengths
Number of Pixels in Spectrum: 2048
>>>>>Begin Spectral Data<<<<<
223.165	-23.75
223.4	-23.75
223.635	-23.75
223.869	-19.75
224.104	-9.75
224.338	-6.75
224.573	-20.75
224.808	-15.75
225.042	-9.75
225.277	2.25
225.511	7.25
225.746	4.25
225.98	13.25
226.215	3.25
226.449	2.25
226.683	29.25
226.918	19.25
227.152	25.25
227.387	29.25
227.621	26.25
227.856	35.25
228.09	50.25
228.324	47.25
228.559	47.25
228.793	69.25
229.027	76.25
229.262	66.25
229.496	67.25
229.73	80.25
229.964	74.25
230.199	67.25
230.433	64.25
230.667	79.25
230.901	90.25
231.136	93.25
231.37	83.25
231.604	87.25
231.838	89.25
232.072	82.25
232.306	84.25
232.541	86.25
232.775	81.25
233.009	92.25
233.243	85.25
233.477	69.25
233.711	88.25
233.945	91.25
234.179	85.25
234.413	91.25
234.647	81.25
234.881	78.25
235.115	85.25
235.349	78.25
235.583	78.25
235.817	72.25
236.051	78.25
236.285	85.25
236.519	85.25
236.753	66.25
236.987	73.25
237.221	88.25
237.455	89.25
237.689	70.25
237.922	73.25
238.156	79.25
238.39	80.25
238.624	87.25
238.858	71.25
239.091	98.25
239.325	88.25
239.559	83.25
239.793	91.25
240.027	82.25
240.26	73.25
240.494	65.25
240.728	68.25
240.961	55.25
241.195	72.25
241.429	87.25
241.662	68.25
241.896	70.25
242.13	83.25
242.363	89.25
242.597	71.25
242.83	87.25
243.064	72.25
243.298	100.25
243.531	89.25
243.765	86.25
243.998	85.25
244.232	87.25
244.465	79.25
244.699	76.25
244.932	77.25
245.166	82.25
245.399	81.25
245.633	85.25
245.866	96.25
246.099	83.25
246.333	79.25
246.566	84.25
246.8	86.25
247.033	82.25
247.266	78.25
247.5	73.25
247.733	75.25
247.966	83.25
248.2	83.25
248.433	74.25
248.666	85.25
248.899	92.25
249.133	74.25
249.366	91.25
249.599	101.25
249.832	97.25
250.066	88.25
250.299	73.25
250.532	73.25
250.765	89.25
250.998	77.25
251.231	85.25
251.465	84.25
251.698	87.25
251.931	87.25
252.164	88.25
252.397	69.25
252.63	78.25
252.863	88.25
253.096	99.25
253.329	94.25
253.562	90.25
253.795	94.25
254.028	88.25
254.261	80.25
254.494	69.25
254.727	73.25
254.96	78.25
255.193	83.25
255.426	73.25
255.659	90.25
255.892	76.25
256.124	70.25
256.357	99.25
256.59	81.25
256.823	85.25
257.056	87.25
257.289	90.25
257.521	76.25
257.754	93.25
257.987	85.25
258.22	93.25
258.452	87.25
258.685	77.25
258.918	71.25
259.151	77.25
259.383	87.25
259.616	83.25
259.849	86.25
260.081	81.25
260.314	90.25
260.547	87.25
260.779	90.25
261.012	86.25
261.244	75.25
261.477	91.25
261.71	91.25
261.942	107.25
262.175	109.25
262.407	94.25
262.64	75.25
262.872	89.25
263.105	97.25
263.337	87.25
263.57	86.25
263.802	91.25
264.035	85.25
264.267	90.25
264.499	97.25
264.732	85.25
264.964	81.25
265.197	92.25
265.429	86.25
265.661	96.25
265.894	91.25
266.126	83.25
266.358	81.25
266.591	85.25
266.823	93.25
267.055	77.25
267.287	70.25
267.52	89.25
267.752	99.25
267.984	91.25
268.216	83.25
268.448	96.25
268.681	77.25
268.913	93.25
269.145	89.25
269.377	94.25
269.609	92.25
269.841	105.25
270.073	82.25
270.306	87.25
270.538	101.25
270.77	82.25
271.002	83.25
271.234	89.25
271.466	93.25
271.698	88.25
271.93	80.25
272.162	83.25
272.394	106.25
272.626	88.25
272.858	99.25
273.09	84.25
273.322	81.25
273.553	75.25
273.785	85.25
274.017	89.25
274.249	88.25
274.481	78.25
274.713	83.25
274.945	90.25
275.176	95.25
275.408	101.25
275.64	94.25
275.872	97.25
276.104	73.25
276.335	94.25
276.567	96.25
276.799	97.25
277.031	94.25
277.262	75.25
277.494	93.25
277.726	71.25
277.957	88.25
278.189	99.25
278.421	105.25
278.652	84.25
278.884	72.25
279.115	85.25
279.347	81.25
279.579	90.25
279.81	90.25
280.042	80.25
280.273	100.25
280.505	99.25
280.736	93.25
280.968	82.25
281.199	81.25
281.431	102.25
281.662	101.25
281.894	92.25
282.125	94.25
282.356	115.25
282.588	129.25
282.819	114.25
283.051	104.25
283.282	97.25
283.513	88.25
283.745	81.25
283.976	83.25
284.207	95.25
284.439	90.25
284.67	103.25
284.901	82.25
285.132	91.25
285.364	92.25
285.595	81.25
285.826	84.25
286.057	86.25
286.288	90.25
286.52	93.25
286.751	89.25
286.982	93.25
287.213	86.25
287.444	96.25
287.675	88.25
287.906	78.25
288.138	98.25
288.369	105.25
288.6	94.25
288.831	99.25
289.062	94.25
289.293	89.25
289.524	97.25
289.755	69.25
289.986	94.25
290.217	81.25
290.448	79.25
290.679	90.25
290.91	85.25
291.141	83.25
291.371	90.25
291.602	92.25
291.833	85.25
292.064	91.25
292.295	86.25
292.526	97.25
292.757	97.25
292.987	88.25
293.218	88.25
293.449	91.25
293.68	87.25
293.91	93.25
294.141	103.25
294.372	100.25
294.603	98.25
294.833	91.25
295.064	98.25
295.295	97.25
295.525	90.25
295.756	98.25
295.987	121.25
296.217	110.25
296.448	120.25
296.679	83.25
296.909	102.25
297.14	101.25
297.37	90.25
297.601	81.25
297.831	78.25
298.062	80.25
298.292	91.25
298.523	78.25
298.753	90.25
298.984	87.25
299.214	81.25
299.445	77.25
299.675	89.25
299.905	89.25
300.136	88.25
300.366	94.25
300.597	73.25
300.827	90.25
301.057	94.25
301.288	101.25
301.518	109.25
301.748	96.25
301.979	84.25
302.209	72.25
302.439	97.25
302.669	92.25
302.9	87.25
303.13	105.25
303.36	93.25
303.59	110.25
303.82	95.25
304.051	92.25
304.281	84.25
304.511	102.25
304.741	87.25
304.971	92.25
305.201	84.25
305.431	105.25
305.661	97.25
305.891	92.25
306.121	97.25
306.352	96.25
306.582	97.25
306.812	102.25
307.042	108.25
307.272	83.25
307.502	95.25
307.731	90.25
307.961	82.25
308.191	91.25
308.421	72.25
308.651	85.25
308.881	110.25
309.111	99.25
309.341	87.25
309.571	99.25
309.8	103.25
310.03	98.25
310.26	105.25
310.49	98.25
310.72	93.25
310.949	97.25
311.179	94.25
311.409	101.25
311.639	80.25
311.868	96.25
312.098	84.25
312.328	102.25
312.557	111.25
312.787	114.25
313.017	95.25
313.246	106.25
313.476	86.25
313.706	88.25
313.935	94.25
314.165	89.25
314.394	93.25
314.624	99.25
314.853	92.25
315.083	85.25
315.312	110.25
315.542	106.25
315.771	95.25
316.001	86.25
316.23	80.25
316.46	83.25
316.689	97.25
316.919	93.25
317.148	86.25
317.377	94.25
317.607	97.25
317.836	87.25
318.065	106.25
318.295	102.25
318.524	85.25
318.753	91.25
318.983	92.25
319.212	104.25
319.441	97.25
319.67	99.25
319.9	93.25
320.129	89.25
320.358	94.25
320.587	99.25
320.816	118.25
321.046	118.25
321.275	104.25
321.504	93.25
321.733	92.25
321.962	74.25
322.191	109.25
322.42	94.25
322.649	105.25
322.878	118.25
323.108	116.25
323.337	120.25
323.566	137.25
323.795	149.25
324.024	186.25
324.253	337.25
324.482	723.25
324.71	1433.25
324.939	1890.25
325.168	714.25
325.397	234.25
325.626	148.25
325.855	126.25
326.084	106.25
326.313	125.25
326.542	128.25
326.77	208.25
326.999	412.25
327.228	822.25
327.457	1442.25
327.686	1197.25
327.914	325.25
328.143	189.25
328.372	142.25
328.6	125.25
328.829	107.25
329.058	109.25
329.287	129.25
329.515	117.25
329.744	100.25
329.972	100.25
330.201	102.25
330.43	115.25
330.658	102.25
330.887	131.25
331.115	116.25
331.344	113.25
331.572	102.25
331.801	108.25
332.03	116.25
332.258	102.25
332.486	107.25
332.715	89.25
332.943	84.25
333.172	102.25
333.4	99.25
333.629	110.25
333.857	115.25
334.085	103.25
334.314	82.25
334.542	95.25
334.771	102.25
334.999	106.25
335.227	90.25
335.455	103.25
335.684	86.25
335.912	87.25
336.14	110.25
336.369	76.25
336.597	93.25
336.825	102.25
337.053	102.25
337.281	99.25
337.51	102.25
337.738	105.25
337.966	99.25
338.194	110.25
338.422	95.25
338.65	100.25
338.878	101.25
339.106	79.25
339.334	107.25
339.562	86.25
339.79	95.25
340.018	96.25
340.246	103.25
340.474	101.25
340.702	93.25
340.93	94.25
341.158	93.25
341.386	97.25
341.614	101.25
341.842	93.25
342.07	85.25
342.298	105.25
342.526	78.25
342.754	93.25
342.981	99.25
343.209	97.25
343.437	119.25
343.665	95.25
343.893	94.25
344.12	95.25
344.348	89.25
344.576	97.25
344.804	102.25
345.031	101.25
345.259	100.25
345.487	99.25
345.714	77.25
345.942	100.25
346.17	118.25
346.397	108.25
346.625	90.25
346.853	96.25
347.08	107.25
347.308	99.25
347.535	110.25
347.763	99.25
347.99	96.25
348.218	113.25
348.445	98.25
348.673	108.25
348.9	97.25
349.128	110.25
349.355	94.25
349.583	101.25
349.81	105.25
350.037	102.25
350.265	94.25
350.492	90.25
350.72	92.25
350.947	86.25
351.174	121.25
351.402	107.25
351.629	96.25
351.856	103.25
352.083	103.25
352.311	98.25
352.538	113.25
352.765	100.25
352.992	115.25
353.22	102.25
353.447	96.25
353.674	87.25
353.901	106.25
354.128	106.25
354.355	100.25
354.583	107.25
354.81	95.25
355.037	95.25
355.264	88.25
355.491	105.25
355.718	95.25
355.945	89.25
356.172	111.25
356.399	82.25
356.626	90.25
356.853	91.25
357.08	85.25
357.307	102.25
357.534	101.25
357.761	82.25
357.988	97.25
358.215	81.25
358.441	107.25
358.668	95.25
358.895	107.25
359.122	90.25
359.349	96.25
359.576	91.25
359.802	99.25
360.029	109.25
360.256	103.25
360.483	84.25
360.709	89.25
360.936	97.25
361.163	110.25
361.39	107.25
361.616	91.25
361.843	78.25
362.07	93.25
362.296	93.25
362.523	91.25
362.749	93.25
362.976	91.25
363.203	91.25
363.429	79.25
363.656	100.25
363.882	90.25
364.109	102.25
364.335	94.25
364.562	95.25
364.788	86.25
365.015	112.25
365.241	94.25
365.468	111.25
365.694	99.25
365.92	99.25
366.147	85.25
366.373	86.25
366.599	92.25
366.826	93.25
367.052	101.25
367.278	100.25
367.505	97.25
367.731	97.25
367.957	98.25
368.184	86.25
368.41	105.25
368.636	101.25
368.862	118.25
369.089	103.25
369.315	106.25
369.541	99.25
369.767	86.25
369.993	101.25
370.219	86.25
370.445	87.25
370.672	91.25
370.898	100.25
371.124	94.25
371.35	82.25
371.576	84.25
371.802	102.25
372.028	98.25
372.254	99.25
372.48	101.25
372.706	92.25
372.932	88.25
373.158	87.25
373.384	95.25
373.61	89.25
373.835	77.25
374.061	99.25
374.287	85.25
374.513	97.25
374.739	97.25
374.965	94.25
375.191	92.25
375.416	97.25
375.642	91.25
375.868	89.25
376.094	79.25
376.319	94.25
376.545	95.25
376.771	96.25
376.997	94.25
377.222	99.25
377.448	103.25
377.674	94.25
377.899	85.25
378.125	99.25
378.35	92.25
378.576	90.25
378.802	95.25
379.027	99.25
379.253	91.25
379.478	110.25
379.704	102.25
379.929	103.25
380.155	99.25
380.38	89.25
380.606	87.25
380.831	103.25
381.057	102.25
381.282	97.25
381.507	102.25
381.733	119.25
381.958	97.25
382.184	102.25
382.409	92.25
382.634	106.25
382.86	98.25
383.085	102.25
383.31	97.25
383.535	121.25
383.761	103.25
383.986	97.25
384.211	95.25
384.436	108.25
384.662	119.25
384.887	89.25
385.112	90.25
385.337	117.25
385.562	115.25
385.787	94.25
386.013	94.25
386.238	111.25
386.463	90.25
386.688	92.25
386.913	110.25
387.138	93.25
387.363	107.25
387.588	109.25
387.813	98.25
388.038	104.25
388.263	99.25
388.488	93.25
388.713	104.25
388.938	91.25
389.163	101.25
389.387	104.25
389.612	107.25
389.837	90.25
390.062	92.25
390.287	101.25
390.512	89.25
390.736	93.25
390.961	98.25
391.186	83.25
391.411	78.25
391.636	90.25
391.86	88.25
392.085	92.25
392.31	93.25
392.534	77.25
392.759	98.25
392.984	109.25
393.208	100.25
393.433	105.25
393.658	102.25
393.882	86.25
394.107	78.25
394.331	87.25
394.556	95.25
394.78	81.25
395.005	85.25
395.229	85.25
395.454	84.25
395.678	96.25
395.903	90.25
396.127	88.25
396.352	85.25
396.576	82.25
396.801	93.25
397.025	96.25
397.249	84.25
397.474	82.25
397.698	78.25
397.922	88.25
398.147	81.25
398.371	102.25
398.595	99.25
398.82	92.25
399.044	87.25
399.268	92.25
399.492	94.25
399.717	90.25
399.941	110.25
400.165	81.25
400.389	89.25
400.613	77.25
400.837	89.25
401.062	81.25
401.286	102.25
401.51	91.25
401.734	88.25
401.958	97.25
402.182	111.25
402.406	158.25
402.63	117.25
402.854	93.25
403.078	97.25
403.302	98.25
403.526	91.25
403.75	93.25
403.974	79.25
404.198	86.25
404.422	91.25
404.645	79.25
404.869	105.25
405.093	90.25
405.317	97.25
405.541	91.25
405.765	91.25
405.988	110.25
406.212	165.25
406.436	185.25
406.66	146.25
406.883	99.25
407.107	89.25
407.331	88.25
407.555	119.25
407.778	89.25
408.002	93.25
408.226	91.25
408.449	78.25
408.673	86.25
408.896	93.25
409.12	93.25
409.344	81.25
409.567	85.25
409.791	87.25
410.014	90.25
410.238	89.25
410.461	101.25
410.685	93.25
410.908	93.25
411.132	109.25
411.355	101.25
411.578	94.25
411.802	86.25
412.025	87.25
412.249	90.25
412.472	86.25
412.695	103.25
412.919	94.25
413.142	79.25
413.365	89.25
413.589	94.25
413.812	91.25
414.035	83.25
414.258	95.25
414.482	84.25
414.705	85.25
414.928	89.25
415.151	92.25
415.374	91.25
415.597	97.25
415.821	102.25
416.044	87.25
416.267	92.25
416.49	85.25
416.713	102.25
416.936	102.25
417.159	78.25
417.382	94.25
417.605	88.25
417.828	81.25
418.051	81.25
418.274	89.25
418.497	94.25
418.72	92.25
418.943	94.25
419.166	82.25
419.389	89.25
419.611	87.25
419.834	92.25
420.057	84.25
420.28	88.25
420.503	94.25
420.726	81.25
420.948	95.25
421.171	95.25
421.394	82.25
421.617	89.25
421.839	92.25
422.062	93.25
422.285	101.25
422.507	99.25
422.73	89.25
422.953	97.25
423.175	104.25
423.398	94.25
423.621	95.25
423.843	76.25
424.066	85.25
424.288	81.25
424.511	84.25
424.733	93.25
424.956	109.25
425.178	86.25
425.401	98.25
425.623	101.25
425.846	89.25
426.068	88.25
426.291	87.25
426.513	93.25
426.735	110.25
426.958	94.25
427.18	109.25
427.402	137.25
427.625	152.25
427.847	99.25
428.069	100.25
428.292	103.25
428.514	87.25
428.736	81.25
428.958	90.25
429.181	93.25
429.403	95.25
429.625	92.25
429.847	94.25
430.069	86.25
430.292	94.25
430.514	83.25
430.736	95.25
430.958	98.25
431.18	84.25
431.402	97.25
431.624	77.25
431.846	78.25
432.068	84.25
432.29	95.25
432.512	103.25
432.734	97.25
432.956	94.25
433.178	108.25
433.4	96.25
433.622	89.25
433.844	90.25
434.066	96.25
434.287	107.25
434.509	94.25
434.731	97.25
434.953	78.25
435.175	90.25
435.397	99.25
435.618	98.25
435.84	110.25
436.062	109.25
436.284	112.25
436.505	104.25
436.727	85.25
436.949	85.25
437.17	95.25
437.392	78.25
437.614	92.25
437.835	110.25
438.057	111.25
438.278	110.25
438.5	103.25
438.721	109.25
438.943	95.25
439.165	87.25
439.386	68.25
439.608	85.25
439.829	90.25
440.05	125.25
440.272	141.25
440.493	103.25
440.715	88.25
440.936	92.25
441.158	94.25
441.379	101.25
441.6	85.25
441.822	102.25
442.043	88.25
442.264	98.25
442.486	95.25
442.707	97.25
442.928	102.25
443.149	136.25
443.371	117.25
443.592	114.25
443.813	117.25
444.034	98.25
444.255	78.25
444.476	101.25
444.698	61.25
444.919	72.25
445.14	142.25
445.361	125.25
445.582	104.25
445.803	129.25
446.024	126.25
446.245	121.25
446.466	104.25
446.687	88.25
446.908	91.25
447.129	84.25
447.35	90.25
447.571	92.25
447.792	108.25
448.013	102.25
448.234	105.25
448.455	92.25
448.675	94.25
448.896	103.25
449.117	101.25
449.338	105.25
449.559	128.25
449.779	124.25
450	101.25
450.221	81.25
450.442	85.25
450.662	87.25
450.883	92.25
451.104	105.25
451.324	90.25
451.545	82.25
451.766	82.25
451.986	93.25
452.207	97.25
452.428	96.25
452.648	106.25
452.869	96.25
453.089	107.25
453.31	106.25
453.53	89.25
453.751	100.25
453.971	92.25
454.192	96.25
454.412	90.25
454.633	80.25
454.853	92.25
455.073	94.25
455.294	79.25
455.514	75.25
455.734	82.25
455.955	81.25
456.175	103.25
456.395	92.25
456.616	95.25
456.836	81.25
457.056	82.25
457.276	82.25
457.497	81.25
457.717	85.25
457.937	85.25
458.157	90.25
458.377	93.25
458.598	104.25
458.818	130.25
459.038	157.25
459.258	99.25
459.478	95.25
459.698	85.25
459.918	90.25
460.138	85.25
460.358	91.25
460.578	103.25
460.798	86.25
461.018	89.25
461.238	87.25
461.458	101.25
461.678	70.25
461.898	98.25
462.118	96.25
462.338	101.25
462.558	91.25
462.777	80.25
462.997	98.25
463.217	64.25
463.437	91.25
463.657	81.25
463.876	104.25
464.096	88.25
464.316	81.25
464.536	88.25
464.755	90.25
464.975	102.25
465.195	140.25
465.414	132.25
465.634	102.25
465.854	99.25
466.073	92.25
466.293	91.25
466.512	75.25
466.732	86.25
466.951	92.25
467.171	91.25
467.391	88.25
467.61	78.25
467.829	89.25
468.049	93.25
468.268	78.25
468.488	101.25
468.707	85.25
468.927	94.25
469.146	87.25
469.365	89.25
469.585	95.25
469.804	104.25
470.023	99.25
470.243	97.25
470.462	95.25
470.681	91.25
470.901	101.25
471.12	91.25
471.339	82.25
471.558	77.25
471.777	99.25
471.997	100.25
472.216	98.25
472.435	105.25
472.654	95.25
472.873	97.25
473.092	93.25
473.311	95.25
473.53	96.25
473.749	90.25
473.968	97.25
474.187	107.25
474.406	86.25
474.625	79.25
474.844	98.25
475.063	87.25
475.282	90.25
475.501	75.25
475.72	86.25
475.939	88.25
476.158	77.25
476.377	84.25
476.596	71.25
476.814	95.25
477.033	93.25
477.252	96.25
477.471	84.25
477.69	98.25
477.908	87.25
478.127	85.25
478.346	90.25
478.564	87.25
478.783	94.25
479.002	103.25
479.22	98.25
479.439	84.25
479.658	84.25
479.876	78.25
480.095	92.25
480.313	102.25
480.532	83.25
480.751	84.25
480.969	95.25
481.188	109.25
481.406	96.25
481.624	91.25
481.843	79.25
482.061	97.25
482.28	91.25
482.498	93.25
482.717	93.25
482.935	99.25
483.153	95.25
483.372	87.25
483.59	98.25
483.808	81.25
484.027	75.25
484.245	82.25
484.463	94.25
484.681	81.25
484.9	86.25
485.118	100.25
485.336	92.25
485.554	116.25
485.772	87.25
485.99	77.25
486.209	108.25
486.427	98.25
486.645	111.25
486.863	110.25
487.081	104.25
487.299	92.25
487.517	101.25
487.735	87.25
487.953	98.25
488.171	85.25
488.389	95.25
488.607	97.25
488.825	91.25
489.043	91.25
489.261	84.25
489.479	91.25
489.696	96.25
489.914	91.25
490.132	105.25
490.35	82.25
490.568	93.25
490.786	81.25
491.003	83.25
491.221	82.25
491.439	102.25
491.657	99.25
491.874	101.25
492.092	88.25
492.31	90.25
492.527	95.25
492.745	89.25
492.963	91.25
493.18	90.25
493.398	100.25
493.615	95.25
493.833	87.25
494.05	92.25
494.268	93.25
494.485	80.25
494.703	91.25
494.92	103.25
495.138	93.25
495.355	84.25
495.573	87.25
495.79	94.25
496.008	81.25
496.225	92.25
496.442	87.25
496.66	92.25
496.877	103.25
497.094	103.25
497.312	85.25
497.529	86.25
497.746	95.25
497.963	90.25
498.181	83.25
498.398	104.25
498.615	105.25
498.832	103.25
499.049	94.25
499.267	76.25
499.484	99.25
499.701	83.25
499.918	107.25
500.135	98.25
500.352	95.25
500.569	90.25
500.786	88.25
501.003	96.25
501.22	94.25
501.437	108.25
501.654	107.25
501.871	110.25
502.088	94.25
502.305	94.25
502.522	97.25
502.739	92.25
502.956	88.25
503.172	86.25
503.389	105.25
503.606	101.25
503.823	105.25
504.04	102.25
504.256	89.25
504.473	85.25
504.69	87.25
504.907	97.25
505.123	95.25
505.34	87.25
505.557	93.25
505.773	98.25
505.99	92.25
506.207	100.25
506.423	86.25
506.64	83.25
506.856	97.25
507.073	97.25
507.289	102.25
507.506	96.25
507.722	108.25
507.939	103.25
508.155	100.25
508.372	97.25
508.588	101.25
508.805	97.25
509.021	108.25
509.238	110.25
509.454	102.25
509.67	103.25
509.887	112.25
510.103	134.25
510.319	202.25
510.536	667.25
510.752	2090.25
510.968	601.25
511.184	163.25
511.401	107.25
511.617	91.25
511.833	88.25
512.049	100.25
512.265	101.25
512.481	92.25
512.698	91.25
512.914	93.25
513.13	94.25
513.346	104.25
513.562	98.25
513.778	91.25
513.994	91.25
514.21	94.25
514.426	117.25
514.642	134.25
514.858	123.25
515.074	158.25
515.29	406.25
