Data from Uncirc_1985_H10_HRD10591_00015.txt Node
Date: Wed Jan 03 12:18:20 EST 2024
User: Yrep
Spectrometer: HR+D1059
Trigger mode: 1
Integration Time (sec): 1.000000E-1
Scans to average: 1
Electric dark correction enabled: true
Nonlinearity correction enabled: false
Boxcar width: 0
XAxis mode: Wavelengths
Number of Pixels in Spectrum: 2048
>>>>>Begin Spectral Data<<<<<
223.165	-15.06
223.4	-15.06
223.635	-15.06
223.869	-13.06
224.104	-21.06
224.338	-17.06
224.573	-28.06
224.808	-18.06
225.042	2.94
225.277	-9.06
225.511	-4.06
225.746	8.94
225.98	3.94
226.215	9.94
226.449	12.94
226.683	25.94
226.918	21.94
227.152	38.94
227.387	24.94
227.621	29.94
227.856	36.94
228.09	40.94
228.324	46.94
228.559	61.94
228.793	53.94
229.027	55.94
229.262	51.94
229.496	62.94
229.73	75.94
229.964	66.94
230.199	61.94
230.433	72.94
230.667	72.94
230.901	71.94
231.136	83.94
231.37	101.94
231.604	85.94
231.838	73.94
232.072	85.94
232.306	86.94
232.541	79.94
232.775	71.94
233.009	69.94
233.243	71.94
233.477	77.94
233.711	93.94
233.945	90.94
234.179	83.94
234.413	76.94
234.647	92.94
234.881	90.94
235.115	82.94
235.349	82.94
235.583	75.94
235.817	86.94
236.051	79.94
236.285	64.94
236.519	77.94
236.753	77.94
236.987	67.94
237.221	73.94
237.455	75.94
237.689	81.94
237.922	86.94
238.156	66.94
238.39	83.94
238.624	64.94
238.858	80.94
239.091	81.94
239.325	86.94
239.559	93.94
239.793	78.94
240.027	73.94
240.26	86.94
240.494	77.94
240.728	81.94
240.961	76.94
241.195	79.94
241.429	65.94
241.662	69.94
241.896	77.94
242.13	96.94
242.363	67.94
242.597	79.94
242.83	67.94
243.064	78.94
243.298	73.94
243.531	69.94
243.765	66.94
243.998	79.94
244.232	86.94
244.465	68.94
244.699	88.94
244.932	73.94
245.166	66.94
245.399	89.94
245.633	85.94
245.866	72.94
246.099	88.94
246.333	86.94
246.566	74.94
246.8	81.94
247.033	82.94
247.266	87.94
247.5	81.94
247.733	77.94
247.966	86.94
248.2	76.94
248.433	101.94
248.666	96.94
248.899	78.94
249.133	77.94
249.366	74.94
249.599	85.94
249.832	79.94
250.066	74.94
250.299	82.94
250.532	63.94
250.765	83.94
250.998	63.94
251.231	67.94
251.465	73.94
251.698	76.94
251.931	83.94
252.164	91.94
252.397	80.94
252.63	89.94
252.863	82.94
253.096	82.94
253.329	89.94
253.562	83.94
253.795	75.94
254.028	84.94
254.261	78.94
254.494	71.94
254.727	72.94
254.96	66.94
255.193	74.94
255.426	81.94
255.659	90.94
255.892	95.94
256.124	69.94
256.357	79.94
256.59	93.94
256.823	84.94
257.056	85.94
257.289	96.94
257.521	74.94
257.754	77.94
257.987	65.94
258.22	85.94
258.452	83.94
258.685	80.94
258.918	95.94
259.151	79.94
259.383	87.94
259.616	88.94
259.849	85.94
260.081	82.94
260.314	95.94
260.547	86.94
260.779	85.94
261.012	79.94
261.244	73.94
261.477	84.94
261.71	82.94
261.942	106.94
262.175	91.94
262.407	82.94
262.64	80.94
262.872	88.94
263.105	78.94
263.337	90.94
263.57	91.94
263.802	86.94
264.035	81.94
264.267	79.94
264.499	86.94
264.732	76.94
264.964	80.94
265.197	80.94
265.429	96.94
265.661	91.94
265.894	85.94
266.126	88.94
266.358	70.94
266.591	71.94
266.823	83.94
267.055	68.94
267.287	80.94
267.52	89.94
267.752	82.94
267.984	75.94
268.216	89.94
268.448	95.94
268.681	81.94
268.913	73.94
269.145	79.94
269.377	67.94
269.609	75.94
269.841	88.94
270.073	85.94
270.306	70.94
270.538	97.94
270.77	81.94
271.002	91.94
271.234	80.94
271.466	96.94
271.698	66.94
271.93	80.94
272.162	83.94
272.394	77.94
272.626	91.94
272.858	80.94
273.09	87.94
273.322	82.94
273.553	80.94
273.785	82.94
274.017	72.94
274.249	78.94
274.481	81.94
274.713	94.94
274.945	89.94
275.176	73.94
275.408	95.94
275.64	93.94
275.872	101.94
276.104	87.94
276.335	97.94
276.567	99.94
276.799	100.94
277.031	95.94
277.262	86.94
277.494	73.94
277.726	79.94
277.957	89.94
278.189	83.94
278.421	88.94
278.652	97.94
278.884	75.94
279.115	97.94
279.347	81.94
279.579	78.94
279.81	96.94
280.042	79.94
280.273	84.94
280.505	68.94
280.736	87.94
280.968	88.94
281.199	81.94
281.431	96.94
281.662	93.94
281.894	81.94
282.125	92.94
282.356	122.94
282.588	99.94
282.819	105.94
283.051	103.94
283.282	85.94
283.513	87.94
283.745	86.94
283.976	95.94
284.207	80.94
284.439	89.94
284.67	81.94
284.901	89.94
285.132	87.94
285.364	80.94
285.595	81.94
285.826	77.94
286.057	71.94
286.288	95.94
286.52	87.94
286.751	67.94
286.982	77.94
287.213	68.94
287.444	93.94
287.675	87.94
287.906	96.94
288.138	93.94
288.369	85.94
288.6	89.94
288.831	54.94
289.062	83.94
289.293	95.94
289.524	78.94
289.755	85.94
289.986	91.94
290.217	84.94
290.448	82.94
290.679	79.94
290.91	85.94
291.141	89.94
291.371	103.94
291.602	87.94
291.833	67.94
292.064	88.94
292.295	89.94
292.526	106.94
292.757	90.94
292.987	81.94
293.218	81.94
293.449	84.94
293.68	88.94
293.91	113.94
294.141	85.94
294.372	87.94
294.603	93.94
294.833	87.94
295.064	81.94
295.295	87.94
295.525	95.94
295.756	108.94
295.987	113.94
296.217	128.94
296.448	127.94
296.679	95.94
296.909	94.94
297.14	82.94
297.37	89.94
297.601	91.94
297.831	84.94
298.062	83.94
298.292	92.94
298.523	85.94
298.753	85.94
298.984	88.94
299.214	97.94
299.445	84.94
299.675	77.94
299.905	86.94
300.136	86.94
300.366	88.94
300.597	93.94
300.827	84.94
301.057	83.94
301.288	96.94
301.518	107.94
301.748	90.94
301.979	102.94
302.209	94.94
302.439	80.94
302.669	85.94
302.9	86.94
303.13	84.94
303.36	90.94
303.59	89.94
303.82	87.94
304.051	111.94
304.281	90.94
304.511	89.94
304.741	89.94
304.971	85.94
305.201	97.94
305.431	101.94
305.661	90.94
305.891	90.94
306.121	93.94
306.352	96.94
306.582	111.94
306.812	102.94
307.042	81.94
307.272	97.94
307.502	90.94
307.731	95.94
307.961	88.94
308.191	75.94
308.421	73.94
308.651	90.94
308.881	88.94
309.111	82.94
309.341	87.94
309.571	92.94
309.8	93.94
310.03	106.94
310.26	105.94
310.49	99.94
310.72	87.94
310.949	84.94
311.179	101.94
311.409	88.94
311.639	95.94
311.868	102.94
312.098	98.94
312.328	94.94
312.557	89.94
312.787	104.94
313.017	85.94
313.246	103.94
313.476	102.94
313.706	87.94
313.935	79.94
314.165	86.94
314.394	109.94
314.624	86.94
314.853	75.94
315.083	103.94
315.312	95.94
315.542	96.94
315.771	89.94
316.001	88.94
316.23	95.94
316.46	92.94
316.689	81.94
316.919	79.94
317.148	69.94
317.377	89.94
317.607	93.94
317.836	95.94
318.065	91.94
318.295	80.94
318.524	85.94
318.753	93.94
318.983	99.94
319.212	109.94
319.441	94.94
319.67	100.94
319.9	102.94
320.129	101.94
320.358	99.94
320.587	106.94
320.816	99.94
321.046	94.94
321.275	97.94
321.504	99.94
321.733	99.94
321.962	90.94
322.191	89.94
322.42	101.94
322.649	100.94
322.878	109.94
323.108	105.94
323.337	122.94
323.566	129.94
323.795	130.94
324.024	203.94
324.253	341.94
324.482	737.94
324.71	1449.94
324.939	1911.94
325.168	705.94
325.397	211.94
325.626	138.94
325.855	134.94
326.084	126.94
326.313	129.94
326.542	144.94
326.77	206.94
326.999	397.94
327.228	822.94
327.457	1487.94
327.686	1197.94
327.914	321.94
328.143	161.94
328.372	137.94
328.6	118.94
328.829	98.94
329.058	109.94
329.287	123.94
329.515	104.94
329.744	109.94
329.972	107.94
330.201	81.94
330.43	115.94
330.658	101.94
330.887	121.94
331.115	111.94
331.344	86.94
331.572	97.94
331.801	99.94
332.03	105.94
332.258	94.94
332.486	114.94
332.715	99.94
332.943	89.94
333.172	96.94
333.4	83.94
333.629	86.94
333.857	101.94
334.085	108.94
334.314	99.94
334.542	105.94
334.771	97.94
334.999	91.94
335.227	93.94
335.455	95.94
335.684	95.94
335.912	107.94
336.14	102.94
336.369	82.94
336.597	94.94
336.825	88.94
337.053	89.94
337.281	85.94
337.51	95.94
337.738	84.94
337.966	89.94
338.194	96.94
338.422	107.94
338.65	82.94
338.878	93.94
339.106	86.94
339.334	80.94
339.562	98.94
339.79	84.94
340.018	103.94
340.246	105.94
340.474	87.94
340.702	96.94
340.93	90.94
341.158	104.94
341.386	96.94
341.614	98.94
341.842	86.94
342.07	77.94
342.298	89.94
342.526	100.94
342.754	85.94
342.981	87.94
343.209	97.94
343.437	91.94
343.665	84.94
343.893	93.94
344.12	90.94
344.348	91.94
344.576	85.94
344.804	101.94
345.031	89.94
345.259	75.94
345.487	103.94
345.714	87.94
345.942	102.94
346.17	95.94
346.397	100.94
346.625	92.94
346.853	107.94
347.08	84.94
347.308	79.94
347.535	91.94
347.763	87.94
347.99	101.94
348.218	102.94
348.445	85.94
348.673	84.94
348.9	105.94
349.128	82.94
349.355	104.94
349.583	81.94
349.81	100.94
350.037	110.94
350.265	105.94
350.492	98.94
350.72	98.94
350.947	89.94
351.174	104.94
351.402	88.94
351.629	110.94
351.856	94.94
352.083	88.94
352.311	115.94
352.538	106.94
352.765	116.94
352.992	111.94
353.22	106.94
353.447	99.94
353.674	102.94
353.901	81.94
354.128	102.94
354.355	93.94
354.583	88.94
354.81	84.94
355.037	100.94
355.264	81.94
355.491	82.94
355.718	87.94
355.945	90.94
356.172	93.94
356.399	98.94
356.626	103.94
356.853	94.94
357.08	82.94
357.307	94.94
357.534	93.94
357.761	108.94
357.988	97.94
358.215	97.94
358.441	105.94
358.668	90.94
358.895	98.94
359.122	95.94
359.349	81.94
359.576	81.94
359.802	78.94
360.029	91.94
360.256	104.94
360.483	92.94
360.709	95.94
360.936	86.94
361.163	91.94
361.39	104.94
361.616	81.94
361.843	84.94
362.07	77.94
362.296	81.94
362.523	95.94
362.749	92.94
362.976	94.94
363.203	87.94
363.429	97.94
363.656	100.94
363.882	85.94
364.109	95.94
364.335	103.94
364.562	94.94
364.788	95.94
365.015	90.94
365.241	90.94
365.468	110.94
365.694	92.94
365.92	90.94
366.147	81.94
366.373	92.94
366.599	82.94
366.826	86.94
367.052	78.94
367.278	86.94
367.505	88.94
367.731	93.94
367.957	83.94
368.184	89.94
368.41	83.94
368.636	106.94
368.862	107.94
369.089	103.94
369.315	86.94
369.541	105.94
369.767	83.94
369.993	86.94
370.219	93.94
370.445	90.94
370.672	90.94
370.898	93.94
371.124	89.94
371.35	94.94
371.576	85.94
371.802	83.94
372.028	80.94
372.254	85.94
372.48	83.94
372.706	103.94
372.932	66.94
373.158	93.94
373.384	88.94
373.61	88.94
373.835	81.94
374.061	96.94
374.287	95.94
374.513	93.94
374.739	98.94
374.965	81.94
375.191	82.94
375.416	87.94
375.642	85.94
375.868	99.94
376.094	87.94
376.319	83.94
376.545	84.94
376.771	86.94
376.997	88.94
377.222	81.94
377.448	99.94
377.674	87.94
377.899	101.94
378.125	89.94
378.35	90.94
378.576	82.94
378.802	81.94
379.027	93.94
379.253	95.94
379.478	85.94
379.704	90.94
379.929	89.94
380.155	81.94
380.38	94.94
380.606	88.94
380.831	90.94
381.057	99.94
381.282	104.94
381.507	66.94
381.733	95.94
381.958	93.94
382.184	93.94
382.409	96.94
382.634	106.94
382.86	85.94
383.085	90.94
383.31	105.94
383.535	89.94
383.761	97.94
383.986	81.94
384.211	102.94
384.436	98.94
384.662	104.94
384.887	105.94
385.112	90.94
385.337	86.94
385.562	96.94
385.787	107.94
386.013	114.94
386.238	99.94
386.463	102.94
386.688	105.94
386.913	90.94
387.138	90.94
387.363	97.94
387.588	106.94
387.813	99.94
388.038	92.94
388.263	91.94
388.488	90.94
388.713	97.94
388.938	93.94
389.163	94.94
389.387	100.94
389.612	96.94
389.837	95.94
390.062	87.94
390.287	89.94
390.512	97.94
390.736	94.94
390.961	86.94
391.186	105.94
391.411	95.94
391.636	80.94
391.86	94.94
392.085	97.94
392.31	87.94
392.534	89.94
392.759	78.94
392.984	91.94
393.208	87.94
393.433	102.94
393.658	92.94
393.882	69.94
394.107	96.94
394.331	91.94
394.556	86.94
394.78	81.94
395.005	77.94
395.229	83.94
395.454	88.94
395.678	88.94
395.903	84.94
396.127	88.94
396.352	86.94
396.576	80.94
396.801	99.94
397.025	86.94
397.249	87.94
397.474	104.94
397.698	91.94
397.922	88.94
398.147	78.94
398.371	79.94
398.595	79.94
398.82	89.94
399.044	95.94
399.268	82.94
399.492	83.94
399.717	90.94
399.941	88.94
400.165	80.94
400.389	99.94
400.613	77.94
400.837	86.94
401.062	76.94
401.286	78.94
401.51	85.94
401.734	89.94
401.958	98.94
402.182	121.94
402.406	142.94
402.63	113.94
402.854	91.94
403.078	73.94
403.302	95.94
403.526	82.94
403.75	95.94
403.974	104.94
404.198	85.94
404.422	105.94
404.645	89.94
404.869	95.94
405.093	75.94
405.317	89.94
405.541	101.94
405.765	97.94
405.988	94.94
406.212	143.94
406.436	203.94
406.66	120.94
406.883	93.94
407.107	89.94
407.331	96.94
407.555	95.94
407.778	82.94
408.002	104.94
408.226	81.94
408.449	79.94
408.673	85.94
408.896	93.94
409.12	94.94
409.344	104.94
409.567	85.94
409.791	91.94
410.014	86.94
410.238	80.94
410.461	99.94
410.685	94.94
410.908	99.94
411.132	105.94
411.355	86.94
411.578	95.94
411.802	102.94
412.025	94.94
412.249	97.94
412.472	90.94
412.695	87.94
412.919	82.94
413.142	80.94
413.365	93.94
413.589	88.94
413.812	87.94
414.035	97.94
414.258	86.94
414.482	90.94
414.705	79.94
414.928	89.94
415.151	85.94
415.374	99.94
415.597	100.94
415.821	81.94
416.044	81.94
416.267	83.94
416.49	93.94
416.713	88.94
416.936	74.94
417.159	83.94
417.382	96.94
417.605	73.94
417.828	90.94
418.051	99.94
418.274	81.94
418.497	88.94
418.72	75.94
418.943	88.94
419.166	80.94
419.389	99.94
419.611	82.94
419.834	71.94
420.057	84.94
420.28	77.94
420.503	83.94
420.726	96.94
420.948	92.94
421.171	90.94
421.394	93.94
421.617	80.94
421.839	73.94
422.062	81.94
422.285	101.94
422.507	93.94
422.73	96.94
422.953	92.94
423.175	95.94
423.398	81.94
423.621	85.94
423.843	94.94
424.066	81.94
424.288	93.94
424.511	75.94
424.733	97.94
424.956	89.94
425.178	90.94
425.401	95.94
425.623	80.94
425.846	95.94
426.068	100.94
426.291	81.94
426.513	78.94
426.735	85.94
426.958	88.94
427.18	93.94
427.402	117.94
427.625	139.94
427.847	119.94
428.069	96.94
428.292	77.94
428.514	81.94
428.736	82.94
428.958	73.94
429.181	90.94
429.403	80.94
429.625	88.94
429.847	85.94
430.069	89.94
430.292	84.94
430.514	84.94
430.736	85.94
430.958	90.94
431.18	78.94
431.402	62.94
431.624	98.94
431.846	78.94
432.068	88.94
432.29	72.94
432.512	81.94
432.734	82.94
432.956	83.94
433.178	74.94
433.4	102.94
433.622	100.94
433.844	81.94
434.066	88.94
434.287	98.94
434.509	89.94
434.731	98.94
434.953	87.94
435.175	90.94
435.397	91.94
435.618	83.94
435.84	96.94
436.062	108.94
436.284	95.94
436.505	85.94
436.727	96.94
436.949	90.94
437.17	93.94
437.392	81.94
437.614	93.94
437.835	95.94
438.057	104.94
438.278	102.94
438.5	97.94
438.721	116.94
438.943	94.94
439.165	95.94
439.386	78.94
439.608	86.94
439.829	85.94
440.05	113.94
440.272	116.94
440.493	89.94
440.715	79.94
440.936	95.94
441.158	93.94
441.379	84.94
441.6	107.94
441.822	85.94
442.043	91.94
442.264	99.94
442.486	99.94
442.707	85.94
442.928	103.94
443.149	118.94
443.371	122.94
443.592	112.94
443.813	114.94
444.034	105.94
444.255	102.94
444.476	82.94
444.698	85.94
444.919	85.94
445.14	128.94
445.361	117.94
445.582	125.94
445.803	102.94
446.024	103.94
446.245	114.94
446.466	91.94
446.687	85.94
446.908	75.94
447.129	93.94
447.35	92.94
447.571	84.94
447.792	93.94
448.013	91.94
448.234	111.94
448.455	92.94
448.675	103.94
448.896	118.94
449.117	82.94
449.338	89.94
449.559	126.94
449.779	117.94
450	88.94
450.221	103.94
450.442	74.94
450.662	80.94
450.883	111.94
451.104	99.94
451.324	90.94
451.545	87.94
451.766	83.94
451.986	81.94
452.207	85.94
452.428	93.94
452.648	101.94
452.869	87.94
453.089	111.94
453.31	101.94
453.53	93.94
453.751	83.94
453.971	92.94
454.192	87.94
454.412	95.94
454.633	87.94
454.853	94.94
455.073	109.94
455.294	87.94
455.514	82.94
455.734	94.94
455.955	92.94
456.175	87.94
456.395	75.94
456.616	104.94
456.836	93.94
457.056	90.94
457.276	81.94
457.497	81.94
457.717	90.94
457.937	87.94
458.157	83.94
458.377	95.94
458.598	104.94
458.818	138.94
459.038	139.94
459.258	111.94
459.478	79.94
459.698	82.94
459.918	63.94
460.138	71.94
460.358	77.94
460.578	95.94
460.798	82.94
461.018	91.94
461.238	92.94
461.458	85.94
461.678	86.94
461.898	79.94
462.118	86.94
462.338	91.94
462.558	83.94
462.777	91.94
462.997	92.94
463.217	82.94
463.437	87.94
463.657	75.94
463.876	81.94
464.096	77.94
464.316	92.94
464.536	92.94
464.755	88.94
464.975	96.94
465.195	133.94
465.414	132.94
465.634	86.94
465.854	78.94
466.073	84.94
466.293	85.94
466.512	90.94
466.732	94.94
466.951	83.94
467.171	94.94
467.391	84.94
467.61	85.94
467.829	97.94
468.049	105.94
468.268	90.94
468.488	89.94
468.707	89.94
468.927	84.94
469.146	78.94
469.365	92.94
469.585	82.94
469.804	100.94
470.023	87.94
470.243	87.94
470.462	90.94
470.681	100.94
470.901	74.94
471.12	85.94
471.339	94.94
471.558	94.94
471.777	93.94
471.997	92.94
472.216	93.94
472.435	107.94
472.654	87.94
472.873	95.94
473.092	79.94
473.311	92.94
473.53	90.94
473.749	90.94
473.968	96.94
474.187	88.94
474.406	101.94
474.625	94.94
474.844	73.94
475.063	77.94
475.282	85.94
475.501	85.94
475.72	84.94
475.939	81.94
476.158	84.94
476.377	79.94
476.596	84.94
476.814	91.94
477.033	100.94
477.252	78.94
477.471	91.94
477.69	79.94
477.908	91.94
478.127	100.94
478.346	90.94
478.564	84.94
478.783	93.94
479.002	84.94
479.22	81.94
479.439	95.94
479.658	103.94
479.876	83.94
480.095	81.94
480.313	94.94
480.532	100.94
480.751	81.94
480.969	85.94
481.188	99.94
481.406	97.94
481.624	88.94
481.843	99.94
482.061	88.94
482.28	86.94
482.498	71.94
482.717	83.94
482.935	85.94
483.153	89.94
483.372	77.94
483.59	80.94
483.808	96.94
484.027	78.94
484.245	92.94
484.463	96.94
484.681	88.94
484.9	85.94
485.118	96.94
485.336	75.94
485.554	87.94
485.772	101.94
485.99	96.94
486.209	99.94
486.427	97.94
486.645	114.94
486.863	110.94
487.081	86.94
487.299	90.94
487.517	90.94
487.735	100.94
487.953	107.94
488.171	97.94
488.389	89.94
488.607	93.94
488.825	87.94
489.043	87.94
489.261	86.94
489.479	75.94
489.696	82.94
489.914	87.94
490.132	93.94
490.35	87.94
490.568	86.94
490.786	81.94
491.003	86.94
491.221	83.94
491.439	87.94
491.657	95.94
491.874	89.94
492.092	93.94
492.31	93.94
492.527	86.94
492.745	94.94
492.963	95.94
493.18	88.94
493.398	96.94
493.615	85.94
493.833	96.94
494.05	91.94
494.268	99.94
494.485	84.94
494.703	86.94
494.92	90.94
495.138	89.94
495.355	73.94
495.573	89.94
495.79	80.94
496.008	98.94
496.225	81.94
496.442	91.94
496.66	98.94
496.877	88.94
497.094	89.94
497.312	90.94
497.529	86.94
497.746	86.94
497.963	94.94
498.181	95.94
498.398	90.94
498.615	114.94
498.832	97.94
499.049	89.94
499.267	95.94
499.484	90.94
499.701	81.94
499.918	89.94
500.135	93.94
500.352	88.94
500.569	87.94
500.786	98.94
501.003	85.94
501.22	85.94
501.437	87.94
501.654	85.94
501.871	104.94
502.088	97.94
502.305	84.94
502.522	74.94
502.739	89.94
502.956	85.94
503.172	94.94
503.389	71.94
503.606	91.94
503.823	89.94
504.04	90.94
504.256	94.94
504.473	85.94
504.69	74.94
504.907	83.94
505.123	82.94
505.34	88.94
505.557	88.94
505.773	98.94
505.99	77.94
506.207	92.94
506.423	86.94
506.64	94.94
506.856	94.94
507.073	98.94
507.289	86.94
507.506	100.94
507.722	95.94
507.939	106.94
508.155	82.94
508.372	90.94
508.588	92.94
508.805	108.94
509.021	107.94
509.238	88.94
509.454	98.94
509.67	95.94
509.887	113.94
510.103	109.94
510.319	190.94
510.536	678.94
510.752	2042.94
510.968	573.94
511.184	148.94
511.401	109.94
511.617	105.94
511.833	91.94
512.049	86.94
512.265	90.94
512.481	95.94
512.698	93.94
512.914	104.94
513.13	108.94
513.346	90.94
513.562	90.94
513.778	94.94
513.994	99.94
514.21	103.94
514.426	109.94
514.642	111.94
514.858	100.94
515.074	146.94
515.29	357.94
515.506	1176.94
515.721	429.94
515.937	129.94
516.153	107.94
516.369	93.94
516.585	90.94
516.801	84.94
