Data from Uncirc_1985_H10_HRD10591_00100.txt Node
Date: Wed Jan 03 12:18:37 EST 2024
User: Yrep
Spectrometer: HR+D1059
Trigger mode: 1
Integration Time (sec): 1.000000E-1
Scans to average: 1
Electric dark correction enabled: true
Nonlinearity correction enabled: false
Boxcar width: 0
XAxis mode: Wavelengths
Number of Pixels in Spectrum: 2048
>>>>>Begin Spectral Data<<<<<
223.165	-5.31
223.4	-5.31
223.635	-5.31
223.869	-21.31
224.104	-15.31
224.338	-11.31
224.573	-15.31
224.808	-20.31
225.042	-19.31
225.277	-12.31
225.511	7.69
225.746	3.69
225.98	5.69
226.215	6.69
226.449	23.69
226.683	16.69
226.918	29.69
227.152	26.69
227.387	26.69
227.621	28.69
227.856	52.69
228.09	58.69
228.324	35.69
228.559	62.69
228.793	50.69
229.027	48.69
229.262	52.69
229.496	62.69
229.73	69.69
229.964	83.69
230.199	66.69
230.433	61.69
230.667	70.69
230.901	82.69
231.136	69.69
231.37	90.69
231.604	71.69
231.838	80.69
232.072	70.69
232.306	72.69
232.541	73.69
232.775	83.69
233.009	92.69
233.243	61.69
233.477	88.69
233.711	77.69
233.945	71.69
234.179	85.69
234.413	77.69
234.647	95.69
234.881	86.69
235.115	70.69
235.349	78.69
235.583	81.69
235.817	75.69
236.051	81.69
236.285	62.69
236.519	78.69
236.753	98.69
236.987	82.69
237.221	69.69
237.455	75.69
237.689	73.69
237.922	73.69
238.156	91.69
238.39	80.69
238.624	79.69
238.858	88.69
239.091	66.69
239.325	68.69
239.559	83.69
239.793	82.69
240.027	68.69
240.26	65.69
240.494	67.69
240.728	78.69
240.961	73.69
241.195	74.69
241.429	94.69
241.662	74.69
241.896	82.69
242.13	86.69
242.363	56.69
242.597	62.69
242.83	76.69
243.064	76.69
243.298	76.69
243.531	63.69
243.765	84.69
243.998	82.69
244.232	84.69
244.465	87.69
244.699	75.69
244.932	78.69
245.166	84.69
245.399	54.69
245.633	77.69
245.866	74.69
246.099	71.69
246.333	82.69
246.566	72.69
246.8	86.69
247.033	92.69
247.266	75.69
247.5	66.69
247.733	87.69
247.966	80.69
248.2	86.69
248.433	71.69
248.666	78.69
248.899	72.69
249.133	82.69
249.366	87.69
249.599	96.69
249.832	79.69
250.066	66.69
250.299	80.69
250.532	85.69
250.765	87.69
250.998	74.69
251.231	74.69
251.465	81.69
251.698	84.69
251.931	76.69
252.164	80.69
252.397	74.69
252.63	83.69
252.863	83.69
253.096	83.69
253.329	81.69
253.562	88.69
253.795	82.69
254.028	83.69
254.261	79.69
254.494	81.69
254.727	95.69
254.96	88.69
255.193	87.69
255.426	83.69
255.659	78.69
255.892	67.69
256.124	74.69
256.357	79.69
256.59	79.69
256.823	80.69
257.056	89.69
257.289	78.69
257.521	72.69
257.754	83.69
257.987	82.69
258.22	91.69
258.452	79.69
258.685	88.69
258.918	80.69
259.151	89.69
259.383	79.69
259.616	78.69
259.849	91.69
260.081	73.69
260.314	79.69
260.547	72.69
260.779	84.69
261.012	95.69
261.244	75.69
261.477	80.69
261.71	82.69
261.942	104.69
262.175	124.69
262.407	96.69
262.64	78.69
262.872	81.69
263.105	91.69
263.337	91.69
263.57	85.69
263.802	87.69
264.035	79.69
264.267	90.69
264.499	98.69
264.732	78.69
264.964	89.69
265.197	82.69
265.429	92.69
265.661	80.69
265.894	90.69
266.126	77.69
266.358	70.69
266.591	86.69
266.823	79.69
267.055	89.69
267.287	80.69
267.52	84.69
267.752	91.69
267.984	90.69
268.216	85.69
268.448	79.69
268.681	71.69
268.913	85.69
269.145	84.69
269.377	88.69
269.609	74.69
269.841	95.69
270.073	82.69
270.306	77.69
270.538	83.69
270.77	82.69
271.002	73.69
271.234	80.69
271.466	61.69
271.698	86.69
271.93	78.69
272.162	86.69
272.394	92.69
272.626	96.69
272.858	94.69
273.09	85.69
273.322	87.69
273.553	71.69
273.785	86.69
274.017	80.69
274.249	78.69
274.481	73.69
274.713	89.69
274.945	89.69
275.176	101.69
275.408	75.69
275.64	83.69
275.872	87.69
276.104	70.69
276.335	92.69
276.567	102.69
276.799	109.69
277.031	103.69
277.262	96.69
277.494	82.69
277.726	76.69
277.957	86.69
278.189	86.69
278.421	80.69
278.652	72.69
278.884	86.69
279.115	86.69
279.347	70.69
279.579	92.69
279.81	73.69
280.042	97.69
280.273	100.69
280.505	71.69
280.736	78.69
280.968	87.69
281.199	98.69
281.431	79.69
281.662	87.69
281.894	97.69
282.125	88.69
282.356	117.69
282.588	138.69
282.819	112.69
283.051	104.69
283.282	86.69
283.513	88.69
283.745	83.69
283.976	80.69
284.207	91.69
284.439	75.69
284.67	103.69
284.901	74.69
285.132	67.69
285.364	87.69
285.595	95.69
285.826	94.69
286.057	85.69
286.288	91.69
286.52	90.69
286.751	73.69
286.982	83.69
287.213	74.69
287.444	90.69
287.675	90.69
287.906	95.69
288.138	72.69
288.369	83.69
288.6	86.69
288.831	90.69
289.062	80.69
289.293	80.69
289.524	84.69
289.755	86.69
289.986	87.69
290.217	81.69
290.448	95.69
290.679	89.69
290.91	99.69
291.141	84.69
291.371	90.69
291.602	88.69
291.833	82.69
292.064	92.69
292.295	90.69
292.526	84.69
292.757	80.69
292.987	92.69
293.218	84.69
293.449	78.69
293.68	93.69
293.91	91.69
294.141	91.69
294.372	86.69
294.603	91.69
294.833	73.69
295.064	94.69
295.295	101.69
295.525	93.69
295.756	87.69
295.987	118.69
296.217	137.69
296.448	117.69
296.679	104.69
296.909	78.69
297.14	95.69
297.37	84.69
297.601	90.69
297.831	103.69
298.062	86.69
298.292	75.69
298.523	98.69
298.753	85.69
298.984	90.69
299.214	90.69
299.445	84.69
299.675	96.69
299.905	107.69
300.136	63.69
300.366	96.69
300.597	84.69
300.827	90.69
301.057	99.69
301.288	100.69
301.518	72.69
301.748	84.69
301.979	99.69
302.209	96.69
302.439	91.69
302.669	90.69
302.9	89.69
303.13	96.69
303.36	99.69
303.59	102.69
303.82	104.69
304.051	96.69
304.281	104.69
304.511	86.69
304.741	89.69
304.971	76.69
305.201	73.69
305.431	75.69
305.661	87.69
305.891	92.69
306.121	106.69
306.352	104.69
306.582	102.69
306.812	105.69
307.042	94.69
307.272	101.69
307.502	95.69
307.731	90.69
307.961	79.69
308.191	98.69
308.421	96.69
308.651	89.69
308.881	94.69
309.111	78.69
309.341	92.69
309.571	96.69
309.8	89.69
310.03	96.69
310.26	94.69
310.49	90.69
310.72	84.69
310.949	96.69
311.179	95.69
311.409	90.69
311.639	103.69
311.868	97.69
312.098	82.69
312.328	97.69
312.557	96.69
312.787	96.69
313.017	88.69
313.246	97.69
313.476	90.69
313.706	83.69
313.935	89.69
314.165	111.69
314.394	92.69
314.624	94.69
314.853	98.69
315.083	78.69
315.312	90.69
315.542	98.69
315.771	87.69
316.001	81.69
316.23	95.69
316.46	102.69
316.689	89.69
316.919	95.69
317.148	105.69
317.377	91.69
317.607	87.69
317.836	98.69
318.065	78.69
318.295	91.69
318.524	82.69
318.753	91.69
318.983	87.69
319.212	94.69
319.441	98.69
319.67	115.69
319.9	95.69
320.129	99.69
320.358	87.69
320.587	88.69
320.816	94.69
321.046	102.69
321.275	101.69
321.504	91.69
321.733	98.69
321.962	80.69
322.191	90.69
322.42	102.69
322.649	92.69
322.878	103.69
323.108	101.69
323.337	138.69
323.566	132.69
323.795	158.69
324.024	182.69
324.253	347.69
324.482	731.69
324.71	1506.69
324.939	2008.69
325.168	726.69
325.397	221.69
325.626	130.69
325.855	134.69
326.084	125.69
326.313	129.69
326.542	160.69
326.77	208.69
326.999	415.69
327.228	802.69
327.457	1518.69
327.686	1227.69
327.914	356.69
328.143	211.69
328.372	160.69
328.6	130.69
328.829	127.69
329.058	126.69
329.287	122.69
329.515	111.69
329.744	100.69
329.972	107.69
330.201	121.69
330.43	154.69
330.658	133.69
330.887	133.69
331.115	121.69
331.344	88.69
331.572	98.69
331.801	97.69
332.03	105.69
332.258	98.69
332.486	87.69
332.715	85.69
332.943	95.69
333.172	102.69
333.4	89.69
333.629	101.69
333.857	117.69
334.085	108.69
334.314	143.69
334.542	194.69
334.771	174.69
334.999	101.69
335.227	79.69
335.455	90.69
335.684	106.69
335.912	88.69
336.14	95.69
336.369	100.69
336.597	96.69
336.825	92.69
337.053	96.69
337.281	90.69
337.51	71.69
337.738	87.69
337.966	90.69
338.194	93.69
338.422	84.69
338.65	90.69
338.878	89.69
339.106	78.69
339.334	99.69
339.562	71.69
339.79	78.69
340.018	86.69
340.246	72.69
340.474	91.69
340.702	90.69
340.93	80.69
341.158	82.69
341.386	86.69
341.614	89.69
341.842	83.69
342.07	92.69
342.298	104.69
342.526	87.69
342.754	100.69
342.981	94.69
343.209	88.69
343.437	107.69
343.665	86.69
343.893	90.69
344.12	85.69
344.348	96.69
344.576	95.69
344.804	104.69
345.031	95.69
345.259	89.69
345.487	75.69
345.714	87.69
345.942	92.69
346.17	91.69
346.397	88.69
346.625	75.69
346.853	91.69
347.08	88.69
347.308	84.69
347.535	107.69
347.763	91.69
347.99	91.69
348.218	108.69
348.445	102.69
348.673	92.69
348.9	97.69
349.128	97.69
349.355	85.69
349.583	84.69
349.81	94.69
350.037	85.69
350.265	87.69
350.492	76.69
350.72	93.69
350.947	96.69
351.174	114.69
351.402	91.69
351.629	93.69
351.856	110.69
352.083	98.69
352.311	87.69
352.538	104.69
352.765	116.69
352.992	99.69
353.22	119.69
353.447	101.69
353.674	91.69
353.901	90.69
354.128	108.69
354.355	90.69
354.583	86.69
354.81	92.69
355.037	99.69
355.264	79.69
355.491	91.69
355.718	84.69
355.945	78.69
356.172	96.69
356.399	94.69
356.626	86.69
356.853	86.69
357.08	101.69
357.307	87.69
357.534	84.69
357.761	90.69
357.988	87.69
358.215	101.69
358.441	100.69
358.668	88.69
358.895	86.69
359.122	98.69
359.349	89.69
359.576	79.69
359.802	98.69
360.029	104.69
360.256	94.69
360.483	90.69
360.709	85.69
360.936	102.69
361.163	84.69
361.39	95.69
361.616	94.69
361.843	83.69
362.07	86.69
362.296	103.69
362.523	82.69
362.749	88.69
362.976	87.69
363.203	95.69
363.429	87.69
363.656	76.69
363.882	78.69
364.109	80.69
364.335	99.69
364.562	89.69
364.788	91.69
365.015	91.69
365.241	86.69
365.468	107.69
365.694	85.69
365.92	96.69
366.147	100.69
366.373	96.69
366.599	95.69
366.826	85.69
367.052	89.69
367.278	90.69
367.505	89.69
367.731	87.69
367.957	87.69
368.184	86.69
368.41	100.69
368.636	106.69
368.862	112.69
369.089	111.69
369.315	100.69
369.541	84.69
369.767	84.69
369.993	90.69
370.219	93.69
370.445	96.69
370.672	82.69
370.898	82.69
371.124	101.69
371.35	64.69
371.576	97.69
371.802	92.69
372.028	94.69
372.254	97.69
372.48	96.69
372.706	89.69
372.932	101.69
373.158	79.69
373.384	74.69
373.61	91.69
373.835	90.69
374.061	79.69
374.287	87.69
374.513	112.69
374.739	98.69
374.965	84.69
375.191	78.69
375.416	102.69
375.642	83.69
375.868	94.69
376.094	92.69
376.319	80.69
376.545	101.69
376.771	74.69
376.997	82.69
377.222	95.69
377.448	81.69
377.674	95.69
377.899	93.69
378.125	81.69
378.35	97.69
378.576	86.69
378.802	67.69
379.027	86.69
379.253	94.69
379.478	92.69
379.704	82.69
379.929	99.69
380.155	91.69
380.38	113.69
380.606	89.69
380.831	88.69
381.057	88.69
381.282	93.69
381.507	82.69
381.733	89.69
381.958	87.69
382.184	89.69
382.409	100.69
382.634	97.69
382.86	96.69
383.085	107.69
383.31	94.69
383.535	98.69
383.761	102.69
383.986	101.69
384.211	96.69
384.436	103.69
384.662	100.69
384.887	97.69
385.112	88.69
385.337	98.69
385.562	88.69
385.787	111.69
386.013	97.69
386.238	111.69
386.463	100.69
386.688	117.69
386.913	93.69
387.138	99.69
387.363	93.69
387.588	102.69
387.813	109.69
388.038	107.69
388.263	95.69
388.488	95.69
388.713	105.69
388.938	84.69
389.163	78.69
389.387	104.69
389.612	91.69
389.837	82.69
390.062	99.69
390.287	91.69
390.512	84.69
390.736	98.69
390.961	105.69
391.186	94.69
391.411	89.69
391.636	78.69
391.86	90.69
392.085	83.69
392.31	85.69
392.534	90.69
392.759	75.69
392.984	81.69
393.208	93.69
393.433	91.69
393.658	91.69
393.882	82.69
394.107	99.69
394.331	82.69
394.556	95.69
394.78	88.69
395.005	87.69
395.229	91.69
395.454	84.69
395.678	89.69
395.903	92.69
396.127	103.69
396.352	83.69
396.576	81.69
396.801	83.69
397.025	86.69
397.249	82.69
397.474	86.69
397.698	69.69
397.922	80.69
398.147	102.69
398.371	83.69
398.595	90.69
398.82	87.69
399.044	87.69
399.268	99.69
399.492	92.69
399.717	82.69
399.941	92.69
400.165	91.69
400.389	95.69
400.613	98.69
400.837	74.69
401.062	81.69
401.286	84.69
401.51	82.69
401.734	77.69
401.958	101.69
402.182	118.69
402.406	146.69
402.63	118.69
402.854	72.69
403.078	99.69
403.302	81.69
403.526	80.69
403.75	92.69
403.974	79.69
404.198	80.69
404.422	97.69
404.645	86.69
404.869	81.69
405.093	106.69
405.317	98.69
405.541	99.69
405.765	112.69
405.988	120.69
406.212	165.69
406.436	198.69
406.66	136.69
406.883	80.69
407.107	87.69
407.331	84.69
407.555	102.69
407.778	82.69
408.002	82.69
408.226	91.69
408.449	98.69
408.673	83.69
408.896	81.69
409.12	91.69
409.344	96.69
409.567	83.69
409.791	94.69
410.014	108.69
410.238	87.69
410.461	95.69
410.685	93.69
410.908	93.69
411.132	94.69
411.355	87.69
411.578	96.69
411.802	90.69
412.025	78.69
412.249	93.69
412.472	94.69
412.695	107.69
412.919	84.69
413.142	76.69
413.365	82.69
413.589	82.69
413.812	90.69
414.035	87.69
414.258	81.69
414.482	89.69
414.705	76.69
414.928	75.69
415.151	86.69
415.374	88.69
415.597	85.69
415.821	79.69
416.044	95.69
416.267	85.69
416.49	89.69
416.713	89.69
416.936	88.69
417.159	99.69
417.382	82.69
417.605	89.69
417.828	89.69
418.051	83.69
418.274	90.69
418.497	82.69
418.72	80.69
418.943	74.69
419.166	79.69
419.389	80.69
419.611	82.69
419.834	89.69
420.057	95.69
420.28	90.69
420.503	94.69
420.726	95.69
420.948	75.69
421.171	74.69
421.394	96.69
421.617	72.69
421.839	88.69
422.062	91.69
422.285	79.69
422.507	101.69
422.73	102.69
422.953	102.69
423.175	100.69
423.398	94.69
423.621	86.69
423.843	89.69
424.066	88.69
424.288	85.69
424.511	79.69
424.733	76.69
424.956	92.69
425.178	109.69
425.401	91.69
425.623	98.69
425.846	81.69
426.068	95.69
426.291	100.69
426.513	82.69
426.735	101.69
426.958	95.69
427.18	92.69
427.402	135.69
427.625	165.69
427.847	128.69
428.069	108.69
428.292	86.69
428.514	80.69
428.736	79.69
428.958	94.69
429.181	85.69
429.403	88.69
429.625	71.69
429.847	76.69
430.069	89.69
430.292	80.69
430.514	78.69
430.736	79.69
430.958	77.69
431.18	90.69
431.402	75.69
431.624	84.69
431.846	81.69
432.068	86.69
432.29	99.69
432.512	90.69
432.734	87.69
432.956	90.69
433.178	105.69
433.4	107.69
433.622	93.69
433.844	81.69
434.066	83.69
434.287	91.69
434.509	79.69
434.731	96.69
434.953	75.69
435.175	72.69
435.397	96.69
435.618	84.69
435.84	90.69
436.062	115.69
436.284	114.69
436.505	88.69
436.727	98.69
436.949	97.69
437.17	95.69
437.392	78.69
437.614	98.69
437.835	92.69
438.057	100.69
438.278	114.69
438.5	91.69
438.721	106.69
438.943	100.69
439.165	79.69
439.386	87.69
439.608	88.69
439.829	95.69
440.05	121.69
440.272	149.69
440.493	106.69
440.715	96.69
440.936	90.69
441.158	78.69
441.379	83.69
441.6	100.69
441.822	94.69
442.043	86.69
442.264	93.69
442.486	105.69
442.707	78.69
442.928	97.69
443.149	130.69
443.371	126.69
443.592	104.69
443.813	113.69
444.034	96.69
444.255	94.69
444.476	95.69
444.698	78.69
444.919	100.69
445.14	138.69
445.361	121.69
445.582	126.69
445.803	122.69
446.024	124.69
446.245	118.69
446.466	115.69
446.687	86.69
446.908	87.69
447.129	83.69
447.35	80.69
447.571	78.69
447.792	94.69
448.013	113.69
448.234	107.69
448.455	97.69
448.675	105.69
448.896	114.69
449.117	100.69
449.338	98.69
449.559	119.69
449.779	122.69
450	90.69
450.221	86.69
450.442	85.69
450.662	84.69
450.883	108.69
451.104	99.69
451.324	84.69
451.545	93.69
451.766	95.69
451.986	93.69
452.207	84.69
452.428	98.69
452.648	99.69
452.869	95.69
453.089	116.69
453.31	102.69
453.53	76.69
453.751	94.69
453.971	94.69
454.192	112.69
454.412	90.69
454.633	88.69
454.853	94.69
455.073	80.69
455.294	90.69
455.514	104.69
455.734	96.69
455.955	90.69
456.175	97.69
456.395	82.69
456.616	90.69
456.836	65.69
457.056	97.69
457.276	80.69
457.497	83.69
457.717	91.69
457.937	71.69
458.157	69.69
458.377	99.69
458.598	102.69
458.818	134.69
459.038	159.69
459.258	98.69
459.478	80.69
459.698	84.69
459.918	81.69
460.138	80.69
460.358	83.69
460.578	87.69
460.798	85.69
461.018	99.69
461.238	82.69
461.458	86.69
461.678	96.69
461.898	96.69
462.118	83.69
462.338	87.69
462.558	78.69
462.777	79.69
462.997	83.69
463.217	88.69
463.437	83.69
463.657	83.69
463.876	90.69
464.096	98.69
464.316	92.69
464.536	85.69
464.755	92.69
464.975	105.69
465.195	133.69
465.414	147.69
465.634	92.69
465.854	80.69
466.073	86.69
466.293	85.69
466.512	96.69
466.732	102.69
466.951	86.69
467.171	91.69
467.391	76.69
467.61	107.69
467.829	97.69
468.049	106.69
468.268	119.69
468.488	108.69
468.707	87.69
468.927	83.69
469.146	75.69
469.365	83.69
469.585	83.69
469.804	100.69
470.023	87.69
470.243	100.69
470.462	101.69
470.681	110.69
470.901	75.69
471.12	85.69
471.339	83.69
471.558	75.69
471.777	90.69
471.997	101.69
472.216	165.69
472.435	222.69
472.654	113.69
472.873	94.69
473.092	75.69
473.311	81.69
473.53	88.69
473.749	84.69
473.968	73.69
474.187	104.69
474.406	85.69
474.625	84.69
474.844	89.69
475.063	84.69
475.282	91.69
475.501	86.69
475.72	78.69
475.939	90.69
476.158	84.69
476.377	96.69
476.596	78.69
476.814	88.69
477.033	85.69
477.252	101.69
477.471	86.69
477.69	95.69
477.908	95.69
478.127	81.69
478.346	94.69
478.564	82.69
478.783	75.69
479.002	80.69
479.22	86.69
479.439	98.69
479.658	93.69
479.876	96.69
480.095	96.69
480.313	93.69
480.532	99.69
480.751	89.69
480.969	128.69
481.188	326.69
481.406	224.69
481.624	102.69
481.843	77.69
482.061	85.69
482.28	82.69
482.498	86.69
482.717	82.69
482.935	93.69
483.153	96.69
483.372	90.69
483.59	75.69
483.808	93.69
484.027	99.69
484.245	83.69
484.463	85.69
484.681	85.69
484.9	91.69
485.118	92.69
485.336	96.69
485.554	98.69
485.772	114.69
485.99	92.69
486.209	92.69
486.427	91.69
486.645	107.69
486.863	116.69
487.081	89.69
487.299	95.69
487.517	98.69
487.735	94.69
487.953	88.69
488.171	97.69
488.389	86.69
488.607	98.69
488.825	87.69
489.043	94.69
489.261	76.69
489.479	88.69
489.696	85.69
489.914	90.69
490.132	77.69
490.35	89.69
490.568	100.69
490.786	86.69
491.003	85.69
491.221	78.69
491.439	80.69
491.657	79.69
491.874	89.69
492.092	87.69
492.31	91.69
492.527	86.69
492.745	83.69
492.963	97.69
493.18	92.69
493.398	104.69
493.615	93.69
493.833	79.69
494.05	84.69
494.268	90.69
494.485	81.69
494.703	92.69
494.92	102.69
495.138	106.69
495.355	92.69
495.573	90.69
495.79	89.69
496.008	90.69
496.225	97.69
496.442	99.69
496.66	93.69
496.877	88.69
497.094	91.69
497.312	100.69
497.529	89.69
497.746	99.69
497.963	84.69
498.181	101.69
498.398	103.69
498.615	94.69
498.832	104.69
499.049	89.69
499.267	84.69
499.484	95.69
499.701	84.69
499.918	86.69
500.135	86.69
500.352	110.69
500.569	88.69
500.786	100.69
501.003	83.69
501.22	91.69
501.437	101.69
501.654	83.69
501.871	91.69
502.088	94.69
502.305	87.69
502.522	102.69
502.739	89.69
502.956	89.69
503.172	96.69
503.389	98.69
503.606	99.69
503.823	88.69
504.04	87.69
504.256	90.69
504.473	84.69
504.69	98.69
504.907	87.69
505.123	89.69
505.34	79.69
505.557	86.69
505.773	85.69
505.99	89.69
506.207	88.69
506.423	72.69
506.64	84.69
506.856	79.69
507.073	81.69
507.289	93.69
507.506	89.69
507.722	111.69
507.939	122.69
508.155	75.69
508.372	78.69
508.588	90.69
508.805	104.69
509.021	88.69
509.238	89.69
509.454	111.69
509.67	74.69
509.887	107.69
510.103	122.69
510.319	192.69
510.536	710.69
510.752	2298.69
510.968	616.69
511.184	147.69
511.401	119.69
511.617	94.69
511.833	87.69
512.049	89.69
512.265	100.69
512.481	94.69
512.698	103.69
512.914	88.69
513.13	90.69
513.346	85.69
513.562	84.69
513.778	88.69
513.994	94.69
514.21	96.69
514.426	118.69
514.642	131.69
514.858	107.69
515.074	152.69
515.29	423.69
515.506	1332.69
515.721	504.69
515.937	144.69
516.153	99.69
516.369	90.69
