Data from Uncirc_1985_H10_HRD10591_00063.txt Node
Date: Wed Jan 03 12:18:30 EST 2024
User: Yrep
Spectrometer: HR+D1059
Trigger mode: 1
Integration Time (sec): 1.000000E-1
Scans to average: 1
Electric dark correction enabled: true
Nonlinearity correction enabled: false
Boxcar width: 0
XAxis mode: Wavelengths
Number of Pixels in Spectrum: 2048
>>>>>Begin Spectral Data<<<<<
223.165	-23.94
223.4	-23.94
223.635	-23.94
223.869	-14.94
224.104	-32.94
224.338	-4.94
224.573	0.06
224.808	-14.94
225.042	-3.94
225.277	-5.94
225.511	-1.94
225.746	21.06
225.98	-6.94
226.215	12.06
226.449	9.06
226.683	20.06
226.918	15.06
227.152	33.06
227.387	34.06
227.621	31.06
227.856	38.06
228.09	39.06
228.324	47.06
228.559	48.06
228.793	56.06
229.027	69.06
229.262	63.06
229.496	83.06
229.73	77.06
229.964	70.06
230.199	79.06
230.433	75.06
230.667	76.06
230.901	77.06
231.136	69.06
231.37	78.06
231.604	97.06
231.838	80.06
232.072	75.06
232.306	79.06
232.541	78.06
232.775	66.06
233.009	79.06
233.243	62.06
233.477	83.06
233.711	91.06
233.945	78.06
234.179	71.06
234.413	86.06
234.647	73.06
234.881	79.06
235.115	79.06
235.349	80.06
235.583	78.06
235.817	74.06
236.051	83.06
236.285	87.06
236.519	71.06
236.753	82.06
236.987	69.06
237.221	67.06
237.455	81.06
237.689	79.06
237.922	75.06
238.156	88.06
238.39	83.06
238.624	76.06
238.858	59.06
239.091	71.06
239.325	74.06
239.559	74.06
239.793	80.06
240.027	81.06
240.26	86.06
240.494	72.06
240.728	73.06
240.961	72.06
241.195	61.06
241.429	71.06
241.662	82.06
241.896	77.06
242.13	77.06
242.363	81.06
242.597	71.06
242.83	81.06
243.064	77.06
243.298	71.06
243.531	81.06
243.765	87.06
243.998	87.06
244.232	88.06
244.465	82.06
244.699	81.06
244.932	84.06
245.166	83.06
245.399	89.06
245.633	62.06
245.866	64.06
246.099	74.06
246.333	81.06
246.566	90.06
246.8	81.06
247.033	77.06
247.266	87.06
247.5	77.06
247.733	90.06
247.966	89.06
248.2	69.06
248.433	61.06
248.666	99.06
248.899	88.06
249.133	87.06
249.366	93.06
249.599	90.06
249.832	74.06
250.066	86.06
250.299	64.06
250.532	81.06
250.765	77.06
250.998	86.06
251.231	86.06
251.465	71.06
251.698	90.06
251.931	81.06
252.164	85.06
252.397	53.06
252.63	80.06
252.863	85.06
253.096	80.06
253.329	83.06
253.562	89.06
253.795	84.06
254.028	79.06
254.261	64.06
254.494	85.06
254.727	65.06
254.96	91.06
255.193	91.06
255.426	74.06
255.659	87.06
255.892	86.06
256.124	72.06
256.357	78.06
256.59	87.06
256.823	85.06
257.056	91.06
257.289	78.06
257.521	77.06
257.754	70.06
257.987	67.06
258.22	61.06
258.452	82.06
258.685	75.06
258.918	70.06
259.151	84.06
259.383	89.06
259.616	92.06
259.849	77.06
260.081	75.06
260.314	91.06
260.547	74.06
260.779	65.06
261.012	85.06
261.244	95.06
261.477	89.06
261.71	85.06
261.942	117.06
262.175	107.06
262.407	98.06
262.64	85.06
262.872	77.06
263.105	79.06
263.337	97.06
263.57	89.06
263.802	69.06
264.035	82.06
264.267	79.06
264.499	95.06
264.732	90.06
264.964	86.06
265.197	93.06
265.429	80.06
265.661	85.06
265.894	93.06
266.126	89.06
266.358	71.06
266.591	85.06
266.823	86.06
267.055	94.06
267.287	87.06
267.52	91.06
267.752	95.06
267.984	86.06
268.216	74.06
268.448	91.06
268.681	96.06
268.913	91.06
269.145	90.06
269.377	90.06
269.609	79.06
269.841	83.06
270.073	82.06
270.306	79.06
270.538	82.06
270.77	83.06
271.002	75.06
271.234	86.06
271.466	78.06
271.698	87.06
271.93	87.06
272.162	81.06
272.394	94.06
272.626	88.06
272.858	73.06
273.09	87.06
273.322	88.06
273.553	79.06
273.785	85.06
274.017	92.06
274.249	86.06
274.481	60.06
274.713	93.06
274.945	84.06
275.176	74.06
275.408	69.06
275.64	88.06
275.872	86.06
276.104	94.06
276.335	97.06
276.567	87.06
276.799	108.06
277.031	97.06
277.262	94.06
277.494	87.06
277.726	69.06
277.957	77.06
278.189	85.06
278.421	91.06
278.652	89.06
278.884	92.06
279.115	79.06
279.347	79.06
279.579	96.06
279.81	70.06
280.042	94.06
280.273	88.06
280.505	82.06
280.736	87.06
280.968	94.06
281.199	89.06
281.431	83.06
281.662	90.06
281.894	104.06
282.125	107.06
282.356	126.06
282.588	145.06
282.819	117.06
283.051	96.06
283.282	85.06
283.513	70.06
283.745	80.06
283.976	80.06
284.207	77.06
284.439	82.06
284.67	88.06
284.901	77.06
285.132	84.06
285.364	95.06
285.595	94.06
285.826	95.06
286.057	70.06
286.288	87.06
286.52	81.06
286.751	80.06
286.982	80.06
287.213	79.06
287.444	89.06
287.675	97.06
287.906	75.06
288.138	92.06
288.369	90.06
288.6	106.06
288.831	85.06
289.062	89.06
289.293	91.06
289.524	103.06
289.755	81.06
289.986	78.06
290.217	95.06
290.448	83.06
290.679	74.06
290.91	85.06
291.141	89.06
291.371	101.06
291.602	105.06
291.833	85.06
292.064	86.06
292.295	88.06
292.526	111.06
292.757	86.06
292.987	87.06
293.218	87.06
293.449	102.06
293.68	96.06
293.91	97.06
294.141	94.06
294.372	91.06
294.603	77.06
294.833	90.06
295.064	90.06
295.295	80.06
295.525	97.06
295.756	101.06
295.987	106.06
296.217	121.06
296.448	119.06
296.679	83.06
296.909	83.06
297.14	79.06
297.37	98.06
297.601	84.06
297.831	78.06
298.062	95.06
298.292	71.06
298.523	91.06
298.753	80.06
298.984	79.06
299.214	85.06
299.445	91.06
299.675	87.06
299.905	111.06
300.136	85.06
300.366	89.06
300.597	90.06
300.827	109.06
301.057	104.06
301.288	97.06
301.518	83.06
301.748	90.06
301.979	94.06
302.209	92.06
302.439	95.06
302.669	98.06
302.9	83.06
303.13	82.06
303.36	82.06
303.59	95.06
303.82	96.06
304.051	95.06
304.281	91.06
304.511	93.06
304.741	87.06
304.971	83.06
305.201	103.06
305.431	84.06
305.661	93.06
305.891	82.06
306.121	89.06
306.352	89.06
306.582	101.06
306.812	92.06
307.042	97.06
307.272	83.06
307.502	77.06
307.731	95.06
307.961	94.06
308.191	104.06
308.421	95.06
308.651	86.06
308.881	80.06
309.111	93.06
309.341	89.06
309.571	105.06
309.8	103.06
310.03	102.06
310.26	96.06
310.49	84.06
310.72	79.06
310.949	90.06
311.179	93.06
311.409	97.06
311.639	107.06
311.868	97.06
312.098	101.06
312.328	96.06
312.557	98.06
312.787	113.06
313.017	93.06
313.246	87.06
313.476	98.06
313.706	89.06
313.935	92.06
314.165	106.06
314.394	98.06
314.624	96.06
314.853	80.06
315.083	86.06
315.312	71.06
315.542	87.06
315.771	89.06
316.001	85.06
316.23	91.06
316.46	91.06
316.689	82.06
316.919	95.06
317.148	95.06
317.377	88.06
317.607	82.06
317.836	89.06
318.065	91.06
318.295	77.06
318.524	93.06
318.753	90.06
318.983	97.06
319.212	100.06
319.441	101.06
319.67	105.06
319.9	97.06
320.129	97.06
320.358	78.06
320.587	87.06
320.816	104.06
321.046	102.06
321.275	92.06
321.504	87.06
321.733	90.06
321.962	89.06
322.191	96.06
322.42	104.06
322.649	109.06
322.878	105.06
323.108	110.06
323.337	118.06
323.566	121.06
323.795	146.06
324.024	210.06
324.253	383.06
324.482	803.06
324.71	1681.06
324.939	2268.06
325.168	811.06
325.397	239.06
325.626	146.06
325.855	125.06
326.084	117.06
326.313	135.06
326.542	162.06
326.77	223.06
326.999	461.06
327.228	964.06
327.457	1737.06
327.686	1370.06
327.914	344.06
328.143	193.06
328.372	161.06
328.6	125.06
328.829	117.06
329.058	114.06
329.287	123.06
329.515	111.06
329.744	103.06
329.972	115.06
330.201	125.06
330.43	134.06
330.658	123.06
330.887	128.06
331.115	117.06
331.344	96.06
331.572	111.06
331.801	110.06
332.03	96.06
332.258	93.06
332.486	94.06
332.715	95.06
332.943	94.06
333.172	81.06
333.4	86.06
333.629	99.06
333.857	122.06
334.085	111.06
334.314	126.06
334.542	142.06
334.771	138.06
334.999	125.06
335.227	93.06
335.455	102.06
335.684	95.06
335.912	108.06
336.14	94.06
336.369	98.06
336.597	83.06
336.825	99.06
337.053	92.06
337.281	84.06
337.51	91.06
337.738	81.06
337.966	81.06
338.194	95.06
338.422	93.06
338.65	91.06
338.878	86.06
339.106	78.06
339.334	98.06
339.562	79.06
339.79	90.06
340.018	82.06
340.246	95.06
340.474	89.06
340.702	95.06
340.93	98.06
341.158	80.06
341.386	83.06
341.614	86.06
341.842	93.06
342.07	83.06
342.298	91.06
342.526	93.06
342.754	87.06
342.981	74.06
343.209	71.06
343.437	108.06
343.665	89.06
343.893	102.06
344.12	88.06
344.348	82.06
344.576	90.06
344.804	81.06
345.031	101.06
345.259	92.06
345.487	99.06
345.714	93.06
345.942	112.06
346.17	98.06
346.397	95.06
346.625	96.06
346.853	96.06
347.08	92.06
347.308	86.06
347.535	95.06
347.763	100.06
347.99	115.06
348.218	107.06
348.445	107.06
348.673	89.06
348.9	102.06
349.128	88.06
349.355	80.06
349.583	107.06
349.81	98.06
350.037	92.06
350.265	95.06
350.492	100.06
350.72	103.06
350.947	82.06
351.174	101.06
351.402	80.06
351.629	103.06
351.856	102.06
352.083	106.06
352.311	121.06
352.538	111.06
352.765	109.06
352.992	92.06
353.22	110.06
353.447	98.06
353.674	105.06
353.901	91.06
354.128	99.06
354.355	88.06
354.583	96.06
354.81	89.06
355.037	99.06
355.264	101.06
355.491	84.06
355.718	76.06
355.945	83.06
356.172	86.06
356.399	77.06
356.626	106.06
356.853	100.06
357.08	87.06
357.307	90.06
357.534	85.06
357.761	83.06
357.988	88.06
358.215	98.06
358.441	100.06
358.668	99.06
358.895	100.06
359.122	77.06
359.349	91.06
359.576	90.06
359.802	78.06
360.029	111.06
360.256	111.06
360.483	97.06
360.709	100.06
360.936	84.06
361.163	91.06
361.39	89.06
361.616	99.06
361.843	82.06
362.07	83.06
362.296	89.06
362.523	88.06
362.749	82.06
362.976	78.06
363.203	81.06
363.429	84.06
363.656	85.06
363.882	100.06
364.109	86.06
364.335	85.06
364.562	83.06
364.788	91.06
365.015	90.06
365.241	97.06
365.468	98.06
365.694	106.06
365.92	88.06
366.147	92.06
366.373	98.06
366.599	87.06
366.826	101.06
367.052	85.06
367.278	93.06
367.505	93.06
367.731	88.06
367.957	113.06
368.184	95.06
368.41	97.06
368.636	104.06
368.862	112.06
369.089	106.06
369.315	85.06
369.541	84.06
369.767	99.06
369.993	93.06
370.219	93.06
370.445	90.06
370.672	81.06
370.898	71.06
371.124	87.06
371.35	74.06
371.576	82.06
371.802	79.06
372.028	96.06
372.254	97.06
372.48	84.06
372.706	89.06
372.932	87.06
373.158	90.06
373.384	82.06
373.61	89.06
373.835	96.06
374.061	71.06
374.287	92.06
374.513	81.06
374.739	78.06
374.965	86.06
375.191	90.06
375.416	90.06
375.642	83.06
375.868	85.06
376.094	74.06
376.319	89.06
376.545	86.06
376.771	89.06
376.997	79.06
377.222	93.06
377.448	90.06
377.674	80.06
377.899	96.06
378.125	85.06
378.35	99.06
378.576	89.06
378.802	79.06
379.027	83.06
379.253	97.06
379.478	75.06
379.704	76.06
379.929	90.06
380.155	96.06
380.38	88.06
380.606	89.06
380.831	98.06
381.057	91.06
381.282	90.06
381.507	81.06
381.733	89.06
381.958	101.06
382.184	97.06
382.409	108.06
382.634	99.06
382.86	103.06
383.085	93.06
383.31	108.06
383.535	99.06
383.761	98.06
383.986	107.06
384.211	113.06
384.436	82.06
384.662	93.06
384.887	100.06
385.112	111.06
385.337	98.06
385.562	117.06
385.787	102.06
386.013	112.06
386.238	113.06
386.463	113.06
386.688	110.06
386.913	88.06
387.138	90.06
387.363	77.06
387.588	102.06
387.813	95.06
388.038	108.06
388.263	110.06
388.488	104.06
388.713	97.06
388.938	84.06
389.163	92.06
389.387	89.06
389.612	97.06
389.837	99.06
390.062	72.06
390.287	86.06
390.512	99.06
390.736	83.06
390.961	88.06
391.186	95.06
391.411	97.06
391.636	82.06
391.86	78.06
392.085	77.06
392.31	84.06
392.534	88.06
392.759	94.06
392.984	79.06
393.208	92.06
393.433	81.06
393.658	77.06
393.882	88.06
394.107	80.06
394.331	82.06
394.556	85.06
394.78	86.06
395.005	95.06
395.229	90.06
395.454	94.06
395.678	102.06
395.903	91.06
396.127	86.06
396.352	87.06
396.576	81.06
396.801	82.06
397.025	77.06
397.249	79.06
397.474	87.06
397.698	102.06
397.922	95.06
398.147	93.06
398.371	71.06
398.595	90.06
398.82	82.06
399.044	91.06
399.268	88.06
399.492	85.06
399.717	89.06
399.941	95.06
400.165	95.06
400.389	96.06
400.613	82.06
400.837	68.06
401.062	94.06
401.286	83.06
401.51	94.06
401.734	91.06
401.958	110.06
402.182	118.06
402.406	159.06
402.63	121.06
402.854	88.06
403.078	70.06
403.302	87.06
403.526	81.06
403.75	75.06
403.974	87.06
404.198	83.06
404.422	83.06
404.645	78.06
404.869	104.06
405.093	106.06
405.317	87.06
405.541	79.06
405.765	88.06
405.988	118.06
406.212	154.06
406.436	208.06
406.66	121.06
406.883	81.06
407.107	79.06
407.331	100.06
407.555	98.06
407.778	94.06
408.002	102.06
408.226	93.06
408.449	96.06
408.673	84.06
408.896	95.06
409.12	83.06
409.344	100.06
409.567	81.06
409.791	90.06
410.014	89.06
410.238	85.06
410.461	79.06
410.685	81.06
410.908	106.06
411.132	96.06
411.355	101.06
411.578	79.06
411.802	92.06
412.025	93.06
412.249	101.06
412.472	97.06
412.695	102.06
412.919	77.06
413.142	75.06
413.365	96.06
413.589	85.06
413.812	92.06
414.035	94.06
414.258	83.06
414.482	78.06
414.705	99.06
414.928	93.06
415.151	103.06
415.374	88.06
415.597	85.06
415.821	94.06
416.044	99.06
416.267	90.06
416.49	99.06
416.713	89.06
416.936	92.06
417.159	79.06
417.382	108.06
417.605	81.06
417.828	93.06
418.051	80.06
418.274	91.06
418.497	94.06
418.72	93.06
418.943	86.06
419.166	93.06
419.389	85.06
419.611	96.06
419.834	84.06
420.057	77.06
420.28	91.06
420.503	87.06
420.726	74.06
420.948	102.06
421.171	102.06
421.394	93.06
421.617	90.06
421.839	70.06
422.062	87.06
422.285	87.06
422.507	83.06
422.73	105.06
422.953	93.06
423.175	96.06
423.398	82.06
423.621	92.06
423.843	94.06
424.066	92.06
424.288	96.06
424.511	86.06
424.733	95.06
424.956	110.06
425.178	96.06
425.401	87.06
425.623	107.06
425.846	106.06
426.068	97.06
426.291	85.06
426.513	87.06
426.735	91.06
426.958	81.06
427.18	101.06
427.402	120.06
427.625	163.06
427.847	108.06
428.069	114.06
428.292	84.06
428.514	80.06
428.736	80.06
428.958	89.06
429.181	82.06
429.403	74.06
429.625	82.06
429.847	96.06
430.069	104.06
430.292	91.06
430.514	83.06
430.736	86.06
430.958	89.06
431.18	87.06
431.402	85.06
431.624	86.06
431.846	82.06
432.068	83.06
432.29	78.06
432.512	78.06
432.734	98.06
432.956	99.06
433.178	93.06
433.4	92.06
433.622	90.06
433.844	86.06
434.066	91.06
434.287	95.06
434.509	89.06
434.731	83.06
434.953	85.06
435.175	89.06
435.397	87.06
435.618	74.06
435.84	102.06
436.062	115.06
436.284	111.06
436.505	98.06
436.727	104.06
436.949	98.06
437.17	91.06
437.392	86.06
437.614	99.06
437.835	101.06
438.057	112.06
438.278	107.06
438.5	97.06
438.721	103.06
438.943	90.06
439.165	81.06
439.386	90.06
439.608	83.06
439.829	106.06
440.05	101.06
440.272	136.06
440.493	109.06
440.715	82.06
440.936	85.06
441.158	82.06
441.379	86.06
441.6	97.06
441.822	90.06
442.043	91.06
442.264	102.06
442.486	95.06
442.707	81.06
442.928	98.06
443.149	117.06
443.371	122.06
443.592	101.06
443.813	112.06
444.034	92.06
444.255	87.06
444.476	91.06
444.698	106.06
444.919	82.06
445.14	129.06
445.361	121.06
445.582	109.06
445.803	131.06
446.024	118.06
446.245	130.06
446.466	113.06
446.687	90.06
446.908	82.06
447.129	95.06
447.35	86.06
447.571	82.06
447.792	89.06
448.013	98.06
448.234	97.06
448.455	87.06
448.675	107.06
448.896	108.06
449.117	102.06
449.338	95.06
449.559	134.06
449.779	119.06
450	93.06
450.221	74.06
450.442	83.06
450.662	85.06
450.883	105.06
451.104	107.06
451.324	94.06
451.545	84.06
451.766	95.06
451.986	87.06
452.207	77.06
452.428	99.06
452.648	96.06
452.869	114.06
453.089	114.06
453.31	108.06
453.53	99.06
453.751	86.06
453.971	99.06
454.192	93.06
454.412	90.06
454.633	95.06
454.853	79.06
455.073	96.06
455.294	87.06
455.514	108.06
455.734	70.06
455.955	90.06
456.175	90.06
456.395	102.06
456.616	92.06
456.836	85.06
457.056	87.06
457.276	77.06
457.497	74.06
457.717	89.06
457.937	99.06
458.157	87.06
458.377	86.06
458.598	97.06
458.818	145.06
459.038	150.06
459.258	103.06
459.478	103.06
459.698	99.06
459.918	98.06
460.138	90.06
460.358	92.06
460.578	101.06
460.798	90.06
461.018	90.06
461.238	83.06
461.458	76.06
461.678	98.06
461.898	86.06
462.118	86.06
462.338	82.06
462.558	90.06
462.777	85.06
462.997	81.06
463.217	97.06
463.437	97.06
463.657	94.06
463.876	96.06
464.096	94.06
464.316	87.06
464.536	95.06
464.755	99.06
464.975	110.06
465.195	168.06
465.414	157.06
465.634	99.06
465.854	80.06
466.073	80.06
466.293	82.06
466.512	100.06
466.732	86.06
466.951	88.06
467.171	92.06
467.391	89.06
467.61	99.06
467.829	103.06
468.049	105.06
468.268	111.06
468.488	93.06
468.707	88.06
468.927	98.06
469.146	78.06
469.365	83.06
469.585	86.06
469.804	99.06
470.023	89.06
470.243	98.06
470.462	106.06
470.681	117.06
470.901	81.06
471.12	84.06
471.339	79.06
471.558	91.06
471.777	89.06
471.997	90.06
472.216	120.06
472.435	170.06
472.654	76.06
472.873	88.06
473.092	81.06
473.311	88.06
473.53	85.06
473.749	94.06
473.968	92.06
474.187	105.06
474.406	86.06
474.625	88.06
474.844	94.06
475.063	92.06
475.282	83.06
475.501	69.06
475.72	90.06
475.939	83.06
476.158	83.06
476.377	73.06
476.596	82.06
476.814	90.06
477.033	73.06
477.252	88.06
477.471	85.06
477.69	89.06
477.908	86.06
478.127	102.06
478.346	85.06
478.564	80.06
478.783	93.06
479.002	91.06
479.22	87.06
479.439	97.06
479.658	105.06
479.876	92.06
480.095	91.06
480.313	92.06
480.532	95.06
480.751	98.06
480.969	122.06
481.188	254.06
481.406	172.06
481.624	89.06
481.843	73.06
482.061	89.06
482.28	93.06
482.498	87.06
482.717	81.06
482.935	88.06
483.153	86.06
483.372	79.06
483.59	95.06
483.808	90.06
484.027	85.06
484.245	80.06
484.463	100.06
484.681	95.06
484.9	106.06
485.118	85.06
485.336	103.06
485.554	107.06
485.772	107.06
485.99	111.06
486.209	93.06
486.427	94.06
486.645	113.06
486.863	119.06
487.081	97.06
487.299	96.06
487.517	93.06
487.735	82.06
487.953	93.06
488.171	90.06
488.389	94.06
488.607	93.06
488.825	100.06
489.043	105.06
489.261	89.06
489.479	92.06
489.696	73.06
489.914	93.06
490.132	89.06
490.35	105.06
490.568	86.06
490.786	98.06
491.003	85.06
491.221	91.06
491.439	78.06
491.657	94.06
491.874	90.06
492.092	73.06
492.31	83.06
492.527	89.06
492.745	95.06
492.963	83.06
493.18	101.06
493.398	95.06
493.615	107.06
493.833	86.06
494.05	94.06
494.268	94.06
494.485	100.06
494.703	82.06
494.92	98.06
495.138	95.06
495.355	78.06
495.573	95.06
495.79	97.06
496.008	108.06
496.225	91.06
496.442	79.06
496.66	102.06
496.877	89.06
497.094	79.06
497.312	89.06
497.529	95.06
497.746	82.06
497.963	103.06
498.181	84.06
498.398	88.06
498.615	102.06
498.832	100.06
499.049	99.06
499.267	102.06
499.484	91.06
499.701	88.06
499.918	88.06
500.135	99.06
500.352	95.06
500.569	104.06
500.786	90.06
501.003	98.06
501.22	85.06
501.437	93.06
501.654	86.06
501.871	105.06
502.088	102.06
502.305	97.06
502.522	96.06
502.739	92.06
502.956	88.06
503.172	78.06
503.389	94.06
503.606	112.06
503.823	104.06
504.04	91.06
504.256	90.06
504.473	94.06
504.69	94.06
504.907	87.06
505.123	87.06
505.34	84.06
505.557	89.06
505.773	89.06
505.99	75.06
506.207	91.06
506.423	90.06
506.64	86.06
506.856	99.06
507.073	86.06
507.289	102.06
507.506	97.06
507.722	97.06
507.939	94.06
508.155	95.06
508.372	107.06
508.588	106.06
508.805	97.06
509.021	96.06
509.238	99.06
509.454	103.06
509.67	96.06
509.887	107.06
510.103	125.06
510.319	225.06
510.536	750.06
510.752	2377.06
510.968	624.06
511.184	134.06
511.401	106.06
511.617	84.06
511.833	93.06
512.049	82.06
512.265	89.06
512.481	106.06
512.698	86.06
512.914	95.06
513.13	101.06
513.346	94.06
513.562	83.06
513.778	98.06
513.994	83.06
514.21	105.06
514.426	120.06
514.642	143.06
514.858	123.06
515.074	167.06
515.29	441.06
515.506	1385.06
515.721	500.06
515.937	154.06
516.153	120.06
