Data from Uncirc_1985_H10_HRD10591_00061.txt Node
Date: Wed Jan 03 12:18:29 EST 2024
User: Yrep
Spectrometer: HR+D1059
Trigger mode: 1
Integration Time (sec): 1.000000E-1
Scans to average: 1
Electric dark correction enabled: true
Nonlinearity correction enabled: false
Boxcar width: 0
XAxis mode: Wavelengths
Number of Pixels in Spectrum: 2048
>>>>>Begin Spectral Data<<<<<
223.165	-14.94
223.4	-14.94
223.635	-14.94
223.869	-31.94
224.104	-25.94
224.338	-16.94
224.573	-5.94
224.808	-20.94
225.042	-3.94
225.277	-12.94
225.511	-4.94
225.746	-4.94
225.98	19.06
226.215	19.06
226.449	23.06
226.683	24.06
226.918	31.06
227.152	27.06
227.387	47.06
227.621	27.06
227.856	51.06
228.09	46.06
228.324	51.06
228.559	45.06
228.793	58.06
229.027	65.06
229.262	72.06
229.496	60.06
229.73	62.06
229.964	84.06
230.199	69.06
230.433	77.06
230.667	72.06
230.901	69.06
231.136	83.06
231.37	87.06
231.604	104.06
231.838	85.06
232.072	77.06
232.306	75.06
232.541	84.06
232.775	92.06
233.009	80.06
233.243	73.06
233.477	69.06
233.711	71.06
233.945	97.06
234.179	77.06
234.413	83.06
234.647	61.06
234.881	73.06
235.115	84.06
235.349	96.06
235.583	71.06
235.817	83.06
236.051	73.06
236.285	75.06
236.519	90.06
236.753	96.06
236.987	78.06
237.221	89.06
237.455	73.06
237.689	77.06
237.922	86.06
238.156	76.06
238.39	72.06
238.624	80.06
238.858	79.06
239.091	87.06
239.325	82.06
239.559	77.06
239.793	86.06
240.027	78.06
240.26	72.06
240.494	76.06
240.728	70.06
240.961	66.06
241.195	75.06
241.429	80.06
241.662	72.06
241.896	85.06
242.13	90.06
242.363	73.06
242.597	91.06
242.83	79.06
243.064	68.06
243.298	90.06
243.531	86.06
243.765	98.06
243.998	64.06
244.232	80.06
244.465	75.06
244.699	83.06
244.932	83.06
245.166	89.06
245.399	68.06
245.633	79.06
245.866	67.06
246.099	84.06
246.333	69.06
246.566	85.06
246.8	77.06
247.033	70.06
247.266	74.06
247.5	82.06
247.733	93.06
247.966	81.06
248.2	81.06
248.433	88.06
248.666	69.06
248.899	70.06
249.133	78.06
249.366	86.06
249.599	106.06
249.832	66.06
250.066	70.06
250.299	87.06
250.532	81.06
250.765	74.06
250.998	81.06
251.231	70.06
251.465	73.06
251.698	81.06
251.931	81.06
252.164	83.06
252.397	71.06
252.63	74.06
252.863	73.06
253.096	87.06
253.329	61.06
253.562	67.06
253.795	85.06
254.028	81.06
254.261	82.06
254.494	73.06
254.727	79.06
254.96	86.06
255.193	77.06
255.426	88.06
255.659	83.06
255.892	68.06
256.124	87.06
256.357	79.06
256.59	79.06
256.823	74.06
257.056	83.06
257.289	74.06
257.521	79.06
257.754	78.06
257.987	81.06
258.22	90.06
258.452	78.06
258.685	82.06
258.918	95.06
259.151	71.06
259.383	72.06
259.616	78.06
259.849	71.06
260.081	64.06
260.314	81.06
260.547	86.06
260.779	90.06
261.012	86.06
261.244	96.06
261.477	87.06
261.71	87.06
261.942	93.06
262.175	91.06
262.407	87.06
262.64	84.06
262.872	80.06
263.105	97.06
263.337	93.06
263.57	87.06
263.802	94.06
264.035	68.06
264.267	84.06
264.499	67.06
264.732	90.06
264.964	83.06
265.197	78.06
265.429	89.06
265.661	92.06
265.894	94.06
266.126	95.06
266.358	79.06
266.591	80.06
266.823	77.06
267.055	81.06
267.287	82.06
267.52	87.06
267.752	77.06
267.984	79.06
268.216	102.06
268.448	74.06
268.681	83.06
268.913	86.06
269.145	74.06
269.377	93.06
269.609	85.06
269.841	85.06
270.073	91.06
270.306	77.06
270.538	81.06
270.77	84.06
271.002	77.06
271.234	81.06
271.466	78.06
271.698	95.06
271.93	84.06
272.162	75.06
272.394	68.06
272.626	85.06
272.858	71.06
273.09	89.06
273.322	75.06
273.553	84.06
273.785	81.06
274.017	91.06
274.249	98.06
274.481	84.06
274.713	71.06
274.945	83.06
275.176	98.06
275.408	82.06
275.64	87.06
275.872	83.06
276.104	86.06
276.335	99.06
276.567	87.06
276.799	94.06
277.031	85.06
277.262	89.06
277.494	76.06
277.726	83.06
277.957	78.06
278.189	70.06
278.421	89.06
278.652	93.06
278.884	79.06
279.115	83.06
279.347	91.06
279.579	82.06
279.81	75.06
280.042	78.06
280.273	92.06
280.505	85.06
280.736	74.06
280.968	76.06
281.199	95.06
281.431	84.06
281.662	83.06
281.894	103.06
282.125	87.06
282.356	104.06
282.588	113.06
282.819	103.06
283.051	87.06
283.282	76.06
283.513	95.06
283.745	93.06
283.976	87.06
284.207	88.06
284.439	90.06
284.67	83.06
284.901	88.06
285.132	82.06
285.364	74.06
285.595	69.06
285.826	80.06
286.057	93.06
286.288	93.06
286.52	99.06
286.751	87.06
286.982	78.06
287.213	81.06
287.444	77.06
287.675	83.06
287.906	84.06
288.138	99.06
288.369	94.06
288.6	83.06
288.831	92.06
289.062	91.06
289.293	67.06
289.524	85.06
289.755	101.06
289.986	90.06
290.217	98.06
290.448	105.06
290.679	90.06
290.91	86.06
291.141	92.06
291.371	82.06
291.602	87.06
291.833	94.06
292.064	96.06
292.295	86.06
292.526	73.06
292.757	98.06
292.987	96.06
293.218	83.06
293.449	85.06
293.68	79.06
293.91	83.06
294.141	79.06
294.372	82.06
294.603	83.06
294.833	91.06
295.064	95.06
295.295	85.06
295.525	93.06
295.756	108.06
295.987	105.06
296.217	126.06
296.448	122.06
296.679	86.06
296.909	86.06
297.14	87.06
297.37	91.06
297.601	90.06
297.831	92.06
298.062	81.06
298.292	87.06
298.523	99.06
298.753	85.06
298.984	92.06
299.214	93.06
299.445	88.06
299.675	81.06
299.905	85.06
300.136	86.06
300.366	80.06
300.597	86.06
300.827	95.06
301.057	98.06
301.288	93.06
301.518	94.06
301.748	84.06
301.979	111.06
302.209	92.06
302.439	85.06
302.669	84.06
302.9	81.06
303.13	87.06
303.36	98.06
303.59	94.06
303.82	102.06
304.051	89.06
304.281	85.06
304.511	91.06
304.741	95.06
304.971	85.06
305.201	94.06
305.431	97.06
305.661	85.06
305.891	83.06
306.121	94.06
306.352	99.06
306.582	95.06
306.812	81.06
307.042	74.06
307.272	85.06
307.502	92.06
307.731	74.06
307.961	89.06
308.191	74.06
308.421	87.06
308.651	89.06
308.881	100.06
309.111	86.06
309.341	96.06
309.571	105.06
309.8	86.06
310.03	99.06
310.26	89.06
310.49	92.06
310.72	109.06
310.949	88.06
311.179	92.06
311.409	94.06
311.639	88.06
311.868	83.06
312.098	86.06
312.328	82.06
312.557	90.06
312.787	94.06
313.017	102.06
313.246	93.06
313.476	90.06
313.706	89.06
313.935	84.06
314.165	103.06
314.394	96.06
314.624	91.06
314.853	91.06
315.083	83.06
315.312	83.06
315.542	97.06
315.771	83.06
316.001	72.06
316.23	87.06
316.46	79.06
316.689	93.06
316.919	95.06
317.148	94.06
317.377	90.06
317.607	80.06
317.836	87.06
318.065	93.06
318.295	87.06
318.524	84.06
318.753	81.06
318.983	100.06
319.212	97.06
319.441	88.06
319.67	90.06
319.9	94.06
320.129	90.06
320.358	96.06
320.587	83.06
320.816	93.06
321.046	102.06
321.275	88.06
321.504	113.06
321.733	103.06
321.962	99.06
322.191	103.06
322.42	101.06
322.649	111.06
322.878	106.06
323.108	110.06
323.337	111.06
323.566	113.06
323.795	143.06
324.024	173.06
324.253	349.06
324.482	724.06
324.71	1448.06
324.939	1897.06
325.168	681.06
325.397	199.06
325.626	135.06
325.855	130.06
326.084	120.06
326.313	110.06
326.542	145.06
326.77	217.06
326.999	383.06
327.228	821.06
327.457	1477.06
327.686	1154.06
327.914	339.06
328.143	192.06
328.372	128.06
328.6	116.06
328.829	103.06
329.058	122.06
329.287	119.06
329.515	114.06
329.744	102.06
329.972	95.06
330.201	123.06
330.43	138.06
330.658	113.06
330.887	121.06
331.115	106.06
331.344	96.06
331.572	97.06
331.801	114.06
332.03	96.06
332.258	84.06
332.486	83.06
332.715	79.06
332.943	101.06
333.172	87.06
333.4	103.06
333.629	105.06
333.857	123.06
334.085	96.06
334.314	102.06
334.542	141.06
334.771	130.06
334.999	102.06
335.227	86.06
335.455	79.06
335.684	86.06
335.912	96.06
336.14	93.06
336.369	93.06
336.597	104.06
336.825	103.06
337.053	97.06
337.281	98.06
337.51	97.06
337.738	82.06
337.966	97.06
338.194	82.06
338.422	95.06
338.65	93.06
338.878	100.06
339.106	80.06
339.334	85.06
339.562	75.06
339.79	94.06
340.018	93.06
340.246	78.06
340.474	83.06
340.702	88.06
340.93	86.06
341.158	97.06
341.386	102.06
341.614	96.06
341.842	85.06
342.07	95.06
342.298	89.06
342.526	83.06
342.754	78.06
342.981	82.06
343.209	89.06
343.437	106.06
343.665	70.06
343.893	70.06
344.12	82.06
344.348	73.06
344.576	85.06
344.804	93.06
345.031	94.06
345.259	104.06
345.487	90.06
345.714	102.06
345.942	101.06
346.17	98.06
346.397	87.06
346.625	73.06
346.853	89.06
347.08	89.06
347.308	91.06
347.535	94.06
347.763	98.06
347.99	90.06
348.218	106.06
348.445	95.06
348.673	106.06
348.9	101.06
349.128	92.06
349.355	98.06
349.583	94.06
349.81	106.06
350.037	94.06
350.265	97.06
350.492	86.06
350.72	93.06
350.947	96.06
351.174	99.06
351.402	89.06
351.629	104.06
351.856	101.06
352.083	96.06
352.311	94.06
352.538	99.06
352.765	93.06
352.992	115.06
353.22	109.06
353.447	96.06
353.674	89.06
353.901	100.06
354.128	105.06
354.355	97.06
354.583	97.06
354.81	85.06
355.037	91.06
355.264	104.06
355.491	100.06
355.718	96.06
355.945	98.06
356.172	85.06
356.399	88.06
356.626	91.06
356.853	89.06
357.08	90.06
357.307	85.06
357.534	95.06
357.761	114.06
357.988	104.06
358.215	107.06
358.441	93.06
358.668	86.06
358.895	96.06
359.122	74.06
359.349	80.06
359.576	102.06
359.802	107.06
360.029	97.06
360.256	114.06
360.483	82.06
360.709	78.06
360.936	93.06
361.163	85.06
361.39	85.06
361.616	87.06
361.843	87.06
362.07	84.06
362.296	87.06
362.523	93.06
362.749	87.06
362.976	81.06
363.203	97.06
363.429	99.06
363.656	82.06
363.882	101.06
364.109	98.06
364.335	81.06
364.562	96.06
364.788	96.06
365.015	100.06
365.241	86.06
365.468	105.06
365.694	97.06
365.92	63.06
366.147	85.06
366.373	81.06
366.599	82.06
366.826	87.06
367.052	74.06
367.278	79.06
367.505	81.06
367.731	79.06
367.957	97.06
368.184	95.06
368.41	90.06
368.636	105.06
368.862	119.06
369.089	94.06
369.315	99.06
369.541	84.06
369.767	89.06
369.993	105.06
370.219	93.06
370.445	84.06
370.672	77.06
370.898	70.06
371.124	90.06
371.35	93.06
371.576	78.06
371.802	92.06
372.028	81.06
372.254	83.06
372.48	90.06
372.706	87.06
372.932	90.06
373.158	90.06
373.384	88.06
373.61	83.06
373.835	85.06
374.061	81.06
374.287	105.06
374.513	92.06
374.739	89.06
374.965	90.06
375.191	79.06
375.416	91.06
375.642	101.06
375.868	93.06
376.094	82.06
376.319	96.06
376.545	99.06
376.771	98.06
376.997	77.06
377.222	87.06
377.448	78.06
377.674	101.06
377.899	83.06
378.125	69.06
378.35	87.06
378.576	82.06
378.802	86.06
379.027	98.06
379.253	107.06
379.478	85.06
379.704	83.06
379.929	96.06
380.155	107.06
380.38	102.06
380.606	106.06
380.831	85.06
381.057	108.06
381.282	91.06
381.507	87.06
381.733	93.06
381.958	90.06
382.184	90.06
382.409	94.06
382.634	108.06
382.86	86.06
383.085	96.06
383.31	111.06
383.535	89.06
383.761	84.06
383.986	106.06
384.211	98.06
384.436	91.06
384.662	95.06
384.887	99.06
385.112	102.06
385.337	108.06
385.562	97.06
385.787	105.06
386.013	109.06
386.238	119.06
386.463	110.06
386.688	107.06
386.913	104.06
387.138	86.06
387.363	95.06
387.588	88.06
387.813	91.06
388.038	95.06
388.263	80.06
388.488	90.06
388.713	96.06
388.938	91.06
389.163	104.06
389.387	80.06
389.612	86.06
389.837	85.06
390.062	80.06
390.287	100.06
390.512	73.06
390.736	82.06
390.961	81.06
391.186	81.06
391.411	102.06
391.636	104.06
391.86	83.06
392.085	88.06
392.31	78.06
392.534	76.06
392.759	89.06
392.984	81.06
393.208	86.06
393.433	92.06
393.658	88.06
393.882	75.06
394.107	86.06
394.331	91.06
394.556	77.06
394.78	100.06
395.005	101.06
395.229	94.06
395.454	81.06
395.678	89.06
395.903	82.06
396.127	74.06
396.352	75.06
396.576	94.06
396.801	84.06
397.025	71.06
397.249	101.06
397.474	99.06
397.698	89.06
397.922	86.06
398.147	92.06
398.371	77.06
398.595	88.06
398.82	93.06
399.044	79.06
399.268	89.06
399.492	94.06
399.717	94.06
399.941	75.06
400.165	89.06
400.389	92.06
400.613	84.06
400.837	81.06
401.062	86.06
401.286	73.06
401.51	89.06
401.734	76.06
401.958	89.06
402.182	125.06
402.406	127.06
402.63	117.06
402.854	73.06
403.078	86.06
403.302	87.06
403.526	83.06
403.75	77.06
403.974	94.06
404.198	87.06
404.422	87.06
404.645	81.06
404.869	99.06
405.093	96.06
405.317	107.06
405.541	84.06
405.765	94.06
405.988	95.06
406.212	148.06
406.436	185.06
406.66	121.06
406.883	97.06
407.107	96.06
407.331	90.06
407.555	89.06
407.778	99.06
408.002	86.06
408.226	80.06
408.449	98.06
408.673	86.06
408.896	98.06
409.12	90.06
409.344	82.06
409.567	78.06
409.791	85.06
410.014	94.06
410.238	93.06
410.461	88.06
410.685	95.06
410.908	88.06
411.132	102.06
411.355	87.06
411.578	95.06
411.802	85.06
412.025	88.06
412.249	106.06
412.472	94.06
412.695	79.06
412.919	93.06
413.142	90.06
413.365	83.06
413.589	70.06
413.812	97.06
414.035	90.06
414.258	87.06
414.482	81.06
414.705	79.06
414.928	85.06
415.151	88.06
415.374	89.06
415.597	86.06
415.821	84.06
416.044	81.06
416.267	77.06
416.49	83.06
416.713	80.06
416.936	97.06
417.159	95.06
417.382	80.06
417.605	56.06
417.828	87.06
418.051	70.06
418.274	77.06
418.497	87.06
418.72	94.06
418.943	91.06
419.166	81.06
419.389	102.06
419.611	93.06
419.834	103.06
420.057	91.06
420.28	84.06
420.503	70.06
420.726	93.06
420.948	87.06
421.171	88.06
421.394	79.06
421.617	83.06
421.839	82.06
422.062	85.06
422.285	81.06
422.507	95.06
422.73	85.06
422.953	85.06
423.175	87.06
423.398	93.06
423.621	90.06
423.843	94.06
424.066	77.06
424.288	98.06
424.511	91.06
424.733	106.06
424.956	104.06
425.178	79.06
425.401	112.06
425.623	94.06
425.846	104.06
426.068	79.06
426.291	89.06
426.513	92.06
426.735	88.06
426.958	91.06
427.18	93.06
427.402	112.06
427.625	127.06
427.847	118.06
428.069	107.06
428.292	95.06
428.514	92.06
428.736	72.06
428.958	74.06
429.181	96.06
429.403	81.06
429.625	94.06
429.847	88.06
430.069	95.06
430.292	105.06
430.514	98.06
430.736	95.06
430.958	85.06
431.18	71.06
431.402	77.06
431.624	77.06
431.846	85.06
432.068	96.06
432.29	87.06
432.512	97.06
432.734	71.06
432.956	96.06
433.178	85.06
433.4	101.06
433.622	110.06
433.844	93.06
434.066	99.06
434.287	94.06
434.509	84.06
434.731	97.06
434.953	89.06
435.175	71.06
435.397	83.06
435.618	90.06
435.84	101.06
436.062	104.06
436.284	119.06
436.505	95.06
436.727	101.06
436.949	110.06
437.17	93.06
437.392	95.06
437.614	88.06
437.835	91.06
438.057	101.06
438.278	109.06
438.5	105.06
438.721	103.06
438.943	101.06
439.165	92.06
439.386	86.06
439.608	87.06
439.829	65.06
440.05	114.06
440.272	123.06
440.493	90.06
440.715	76.06
440.936	81.06
441.158	102.06
441.379	97.06
441.6	82.06
441.822	91.06
442.043	94.06
442.264	107.06
442.486	95.06
442.707	75.06
442.928	83.06
443.149	117.06
443.371	129.06
443.592	101.06
443.813	105.06
444.034	103.06
444.255	91.06
444.476	81.06
444.698	77.06
444.919	86.06
445.14	126.06
445.361	116.06
445.582	95.06
445.803	121.06
446.024	121.06
446.245	132.06
446.466	100.06
446.687	102.06
446.908	91.06
447.129	77.06
447.35	79.06
447.571	91.06
447.792	82.06
448.013	95.06
448.234	107.06
448.455	85.06
448.675	119.06
448.896	94.06
449.117	96.06
449.338	101.06
449.559	117.06
449.779	122.06
450	111.06
450.221	93.06
450.442	89.06
450.662	89.06
450.883	83.06
451.104	98.06
451.324	74.06
451.545	93.06
451.766	80.06
451.986	88.06
452.207	98.06
452.428	90.06
452.648	88.06
452.869	107.06
453.089	99.06
453.31	94.06
453.53	93.06
453.751	102.06
453.971	104.06
454.192	108.06
454.412	97.06
454.633	74.06
454.853	79.06
455.073	83.06
455.294	99.06
455.514	104.06
455.734	101.06
455.955	89.06
456.175	87.06
456.395	74.06
456.616	81.06
456.836	86.06
457.056	74.06
457.276	83.06
457.497	77.06
457.717	70.06
457.937	93.06
458.157	81.06
458.377	90.06
458.598	101.06
458.818	118.06
459.038	134.06
459.258	105.06
459.478	87.06
459.698	73.06
459.918	70.06
460.138	88.06
460.358	92.06
460.578	72.06
460.798	89.06
461.018	91.06
461.238	85.06
461.458	84.06
461.678	92.06
461.898	71.06
462.118	96.06
462.338	82.06
462.558	85.06
462.777	90.06
462.997	86.06
463.217	89.06
463.437	92.06
463.657	95.06
463.876	87.06
464.096	85.06
464.316	82.06
464.536	88.06
464.755	87.06
464.975	89.06
465.195	141.06
465.414	135.06
465.634	75.06
465.854	85.06
466.073	77.06
466.293	84.06
466.512	91.06
466.732	94.06
466.951	75.06
467.171	93.06
467.391	85.06
467.61	88.06
467.829	96.06
468.049	96.06
468.268	107.06
468.488	91.06
468.707	83.06
468.927	97.06
469.146	80.06
469.365	72.06
469.585	93.06
469.804	91.06
470.023	97.06
470.243	97.06
470.462	94.06
470.681	99.06
470.901	87.06
471.12	82.06
471.339	80.06
471.558	83.06
471.777	89.06
471.997	79.06
472.216	123.06
472.435	130.06
472.654	109.06
472.873	94.06
473.092	95.06
473.311	91.06
473.53	98.06
473.749	80.06
473.968	91.06
474.187	113.06
474.406	89.06
474.625	95.06
474.844	85.06
475.063	87.06
475.282	83.06
475.501	77.06
475.72	101.06
475.939	83.06
476.158	87.06
476.377	87.06
476.596	98.06
476.814	94.06
477.033	93.06
477.252	89.06
477.471	82.06
477.69	105.06
477.908	87.06
478.127	87.06
478.346	82.06
478.564	96.06
478.783	70.06
479.002	85.06
479.22	80.06
479.439	101.06
479.658	99.06
479.876	94.06
480.095	90.06
480.313	90.06
480.532	97.06
480.751	92.06
480.969	120.06
481.188	225.06
481.406	147.06
481.624	101.06
481.843	73.06
482.061	85.06
482.28	84.06
482.498	92.06
482.717	87.06
482.935	83.06
483.153	85.06
483.372	98.06
483.59	85.06
483.808	77.06
484.027	73.06
484.245	90.06
484.463	93.06
484.681	87.06
484.9	91.06
485.118	103.06
485.336	91.06
485.554	100.06
485.772	99.06
485.99	90.06
486.209	91.06
486.427	98.06
486.645	97.06
486.863	94.06
487.081	106.06
487.299	94.06
487.517	101.06
487.735	86.06
487.953	90.06
488.171	94.06
488.389	96.06
488.607	91.06
488.825	98.06
489.043	89.06
489.261	91.06
489.479	84.06
489.696	93.06
489.914	102.06
490.132	86.06
490.35	94.06
490.568	88.06
490.786	93.06
491.003	96.06
491.221	81.06
491.439	79.06
491.657	82.06
491.874	86.06
492.092	95.06
492.31	91.06
492.527	95.06
492.745	82.06
492.963	91.06
493.18	88.06
493.398	90.06
493.615	97.06
493.833	99.06
494.05	88.06
494.268	95.06
494.485	92.06
494.703	81.06
494.92	90.06
495.138	88.06
495.355	99.06
495.573	90.06
495.79	96.06
496.008	91.06
496.225	102.06
496.442	99.06
496.66	85.06
496.877	94.06
497.094	102.06
497.312	85.06
497.529	88.06
497.746	98.06
497.963	97.06
498.181	87.06
498.398	86.06
498.615	112.06
498.832	104.06
499.049	94.06
499.267	82.06
499.484	96.06
499.701	88.06
499.918	88.06
500.135	97.06
500.352	93.06
500.569	86.06
500.786	88.06
501.003	100.06
501.22	87.06
501.437	91.06
501.654	98.06
501.871	97.06
502.088	97.06
502.305	104.06
502.522	95.06
502.739	86.06
502.956	78.06
503.172	96.06
503.389	86.06
503.606	106.06
503.823	92.06
504.04	100.06
504.256	95.06
504.473	84.06
504.69	103.06
504.907	102.06
505.123	98.06
505.34	81.06
505.557	86.06
505.773	85.06
505.99	82.06
506.207	86.06
506.423	85.06
506.64	87.06
506.856	84.06
507.073	96.06
507.289	95.06
507.506	115.06
507.722	105.06
507.939	108.06
508.155	97.06
508.372	107.06
508.588	99.06
508.805	97.06
509.021	100.06
509.238	86.06
509.454	88.06
509.67	88.06
509.887	97.06
510.103	136.06
510.319	187.06
510.536	650.06
510.752	1966.06
510.968	543.06
511.184	135.06
511.401	104.06
511.617	107.06
511.833	100.06
512.049	97.06
512.265	93.06
512.481	94.06
512.698	79.06
512.914	97.06
513.13	103.06
513.346	101.06
513.562	89.06
513.778	85.06
513.994	78.06
514.21	102.06
514.426	112.06
514.642	114.06
514.858	113.06
515.074	153.06
515.29	363.06
515.506	1169.06
515.721	429.06
515.937	125.06
516.153	110.06
516.369	109.06
