Data from Uncirc_1985_H10_HRD10591_00036.txt Node
Date: Wed Jan 03 12:18:24 EST 2024
User: Yrep
Spectrometer: HR+D1059
Trigger mode: 1
Integration Time (sec): 1.000000E-1
Scans to average: 1
Electric dark correction enabled: true
Nonlinearity correction enabled: false
Boxcar width: 0
XAxis mode: Wavelengths
Number of Pixels in Spectrum: 2048
>>>>>Begin Spectral Data<<<<<
223.165	-11
223.4	-11
223.635	-11
223.869	-16
224.104	-17
224.338	-12
224.573	-23
224.808	-16
225.042	-13
225.277	-11
225.511	22
225.746	3
225.98	-9
226.215	8
226.449	8
226.683	22
226.918	32
227.152	33
227.387	31
227.621	43
227.856	54
228.09	51
228.324	48
228.559	55
228.793	45
229.027	57
229.262	56
229.496	72
229.73	67
229.964	85
230.199	73
230.433	85
230.667	81
230.901	67
231.136	74
231.37	74
231.604	88
231.838	75
232.072	76
232.306	88
232.541	77
232.775	69
233.009	80
233.243	80
233.477	75
233.711	77
233.945	83
234.179	86
234.413	95
234.647	88
234.881	88
235.115	79
235.349	83
235.583	85
235.817	71
236.051	86
236.285	76
236.519	81
236.753	74
236.987	72
237.221	75
237.455	96
237.689	74
237.922	79
238.156	88
238.39	74
238.624	74
238.858	68
239.091	83
239.325	65
239.559	72
239.793	83
240.027	68
240.26	74
240.494	84
240.728	71
240.961	76
241.195	93
241.429	83
241.662	73
241.896	75
242.13	69
242.363	87
242.597	84
242.83	69
243.064	61
243.298	87
243.531	57
243.765	72
243.998	81
244.232	79
244.465	82
244.699	91
244.932	79
245.166	83
245.399	91
245.633	84
245.866	71
246.099	87
246.333	75
246.566	93
246.8	83
247.033	90
247.266	59
247.5	78
247.733	59
247.966	83
248.2	83
248.433	76
248.666	73
248.899	96
249.133	91
249.366	93
249.599	86
249.832	75
250.066	85
250.299	88
250.532	82
250.765	79
250.998	81
251.231	72
251.465	71
251.698	85
251.931	81
252.164	85
252.397	94
252.63	96
252.863	69
253.096	63
253.329	82
253.562	72
253.795	71
254.028	92
254.261	87
254.494	83
254.727	88
254.96	81
255.193	82
255.426	93
255.659	74
255.892	80
256.124	87
256.357	77
256.59	90
256.823	81
257.056	69
257.289	83
257.521	79
257.754	91
257.987	86
258.22	83
258.452	67
258.685	88
258.918	88
259.151	75
259.383	71
259.616	81
259.849	91
260.081	76
260.314	95
260.547	83
260.779	79
261.012	95
261.244	83
261.477	68
261.71	92
261.942	105
262.175	102
262.407	96
262.64	74
262.872	83
263.105	95
263.337	91
263.57	74
263.802	90
264.035	82
264.267	96
264.499	92
264.732	84
264.964	83
265.197	84
265.429	84
265.661	72
265.894	85
266.126	80
266.358	84
266.591	95
266.823	83
267.055	79
267.287	85
267.52	77
267.752	79
267.984	93
268.216	85
268.448	89
268.681	84
268.913	92
269.145	82
269.377	85
269.609	74
269.841	83
270.073	96
270.306	95
270.538	86
270.77	87
271.002	82
271.234	82
271.466	88
271.698	79
271.93	85
272.162	91
272.394	86
272.626	87
272.858	93
273.09	87
273.322	82
273.553	85
273.785	97
274.017	83
274.249	94
274.481	85
274.713	87
274.945	75
275.176	85
275.408	85
275.64	68
275.872	91
276.104	89
276.335	89
276.567	99
276.799	102
277.031	118
277.262	100
277.494	90
277.726	88
277.957	90
278.189	77
278.421	85
278.652	85
278.884	72
279.115	85
279.347	81
279.579	96
279.81	91
280.042	97
280.273	90
280.505	96
280.736	96
280.968	87
281.199	86
281.431	92
281.662	94
281.894	78
282.125	105
282.356	98
282.588	118
282.819	111
283.051	87
283.282	90
283.513	89
283.745	90
283.976	87
284.207	87
284.439	86
284.67	77
284.901	95
285.132	83
285.364	82
285.595	90
285.826	91
286.057	87
286.288	94
286.52	86
286.751	76
286.982	101
287.213	98
287.444	89
287.675	94
287.906	84
288.138	95
288.369	93
288.6	92
288.831	90
289.062	84
289.293	99
289.524	86
289.755	87
289.986	84
290.217	95
290.448	93
290.679	60
290.91	89
291.141	95
291.371	84
291.602	95
291.833	75
292.064	88
292.295	93
292.526	88
292.757	103
292.987	95
293.218	86
293.449	81
293.68	88
293.91	93
294.141	100
294.372	96
294.603	88
294.833	99
295.064	88
295.295	90
295.525	83
295.756	106
295.987	108
296.217	124
296.448	127
296.679	99
296.909	90
297.14	97
297.37	74
297.601	88
297.831	79
298.062	91
298.292	89
298.523	83
298.753	92
298.984	86
299.214	71
299.445	90
299.675	87
299.905	102
300.136	79
300.366	97
300.597	98
300.827	104
301.057	76
301.288	90
301.518	87
301.748	109
301.979	109
302.209	86
302.439	87
302.669	89
302.9	84
303.13	82
303.36	95
303.59	106
303.82	109
304.051	85
304.281	74
304.511	106
304.741	89
304.971	100
305.201	97
305.431	88
305.661	77
305.891	84
306.121	84
306.352	95
306.582	106
306.812	98
307.042	98
307.272	95
307.502	103
307.731	84
307.961	97
308.191	99
308.421	91
308.651	98
308.881	93
309.111	103
309.341	90
309.571	99
309.8	100
310.03	106
310.26	102
310.49	89
310.72	90
310.949	99
311.179	117
311.409	96
311.639	107
311.868	95
312.098	85
312.328	98
312.557	101
312.787	88
313.017	93
313.246	102
313.476	105
313.706	90
313.935	102
314.165	83
314.394	95
314.624	89
314.853	102
315.083	100
315.312	107
315.542	100
315.771	102
316.001	103
316.23	100
316.46	86
316.689	85
316.919	100
317.148	86
317.377	83
317.607	95
317.836	85
318.065	96
318.295	94
318.524	89
318.753	85
318.983	88
319.212	102
319.441	112
319.67	105
319.9	112
320.129	104
320.358	91
320.587	101
320.816	92
321.046	91
321.275	102
321.504	83
321.733	96
321.962	104
322.191	98
322.42	106
322.649	116
322.878	118
323.108	115
323.337	101
323.566	129
323.795	146
324.024	199
324.253	362
324.482	782
324.71	1567
324.939	2070
325.168	765
325.397	239
325.626	160
325.855	123
326.084	109
326.313	140
326.542	149
326.77	229
326.999	452
327.228	911
327.457	1623
327.686	1268
327.914	339
328.143	194
328.372	151
328.6	114
328.829	116
329.058	115
329.287	107
329.515	104
329.744	107
329.972	112
330.201	116
330.43	121
330.658	106
330.887	124
331.115	110
331.344	92
331.572	105
331.801	103
332.03	99
332.258	87
332.486	103
332.715	88
332.943	87
333.172	99
333.4	99
333.629	108
333.857	126
334.085	99
334.314	97
334.542	125
334.771	120
334.999	111
335.227	101
335.455	120
335.684	92
335.912	90
336.14	83
336.369	105
336.597	106
336.825	87
337.053	97
337.281	98
337.51	86
337.738	100
337.966	89
338.194	102
338.422	89
338.65	95
338.878	75
339.106	91
339.334	91
339.562	87
339.79	102
340.018	102
340.246	109
340.474	96
340.702	89
340.93	81
341.158	98
341.386	103
341.614	88
341.842	99
342.07	92
342.298	87
342.526	87
342.754	82
342.981	98
343.209	102
343.437	109
343.665	82
343.893	89
344.12	99
344.348	81
344.576	77
344.804	88
345.031	74
345.259	85
345.487	89
345.714	100
345.942	87
346.17	113
346.397	100
346.625	99
346.853	91
347.08	98
347.308	95
347.535	93
347.763	102
347.99	96
348.218	107
348.445	93
348.673	88
348.9	90
349.128	98
349.355	91
349.583	82
349.81	93
350.037	93
350.265	102
350.492	89
350.72	102
350.947	100
351.174	91
351.402	107
351.629	100
351.856	89
352.083	96
352.311	105
352.538	104
352.765	97
352.992	90
353.22	104
353.447	106
353.674	105
353.901	102
354.128	91
354.355	98
354.583	92
354.81	100
355.037	93
355.264	88
355.491	83
355.718	95
355.945	99
356.172	95
356.399	93
356.626	99
356.853	102
357.08	99
357.307	89
357.534	84
357.761	91
357.988	93
358.215	90
358.441	92
358.668	87
358.895	81
359.122	90
359.349	87
359.576	85
359.802	86
360.029	110
360.256	108
360.483	96
360.709	90
360.936	89
361.163	101
361.39	103
361.616	93
361.843	101
362.07	90
362.296	103
362.523	80
362.749	101
362.976	81
363.203	86
363.429	95
363.656	98
363.882	92
364.109	100
364.335	92
364.562	96
364.788	85
365.015	97
365.241	91
365.468	104
365.694	118
365.92	103
366.147	96
366.373	92
366.599	92
366.826	94
367.052	101
367.278	84
367.505	96
367.731	84
367.957	88
368.184	92
368.41	94
368.636	114
368.862	124
369.089	96
369.315	91
369.541	85
369.767	84
369.993	96
370.219	90
370.445	83
370.672	95
370.898	87
371.124	84
371.35	84
371.576	95
371.802	85
372.028	98
372.254	88
372.48	84
372.706	69
372.932	77
373.158	93
373.384	92
373.61	100
373.835	91
374.061	97
374.287	101
374.513	92
374.739	92
374.965	96
375.191	87
375.416	97
375.642	101
375.868	96
376.094	87
376.319	94
376.545	84
376.771	89
376.997	86
377.222	100
377.448	102
377.674	79
377.899	92
378.125	97
378.35	101
378.576	96
378.802	83
379.027	93
379.253	98
379.478	95
379.704	91
379.929	96
380.155	95
380.38	89
380.606	106
380.831	84
381.057	104
381.282	92
381.507	90
381.733	92
381.958	101
382.184	102
382.409	102
382.634	93
382.86	97
383.085	101
383.31	98
383.535	91
383.761	88
383.986	93
384.211	95
384.436	77
384.662	92
384.887	75
385.112	101
385.337	110
385.562	97
385.787	85
386.013	104
386.238	107
386.463	95
386.688	87
386.913	99
387.138	92
387.363	113
387.588	102
387.813	93
388.038	101
388.263	96
388.488	104
388.713	114
388.938	102
389.163	107
389.387	103
389.612	102
389.837	87
390.062	100
390.287	103
390.512	91
390.736	96
390.961	77
391.186	87
391.411	97
391.636	88
391.86	95
392.085	83
392.31	86
392.534	83
392.759	103
392.984	82
393.208	83
393.433	106
393.658	105
393.882	90
394.107	85
394.331	87
394.556	84
394.78	104
395.005	69
395.229	94
395.454	83
395.678	73
395.903	75
396.127	89
396.352	90
396.576	79
396.801	103
397.025	80
397.249	79
397.474	91
397.698	77
397.922	74
398.147	99
398.371	68
398.595	84
398.82	91
399.044	80
399.268	96
399.492	87
399.717	89
399.941	91
400.165	85
400.389	82
400.613	88
400.837	87
401.062	88
401.286	73
401.51	81
401.734	84
401.958	100
402.182	123
402.406	141
402.63	102
402.854	91
403.078	108
403.302	81
403.526	97
403.75	96
403.974	81
404.198	89
404.422	77
404.645	81
404.869	92
405.093	88
405.317	104
405.541	96
405.765	112
405.988	120
406.212	172
406.436	201
406.66	119
406.883	96
407.107	89
407.331	89
407.555	112
407.778	85
408.002	76
408.226	95
408.449	100
408.673	93
408.896	95
409.12	103
409.344	86
409.567	91
409.791	95
410.014	79
410.238	103
410.461	88
410.685	82
410.908	94
411.132	99
411.355	100
411.578	106
411.802	89
412.025	99
412.249	109
412.472	88
412.695	98
412.919	90
413.142	93
413.365	95
413.589	85
413.812	89
414.035	94
414.258	85
414.482	85
414.705	81
414.928	91
415.151	97
415.374	91
415.597	92
415.821	85
416.044	80
416.267	95
416.49	91
416.713	95
416.936	85
417.159	90
417.382	79
417.605	83
417.828	107
418.051	96
418.274	83
418.497	90
418.72	88
418.943	93
419.166	82
419.389	89
419.611	88
419.834	93
420.057	87
420.28	81
420.503	83
420.726	84
420.948	100
421.171	91
421.394	87
421.617	92
421.839	86
422.062	89
422.285	86
422.507	89
422.73	109
422.953	82
423.175	81
423.398	87
423.621	94
423.843	85
424.066	89
424.288	91
424.511	94
424.733	95
424.956	87
425.178	95
425.401	98
425.623	102
425.846	93
426.068	107
426.291	101
426.513	79
426.735	103
426.958	99
427.18	109
427.402	126
427.625	154
427.847	113
428.069	113
428.292	95
428.514	86
428.736	87
428.958	82
429.181	91
429.403	92
429.625	85
429.847	91
430.069	104
430.292	83
430.514	79
430.736	77
430.958	81
431.18	81
431.402	94
431.624	104
431.846	77
432.068	81
432.29	115
432.512	86
432.734	81
432.956	94
433.178	102
433.4	104
433.622	92
433.844	103
434.066	87
434.287	83
434.509	92
434.731	87
434.953	87
435.175	89
435.397	94
435.618	87
435.84	115
436.062	120
436.284	103
436.505	101
436.727	100
436.949	96
437.17	87
437.392	73
437.614	99
437.835	88
438.057	97
438.278	108
438.5	99
438.721	121
438.943	98
439.165	97
439.386	97
439.608	100
439.829	103
440.05	119
440.272	127
440.493	91
440.715	88
440.936	93
441.158	63
441.379	90
441.6	89
441.822	75
442.043	97
442.264	107
442.486	105
442.707	92
442.928	121
443.149	118
443.371	125
443.592	101
443.813	108
444.034	113
444.255	95
444.476	84
444.698	87
444.919	92
445.14	132
445.361	128
445.582	108
445.803	131
446.024	119
446.245	110
446.466	111
446.687	96
446.908	83
447.129	91
447.35	96
447.571	106
447.792	76
448.013	98
448.234	100
448.455	84
448.675	107
448.896	109
449.117	99
449.338	92
449.559	115
449.779	119
450	99
450.221	83
450.442	89
450.662	98
450.883	95
451.104	105
451.324	90
451.545	81
451.766	95
451.986	92
452.207	91
452.428	89
452.648	105
452.869	105
453.089	106
453.31	98
453.53	83
453.751	91
453.971	91
454.192	92
454.412	95
454.633	76
454.853	97
455.073	96
455.294	88
455.514	88
455.734	73
455.955	97
456.175	84
456.395	95
456.616	75
456.836	80
457.056	80
457.276	85
457.497	83
457.717	86
457.937	72
458.157	106
458.377	101
458.598	106
458.818	132
459.038	144
459.258	93
459.478	85
459.698	68
459.918	92
460.138	88
460.358	93
460.578	83
460.798	104
461.018	91
461.238	90
461.458	86
461.678	94
461.898	87
462.118	93
462.338	78
462.558	85
462.777	77
462.997	79
463.217	87
463.437	101
463.657	91
463.876	94
464.096	97
464.316	89
464.536	90
464.755	92
464.975	106
465.195	150
465.414	126
465.634	97
465.854	85
466.073	81
466.293	79
466.512	97
466.732	87
466.951	82
467.171	95
467.391	90
467.61	93
467.829	91
468.049	93
468.268	104
468.488	69
468.707	82
468.927	88
469.146	92
469.365	90
469.585	85
469.804	93
470.023	99
470.243	92
470.462	105
470.681	97
470.901	94
471.12	75
471.339	83
471.558	66
471.777	93
471.997	87
472.216	103
472.435	123
472.654	100
472.873	83
473.092	90
473.311	77
473.53	85
473.749	84
473.968	89
474.187	97
474.406	92
474.625	81
474.844	88
475.063	88
475.282	90
475.501	78
475.72	68
475.939	97
476.158	83
476.377	93
476.596	86
476.814	84
477.033	92
477.252	89
477.471	82
477.69	97
477.908	85
478.127	94
478.346	111
478.564	91
478.783	93
479.002	85
479.22	107
479.439	90
479.658	102
479.876	81
480.095	105
480.313	95
480.532	75
480.751	88
480.969	101
481.188	167
481.406	132
481.624	83
481.843	91
482.061	97
482.28	84
482.498	100
482.717	97
482.935	82
483.153	94
483.372	95
483.59	85
483.808	85
484.027	98
484.245	102
484.463	90
484.681	102
484.9	92
485.118	95
485.336	95
485.554	81
485.772	97
485.99	107
486.209	91
486.427	88
486.645	104
486.863	116
487.081	93
487.299	104
487.517	96
487.735	88
487.953	99
488.171	89
488.389	96
488.607	97
488.825	90
489.043	97
489.261	90
489.479	83
489.696	88
489.914	79
490.132	101
490.35	82
490.568	87
490.786	85
491.003	81
491.221	85
491.439	91
491.657	94
491.874	76
492.092	84
492.31	84
492.527	81
492.745	98
492.963	91
493.18	91
493.398	85
493.615	94
493.833	87
494.05	98
494.268	95
494.485	93
494.703	95
494.92	85
495.138	79
495.355	83
495.573	90
495.79	95
496.008	67
496.225	89
496.442	81
496.66	96
496.877	87
497.094	93
497.312	94
497.529	91
497.746	93
497.963	97
498.181	87
498.398	95
498.615	93
498.832	104
499.049	90
499.267	88
499.484	79
499.701	82
499.918	95
500.135	92
500.352	93
500.569	89
500.786	85
501.003	93
501.22	79
501.437	85
501.654	83
501.871	114
502.088	83
502.305	81
502.522	88
502.739	92
502.956	94
503.172	82
503.389	96
503.606	98
503.823	101
504.04	97
504.256	90
504.473	92
504.69	97
504.907	87
505.123	82
505.34	103
505.557	89
505.773	102
505.99	99
506.207	88
506.423	101
506.64	106
506.856	95
507.073	86
507.289	91
507.506	95
507.722	116
507.939	99
508.155	101
508.372	81
508.588	91
508.805	103
509.021	98
509.238	90
509.454	112
509.67	91
509.887	105
510.103	133
510.319	199
510.536	672
510.752	2083
510.968	556
511.184	147
511.401	109
511.617	84
511.833	87
512.049	93
512.265	80
512.481	90
512.698	82
512.914	77
513.13	81
513.346	96
513.562	100
513.778	83
513.994	86
514.21	105
514.426	122
514.642	131
514.858	107
515.074	165
515.29	369
515.506	1209
515.721	470
515.937	133
516.153	108
516.369	95
516.585	99
516.801	90
517.016	90
517.232	90
517.448	97
517.664	102
517.879	84
518.095	87
518.311	91
518.527	96
518.742	85
518.958	92
519.173	96
519.389	73
519.605	92
519.82	99
520.036	91
520.251	108
520.467	97
520.682	97
520.898	92
521.113	105
521.329	151
521.544	177
521.76	487
521.975	2011
522.19	1223
522.406	275
522.621	117
522.836	97
523.052	88
523.267	108
523.482	83
523.698	99
523.913	106
524.128	110
524.343	91
524.559	93
524.774	95
524.989	108
525.204	114
525.419	99
525.634	91
525.849	96
526.064	109
526.28	96
526.495	87
526.71	89
526.925	83
527.14	95
527.355	94
527.57	98
527.785	98
527.999	98
528.214	107
528.429	95
528.644	101
528.859	95
529.074	90
529.289	116
529.503	152
529.718	96
529.933	92
530.148	80
530.363	93
530.577	95
530.792	96
531.007	104
531.221	101
531.436	103
531.651	87
531.865	88
532.08	85
532.295	77
532.509	83
532.724	97
532.938	87
533.153	99
533.367	81
533.582	106
533.796	98
534.011	99
534.225	91
534.44	89
534.654	94
534.868	90
535.083	97
535.297	101
535.511	103
535.726	94
535.94	95
536.154	91
536.369	99
536.583	88
536.797	91
537.011	93
537.225	85
537.44	102
537.654	98
537.868	87
538.082	94
538.296	86
538.51	99
538.724	86
538.938	86
539.153	95
539.367	79
539.581	100
539.795	89
540.009	100
540.222	102
540.436	90
540.65	89
540.864	96
541.078	85
541.292	87
541.506	98
541.72	76
541.934	99
542.147	91
542.361	83
542.575	92
542.789	105
543.002	95
543.216	99
543.43	84
543.644	102
543.857	89
544.071	90
544.285	94
544.498	83
544.712	90
544.925	90
545.139	104
545.352	95
545.566	84
545.779	82
545.993	89
546.206	79
546.42	90
546.633	96
546.847	91
547.06	85
547.274	100
547.487	104
547.7	86
547.914	93
548.127	91
548.34	84
548.554	77
548.767	97
548.98	92
549.193	84
549.407	90
549.62	88
549.833	88
550.046	86
550.259	93
550.473	89
550.686	89
550.899	107
551.112	87
551.325	89
551.538	90
551.751	95
551.964	88
552.177	79
552.39	100
552.603	79
552.816	93
553.029	96
553.242	74
553.455	101
553.667	97
553.88	91
554.093	85
554.306	83
554.519	95
554.732	99
554.944	85
555.157	100
555.37	90
555.583	89
555.795	98
556.008	87
556.221	98
556.433	90
556.646	95
556.859	74
557.071	105
557.284	106
557.496	93
557.709	95
557.921	83
558.134	82
558.346	90
558.559	96
558.771	89
558.984	88
559.196	85
559.409	87
559.621	100
559.833	99
560.046	84
560.258	98
560.47	90
560.683	86
560.895	86
561.107	100
561.32	92
561.532	75
561.744	88
561.956	101
562.168	88
562.381	93
562.593	98
562.805	80
563.017	91
563.229	83
563.441	82
563.653	91
563.865	85
564.077	87
564.289	93
564.501	94
564.713	87
564.925	103
565.137	104
565.349	94
565.561	91
565.773	77
565.985	89
566.197	93
566.408	76
566.62	92
566.832	91
567.044	89
567.255	75
567.467	85
567.679	92
567.891	90
568.102	77
568.314	90
568.526	91
568.737	84
568.949	88
569.161	87
569.372	100
569.584	93
569.795	98
570.007	98
570.218	227
570.43	117
570.641	87
570.853	85
571.064	88
571.276	87
571.487	88
571.698	88
571.91	86
572.121	83
572.333	87
572.544	82
572.755	93
572.966	79
573.178	84
573.389	95
573.6	88
573.811	91
574.023	95
574.234	95
574.445	90
574.656	91
574.867	100
575.078	98
575.289	94
575.501	86
575.712	89
575.923	90
576.134	85
576.345	84
576.556	99
576.767	84
576.978	85
577.188	90
577.399	72
577.61	97
577.821	93
578.032	111
578.243	245
578.454	699
578.665	191
578.875	93
579.086	105
579.297	91
579.508	85
579.718	99
579.929	100
580.14	98
580.35	86
580.561	97
580.772	91
580.982	87
581.193	98
581.403	93
581.614	96
581.825	81
582.035	68
582.246	91
582.456	84
582.667	87
582.877	95
583.087	76
583.298	91
583.508	85
583.719	77
583.929	95
584.139	87
584.35	88
