Data from Uncirc_1985_H10_HRD10591_00003.txt Node
Date: Wed Jan 03 12:18:18 EST 2024
User: Yrep
Spectrometer: HR+D1059
Trigger mode: 1
Integration Time (sec): 1.000000E-1
Scans to average: 1
Electric dark correction enabled: true
Nonlinearity correction enabled: false
Boxcar width: 0
XAxis mode: Wavelengths
Number of Pixels in Spectrum: 2048
>>>>>Begin Spectral Data<<<<<
223.165	-16.81
223.4	-16.81
223.635	-16.81
223.869	-7.81
224.104	-22.81
224.338	-9.81
224.573	-4.81
224.808	-14.81
225.042	-6.81
225.277	-12.81
225.511	-9.81
225.746	0.19
225.98	0.19
226.215	9.19
226.449	15.19
226.683	21.19
226.918	32.19
227.152	28.19
227.387	32.19
227.621	24.19
227.856	38.19
228.09	34.19
228.324	54.19
228.559	78.19
228.793	58.19
229.027	45.19
229.262	66.19
229.496	72.19
229.73	78.19
229.964	72.19
230.199	77.19
230.433	70.19
230.667	88.19
230.901	71.19
231.136	81.19
231.37	84.19
231.604	81.19
231.838	81.19
232.072	72.19
232.306	81.19
232.541	80.19
232.775	80.19
233.009	90.19
233.243	82.19
233.477	83.19
233.711	75.19
233.945	96.19
234.179	86.19
234.413	87.19
234.647	74.19
234.881	78.19
235.115	79.19
235.349	73.19
235.583	83.19
235.817	94.19
236.051	82.19
236.285	79.19
236.519	87.19
236.753	91.19
236.987	88.19
237.221	86.19
237.455	66.19
237.689	62.19
237.922	85.19
238.156	82.19
238.39	86.19
238.624	70.19
238.858	76.19
239.091	75.19
239.325	87.19
239.559	83.19
239.793	73.19
240.027	84.19
240.26	73.19
240.494	81.19
240.728	80.19
240.961	70.19
241.195	81.19
241.429	62.19
241.662	77.19
241.896	72.19
242.13	85.19
242.363	91.19
242.597	90.19
242.83	73.19
243.064	73.19
243.298	70.19
243.531	84.19
243.765	55.19
243.998	79.19
244.232	81.19
244.465	85.19
244.699	84.19
244.932	78.19
245.166	66.19
245.399	70.19
245.633	78.19
245.866	81.19
246.099	78.19
246.333	87.19
246.566	88.19
246.8	74.19
247.033	80.19
247.266	82.19
247.5	59.19
247.733	80.19
247.966	86.19
248.2	76.19
248.433	76.19
248.666	72.19
248.899	78.19
249.133	75.19
249.366	86.19
249.599	83.19
249.832	91.19
250.066	79.19
250.299	79.19
250.532	73.19
250.765	82.19
250.998	70.19
251.231	91.19
251.465	84.19
251.698	71.19
251.931	53.19
252.164	86.19
252.397	73.19
252.63	80.19
252.863	97.19
253.096	79.19
253.329	79.19
253.562	77.19
253.795	94.19
254.028	80.19
254.261	81.19
254.494	75.19
254.727	88.19
254.96	84.19
255.193	87.19
255.426	81.19
255.659	89.19
255.892	90.19
256.124	74.19
256.357	80.19
256.59	82.19
256.823	79.19
257.056	76.19
257.289	70.19
257.521	78.19
257.754	76.19
257.987	97.19
258.22	84.19
258.452	90.19
258.685	82.19
258.918	82.19
259.151	89.19
259.383	78.19
259.616	80.19
259.849	93.19
260.081	86.19
260.314	66.19
260.547	85.19
260.779	90.19
261.012	94.19
261.244	76.19
261.477	82.19
261.71	87.19
261.942	83.19
262.175	99.19
262.407	90.19
262.64	88.19
262.872	81.19
263.105	68.19
263.337	88.19
263.57	78.19
263.802	84.19
264.035	81.19
264.267	81.19
264.499	87.19
264.732	86.19
264.964	74.19
265.197	88.19
265.429	84.19
265.661	71.19
265.894	82.19
266.126	79.19
266.358	99.19
266.591	83.19
266.823	87.19
267.055	80.19
267.287	89.19
267.52	87.19
267.752	83.19
267.984	79.19
268.216	94.19
268.448	80.19
268.681	91.19
268.913	86.19
269.145	100.19
269.377	82.19
269.609	87.19
269.841	89.19
270.073	89.19
270.306	92.19
270.538	75.19
270.77	89.19
271.002	98.19
271.234	70.19
271.466	61.19
271.698	80.19
271.93	75.19
272.162	67.19
272.394	96.19
272.626	88.19
272.858	82.19
273.09	82.19
273.322	76.19
273.553	92.19
273.785	96.19
274.017	88.19
274.249	83.19
274.481	76.19
274.713	79.19
274.945	86.19
275.176	86.19
275.408	75.19
275.64	85.19
275.872	71.19
276.104	81.19
276.335	89.19
276.567	105.19
276.799	91.19
277.031	101.19
277.262	94.19
277.494	103.19
277.726	89.19
277.957	85.19
278.189	88.19
278.421	84.19
278.652	87.19
278.884	91.19
279.115	88.19
279.347	82.19
279.579	95.19
279.81	77.19
280.042	91.19
280.273	89.19
280.505	89.19
280.736	76.19
280.968	89.19
281.199	90.19
281.431	95.19
281.662	81.19
281.894	84.19
282.125	91.19
282.356	108.19
282.588	107.19
282.819	93.19
283.051	82.19
283.282	83.19
283.513	76.19
283.745	90.19
283.976	84.19
284.207	78.19
284.439	84.19
284.67	74.19
284.901	78.19
285.132	80.19
285.364	85.19
285.595	96.19
285.826	100.19
286.057	91.19
286.288	85.19
286.52	88.19
286.751	84.19
286.982	87.19
287.213	95.19
287.444	91.19
287.675	98.19
287.906	90.19
288.138	87.19
288.369	76.19
288.6	87.19
288.831	72.19
289.062	85.19
289.293	92.19
289.524	82.19
289.755	86.19
289.986	84.19
290.217	84.19
290.448	94.19
290.679	81.19
290.91	97.19
291.141	78.19
291.371	95.19
291.602	88.19
291.833	92.19
292.064	71.19
292.295	107.19
292.526	69.19
292.757	81.19
292.987	82.19
293.218	79.19
293.449	97.19
293.68	87.19
293.91	75.19
294.141	86.19
294.372	106.19
294.603	78.19
294.833	78.19
295.064	78.19
295.295	85.19
295.525	95.19
295.756	99.19
295.987	99.19
296.217	102.19
296.448	112.19
296.679	71.19
296.909	84.19
297.14	88.19
297.37	88.19
297.601	81.19
297.831	75.19
298.062	89.19
298.292	93.19
298.523	85.19
298.753	94.19
298.984	86.19
299.214	95.19
299.445	87.19
299.675	96.19
299.905	86.19
300.136	84.19
300.366	76.19
300.597	99.19
300.827	83.19
301.057	88.19
301.288	96.19
301.518	92.19
301.748	94.19
301.979	94.19
302.209	87.19
302.439	95.19
302.669	101.19
302.9	94.19
303.13	96.19
303.36	87.19
303.59	85.19
303.82	95.19
304.051	85.19
304.281	99.19
304.511	76.19
304.741	95.19
304.971	75.19
305.201	89.19
305.431	102.19
305.661	103.19
305.891	76.19
306.121	87.19
306.352	112.19
306.582	84.19
306.812	91.19
307.042	76.19
307.272	100.19
307.502	101.19
307.731	98.19
307.961	79.19
308.191	86.19
308.421	97.19
308.651	96.19
308.881	84.19
309.111	83.19
309.341	102.19
309.571	83.19
309.8	99.19
310.03	87.19
310.26	90.19
310.49	96.19
310.72	102.19
310.949	105.19
311.179	95.19
311.409	108.19
311.639	78.19
311.868	84.19
312.098	87.19
312.328	87.19
312.557	100.19
312.787	99.19
313.017	101.19
313.246	95.19
313.476	81.19
313.706	97.19
313.935	86.19
314.165	93.19
314.394	90.19
314.624	90.19
314.853	71.19
315.083	89.19
315.312	84.19
315.542	99.19
315.771	84.19
316.001	99.19
316.23	104.19
316.46	86.19
316.689	90.19
316.919	78.19
317.148	99.19
317.377	102.19
317.607	113.19
317.836	96.19
318.065	82.19
318.295	95.19
318.524	73.19
318.753	92.19
318.983	89.19
319.212	86.19
319.441	95.19
319.67	88.19
319.9	89.19
320.129	86.19
320.358	98.19
320.587	78.19
320.816	92.19
321.046	102.19
321.275	106.19
321.504	100.19
321.733	97.19
321.962	92.19
322.191	98.19
322.42	89.19
322.649	105.19
322.878	88.19
323.108	118.19
323.337	121.19
323.566	140.19
323.795	138.19
324.024	186.19
324.253	297.19
324.482	632.19
324.71	1301.19
324.939	1708.19
325.168	649.19
325.397	211.19
325.626	128.19
325.855	127.19
326.084	111.19
326.313	133.19
326.542	130.19
326.77	207.19
326.999	382.19
327.228	740.19
327.457	1382.19
327.686	1060.19
327.914	294.19
328.143	167.19
328.372	136.19
328.6	113.19
328.829	109.19
329.058	112.19
329.287	117.19
329.515	92.19
329.744	88.19
329.972	103.19
330.201	87.19
330.43	107.19
330.658	106.19
330.887	118.19
331.115	110.19
331.344	104.19
331.572	100.19
331.801	112.19
332.03	88.19
332.258	90.19
332.486	91.19
332.715	86.19
332.943	87.19
333.172	89.19
333.4	89.19
333.629	108.19
333.857	102.19
334.085	116.19
334.314	94.19
334.542	103.19
334.771	103.19
334.999	95.19
335.227	81.19
335.455	102.19
335.684	101.19
335.912	91.19
336.14	94.19
336.369	95.19
336.597	85.19
336.825	93.19
337.053	86.19
337.281	90.19
337.51	83.19
337.738	80.19
337.966	92.19
338.194	103.19
338.422	84.19
338.65	89.19
338.878	83.19
339.106	91.19
339.334	98.19
339.562	101.19
339.79	84.19
340.018	91.19
340.246	95.19
340.474	86.19
340.702	89.19
340.93	98.19
341.158	84.19
341.386	103.19
341.614	75.19
341.842	96.19
342.07	90.19
342.298	73.19
342.526	86.19
342.754	90.19
342.981	83.19
343.209	88.19
343.437	96.19
343.665	90.19
343.893	88.19
344.12	95.19
344.348	84.19
344.576	88.19
344.804	88.19
345.031	94.19
345.259	98.19
345.487	92.19
345.714	98.19
345.942	90.19
346.17	92.19
346.397	95.19
346.625	93.19
346.853	83.19
347.08	104.19
347.308	78.19
347.535	100.19
347.763	94.19
347.99	103.19
348.218	93.19
348.445	109.19
348.673	89.19
348.9	101.19
349.128	99.19
349.355	97.19
349.583	96.19
349.81	84.19
350.037	88.19
350.265	107.19
350.492	96.19
350.72	96.19
350.947	98.19
351.174	97.19
351.402	78.19
351.629	114.19
351.856	102.19
352.083	110.19
352.311	96.19
352.538	106.19
352.765	100.19
352.992	118.19
353.22	103.19
353.447	97.19
353.674	98.19
353.901	103.19
354.128	97.19
354.355	102.19
354.583	105.19
354.81	104.19
355.037	97.19
355.264	103.19
355.491	76.19
355.718	102.19
355.945	90.19
356.172	94.19
356.399	92.19
356.626	95.19
356.853	91.19
357.08	81.19
357.307	89.19
357.534	92.19
357.761	94.19
357.988	100.19
358.215	93.19
358.441	78.19
358.668	86.19
358.895	90.19
359.122	89.19
359.349	79.19
359.576	67.19
359.802	102.19
360.029	98.19
360.256	101.19
360.483	85.19
360.709	88.19
360.936	90.19
361.163	81.19
361.39	91.19
361.616	89.19
361.843	78.19
362.07	79.19
362.296	88.19
362.523	95.19
362.749	59.19
362.976	95.19
363.203	95.19
363.429	97.19
363.656	101.19
363.882	83.19
364.109	98.19
364.335	90.19
364.562	74.19
364.788	99.19
365.015	99.19
365.241	88.19
365.468	84.19
365.694	91.19
365.92	81.19
366.147	79.19
366.373	87.19
366.599	75.19
366.826	86.19
367.052	96.19
367.278	102.19
367.505	86.19
367.731	92.19
367.957	91.19
368.184	83.19
368.41	101.19
368.636	100.19
368.862	105.19
369.089	95.19
369.315	91.19
369.541	85.19
369.767	84.19
369.993	81.19
370.219	86.19
370.445	75.19
370.672	93.19
370.898	72.19
371.124	90.19
371.35	98.19
371.576	91.19
371.802	83.19
372.028	89.19
372.254	94.19
372.48	86.19
372.706	88.19
372.932	92.19
373.158	76.19
373.384	98.19
373.61	80.19
373.835	82.19
374.061	86.19
374.287	82.19
374.513	95.19
374.739	85.19
374.965	91.19
375.191	101.19
375.416	93.19
375.642	72.19
375.868	98.19
376.094	86.19
376.319	81.19
376.545	86.19
376.771	94.19
376.997	96.19
377.222	87.19
377.448	83.19
377.674	95.19
377.899	94.19
378.125	91.19
378.35	90.19
378.576	110.19
378.802	103.19
379.027	82.19
379.253	88.19
379.478	94.19
379.704	93.19
379.929	99.19
380.155	93.19
380.38	94.19
380.606	91.19
380.831	87.19
381.057	82.19
381.282	92.19
381.507	101.19
381.733	92.19
381.958	84.19
382.184	80.19
382.409	93.19
382.634	98.19
382.86	102.19
383.085	108.19
383.31	102.19
383.535	98.19
383.761	86.19
383.986	105.19
384.211	98.19
384.436	91.19
384.662	107.19
384.887	106.19
385.112	105.19
385.337	100.19
385.562	78.19
385.787	102.19
386.013	101.19
386.238	104.19
386.463	107.19
386.688	111.19
386.913	92.19
387.138	100.19
387.363	106.19
387.588	92.19
387.813	91.19
388.038	108.19
388.263	110.19
388.488	107.19
388.713	90.19
388.938	94.19
389.163	88.19
389.387	94.19
389.612	100.19
389.837	74.19
390.062	93.19
390.287	86.19
390.512	94.19
390.736	90.19
390.961	91.19
391.186	94.19
391.411	96.19
391.636	89.19
391.86	81.19
392.085	89.19
392.31	90.19
392.534	83.19
392.759	91.19
392.984	75.19
393.208	102.19
393.433	92.19
393.658	96.19
393.882	78.19
394.107	90.19
394.331	87.19
394.556	85.19
394.78	105.19
395.005	78.19
395.229	84.19
395.454	90.19
395.678	88.19
395.903	88.19
396.127	75.19
396.352	91.19
396.576	83.19
396.801	105.19
397.025	89.19
397.249	75.19
397.474	91.19
397.698	88.19
397.922	80.19
398.147	94.19
398.371	92.19
398.595	76.19
398.82	83.19
399.044	86.19
399.268	80.19
399.492	88.19
399.717	94.19
399.941	104.19
400.165	83.19
400.389	89.19
400.613	83.19
400.837	72.19
401.062	86.19
401.286	82.19
401.51	83.19
401.734	98.19
401.958	105.19
402.182	124.19
402.406	133.19
402.63	96.19
402.854	72.19
403.078	79.19
403.302	86.19
403.526	91.19
403.75	80.19
403.974	87.19
404.198	87.19
404.422	90.19
404.645	94.19
404.869	87.19
405.093	103.19
405.317	96.19
405.541	103.19
405.765	99.19
405.988	104.19
406.212	138.19
406.436	173.19
406.66	124.19
406.883	82.19
407.107	99.19
407.331	97.19
407.555	107.19
407.778	83.19
408.002	82.19
408.226	80.19
408.449	90.19
408.673	88.19
408.896	84.19
409.12	94.19
409.344	86.19
409.567	95.19
409.791	103.19
410.014	99.19
410.238	84.19
410.461	86.19
410.685	103.19
410.908	97.19
411.132	98.19
411.355	87.19
411.578	84.19
411.802	86.19
412.025	95.19
412.249	84.19
412.472	90.19
412.695	89.19
412.919	91.19
413.142	95.19
413.365	84.19
413.589	82.19
413.812	96.19
414.035	94.19
414.258	87.19
414.482	68.19
414.705	81.19
414.928	86.19
415.151	78.19
415.374	94.19
415.597	82.19
415.821	95.19
416.044	94.19
416.267	94.19
416.49	88.19
416.713	84.19
416.936	85.19
417.159	82.19
417.382	95.19
417.605	88.19
417.828	88.19
418.051	86.19
418.274	83.19
418.497	89.19
418.72	75.19
418.943	84.19
419.166	70.19
419.389	82.19
419.611	87.19
419.834	85.19
420.057	83.19
420.28	87.19
420.503	80.19
420.726	83.19
420.948	90.19
421.171	98.19
421.394	101.19
421.617	87.19
421.839	84.19
422.062	79.19
422.285	79.19
422.507	95.19
422.73	94.19
422.953	91.19
423.175	84.19
423.398	104.19
423.621	99.19
423.843	85.19
424.066	83.19
424.288	94.19
424.511	99.19
424.733	88.19
424.956	91.19
425.178	94.19
425.401	100.19
425.623	104.19
425.846	84.19
426.068	83.19
426.291	87.19
426.513	98.19
426.735	82.19
426.958	102.19
427.18	107.19
427.402	128.19
427.625	112.19
427.847	107.19
428.069	102.19
428.292	87.19
428.514	84.19
428.736	91.19
428.958	89.19
429.181	87.19
429.403	92.19
429.625	78.19
429.847	96.19
430.069	84.19
430.292	92.19
430.514	90.19
430.736	82.19
430.958	94.19
431.18	80.19
431.402	96.19
431.624	101.19
431.846	92.19
432.068	93.19
432.29	87.19
432.512	81.19
432.734	87.19
432.956	84.19
433.178	102.19
433.4	83.19
433.622	80.19
433.844	84.19
434.066	86.19
434.287	80.19
434.509	88.19
434.731	88.19
434.953	94.19
435.175	85.19
435.397	82.19
435.618	91.19
435.84	102.19
436.062	88.19
436.284	103.19
436.505	95.19
436.727	107.19
436.949	104.19
437.17	85.19
437.392	80.19
437.614	108.19
437.835	99.19
438.057	102.19
438.278	100.19
438.5	78.19
438.721	107.19
438.943	101.19
439.165	84.19
439.386	79.19
439.608	98.19
439.829	86.19
440.05	118.19
440.272	113.19
440.493	88.19
440.715	70.19
440.936	107.19
441.158	95.19
441.379	76.19
441.6	78.19
441.822	87.19
442.043	90.19
442.264	100.19
442.486	110.19
442.707	94.19
442.928	91.19
443.149	102.19
443.371	102.19
443.592	91.19
443.813	98.19
444.034	92.19
444.255	97.19
444.476	82.19
444.698	90.19
444.919	84.19
445.14	134.19
445.361	120.19
445.582	104.19
445.803	114.19
446.024	102.19
446.245	120.19
446.466	111.19
446.687	92.19
446.908	101.19
447.129	93.19
447.35	104.19
447.571	95.19
447.792	95.19
448.013	94.19
448.234	103.19
448.455	101.19
448.675	99.19
448.896	83.19
449.117	97.19
449.338	92.19
449.559	116.19
449.779	112.19
450	83.19
450.221	84.19
450.442	86.19
450.662	85.19
450.883	95.19
451.104	99.19
451.324	84.19
451.545	95.19
451.766	75.19
451.986	73.19
452.207	86.19
452.428	83.19
452.648	95.19
452.869	98.19
453.089	92.19
453.31	101.19
453.53	82.19
453.751	84.19
453.971	103.19
454.192	100.19
454.412	94.19
454.633	88.19
454.853	91.19
455.073	92.19
455.294	87.19
455.514	90.19
455.734	85.19
455.955	88.19
456.175	90.19
456.395	89.19
456.616	90.19
456.836	82.19
457.056	96.19
457.276	100.19
457.497	81.19
457.717	75.19
457.937	84.19
458.157	79.19
458.377	76.19
458.598	107.19
458.818	120.19
459.038	136.19
459.258	98.19
459.478	88.19
459.698	75.19
459.918	83.19
460.138	82.19
460.358	89.19
460.578	82.19
460.798	100.19
461.018	82.19
461.238	87.19
461.458	79.19
461.678	91.19
461.898	80.19
462.118	88.19
462.338	108.19
462.558	96.19
462.777	94.19
462.997	74.19
463.217	78.19
463.437	88.19
463.657	82.19
463.876	86.19
464.096	84.19
464.316	94.19
464.536	79.19
464.755	89.19
464.975	94.19
465.195	123.19
465.414	136.19
465.634	87.19
465.854	86.19
466.073	100.19
466.293	80.19
466.512	86.19
466.732	98.19
466.951	90.19
467.171	88.19
467.391	77.19
467.61	84.19
467.829	75.19
468.049	84.19
468.268	96.19
468.488	74.19
468.707	82.19
468.927	90.19
469.146	107.19
469.365	71.19
469.585	75.19
469.804	89.19
470.023	87.19
470.243	91.19
470.462	109.19
470.681	92.19
470.901	76.19
471.12	83.19
471.339	89.19
471.558	81.19
471.777	89.19
471.997	97.19
472.216	98.19
472.435	113.19
472.654	86.19
472.873	96.19
473.092	91.19
473.311	108.19
473.53	84.19
473.749	89.19
473.968	78.19
474.187	98.19
474.406	106.19
474.625	94.19
474.844	85.19
475.063	86.19
475.282	85.19
475.501	87.19
475.72	90.19
475.939	89.19
476.158	90.19
476.377	73.19
476.596	96.19
476.814	96.19
477.033	96.19
477.252	84.19
477.471	92.19
477.69	85.19
477.908	86.19
478.127	90.19
478.346	90.19
478.564	89.19
478.783	93.19
479.002	87.19
479.22	95.19
479.439	88.19
479.658	99.19
479.876	84.19
480.095	96.19
480.313	92.19
480.532	88.19
480.751	92.19
480.969	92.19
481.188	101.19
481.406	114.19
481.624	103.19
481.843	80.19
482.061	87.19
482.28	99.19
482.498	96.19
482.717	88.19
482.935	99.19
483.153	73.19
483.372	101.19
483.59	96.19
483.808	89.19
484.027	88.19
484.245	91.19
484.463	94.19
484.681	101.19
484.9	96.19
485.118	102.19
485.336	102.19
485.554	97.19
485.772	88.19
485.99	97.19
486.209	107.19
486.427	98.19
486.645	97.19
486.863	107.19
487.081	85.19
487.299	82.19
487.517	90.19
487.735	105.19
487.953	98.19
488.171	81.19
488.389	88.19
488.607	98.19
488.825	78.19
489.043	103.19
489.261	92.19
489.479	93.19
489.696	91.19
489.914	85.19
490.132	70.19
490.35	93.19
490.568	87.19
490.786	97.19
491.003	98.19
491.221	85.19
491.439	88.19
491.657	103.19
491.874	102.19
492.092	89.19
492.31	81.19
492.527	83.19
492.745	74.19
492.963	79.19
493.18	86.19
493.398	75.19
493.615	90.19
493.833	85.19
494.05	80.19
494.268	86.19
494.485	84.19
494.703	72.19
494.92	94.19
495.138	94.19
495.355	81.19
495.573	84.19
495.79	73.19
496.008	90.19
496.225	80.19
496.442	100.19
496.66	94.19
496.877	90.19
497.094	92.19
497.312	98.19
497.529	96.19
497.746	99.19
497.963	100.19
498.181	94.19
498.398	86.19
498.615	110.19
498.832	98.19
499.049	87.19
499.267	93.19
499.484	82.19
499.701	94.19
499.918	86.19
500.135	99.19
500.352	89.19
500.569	92.19
500.786	98.19
501.003	94.19
501.22	85.19
501.437	91.19
501.654	96.19
501.871	86.19
502.088	80.19
502.305	90.19
502.522	103.19
502.739	80.19
502.956	94.19
503.172	75.19
503.389	82.19
503.606	98.19
503.823	95.19
504.04	90.19
504.256	73.19
504.473	86.19
504.69	79.19
504.907	91.19
505.123	93.19
505.34	89.19
505.557	89.19
505.773	77.19
505.99	97.19
506.207	94.19
506.423	86.19
506.64	91.19
506.856	90.19
507.073	106.19
507.289	91.19
507.506	92.19
507.722	92.19
507.939	103.19
508.155	80.19
508.372	83.19
508.588	84.19
508.805	92.19
509.021	90.19
509.238	99.19
509.454	94.19
509.67	85.19
509.887	94.19
510.103	112.19
510.319	186.19
510.536	552.19
510.752	1651.19
510.968	478.19
511.184	138.19
511.401	106.19
511.617	75.19
511.833	79.19
512.049	85.19
512.265	89.19
512.481	89.19
512.698	83.19
512.914	81.19
513.13	99.19
513.346	98.19
513.562	93.19
513.778	85.19
513.994	83.19
514.21	88.19
514.426	107.19
514.642	120.19
514.858	113.19
515.074	150.19
515.29	317.19
515.506	953.19
515.721	398.19
515.937	130.19
516.153	96.19
516.369	90.19
516.585	86.19
516.801	104.19
