Data from Uncirc_1985_H10_HRD10591_00023.txt Node
Date: Wed Jan 03 12:18:22 EST 2024
User: Yrep
Spectrometer: HR+D1059
Trigger mode: 1
Integration Time (sec): 1.000000E-1
Scans to average: 1
Electric dark correction enabled: true
Nonlinearity correction enabled: false
Boxcar width: 0
XAxis mode: Wavelengths
Number of Pixels in Spectrum: 2048
>>>>>Begin Spectral Data<<<<<
223.165	-21.12
223.4	-21.12
223.635	-21.12
223.869	-15.12
224.104	-11.12
224.338	-8.12
224.573	-9.12
224.808	-22.12
225.042	-5.12
225.277	1.88
225.511	7.88
225.746	10.88
225.98	-4.12
226.215	-2.12
226.449	12.88
226.683	12.88
226.918	22.88
227.152	28.88
227.387	42.88
227.621	17.88
227.856	46.88
228.09	65.88
228.324	42.88
228.559	61.88
228.793	71.88
229.027	64.88
229.262	73.88
229.496	67.88
229.73	84.88
229.964	92.88
230.199	65.88
230.433	73.88
230.667	74.88
230.901	74.88
231.136	87.88
231.37	95.88
231.604	76.88
231.838	74.88
232.072	86.88
232.306	94.88
232.541	72.88
232.775	72.88
233.009	85.88
233.243	86.88
233.477	81.88
233.711	85.88
233.945	87.88
234.179	85.88
234.413	87.88
234.647	68.88
234.881	74.88
235.115	72.88
235.349	89.88
235.583	80.88
235.817	77.88
236.051	81.88
236.285	79.88
236.519	80.88
236.753	91.88
236.987	76.88
237.221	86.88
237.455	76.88
237.689	79.88
237.922	89.88
238.156	78.88
238.39	72.88
238.624	71.88
238.858	92.88
239.091	76.88
239.325	63.88
239.559	87.88
239.793	77.88
240.027	83.88
240.26	78.88
240.494	73.88
240.728	79.88
240.961	74.88
241.195	73.88
241.429	84.88
241.662	83.88
241.896	71.88
242.13	79.88
242.363	67.88
242.597	79.88
242.83	73.88
243.064	88.88
243.298	68.88
243.531	72.88
243.765	87.88
243.998	90.88
244.232	74.88
244.465	84.88
244.699	72.88
244.932	69.88
245.166	83.88
245.399	74.88
245.633	87.88
245.866	63.88
246.099	71.88
246.333	90.88
246.566	82.88
246.8	88.88
247.033	72.88
247.266	85.88
247.5	83.88
247.733	89.88
247.966	79.88
248.2	83.88
248.433	87.88
248.666	86.88
248.899	86.88
249.133	99.88
249.366	85.88
249.599	95.88
249.832	83.88
250.066	89.88
250.299	83.88
250.532	90.88
250.765	86.88
250.998	61.88
251.231	78.88
251.465	100.88
251.698	76.88
251.931	81.88
252.164	81.88
252.397	69.88
252.63	86.88
252.863	71.88
253.096	100.88
253.329	100.88
253.562	80.88
253.795	73.88
254.028	84.88
254.261	77.88
254.494	84.88
254.727	96.88
254.96	84.88
255.193	75.88
255.426	69.88
255.659	80.88
255.892	79.88
256.124	90.88
256.357	91.88
256.59	83.88
256.823	93.88
257.056	82.88
257.289	78.88
257.521	89.88
257.754	76.88
257.987	75.88
258.22	86.88
258.452	80.88
258.685	86.88
258.918	73.88
259.151	96.88
259.383	83.88
259.616	95.88
259.849	75.88
260.081	100.88
260.314	79.88
260.547	79.88
260.779	81.88
261.012	71.88
261.244	81.88
261.477	87.88
261.71	80.88
261.942	104.88
262.175	110.88
262.407	100.88
262.64	81.88
262.872	76.88
263.105	74.88
263.337	86.88
263.57	74.88
263.802	71.88
264.035	81.88
264.267	88.88
264.499	72.88
264.732	90.88
264.964	79.88
265.197	73.88
265.429	88.88
265.661	75.88
265.894	77.88
266.126	88.88
266.358	91.88
266.591	73.88
266.823	97.88
267.055	77.88
267.287	88.88
267.52	79.88
267.752	84.88
267.984	87.88
268.216	84.88
268.448	83.88
268.681	86.88
268.913	85.88
269.145	83.88
269.377	81.88
269.609	72.88
269.841	75.88
270.073	67.88
270.306	93.88
270.538	88.88
270.77	97.88
271.002	84.88
271.234	76.88
271.466	82.88
271.698	91.88
271.93	80.88
272.162	79.88
272.394	83.88
272.626	86.88
272.858	81.88
273.09	90.88
273.322	88.88
273.553	74.88
273.785	79.88
274.017	83.88
274.249	83.88
274.481	88.88
274.713	93.88
274.945	97.88
275.176	76.88
275.408	87.88
275.64	76.88
275.872	77.88
276.104	89.88
276.335	93.88
276.567	91.88
276.799	99.88
277.031	104.88
277.262	97.88
277.494	76.88
277.726	85.88
277.957	86.88
278.189	87.88
278.421	82.88
278.652	98.88
278.884	85.88
279.115	97.88
279.347	88.88
279.579	83.88
279.81	83.88
280.042	81.88
280.273	88.88
280.505	97.88
280.736	83.88
280.968	85.88
281.199	92.88
281.431	76.88
281.662	83.88
281.894	83.88
282.125	100.88
282.356	107.88
282.588	135.88
282.819	118.88
283.051	104.88
283.282	93.88
283.513	82.88
283.745	81.88
283.976	74.88
284.207	97.88
284.439	97.88
284.67	99.88
284.901	78.88
285.132	95.88
285.364	80.88
285.595	95.88
285.826	77.88
286.057	87.88
286.288	91.88
286.52	91.88
286.751	92.88
286.982	72.88
287.213	101.88
287.444	93.88
287.675	82.88
287.906	89.88
288.138	85.88
288.369	81.88
288.6	99.88
288.831	92.88
289.062	92.88
289.293	92.88
289.524	91.88
289.755	83.88
289.986	79.88
290.217	103.88
290.448	90.88
290.679	98.88
290.91	86.88
291.141	89.88
291.371	94.88
291.602	85.88
291.833	93.88
292.064	83.88
292.295	83.88
292.526	103.88
292.757	90.88
292.987	89.88
293.218	95.88
293.449	89.88
293.68	91.88
293.91	76.88
294.141	81.88
294.372	86.88
294.603	81.88
294.833	101.88
295.064	93.88
295.295	91.88
295.525	91.88
295.756	103.88
295.987	96.88
296.217	124.88
296.448	118.88
296.679	87.88
296.909	100.88
297.14	96.88
297.37	86.88
297.601	77.88
297.831	102.88
298.062	75.88
298.292	76.88
298.523	99.88
298.753	98.88
298.984	77.88
299.214	96.88
299.445	92.88
299.675	97.88
299.905	96.88
300.136	99.88
300.366	74.88
300.597	96.88
300.827	87.88
301.057	103.88
301.288	93.88
301.518	101.88
301.748	87.88
301.979	101.88
302.209	95.88
302.439	91.88
302.669	81.88
302.9	83.88
303.13	80.88
303.36	108.88
303.59	96.88
303.82	95.88
304.051	104.88
304.281	88.88
304.511	85.88
304.741	89.88
304.971	95.88
305.201	73.88
305.431	87.88
305.661	86.88
305.891	106.88
306.121	111.88
306.352	92.88
306.582	101.88
306.812	87.88
307.042	97.88
307.272	95.88
307.502	88.88
307.731	88.88
307.961	92.88
308.191	88.88
308.421	72.88
308.651	80.88
308.881	101.88
309.111	92.88
309.341	103.88
309.571	97.88
309.8	94.88
310.03	95.88
310.26	102.88
310.49	91.88
310.72	85.88
310.949	108.88
311.179	98.88
311.409	85.88
311.639	99.88
311.868	101.88
312.098	91.88
312.328	88.88
312.557	105.88
312.787	91.88
313.017	99.88
313.246	101.88
313.476	91.88
313.706	106.88
313.935	92.88
314.165	99.88
314.394	102.88
314.624	98.88
314.853	83.88
315.083	95.88
315.312	88.88
315.542	87.88
315.771	94.88
316.001	91.88
316.23	78.88
316.46	76.88
316.689	87.88
316.919	99.88
317.148	99.88
317.377	104.88
317.607	104.88
317.836	91.88
318.065	90.88
318.295	100.88
318.524	83.88
318.753	92.88
318.983	86.88
319.212	111.88
319.441	101.88
319.67	102.88
319.9	93.88
320.129	100.88
320.358	89.88
320.587	114.88
320.816	104.88
321.046	108.88
321.275	108.88
321.504	89.88
321.733	91.88
321.962	87.88
322.191	98.88
322.42	102.88
322.649	123.88
322.878	103.88
323.108	110.88
323.337	115.88
323.566	108.88
323.795	153.88
324.024	191.88
324.253	358.88
324.482	774.88
324.71	1570.88
324.939	2043.88
325.168	763.88
325.397	229.88
325.626	139.88
325.855	124.88
326.084	130.88
326.313	125.88
326.542	139.88
326.77	209.88
326.999	442.88
327.228	877.88
327.457	1594.88
327.686	1241.88
327.914	347.88
328.143	189.88
328.372	129.88
328.6	111.88
328.829	106.88
329.058	107.88
329.287	130.88
329.515	99.88
329.744	102.88
329.972	99.88
330.201	109.88
330.43	125.88
330.658	122.88
330.887	111.88
331.115	116.88
331.344	101.88
331.572	103.88
331.801	112.88
332.03	107.88
332.258	85.88
332.486	82.88
332.715	100.88
332.943	98.88
333.172	109.88
333.4	97.88
333.629	97.88
333.857	108.88
334.085	94.88
334.314	102.88
334.542	122.88
334.771	113.88
334.999	97.88
335.227	96.88
335.455	94.88
335.684	98.88
335.912	99.88
336.14	95.88
336.369	104.88
336.597	97.88
336.825	100.88
337.053	91.88
337.281	88.88
337.51	81.88
337.738	100.88
337.966	96.88
338.194	77.88
338.422	83.88
338.65	103.88
338.878	92.88
339.106	111.88
339.334	95.88
339.562	96.88
339.79	87.88
340.018	98.88
340.246	89.88
340.474	84.88
340.702	97.88
340.93	91.88
341.158	76.88
341.386	87.88
341.614	91.88
341.842	109.88
342.07	84.88
342.298	78.88
342.526	79.88
342.754	94.88
342.981	87.88
343.209	95.88
343.437	92.88
343.665	99.88
343.893	79.88
344.12	90.88
344.348	92.88
344.576	92.88
344.804	93.88
345.031	101.88
345.259	93.88
345.487	93.88
345.714	93.88
345.942	83.88
346.17	80.88
346.397	85.88
346.625	105.88
346.853	89.88
347.08	85.88
347.308	85.88
347.535	82.88
347.763	90.88
347.99	88.88
348.218	105.88
348.445	98.88
348.673	98.88
348.9	92.88
349.128	92.88
349.355	93.88
349.583	86.88
349.81	95.88
350.037	96.88
350.265	82.88
350.492	77.88
350.72	104.88
350.947	103.88
351.174	99.88
351.402	99.88
351.629	98.88
351.856	99.88
352.083	91.88
352.311	98.88
352.538	91.88
352.765	115.88
352.992	109.88
353.22	99.88
353.447	107.88
353.674	103.88
353.901	107.88
354.128	92.88
354.355	96.88
354.583	87.88
354.81	104.88
355.037	103.88
355.264	100.88
355.491	91.88
355.718	98.88
355.945	108.88
356.172	76.88
356.399	85.88
356.626	95.88
356.853	90.88
357.08	91.88
357.307	89.88
357.534	109.88
357.761	84.88
357.988	99.88
358.215	105.88
358.441	95.88
358.668	89.88
358.895	92.88
359.122	85.88
359.349	98.88
359.576	107.88
359.802	77.88
360.029	107.88
360.256	104.88
360.483	92.88
360.709	100.88
360.936	81.88
361.163	89.88
361.39	95.88
361.616	98.88
361.843	87.88
362.07	103.88
362.296	84.88
362.523	83.88
362.749	91.88
362.976	102.88
363.203	79.88
363.429	80.88
363.656	92.88
363.882	67.88
364.109	85.88
364.335	95.88
364.562	86.88
364.788	89.88
365.015	82.88
365.241	99.88
365.468	113.88
365.694	93.88
365.92	92.88
366.147	93.88
366.373	82.88
366.599	100.88
366.826	94.88
367.052	96.88
367.278	84.88
367.505	87.88
367.731	98.88
367.957	102.88
368.184	104.88
368.41	99.88
368.636	97.88
368.862	102.88
369.089	100.88
369.315	91.88
369.541	98.88
369.767	96.88
369.993	92.88
370.219	96.88
370.445	85.88
370.672	84.88
370.898	89.88
371.124	86.88
371.35	83.88
371.576	89.88
371.802	80.88
372.028	97.88
372.254	92.88
372.48	68.88
372.706	92.88
372.932	91.88
373.158	84.88
373.384	97.88
373.61	102.88
373.835	85.88
374.061	93.88
374.287	98.88
374.513	96.88
374.739	86.88
374.965	91.88
375.191	91.88
375.416	100.88
375.642	92.88
375.868	90.88
376.094	81.88
376.319	95.88
376.545	89.88
376.771	92.88
376.997	82.88
377.222	83.88
377.448	96.88
377.674	102.88
377.899	87.88
378.125	94.88
378.35	88.88
378.576	98.88
378.802	80.88
379.027	87.88
379.253	81.88
379.478	87.88
379.704	97.88
379.929	83.88
380.155	98.88
380.38	100.88
380.606	84.88
380.831	89.88
381.057	90.88
381.282	102.88
381.507	89.88
381.733	84.88
381.958	90.88
382.184	99.88
382.409	95.88
382.634	100.88
382.86	88.88
383.085	78.88
383.31	94.88
383.535	96.88
383.761	111.88
383.986	106.88
384.211	109.88
384.436	104.88
384.662	99.88
384.887	102.88
385.112	96.88
385.337	89.88
385.562	96.88
385.787	102.88
386.013	98.88
386.238	103.88
386.463	104.88
386.688	112.88
386.913	86.88
387.138	103.88
387.363	104.88
387.588	107.88
387.813	111.88
388.038	104.88
388.263	116.88
388.488	113.88
388.713	81.88
388.938	90.88
389.163	76.88
389.387	95.88
389.612	105.88
389.837	86.88
390.062	90.88
390.287	91.88
390.512	89.88
390.736	84.88
390.961	88.88
391.186	93.88
391.411	100.88
391.636	104.88
391.86	100.88
392.085	88.88
392.31	87.88
392.534	83.88
392.759	86.88
392.984	91.88
393.208	95.88
393.433	99.88
393.658	89.88
393.882	80.88
394.107	80.88
394.331	79.88
394.556	84.88
394.78	91.88
395.005	103.88
395.229	83.88
395.454	79.88
395.678	86.88
395.903	89.88
396.127	95.88
396.352	80.88
396.576	68.88
396.801	88.88
397.025	85.88
397.249	89.88
397.474	102.88
397.698	90.88
397.922	76.88
398.147	83.88
398.371	85.88
398.595	82.88
398.82	95.88
399.044	87.88
399.268	92.88
399.492	95.88
399.717	81.88
399.941	80.88
400.165	91.88
400.389	80.88
400.613	88.88
400.837	84.88
401.062	94.88
401.286	73.88
401.51	82.88
401.734	106.88
401.958	88.88
402.182	109.88
402.406	146.88
402.63	114.88
402.854	100.88
403.078	104.88
403.302	76.88
403.526	98.88
403.75	79.88
403.974	89.88
404.198	88.88
404.422	82.88
404.645	74.88
404.869	87.88
405.093	106.88
405.317	97.88
405.541	94.88
405.765	93.88
405.988	111.88
406.212	147.88
406.436	198.88
406.66	120.88
406.883	89.88
407.107	86.88
407.331	94.88
407.555	107.88
407.778	85.88
408.002	80.88
408.226	91.88
408.449	92.88
408.673	97.88
408.896	102.88
409.12	91.88
409.344	92.88
409.567	76.88
409.791	100.88
410.014	88.88
410.238	81.88
410.461	84.88
410.685	109.88
410.908	95.88
411.132	87.88
411.355	87.88
411.578	97.88
411.802	89.88
412.025	109.88
412.249	87.88
412.472	114.88
412.695	102.88
412.919	74.88
413.142	80.88
413.365	77.88
413.589	85.88
413.812	83.88
414.035	102.88
414.258	88.88
414.482	101.88
414.705	100.88
414.928	88.88
415.151	100.88
415.374	108.88
415.597	90.88
415.821	80.88
416.044	87.88
416.267	98.88
416.49	80.88
416.713	91.88
416.936	95.88
417.159	93.88
417.382	84.88
417.605	87.88
417.828	95.88
418.051	96.88
418.274	83.88
418.497	89.88
418.72	77.88
418.943	87.88
419.166	83.88
419.389	93.88
419.611	99.88
419.834	102.88
420.057	89.88
420.28	80.88
420.503	97.88
420.726	83.88
420.948	92.88
421.171	93.88
421.394	95.88
421.617	91.88
421.839	84.88
422.062	103.88
422.285	95.88
422.507	85.88
422.73	94.88
422.953	75.88
423.175	83.88
423.398	95.88
423.621	85.88
423.843	100.88
424.066	94.88
424.288	91.88
424.511	86.88
424.733	98.88
424.956	90.88
425.178	104.88
425.401	96.88
425.623	105.88
425.846	95.88
426.068	91.88
426.291	87.88
426.513	90.88
426.735	88.88
426.958	81.88
427.18	104.88
427.402	136.88
427.625	147.88
427.847	117.88
428.069	108.88
428.292	90.88
428.514	93.88
428.736	84.88
428.958	85.88
429.181	104.88
429.403	89.88
429.625	66.88
429.847	81.88
430.069	91.88
430.292	88.88
430.514	85.88
430.736	95.88
430.958	92.88
431.18	84.88
431.402	95.88
431.624	93.88
431.846	92.88
432.068	76.88
432.29	101.88
432.512	105.88
432.734	75.88
432.956	96.88
433.178	89.88
433.4	111.88
433.622	91.88
433.844	89.88
434.066	96.88
434.287	87.88
434.509	69.88
434.731	96.88
434.953	96.88
435.175	84.88
435.397	98.88
435.618	92.88
435.84	93.88
436.062	113.88
436.284	105.88
436.505	104.88
436.727	94.88
436.949	81.88
437.17	89.88
437.392	79.88
437.614	89.88
437.835	96.88
438.057	112.88
438.278	103.88
438.5	97.88
438.721	103.88
438.943	101.88
439.165	85.88
439.386	91.88
439.608	86.88
439.829	115.88
440.05	123.88
440.272	118.88
440.493	85.88
440.715	76.88
440.936	99.88
441.158	87.88
441.379	96.88
441.6	102.88
441.822	80.88
442.043	81.88
442.264	90.88
442.486	100.88
442.707	95.88
442.928	98.88
443.149	116.88
443.371	125.88
443.592	122.88
443.813	94.88
444.034	105.88
444.255	99.88
444.476	96.88
444.698	96.88
444.919	90.88
445.14	124.88
445.361	116.88
445.582	98.88
445.803	115.88
446.024	121.88
446.245	116.88
446.466	110.88
446.687	89.88
446.908	86.88
447.129	84.88
447.35	90.88
447.571	88.88
447.792	82.88
448.013	95.88
448.234	109.88
448.455	97.88
448.675	113.88
448.896	97.88
449.117	109.88
449.338	103.88
449.559	119.88
449.779	126.88
450	93.88
450.221	87.88
450.442	78.88
450.662	83.88
450.883	100.88
451.104	106.88
451.324	94.88
451.545	80.88
451.766	95.88
451.986	81.88
452.207	93.88
452.428	76.88
452.648	83.88
452.869	121.88
453.089	110.88
453.31	113.88
453.53	90.88
453.751	101.88
453.971	99.88
454.192	91.88
454.412	80.88
454.633	90.88
454.853	82.88
455.073	72.88
455.294	99.88
455.514	99.88
455.734	84.88
455.955	89.88
456.175	74.88
456.395	76.88
456.616	86.88
456.836	83.88
457.056	89.88
457.276	87.88
457.497	80.88
457.717	80.88
457.937	85.88
458.157	87.88
458.377	94.88
458.598	108.88
458.818	148.88
459.038	147.88
459.258	99.88
459.478	71.88
459.698	92.88
459.918	95.88
460.138	75.88
460.358	84.88
460.578	83.88
460.798	91.88
461.018	81.88
461.238	81.88
461.458	84.88
461.678	96.88
461.898	98.88
462.118	87.88
462.338	80.88
462.558	88.88
462.777	87.88
462.997	75.88
463.217	89.88
463.437	77.88
463.657	85.88
463.876	106.88
464.096	81.88
464.316	94.88
464.536	94.88
464.755	92.88
464.975	90.88
465.195	130.88
465.414	144.88
465.634	102.88
465.854	90.88
466.073	83.88
466.293	90.88
466.512	85.88
466.732	74.88
466.951	92.88
467.171	96.88
467.391	111.88
467.61	111.88
467.829	96.88
468.049	96.88
468.268	96.88
468.488	100.88
468.707	85.88
468.927	95.88
469.146	91.88
469.365	97.88
469.585	87.88
469.804	96.88
470.023	100.88
470.243	82.88
470.462	95.88
470.681	111.88
470.901	89.88
471.12	85.88
471.339	90.88
471.558	86.88
471.777	89.88
471.997	88.88
472.216	101.88
472.435	102.88
472.654	95.88
472.873	77.88
473.092	97.88
473.311	83.88
473.53	86.88
473.749	89.88
473.968	100.88
474.187	100.88
474.406	96.88
474.625	87.88
474.844	91.88
475.063	80.88
475.282	88.88
475.501	91.88
475.72	85.88
475.939	92.88
476.158	88.88
476.377	90.88
476.596	83.88
476.814	80.88
477.033	92.88
477.252	81.88
477.471	85.88
477.69	89.88
477.908	81.88
478.127	87.88
478.346	94.88
478.564	98.88
478.783	80.88
479.002	85.88
479.22	108.88
479.439	95.88
479.658	101.88
479.876	93.88
480.095	92.88
480.313	96.88
480.532	92.88
480.751	85.88
480.969	113.88
481.188	150.88
481.406	100.88
481.624	89.88
481.843	97.88
482.061	95.88
482.28	92.88
482.498	83.88
482.717	92.88
482.935	87.88
483.153	99.88
483.372	82.88
483.59	86.88
483.808	97.88
484.027	73.88
484.245	84.88
484.463	96.88
484.681	97.88
484.9	112.88
485.118	92.88
485.336	91.88
485.554	101.88
485.772	98.88
485.99	91.88
486.209	81.88
486.427	114.88
486.645	100.88
486.863	111.88
487.081	95.88
487.299	86.88
487.517	89.88
487.735	86.88
487.953	80.88
488.171	87.88
488.389	94.88
488.607	82.88
488.825	92.88
489.043	92.88
489.261	93.88
489.479	98.88
489.696	96.88
489.914	87.88
490.132	74.88
490.35	104.88
490.568	97.88
490.786	99.88
491.003	100.88
491.221	90.88
491.439	81.88
491.657	102.88
491.874	97.88
492.092	95.88
492.31	95.88
492.527	80.88
492.745	94.88
492.963	83.88
493.18	92.88
493.398	97.88
493.615	91.88
493.833	85.88
494.05	102.88
494.268	92.88
494.485	83.88
494.703	97.88
494.92	95.88
495.138	95.88
495.355	73.88
495.573	100.88
495.79	89.88
496.008	92.88
496.225	87.88
496.442	89.88
496.66	87.88
496.877	75.88
497.094	83.88
497.312	85.88
497.529	98.88
497.746	95.88
497.963	96.88
498.181	92.88
498.398	95.88
498.615	101.88
498.832	104.88
499.049	99.88
499.267	89.88
499.484	95.88
499.701	85.88
499.918	82.88
500.135	88.88
500.352	79.88
500.569	91.88
500.786	111.88
501.003	105.88
501.22	88.88
501.437	96.88
501.654	91.88
501.871	101.88
502.088	91.88
502.305	99.88
502.522	117.88
502.739	102.88
502.956	91.88
503.172	92.88
503.389	93.88
503.606	96.88
503.823	100.88
504.04	87.88
504.256	103.88
504.473	94.88
504.69	88.88
504.907	104.88
505.123	90.88
505.34	94.88
505.557	93.88
505.773	89.88
505.99	84.88
506.207	107.88
506.423	95.88
506.64	93.88
506.856	93.88
507.073	71.88
507.289	87.88
507.506	89.88
507.722	122.88
507.939	101.88
508.155	106.88
508.372	96.88
508.588	103.88
508.805	103.88
509.021	88.88
509.238	97.88
509.454	117.88
509.67	105.88
509.887	114.88
510.103	126.88
510.319	200.88
510.536	723.88
510.752	2129.88
510.968	600.88
511.184	134.88
511.401	110.88
511.617	108.88
511.833	88.88
512.049	81.88
512.265	92.88
512.481	90.88
512.698	85.88
512.914	89.88
513.13	105.88
513.346	94.88
513.562	93.88
513.778	104.88
513.994	104.88
514.21	104.88
514.426	120.88
514.642	118.88
514.858	115.88
515.074	168.88
515.29	391.88
515.506	1291.88
515.721	453.88
