Data from Uncirc_1985_H10_HRD10591_00094.txt Node
Date: Wed Jan 03 12:18:36 EST 2024
User: Yrep
Spectrometer: HR+D1059
Trigger mode: 1
Integration Time (sec): 1.000000E-1
Scans to average: 1
Electric dark correction enabled: true
Nonlinearity correction enabled: false
Boxcar width: 0
XAxis mode: Wavelengths
Number of Pixels in Spectrum: 2048
>>>>>Begin Spectral Data<<<<<
223.165	-6.44
223.4	-6.44
223.635	-6.44
223.869	-22.44
224.104	-10.44
224.338	-12.44
224.573	-20.44
224.808	-31.44
225.042	-6.44
225.277	-6.44
225.511	3.56
225.746	13.56
225.98	3.56
226.215	16.56
226.449	10.56
226.683	15.56
226.918	23.56
227.152	29.56
227.387	24.56
227.621	42.56
227.856	37.56
228.09	38.56
228.324	49.56
228.559	70.56
228.793	59.56
229.027	61.56
229.262	60.56
229.496	67.56
229.73	83.56
229.964	71.56
230.199	83.56
230.433	81.56
230.667	79.56
230.901	75.56
231.136	86.56
231.37	99.56
231.604	77.56
231.838	85.56
232.072	81.56
232.306	79.56
232.541	67.56
232.775	90.56
233.009	77.56
233.243	86.56
233.477	89.56
233.711	71.56
233.945	73.56
234.179	68.56
234.413	81.56
234.647	74.56
234.881	82.56
235.115	79.56
235.349	66.56
235.583	84.56
235.817	77.56
236.051	81.56
236.285	79.56
236.519	84.56
236.753	81.56
236.987	81.56
237.221	81.56
237.455	82.56
237.689	73.56
237.922	85.56
238.156	87.56
238.39	67.56
238.624	59.56
238.858	68.56
239.091	70.56
239.325	70.56
239.559	82.56
239.793	79.56
240.027	80.56
240.26	83.56
240.494	81.56
240.728	81.56
240.961	60.56
241.195	66.56
241.429	70.56
241.662	63.56
241.896	65.56
242.13	73.56
242.363	62.56
242.597	81.56
242.83	60.56
243.064	81.56
243.298	78.56
243.531	72.56
243.765	85.56
243.998	83.56
244.232	82.56
244.465	93.56
244.699	60.56
244.932	80.56
245.166	76.56
245.399	69.56
245.633	77.56
245.866	62.56
246.099	79.56
246.333	70.56
246.566	90.56
246.8	62.56
247.033	79.56
247.266	86.56
247.5	73.56
247.733	59.56
247.966	83.56
248.2	66.56
248.433	90.56
248.666	71.56
248.899	85.56
249.133	88.56
249.366	95.56
249.599	91.56
249.832	80.56
250.066	89.56
250.299	89.56
250.532	78.56
250.765	72.56
250.998	75.56
251.231	81.56
251.465	95.56
251.698	80.56
251.931	98.56
252.164	78.56
252.397	66.56
252.63	87.56
252.863	71.56
253.096	74.56
253.329	79.56
253.562	93.56
253.795	81.56
254.028	82.56
254.261	89.56
254.494	73.56
254.727	77.56
254.96	78.56
255.193	86.56
255.426	90.56
255.659	84.56
255.892	83.56
256.124	77.56
256.357	72.56
256.59	73.56
256.823	74.56
257.056	78.56
257.289	87.56
257.521	85.56
257.754	86.56
257.987	78.56
258.22	78.56
258.452	84.56
258.685	71.56
258.918	86.56
259.151	81.56
259.383	86.56
259.616	72.56
259.849	86.56
260.081	88.56
260.314	77.56
260.547	81.56
260.779	80.56
261.012	84.56
261.244	70.56
261.477	84.56
261.71	93.56
261.942	105.56
262.175	113.56
262.407	83.56
262.64	87.56
262.872	90.56
263.105	92.56
263.337	90.56
263.57	88.56
263.802	71.56
264.035	97.56
264.267	88.56
264.499	104.56
264.732	95.56
264.964	93.56
265.197	89.56
265.429	78.56
265.661	89.56
265.894	77.56
266.126	89.56
266.358	102.56
266.591	81.56
266.823	78.56
267.055	83.56
267.287	83.56
267.52	80.56
267.752	75.56
267.984	79.56
268.216	95.56
268.448	90.56
268.681	88.56
268.913	90.56
269.145	90.56
269.377	78.56
269.609	85.56
269.841	83.56
270.073	87.56
270.306	91.56
270.538	84.56
270.77	82.56
271.002	75.56
271.234	75.56
271.466	87.56
271.698	65.56
271.93	72.56
272.162	78.56
272.394	89.56
272.626	87.56
272.858	95.56
273.09	87.56
273.322	88.56
273.553	85.56
273.785	88.56
274.017	75.56
274.249	72.56
274.481	70.56
274.713	87.56
274.945	82.56
275.176	83.56
275.408	94.56
275.64	84.56
275.872	95.56
276.104	77.56
276.335	88.56
276.567	97.56
276.799	96.56
277.031	96.56
277.262	85.56
277.494	84.56
277.726	86.56
277.957	84.56
278.189	77.56
278.421	101.56
278.652	91.56
278.884	103.56
279.115	98.56
279.347	86.56
279.579	77.56
279.81	74.56
280.042	93.56
280.273	97.56
280.505	97.56
280.736	87.56
280.968	87.56
281.199	80.56
281.431	93.56
281.662	81.56
281.894	89.56
282.125	99.56
282.356	119.56
282.588	125.56
282.819	115.56
283.051	95.56
283.282	86.56
283.513	74.56
283.745	90.56
283.976	89.56
284.207	78.56
284.439	79.56
284.67	78.56
284.901	101.56
285.132	84.56
285.364	89.56
285.595	75.56
285.826	95.56
286.057	86.56
286.288	77.56
286.52	87.56
286.751	87.56
286.982	85.56
287.213	83.56
287.444	100.56
287.675	105.56
287.906	91.56
288.138	82.56
288.369	92.56
288.6	94.56
288.831	89.56
289.062	88.56
289.293	100.56
289.524	90.56
289.755	90.56
289.986	80.56
290.217	81.56
290.448	97.56
290.679	85.56
290.91	79.56
291.141	77.56
291.371	92.56
291.602	84.56
291.833	83.56
292.064	84.56
292.295	87.56
292.526	80.56
292.757	88.56
292.987	97.56
293.218	87.56
293.449	93.56
293.68	79.56
293.91	86.56
294.141	85.56
294.372	89.56
294.603	88.56
294.833	90.56
295.064	76.56
295.295	83.56
295.525	97.56
295.756	100.56
295.987	107.56
296.217	136.56
296.448	125.56
296.679	88.56
296.909	94.56
297.14	85.56
297.37	85.56
297.601	81.56
297.831	88.56
298.062	92.56
298.292	77.56
298.523	88.56
298.753	90.56
298.984	93.56
299.214	87.56
299.445	103.56
299.675	99.56
299.905	84.56
300.136	88.56
300.366	81.56
300.597	105.56
300.827	101.56
301.057	102.56
301.288	106.56
301.518	88.56
301.748	85.56
301.979	101.56
302.209	81.56
302.439	83.56
302.669	69.56
302.9	95.56
303.13	93.56
303.36	91.56
303.59	104.56
303.82	87.56
304.051	81.56
304.281	86.56
304.511	81.56
304.741	91.56
304.971	75.56
305.201	96.56
305.431	107.56
305.661	83.56
305.891	89.56
306.121	84.56
306.352	85.56
306.582	101.56
306.812	84.56
307.042	103.56
307.272	98.56
307.502	93.56
307.731	96.56
307.961	91.56
308.191	95.56
308.421	86.56
308.651	102.56
308.881	83.56
309.111	97.56
309.341	110.56
309.571	94.56
309.8	91.56
310.03	102.56
310.26	104.56
310.49	93.56
310.72	85.56
310.949	87.56
311.179	106.56
311.409	97.56
311.639	92.56
311.868	74.56
312.098	89.56
312.328	93.56
312.557	104.56
312.787	99.56
313.017	98.56
313.246	93.56
313.476	96.56
313.706	96.56
313.935	93.56
314.165	91.56
314.394	107.56
314.624	95.56
314.853	97.56
315.083	103.56
315.312	93.56
315.542	88.56
315.771	99.56
316.001	81.56
316.23	95.56
316.46	88.56
316.689	94.56
316.919	75.56
317.148	93.56
317.377	93.56
317.607	78.56
317.836	85.56
318.065	88.56
318.295	84.56
318.524	90.56
318.753	87.56
318.983	102.56
319.212	96.56
319.441	118.56
319.67	105.56
319.9	74.56
320.129	94.56
320.358	77.56
320.587	90.56
320.816	97.56
321.046	85.56
321.275	90.56
321.504	94.56
321.733	93.56
321.962	93.56
322.191	97.56
322.42	114.56
322.649	103.56
322.878	98.56
323.108	134.56
323.337	117.56
323.566	142.56
323.795	157.56
324.024	205.56
324.253	380.56
324.482	842.56
324.71	1778.56
324.939	2325.56
325.168	847.56
325.397	237.56
325.626	143.56
325.855	126.56
326.084	114.56
326.313	123.56
326.542	144.56
326.77	233.56
326.999	451.56
327.228	965.56
327.457	1781.56
327.686	1407.56
327.914	378.56
328.143	201.56
328.372	171.56
328.6	134.56
328.829	113.56
329.058	113.56
329.287	121.56
329.515	121.56
329.744	97.56
329.972	110.56
330.201	147.56
330.43	152.56
330.658	149.56
330.887	139.56
331.115	125.56
331.344	96.56
331.572	97.56
331.801	94.56
332.03	90.56
332.258	98.56
332.486	93.56
332.715	88.56
332.943	98.56
333.172	102.56
333.4	97.56
333.629	107.56
333.857	122.56
334.085	114.56
334.314	146.56
334.542	183.56
334.771	197.56
334.999	113.56
335.227	101.56
335.455	100.56
335.684	97.56
335.912	102.56
336.14	91.56
336.369	96.56
336.597	96.56
336.825	110.56
337.053	99.56
337.281	90.56
337.51	83.56
337.738	101.56
337.966	101.56
338.194	93.56
338.422	96.56
338.65	102.56
338.878	95.56
339.106	87.56
339.334	92.56
339.562	78.56
339.79	82.56
340.018	105.56
340.246	92.56
340.474	94.56
340.702	94.56
340.93	105.56
341.158	106.56
341.386	100.56
341.614	93.56
341.842	97.56
342.07	91.56
342.298	83.56
342.526	104.56
342.754	87.56
342.981	87.56
343.209	90.56
343.437	116.56
343.665	89.56
343.893	80.56
344.12	100.56
344.348	85.56
344.576	93.56
344.804	96.56
345.031	96.56
345.259	110.56
345.487	86.56
345.714	93.56
345.942	93.56
346.17	93.56
346.397	73.56
346.625	100.56
346.853	84.56
347.08	90.56
347.308	97.56
347.535	102.56
347.763	102.56
347.99	93.56
348.218	101.56
348.445	86.56
348.673	101.56
348.9	94.56
349.128	98.56
349.355	92.56
349.583	90.56
349.81	95.56
350.037	105.56
350.265	110.56
350.492	92.56
350.72	91.56
350.947	91.56
351.174	103.56
351.402	117.56
351.629	109.56
351.856	102.56
352.083	103.56
352.311	91.56
352.538	96.56
352.765	90.56
352.992	106.56
353.22	113.56
353.447	99.56
353.674	100.56
353.901	89.56
354.128	110.56
354.355	97.56
354.583	90.56
354.81	91.56
355.037	101.56
355.264	99.56
355.491	84.56
355.718	106.56
355.945	99.56
356.172	78.56
356.399	86.56
356.626	88.56
356.853	96.56
357.08	101.56
357.307	88.56
357.534	81.56
357.761	95.56
357.988	102.56
358.215	88.56
358.441	101.56
358.668	96.56
358.895	96.56
359.122	89.56
359.349	81.56
359.576	88.56
359.802	96.56
360.029	111.56
360.256	105.56
360.483	95.56
360.709	84.56
360.936	98.56
361.163	100.56
361.39	103.56
361.616	96.56
361.843	100.56
362.07	91.56
362.296	111.56
362.523	104.56
362.749	108.56
362.976	96.56
363.203	96.56
363.429	84.56
363.656	81.56
363.882	90.56
364.109	80.56
364.335	79.56
364.562	82.56
364.788	80.56
365.015	90.56
365.241	93.56
365.468	99.56
365.694	103.56
365.92	95.56
366.147	103.56
366.373	96.56
366.599	87.56
366.826	87.56
367.052	85.56
367.278	86.56
367.505	95.56
367.731	95.56
367.957	86.56
368.184	95.56
368.41	66.56
368.636	112.56
368.862	107.56
369.089	106.56
369.315	94.56
369.541	105.56
369.767	82.56
369.993	99.56
370.219	82.56
370.445	82.56
370.672	94.56
370.898	88.56
371.124	90.56
371.35	87.56
371.576	88.56
371.802	86.56
372.028	83.56
372.254	90.56
372.48	98.56
372.706	82.56
372.932	83.56
373.158	87.56
373.384	86.56
373.61	93.56
373.835	82.56
374.061	89.56
374.287	97.56
374.513	81.56
374.739	94.56
374.965	82.56
375.191	93.56
375.416	97.56
375.642	83.56
375.868	73.56
376.094	101.56
376.319	77.56
376.545	85.56
376.771	83.56
376.997	85.56
377.222	90.56
377.448	98.56
377.674	77.56
377.899	89.56
378.125	83.56
378.35	81.56
378.576	84.56
378.802	86.56
379.027	97.56
379.253	85.56
379.478	95.56
379.704	89.56
379.929	97.56
380.155	89.56
380.38	95.56
380.606	89.56
380.831	99.56
381.057	109.56
381.282	92.56
381.507	97.56
381.733	87.56
381.958	87.56
382.184	87.56
382.409	89.56
382.634	99.56
382.86	89.56
383.085	102.56
383.31	93.56
383.535	106.56
383.761	96.56
383.986	97.56
384.211	94.56
384.436	75.56
384.662	96.56
384.887	89.56
385.112	101.56
385.337	94.56
385.562	100.56
385.787	103.56
386.013	113.56
386.238	92.56
386.463	102.56
386.688	102.56
386.913	97.56
387.138	97.56
387.363	94.56
387.588	93.56
387.813	89.56
388.038	103.56
388.263	93.56
388.488	86.56
388.713	102.56
388.938	106.56
389.163	96.56
389.387	94.56
389.612	87.56
389.837	84.56
390.062	93.56
390.287	105.56
390.512	80.56
390.736	97.56
390.961	93.56
391.186	103.56
391.411	97.56
391.636	95.56
391.86	93.56
392.085	77.56
392.31	85.56
392.534	80.56
392.759	90.56
392.984	89.56
393.208	85.56
393.433	84.56
393.658	83.56
393.882	85.56
394.107	88.56
394.331	93.56
394.556	90.56
394.78	85.56
395.005	83.56
395.229	87.56
395.454	78.56
395.678	78.56
395.903	95.56
396.127	85.56
396.352	68.56
396.576	78.56
396.801	83.56
397.025	84.56
397.249	86.56
397.474	84.56
397.698	88.56
397.922	83.56
398.147	80.56
398.371	73.56
398.595	89.56
398.82	81.56
399.044	91.56
399.268	84.56
399.492	95.56
399.717	82.56
399.941	81.56
400.165	88.56
400.389	85.56
400.613	79.56
400.837	96.56
401.062	88.56
401.286	75.56
401.51	98.56
401.734	79.56
401.958	87.56
402.182	114.56
402.406	143.56
402.63	115.56
402.854	99.56
403.078	89.56
403.302	90.56
403.526	93.56
403.75	86.56
403.974	84.56
404.198	91.56
404.422	82.56
404.645	88.56
404.869	105.56
405.093	85.56
405.317	97.56
405.541	90.56
405.765	109.56
405.988	102.56
406.212	174.56
406.436	219.56
406.66	141.56
406.883	114.56
407.107	88.56
407.331	96.56
407.555	99.56
407.778	94.56
408.002	72.56
408.226	89.56
408.449	89.56
408.673	90.56
408.896	86.56
409.12	93.56
409.344	92.56
409.567	87.56
409.791	101.56
410.014	80.56
410.238	95.56
410.461	89.56
410.685	103.56
410.908	112.56
411.132	107.56
411.355	98.56
411.578	85.56
411.802	86.56
412.025	106.56
412.249	69.56
412.472	84.56
412.695	89.56
412.919	81.56
413.142	80.56
413.365	82.56
413.589	88.56
413.812	91.56
414.035	92.56
414.258	91.56
414.482	94.56
414.705	97.56
414.928	82.56
415.151	87.56
415.374	99.56
415.597	81.56
415.821	90.56
416.044	88.56
416.267	83.56
416.49	85.56
416.713	85.56
416.936	89.56
417.159	91.56
417.382	89.56
417.605	77.56
417.828	88.56
418.051	82.56
418.274	89.56
418.497	74.56
418.72	82.56
418.943	94.56
419.166	91.56
419.389	97.56
419.611	92.56
419.834	85.56
420.057	81.56
420.28	99.56
420.503	99.56
420.726	85.56
420.948	93.56
421.171	96.56
421.394	98.56
421.617	98.56
421.839	98.56
422.062	84.56
422.285	98.56
422.507	87.56
422.73	89.56
422.953	98.56
423.175	81.56
423.398	90.56
423.621	86.56
423.843	73.56
424.066	81.56
424.288	77.56
424.511	88.56
424.733	88.56
424.956	117.56
425.178	101.56
425.401	100.56
425.623	96.56
425.846	103.56
426.068	71.56
426.291	66.56
426.513	72.56
426.735	88.56
426.958	84.56
427.18	113.56
427.402	109.56
427.625	158.56
427.847	135.56
428.069	108.56
428.292	86.56
428.514	84.56
428.736	84.56
428.958	91.56
429.181	84.56
429.403	80.56
429.625	71.56
429.847	97.56
430.069	97.56
430.292	97.56
430.514	72.56
430.736	77.56
430.958	82.56
431.18	83.56
431.402	94.56
431.624	86.56
431.846	98.56
432.068	78.56
432.29	84.56
432.512	89.56
432.734	83.56
432.956	85.56
433.178	85.56
433.4	100.56
433.622	90.56
433.844	96.56
434.066	83.56
434.287	82.56
434.509	84.56
434.731	96.56
434.953	72.56
435.175	91.56
435.397	83.56
435.618	85.56
435.84	98.56
436.062	118.56
436.284	106.56
436.505	100.56
436.727	110.56
436.949	93.56
437.17	90.56
437.392	88.56
437.614	72.56
437.835	98.56
438.057	102.56
438.278	113.56
438.5	100.56
438.721	122.56
438.943	89.56
439.165	68.56
439.386	87.56
439.608	91.56
439.829	83.56
440.05	108.56
440.272	129.56
440.493	85.56
440.715	88.56
440.936	85.56
441.158	93.56
441.379	69.56
441.6	90.56
441.822	87.56
442.043	89.56
442.264	100.56
442.486	97.56
442.707	87.56
442.928	104.56
443.149	113.56
443.371	132.56
443.592	115.56
443.813	113.56
444.034	95.56
444.255	90.56
444.476	79.56
444.698	82.56
444.919	95.56
445.14	122.56
445.361	130.56
445.582	111.56
445.803	136.56
446.024	138.56
446.245	131.56
446.466	106.56
446.687	93.56
446.908	93.56
447.129	83.56
447.35	89.56
447.571	87.56
447.792	86.56
448.013	96.56
448.234	109.56
448.455	102.56
448.675	100.56
448.896	104.56
449.117	102.56
449.338	85.56
449.559	120.56
449.779	128.56
450	84.56
450.221	85.56
450.442	94.56
450.662	86.56
450.883	111.56
451.104	101.56
451.324	89.56
451.545	90.56
451.766	75.56
451.986	87.56
452.207	90.56
452.428	77.56
452.648	93.56
452.869	111.56
453.089	112.56
453.31	122.56
453.53	102.56
453.751	90.56
453.971	93.56
454.192	115.56
454.412	98.56
454.633	84.56
454.853	83.56
455.073	83.56
455.294	95.56
455.514	97.56
455.734	86.56
455.955	82.56
456.175	87.56
456.395	94.56
456.616	72.56
456.836	81.56
457.056	71.56
457.276	89.56
457.497	82.56
457.717	87.56
457.937	83.56
458.157	74.56
458.377	95.56
458.598	78.56
458.818	152.56
459.038	160.56
459.258	107.56
459.478	91.56
459.698	81.56
459.918	80.56
460.138	78.56
460.358	82.56
460.578	75.56
460.798	97.56
461.018	98.56
461.238	88.56
461.458	82.56
461.678	87.56
461.898	85.56
462.118	100.56
462.338	79.56
462.558	87.56
462.777	75.56
462.997	96.56
463.217	89.56
463.437	84.56
463.657	96.56
463.876	85.56
464.096	87.56
464.316	97.56
464.536	83.56
464.755	94.56
464.975	106.56
465.195	161.56
465.414	147.56
465.634	92.56
465.854	81.56
466.073	88.56
466.293	102.56
466.512	79.56
466.732	68.56
466.951	76.56
467.171	88.56
467.391	103.56
467.61	104.56
467.829	101.56
468.049	123.56
468.268	120.56
468.488	95.56
468.707	85.56
468.927	86.56
469.146	69.56
469.365	82.56
469.585	86.56
469.804	85.56
470.023	88.56
470.243	91.56
470.462	103.56
470.681	90.56
470.901	101.56
471.12	71.56
471.339	83.56
471.558	70.56
471.777	90.56
471.997	94.56
472.216	146.56
472.435	199.56
472.654	108.56
472.873	107.56
473.092	90.56
473.311	86.56
473.53	92.56
473.749	91.56
473.968	85.56
474.187	101.56
474.406	93.56
474.625	85.56
474.844	85.56
475.063	78.56
475.282	72.56
475.501	72.56
475.72	74.56
475.939	81.56
476.158	87.56
476.377	78.56
476.596	96.56
476.814	93.56
477.033	89.56
477.252	86.56
477.471	88.56
477.69	75.56
477.908	82.56
478.127	92.56
478.346	96.56
478.564	86.56
478.783	103.56
479.002	98.56
479.22	107.56
479.439	98.56
479.658	98.56
479.876	82.56
480.095	89.56
480.313	83.56
480.532	96.56
480.751	94.56
480.969	138.56
481.188	366.56
481.406	241.56
481.624	102.56
481.843	81.56
482.061	79.56
482.28	83.56
482.498	104.56
482.717	100.56
482.935	85.56
483.153	89.56
483.372	90.56
483.59	71.56
483.808	78.56
484.027	89.56
484.245	88.56
484.463	87.56
484.681	89.56
484.9	89.56
485.118	101.56
485.336	87.56
485.554	95.56
485.772	90.56
485.99	102.56
486.209	101.56
486.427	102.56
486.645	111.56
486.863	94.56
487.081	94.56
487.299	96.56
487.517	86.56
487.735	91.56
487.953	99.56
488.171	92.56
488.389	88.56
488.607	86.56
488.825	88.56
489.043	89.56
489.261	79.56
489.479	77.56
489.696	70.56
489.914	85.56
490.132	93.56
490.35	90.56
490.568	71.56
490.786	81.56
491.003	91.56
491.221	97.56
491.439	96.56
491.657	95.56
491.874	77.56
492.092	91.56
492.31	76.56
492.527	84.56
492.745	96.56
492.963	85.56
493.18	78.56
493.398	85.56
493.615	107.56
493.833	82.56
494.05	85.56
494.268	83.56
494.485	85.56
494.703	93.56
494.92	74.56
495.138	83.56
495.355	82.56
495.573	86.56
495.79	77.56
496.008	93.56
496.225	103.56
496.442	84.56
496.66	93.56
496.877	81.56
497.094	86.56
497.312	77.56
497.529	80.56
497.746	88.56
497.963	98.56
498.181	93.56
498.398	93.56
498.615	105.56
498.832	90.56
499.049	103.56
499.267	85.56
499.484	95.56
499.701	93.56
499.918	97.56
500.135	90.56
500.352	85.56
500.569	92.56
500.786	87.56
501.003	99.56
501.22	94.56
501.437	106.56
501.654	94.56
501.871	102.56
502.088	90.56
502.305	80.56
502.522	100.56
502.739	89.56
502.956	75.56
503.172	99.56
503.389	87.56
503.606	106.56
503.823	86.56
504.04	98.56
504.256	103.56
504.473	86.56
504.69	69.56
504.907	81.56
505.123	91.56
505.34	87.56
505.557	94.56
505.773	85.56
505.99	88.56
506.207	87.56
506.423	85.56
506.64	90.56
506.856	86.56
507.073	83.56
507.289	87.56
507.506	89.56
507.722	119.56
507.939	106.56
508.155	97.56
508.372	97.56
508.588	97.56
508.805	90.56
509.021	89.56
509.238	100.56
509.454	99.56
509.67	101.56
509.887	109.56
510.103	130.56
510.319	216.56
510.536	788.56
510.752	2420.56
510.968	678.56
511.184	145.56
511.401	106.56
511.617	107.56
511.833	109.56
512.049	91.56
512.265	85.56
512.481	87.56
512.698	86.56
512.914	90.56
513.13	89.56
513.346	81.56
513.562	80.56
513.778	101.56
513.994	109.56
514.21	107.56
514.426	115.56
514.642	141.56
514.858	127.56
515.074	158.56
515.29	461.56
515.506	1448.56
515.721	520.56
515.937	153.56
516.153	120.56
