Data from Uncirc_1985_H10_HRD10591_00049.txt Node
Date: Wed Jan 03 12:18:27 EST 2024
User: Yrep
Spectrometer: HR+D1059
Trigger mode: 1
Integration Time (sec): 1.000000E-1
Scans to average: 1
Electric dark correction enabled: true
Nonlinearity correction enabled: false
Boxcar width: 0
XAxis mode: Wavelengths
Number of Pixels in Spectrum: 2048
>>>>>Begin Spectral Data<<<<<
223.165	-12.19
223.4	-12.19
223.635	-12.19
223.869	-8.19
224.104	-18.19
224.338	-24.19
224.573	-3.19
224.808	-12.19
225.042	0.81
225.277	-7.19
225.511	-7.19
225.746	15.81
225.98	-2.19
226.215	3.81
226.449	9.81
226.683	25.81
226.918	20.81
227.152	17.81
227.387	38.81
227.621	35.81
227.856	48.81
228.09	53.81
228.324	66.81
228.559	44.81
228.793	50.81
229.027	71.81
229.262	59.81
229.496	67.81
229.73	82.81
229.964	88.81
230.199	83.81
230.433	68.81
230.667	70.81
230.901	87.81
231.136	78.81
231.37	89.81
231.604	89.81
231.838	72.81
232.072	83.81
232.306	88.81
232.541	67.81
232.775	90.81
233.009	84.81
233.243	79.81
233.477	74.81
233.711	66.81
233.945	86.81
234.179	84.81
234.413	79.81
234.647	75.81
234.881	84.81
235.115	81.81
235.349	81.81
235.583	77.81
235.817	89.81
236.051	86.81
236.285	78.81
236.519	85.81
236.753	76.81
236.987	70.81
237.221	83.81
237.455	87.81
237.689	81.81
237.922	72.81
238.156	73.81
238.39	81.81
238.624	64.81
238.858	87.81
239.091	71.81
239.325	76.81
239.559	74.81
239.793	79.81
240.027	74.81
240.26	75.81
240.494	68.81
240.728	81.81
240.961	71.81
241.195	87.81
241.429	76.81
241.662	86.81
241.896	80.81
242.13	72.81
242.363	74.81
242.597	75.81
242.83	83.81
243.064	84.81
243.298	72.81
243.531	82.81
243.765	81.81
243.998	76.81
244.232	81.81
244.465	83.81
244.699	88.81
244.932	82.81
245.166	67.81
245.399	75.81
245.633	89.81
245.866	95.81
246.099	88.81
246.333	87.81
246.566	72.81
246.8	86.81
247.033	82.81
247.266	76.81
247.5	77.81
247.733	73.81
247.966	74.81
248.2	83.81
248.433	87.81
248.666	73.81
248.899	72.81
249.133	89.81
249.366	95.81
249.599	103.81
249.832	87.81
250.066	92.81
250.299	70.81
250.532	80.81
250.765	80.81
250.998	88.81
251.231	96.81
251.465	84.81
251.698	72.81
251.931	75.81
252.164	73.81
252.397	76.81
252.63	79.81
252.863	74.81
253.096	75.81
253.329	83.81
253.562	84.81
253.795	80.81
254.028	73.81
254.261	83.81
254.494	75.81
254.727	79.81
254.96	82.81
255.193	71.81
255.426	91.81
255.659	84.81
255.892	82.81
256.124	80.81
256.357	88.81
256.59	82.81
256.823	100.81
257.056	71.81
257.289	72.81
257.521	71.81
257.754	76.81
257.987	76.81
258.22	96.81
258.452	87.81
258.685	82.81
258.918	85.81
259.151	81.81
259.383	77.81
259.616	89.81
259.849	85.81
260.081	72.81
260.314	76.81
260.547	78.81
260.779	69.81
261.012	75.81
261.244	89.81
261.477	91.81
261.71	85.81
261.942	110.81
262.175	117.81
262.407	89.81
262.64	84.81
262.872	75.81
263.105	87.81
263.337	89.81
263.57	81.81
263.802	84.81
264.035	96.81
264.267	81.81
264.499	73.81
264.732	85.81
264.964	73.81
265.197	81.81
265.429	85.81
265.661	88.81
265.894	89.81
266.126	93.81
266.358	84.81
266.591	71.81
266.823	85.81
267.055	95.81
267.287	87.81
267.52	73.81
267.752	85.81
267.984	95.81
268.216	86.81
268.448	75.81
268.681	64.81
268.913	89.81
269.145	81.81
269.377	91.81
269.609	82.81
269.841	87.81
270.073	102.81
270.306	88.81
270.538	71.81
270.77	81.81
271.002	88.81
271.234	77.81
271.466	94.81
271.698	88.81
271.93	80.81
272.162	87.81
272.394	87.81
272.626	89.81
272.858	81.81
273.09	89.81
273.322	90.81
273.553	75.81
273.785	89.81
274.017	87.81
274.249	86.81
274.481	77.81
274.713	83.81
274.945	82.81
275.176	89.81
275.408	83.81
275.64	87.81
275.872	92.81
276.104	85.81
276.335	86.81
276.567	92.81
276.799	108.81
277.031	98.81
277.262	95.81
277.494	83.81
277.726	89.81
277.957	86.81
278.189	82.81
278.421	89.81
278.652	85.81
278.884	81.81
279.115	85.81
279.347	88.81
279.579	90.81
279.81	84.81
280.042	84.81
280.273	80.81
280.505	89.81
280.736	88.81
280.968	83.81
281.199	87.81
281.431	89.81
281.662	91.81
281.894	88.81
282.125	99.81
282.356	104.81
282.588	122.81
282.819	108.81
283.051	77.81
283.282	63.81
283.513	77.81
283.745	94.81
283.976	85.81
284.207	92.81
284.439	89.81
284.67	111.81
284.901	93.81
285.132	88.81
285.364	83.81
285.595	91.81
285.826	86.81
286.057	106.81
286.288	71.81
286.52	77.81
286.751	85.81
286.982	79.81
287.213	88.81
287.444	76.81
287.675	82.81
287.906	80.81
288.138	86.81
288.369	83.81
288.6	92.81
288.831	80.81
289.062	77.81
289.293	87.81
289.524	69.81
289.755	89.81
289.986	83.81
290.217	103.81
290.448	81.81
290.679	83.81
290.91	88.81
291.141	83.81
291.371	81.81
291.602	88.81
291.833	89.81
292.064	80.81
292.295	78.81
292.526	91.81
292.757	92.81
292.987	86.81
293.218	103.81
293.449	71.81
293.68	81.81
293.91	88.81
294.141	100.81
294.372	95.81
294.603	85.81
294.833	89.81
295.064	83.81
295.295	74.81
295.525	88.81
295.756	93.81
295.987	101.81
296.217	137.81
296.448	128.81
296.679	101.81
296.909	89.81
297.14	89.81
297.37	96.81
297.601	84.81
297.831	82.81
298.062	84.81
298.292	91.81
298.523	81.81
298.753	90.81
298.984	89.81
299.214	89.81
299.445	83.81
299.675	91.81
299.905	108.81
300.136	83.81
300.366	86.81
300.597	88.81
300.827	85.81
301.057	101.81
301.288	103.81
301.518	83.81
301.748	79.81
301.979	92.81
302.209	73.81
302.439	82.81
302.669	99.81
302.9	93.81
303.13	103.81
303.36	83.81
303.59	90.81
303.82	97.81
304.051	94.81
304.281	94.81
304.511	76.81
304.741	99.81
304.971	90.81
305.201	102.81
305.431	96.81
305.661	81.81
305.891	97.81
306.121	96.81
306.352	99.81
306.582	103.81
306.812	104.81
307.042	96.81
307.272	97.81
307.502	88.81
307.731	84.81
307.961	96.81
308.191	90.81
308.421	76.81
308.651	88.81
308.881	103.81
309.111	102.81
309.341	89.81
309.571	100.81
309.8	93.81
310.03	90.81
310.26	99.81
310.49	88.81
310.72	91.81
310.949	105.81
311.179	97.81
311.409	89.81
311.639	95.81
311.868	100.81
312.098	87.81
312.328	107.81
312.557	113.81
312.787	120.81
313.017	102.81
313.246	88.81
313.476	99.81
313.706	89.81
313.935	98.81
314.165	93.81
314.394	91.81
314.624	103.81
314.853	92.81
315.083	100.81
315.312	83.81
315.542	91.81
315.771	95.81
316.001	85.81
316.23	83.81
316.46	92.81
316.689	81.81
316.919	79.81
317.148	99.81
317.377	96.81
317.607	96.81
317.836	103.81
318.065	94.81
318.295	96.81
318.524	112.81
318.753	103.81
318.983	99.81
319.212	101.81
319.441	103.81
319.67	131.81
319.9	97.81
320.129	83.81
320.358	93.81
320.587	93.81
320.816	97.81
321.046	89.81
321.275	94.81
321.504	82.81
321.733	97.81
321.962	97.81
322.191	92.81
322.42	106.81
322.649	96.81
322.878	100.81
323.108	112.81
323.337	105.81
323.566	134.81
323.795	117.81
324.024	189.81
324.253	353.81
324.482	770.81
324.71	1536.81
324.939	2051.81
325.168	735.81
325.397	233.81
325.626	131.81
325.855	115.81
326.084	120.81
326.313	126.81
326.542	138.81
326.77	212.81
326.999	416.81
327.228	860.81
327.457	1560.81
327.686	1243.81
327.914	335.81
328.143	175.81
328.372	140.81
328.6	124.81
328.829	116.81
329.058	123.81
329.287	116.81
329.515	105.81
329.744	111.81
329.972	119.81
330.201	123.81
330.43	125.81
330.658	113.81
330.887	130.81
331.115	129.81
331.344	101.81
331.572	100.81
331.801	99.81
332.03	105.81
332.258	113.81
332.486	85.81
332.715	104.81
332.943	98.81
333.172	101.81
333.4	91.81
333.629	97.81
333.857	119.81
334.085	116.81
334.314	114.81
334.542	131.81
334.771	119.81
334.999	115.81
335.227	96.81
335.455	93.81
335.684	104.81
335.912	104.81
336.14	95.81
336.369	93.81
336.597	99.81
336.825	107.81
337.053	101.81
337.281	94.81
337.51	89.81
337.738	92.81
337.966	86.81
338.194	95.81
338.422	88.81
338.65	91.81
338.878	89.81
339.106	87.81
339.334	85.81
339.562	101.81
339.79	76.81
340.018	92.81
340.246	90.81
340.474	74.81
340.702	101.81
340.93	97.81
341.158	95.81
341.386	100.81
341.614	116.81
341.842	92.81
342.07	76.81
342.298	83.81
342.526	92.81
342.754	92.81
342.981	89.81
343.209	83.81
343.437	95.81
343.665	89.81
343.893	101.81
344.12	94.81
344.348	89.81
344.576	93.81
344.804	87.81
345.031	93.81
345.259	90.81
345.487	95.81
345.714	93.81
345.942	78.81
346.17	87.81
346.397	92.81
346.625	94.81
346.853	106.81
347.08	86.81
347.308	84.81
347.535	96.81
347.763	88.81
347.99	91.81
348.218	104.81
348.445	95.81
348.673	95.81
348.9	101.81
349.128	105.81
349.355	99.81
349.583	81.81
349.81	98.81
350.037	84.81
350.265	97.81
350.492	95.81
350.72	112.81
350.947	99.81
351.174	107.81
351.402	92.81
351.629	90.81
351.856	92.81
352.083	93.81
352.311	107.81
352.538	121.81
352.765	116.81
352.992	116.81
353.22	113.81
353.447	95.81
353.674	85.81
353.901	99.81
354.128	107.81
354.355	91.81
354.583	101.81
354.81	100.81
355.037	99.81
355.264	85.81
355.491	76.81
355.718	112.81
355.945	101.81
356.172	92.81
356.399	92.81
356.626	90.81
356.853	84.81
357.08	108.81
357.307	95.81
357.534	93.81
357.761	93.81
357.988	93.81
358.215	99.81
358.441	90.81
358.668	88.81
358.895	93.81
359.122	76.81
359.349	102.81
359.576	93.81
359.802	103.81
360.029	98.81
360.256	105.81
360.483	100.81
360.709	88.81
360.936	86.81
361.163	101.81
361.39	90.81
361.616	86.81
361.843	88.81
362.07	85.81
362.296	91.81
362.523	89.81
362.749	91.81
362.976	96.81
363.203	88.81
363.429	73.81
363.656	92.81
363.882	98.81
364.109	79.81
364.335	98.81
364.562	92.81
364.788	99.81
365.015	91.81
365.241	106.81
365.468	103.81
365.694	100.81
365.92	83.81
366.147	85.81
366.373	94.81
366.599	91.81
366.826	99.81
367.052	112.81
367.278	101.81
367.505	91.81
367.731	95.81
367.957	69.81
368.184	96.81
368.41	115.81
368.636	107.81
368.862	135.81
369.089	105.81
369.315	95.81
369.541	100.81
369.767	97.81
369.993	96.81
370.219	96.81
370.445	93.81
370.672	91.81
370.898	86.81
371.124	100.81
371.35	97.81
371.576	96.81
371.802	91.81
372.028	81.81
372.254	86.81
372.48	86.81
372.706	75.81
372.932	83.81
373.158	94.81
373.384	100.81
373.61	91.81
373.835	87.81
374.061	89.81
374.287	89.81
374.513	94.81
374.739	95.81
374.965	101.81
375.191	85.81
375.416	85.81
375.642	91.81
375.868	81.81
376.094	81.81
376.319	87.81
376.545	97.81
376.771	80.81
376.997	85.81
377.222	92.81
377.448	91.81
377.674	98.81
377.899	97.81
378.125	87.81
378.35	97.81
378.576	96.81
378.802	93.81
379.027	104.81
379.253	83.81
379.478	83.81
379.704	94.81
379.929	82.81
380.155	87.81
380.38	90.81
380.606	94.81
380.831	103.81
381.057	91.81
381.282	108.81
381.507	93.81
381.733	90.81
381.958	95.81
382.184	95.81
382.409	100.81
382.634	98.81
382.86	108.81
383.085	113.81
383.31	115.81
383.535	103.81
383.761	106.81
383.986	116.81
384.211	87.81
384.436	107.81
384.662	92.81
384.887	97.81
385.112	114.81
385.337	103.81
385.562	95.81
385.787	98.81
386.013	107.81
386.238	97.81
386.463	104.81
386.688	107.81
386.913	101.81
387.138	98.81
387.363	92.81
387.588	117.81
387.813	103.81
388.038	99.81
388.263	103.81
388.488	82.81
388.713	98.81
388.938	81.81
389.163	89.81
389.387	85.81
389.612	79.81
389.837	83.81
390.062	94.81
390.287	99.81
390.512	100.81
390.736	91.81
390.961	91.81
391.186	96.81
391.411	104.81
391.636	77.81
391.86	99.81
392.085	99.81
392.31	85.81
392.534	97.81
392.759	87.81
392.984	85.81
393.208	82.81
393.433	102.81
393.658	91.81
393.882	88.81
394.107	82.81
394.331	99.81
394.556	93.81
394.78	90.81
395.005	106.81
395.229	82.81
395.454	79.81
395.678	87.81
395.903	88.81
396.127	88.81
396.352	79.81
396.576	86.81
396.801	91.81
397.025	91.81
397.249	92.81
397.474	104.81
397.698	83.81
397.922	85.81
398.147	87.81
398.371	92.81
398.595	85.81
398.82	95.81
399.044	108.81
399.268	88.81
399.492	93.81
399.717	94.81
399.941	72.81
400.165	82.81
400.389	88.81
400.613	104.81
400.837	87.81
401.062	96.81
401.286	89.81
401.51	82.81
401.734	94.81
401.958	95.81
402.182	109.81
402.406	139.81
402.63	115.81
402.854	83.81
403.078	85.81
403.302	101.81
403.526	89.81
403.75	95.81
403.974	84.81
404.198	89.81
404.422	91.81
404.645	97.81
404.869	91.81
405.093	101.81
405.317	92.81
405.541	105.81
405.765	101.81
405.988	116.81
406.212	161.81
406.436	203.81
406.66	111.81
406.883	105.81
407.107	96.81
407.331	101.81
407.555	65.81
407.778	92.81
408.002	96.81
408.226	90.81
408.449	95.81
408.673	93.81
408.896	97.81
409.12	94.81
409.344	81.81
409.567	101.81
409.791	97.81
410.014	88.81
410.238	97.81
410.461	92.81
410.685	98.81
410.908	99.81
411.132	103.81
411.355	100.81
411.578	83.81
411.802	108.81
412.025	97.81
412.249	87.81
412.472	101.81
412.695	95.81
412.919	96.81
413.142	88.81
413.365	85.81
413.589	97.81
413.812	99.81
414.035	90.81
414.258	82.81
414.482	90.81
414.705	91.81
414.928	106.81
415.151	90.81
415.374	99.81
415.597	79.81
415.821	94.81
416.044	88.81
416.267	101.81
416.49	107.81
416.713	84.81
416.936	93.81
417.159	86.81
417.382	83.81
417.605	94.81
417.828	101.81
418.051	96.81
418.274	77.81
418.497	95.81
418.72	100.81
418.943	92.81
419.166	87.81
419.389	95.81
419.611	92.81
419.834	109.81
420.057	101.81
420.28	92.81
420.503	99.81
420.726	100.81
420.948	91.81
421.171	97.81
421.394	87.81
421.617	86.81
421.839	97.81
422.062	96.81
422.285	103.81
422.507	103.81
422.73	115.81
422.953	103.81
423.175	99.81
423.398	97.81
423.621	81.81
423.843	87.81
424.066	74.81
424.288	81.81
424.511	82.81
424.733	93.81
424.956	99.81
425.178	93.81
425.401	101.81
425.623	103.81
425.846	84.81
426.068	86.81
426.291	83.81
426.513	95.81
426.735	92.81
426.958	92.81
427.18	105.81
427.402	134.81
427.625	147.81
427.847	130.81
428.069	118.81
428.292	101.81
428.514	92.81
428.736	95.81
428.958	90.81
429.181	79.81
429.403	82.81
429.625	101.81
429.847	80.81
430.069	99.81
430.292	89.81
430.514	88.81
430.736	100.81
430.958	87.81
431.18	89.81
431.402	95.81
431.624	96.81
431.846	96.81
432.068	89.81
432.29	94.81
432.512	81.81
432.734	88.81
432.956	98.81
433.178	101.81
433.4	98.81
433.622	98.81
433.844	102.81
434.066	80.81
434.287	94.81
434.509	79.81
434.731	65.81
434.953	103.81
435.175	97.81
435.397	96.81
435.618	93.81
435.84	106.81
436.062	116.81
436.284	109.81
436.505	100.81
436.727	107.81
436.949	92.81
437.17	99.81
437.392	91.81
437.614	103.81
437.835	87.81
438.057	103.81
438.278	104.81
438.5	103.81
438.721	99.81
438.943	103.81
439.165	99.81
439.386	93.81
439.608	108.81
439.829	99.81
440.05	124.81
440.272	140.81
440.493	98.81
440.715	84.81
440.936	82.81
441.158	92.81
441.379	89.81
441.6	94.81
441.822	103.81
442.043	88.81
442.264	106.81
442.486	101.81
442.707	79.81
442.928	107.81
443.149	114.81
443.371	108.81
443.592	99.81
443.813	107.81
444.034	99.81
444.255	97.81
444.476	81.81
444.698	86.81
444.919	101.81
445.14	141.81
445.361	119.81
445.582	119.81
445.803	134.81
446.024	139.81
446.245	119.81
446.466	104.81
446.687	93.81
446.908	85.81
447.129	87.81
447.35	98.81
447.571	84.81
447.792	96.81
448.013	99.81
448.234	116.81
448.455	112.81
448.675	96.81
448.896	112.81
449.117	83.81
449.338	104.81
449.559	131.81
449.779	118.81
450	106.81
450.221	76.81
450.442	97.81
450.662	99.81
450.883	101.81
451.104	96.81
451.324	95.81
451.545	112.81
451.766	102.81
451.986	89.81
452.207	76.81
452.428	96.81
452.648	100.81
452.869	106.81
453.089	111.81
453.31	105.81
453.53	97.81
453.751	95.81
453.971	99.81
454.192	108.81
454.412	95.81
454.633	69.81
454.853	83.81
455.073	67.81
455.294	95.81
455.514	100.81
455.734	94.81
455.955	88.81
456.175	81.81
456.395	79.81
456.616	91.81
456.836	83.81
457.056	104.81
457.276	81.81
457.497	77.81
457.717	89.81
457.937	82.81
458.157	77.81
458.377	85.81
458.598	105.81
458.818	132.81
459.038	148.81
459.258	121.81
459.478	97.81
459.698	89.81
459.918	86.81
460.138	81.81
460.358	93.81
460.578	95.81
460.798	98.81
461.018	103.81
461.238	97.81
461.458	95.81
461.678	90.81
461.898	96.81
462.118	87.81
462.338	104.81
462.558	100.81
462.777	92.81
462.997	79.81
463.217	90.81
463.437	82.81
463.657	90.81
463.876	88.81
464.096	80.81
464.316	84.81
464.536	91.81
464.755	81.81
464.975	99.81
465.195	145.81
465.414	134.81
465.634	100.81
465.854	95.81
466.073	91.81
466.293	88.81
466.512	89.81
466.732	79.81
466.951	100.81
467.171	83.81
467.391	95.81
467.61	104.81
467.829	91.81
468.049	85.81
468.268	100.81
468.488	83.81
468.707	77.81
468.927	96.81
469.146	93.81
469.365	98.81
469.585	93.81
469.804	98.81
470.023	88.81
470.243	100.81
470.462	83.81
470.681	91.81
470.901	99.81
471.12	88.81
471.339	102.81
471.558	90.81
471.777	100.81
471.997	90.81
472.216	100.81
472.435	151.81
472.654	87.81
472.873	89.81
473.092	96.81
473.311	82.81
473.53	83.81
473.749	91.81
473.968	100.81
474.187	95.81
474.406	106.81
474.625	79.81
474.844	91.81
475.063	89.81
475.282	95.81
475.501	91.81
475.72	84.81
475.939	92.81
476.158	96.81
476.377	99.81
476.596	107.81
476.814	95.81
477.033	104.81
477.252	88.81
477.471	87.81
477.69	85.81
477.908	100.81
478.127	97.81
478.346	90.81
478.564	99.81
478.783	95.81
479.002	83.81
479.22	99.81
479.439	98.81
479.658	107.81
479.876	91.81
480.095	88.81
480.313	91.81
480.532	100.81
480.751	106.81
480.969	119.81
481.188	198.81
481.406	149.81
481.624	92.81
481.843	82.81
482.061	80.81
482.28	88.81
482.498	83.81
482.717	99.81
482.935	92.81
483.153	81.81
483.372	104.81
483.59	81.81
483.808	91.81
484.027	83.81
484.245	98.81
484.463	82.81
484.681	96.81
484.9	90.81
485.118	99.81
485.336	89.81
485.554	83.81
485.772	100.81
485.99	111.81
486.209	95.81
486.427	117.81
486.645	110.81
486.863	118.81
487.081	95.81
487.299	95.81
487.517	103.81
487.735	87.81
487.953	92.81
488.171	102.81
488.389	86.81
488.607	103.81
488.825	112.81
489.043	86.81
489.261	86.81
489.479	92.81
489.696	93.81
489.914	84.81
490.132	87.81
490.35	83.81
490.568	93.81
490.786	98.81
491.003	102.81
491.221	89.81
491.439	91.81
491.657	83.81
491.874	90.81
492.092	100.81
492.31	97.81
492.527	102.81
492.745	95.81
492.963	83.81
493.18	83.81
493.398	88.81
493.615	81.81
493.833	95.81
494.05	97.81
494.268	109.81
494.485	91.81
494.703	90.81
494.92	103.81
495.138	90.81
495.355	89.81
495.573	93.81
495.79	85.81
496.008	82.81
496.225	96.81
496.442	90.81
496.66	99.81
496.877	92.81
497.094	81.81
497.312	89.81
497.529	80.81
497.746	89.81
497.963	94.81
498.181	108.81
498.398	90.81
498.615	102.81
498.832	98.81
499.049	96.81
499.267	88.81
499.484	85.81
499.701	96.81
499.918	89.81
500.135	83.81
500.352	85.81
500.569	96.81
500.786	83.81
501.003	93.81
501.22	88.81
501.437	90.81
501.654	107.81
501.871	114.81
502.088	96.81
502.305	90.81
502.522	94.81
502.739	83.81
502.956	80.81
503.172	77.81
503.389	97.81
503.606	98.81
503.823	96.81
504.04	81.81
504.256	87.81
504.473	81.81
504.69	91.81
504.907	97.81
505.123	87.81
505.34	89.81
505.557	100.81
505.773	93.81
505.99	87.81
506.207	89.81
506.423	81.81
506.64	84.81
506.856	93.81
507.073	87.81
507.289	101.81
507.506	107.81
507.722	109.81
507.939	113.81
508.155	89.81
508.372	89.81
508.588	90.81
508.805	95.81
509.021	108.81
509.238	107.81
509.454	109.81
509.67	104.81
509.887	115.81
510.103	143.81
510.319	202.81
510.536	724.81
510.752	2248.81
510.968	627.81
511.184	147.81
511.401	117.81
511.617	103.81
511.833	87.81
512.049	75.81
512.265	95.81
512.481	91.81
512.698	98.81
512.914	89.81
513.13	103.81
513.346	105.81
513.562	110.81
513.778	102.81
513.994	105.81
514.21	106.81
514.426	107.81
514.642	113.81
514.858	116.81
515.074	151.81
515.29	412.81
515.506	1349.81
