Data from Uncirc_1985_H10_HRD10591_00052.txt Node
Date: Wed Jan 03 12:18:27 EST 2024
User: Yrep
Spectrometer: HR+D1059
Trigger mode: 1
Integration Time (sec): 1.000000E-1
Scans to average: 1
Electric dark correction enabled: true
Nonlinearity correction enabled: false
Boxcar width: 0
XAxis mode: Wavelengths
Number of Pixels in Spectrum: 2048
>>>>>Begin Spectral Data<<<<<
223.165	-21.19
223.4	-21.19
223.635	-21.19
223.869	-20.19
224.104	-2.19
224.338	-27.19
224.573	-19.19
224.808	-21.19
225.042	-1.19
225.277	-4.19
225.511	-9.19
225.746	-1.19
225.98	11.81
226.215	14.81
226.449	8.81
226.683	25.81
226.918	26.81
227.152	38.81
227.387	31.81
227.621	42.81
227.856	42.81
228.09	49.81
228.324	57.81
228.559	65.81
228.793	53.81
229.027	67.81
229.262	52.81
229.496	67.81
229.73	85.81
229.964	69.81
230.199	77.81
230.433	77.81
230.667	79.81
230.901	80.81
231.136	85.81
231.37	86.81
231.604	79.81
231.838	67.81
232.072	74.81
232.306	87.81
232.541	69.81
232.775	84.81
233.009	81.81
233.243	79.81
233.477	94.81
233.711	61.81
233.945	86.81
234.179	91.81
234.413	82.81
234.647	82.81
234.881	78.81
235.115	78.81
235.349	89.81
235.583	79.81
235.817	80.81
236.051	77.81
236.285	73.81
236.519	89.81
236.753	85.81
236.987	86.81
237.221	82.81
237.455	85.81
237.689	83.81
237.922	88.81
238.156	83.81
238.39	65.81
238.624	70.81
238.858	83.81
239.091	77.81
239.325	72.81
239.559	81.81
239.793	81.81
240.027	95.81
240.26	67.81
240.494	78.81
240.728	71.81
240.961	85.81
241.195	90.81
241.429	75.81
241.662	79.81
241.896	82.81
242.13	65.81
242.363	81.81
242.597	85.81
242.83	70.81
243.064	87.81
243.298	82.81
243.531	87.81
243.765	78.81
243.998	88.81
244.232	75.81
244.465	78.81
244.699	88.81
244.932	79.81
245.166	81.81
245.399	88.81
245.633	81.81
245.866	97.81
246.099	81.81
246.333	79.81
246.566	86.81
246.8	93.81
247.033	86.81
247.266	86.81
247.5	82.81
247.733	92.81
247.966	83.81
248.2	65.81
248.433	73.81
248.666	85.81
248.899	97.81
249.133	86.81
249.366	102.81
249.599	97.81
249.832	91.81
250.066	97.81
250.299	86.81
250.532	76.81
250.765	77.81
250.998	87.81
251.231	84.81
251.465	82.81
251.698	74.81
251.931	83.81
252.164	83.81
252.397	80.81
252.63	90.81
252.863	81.81
253.096	84.81
253.329	79.81
253.562	75.81
253.795	75.81
254.028	92.81
254.261	92.81
254.494	73.81
254.727	85.81
254.96	89.81
255.193	88.81
255.426	90.81
255.659	82.81
255.892	82.81
256.124	90.81
256.357	86.81
256.59	79.81
256.823	85.81
257.056	82.81
257.289	95.81
257.521	83.81
257.754	91.81
257.987	94.81
258.22	89.81
258.452	100.81
258.685	93.81
258.918	77.81
259.151	84.81
259.383	83.81
259.616	75.81
259.849	93.81
260.081	79.81
260.314	86.81
260.547	96.81
260.779	81.81
261.012	76.81
261.244	83.81
261.477	84.81
261.71	78.81
261.942	100.81
262.175	114.81
262.407	98.81
262.64	89.81
262.872	91.81
263.105	99.81
263.337	79.81
263.57	82.81
263.802	92.81
264.035	79.81
264.267	97.81
264.499	88.81
264.732	75.81
264.964	85.81
265.197	81.81
265.429	95.81
265.661	88.81
265.894	82.81
266.126	88.81
266.358	74.81
266.591	77.81
266.823	78.81
267.055	88.81
267.287	86.81
267.52	85.81
267.752	75.81
267.984	106.81
268.216	79.81
268.448	84.81
268.681	93.81
268.913	83.81
269.145	82.81
269.377	100.81
269.609	78.81
269.841	97.81
270.073	91.81
270.306	100.81
270.538	94.81
270.77	80.81
271.002	83.81
271.234	78.81
271.466	81.81
271.698	88.81
271.93	88.81
272.162	83.81
272.394	72.81
272.626	93.81
272.858	89.81
273.09	92.81
273.322	88.81
273.553	69.81
273.785	78.81
274.017	82.81
274.249	75.81
274.481	94.81
274.713	84.81
274.945	79.81
275.176	85.81
275.408	73.81
275.64	94.81
275.872	89.81
276.104	102.81
276.335	88.81
276.567	96.81
276.799	94.81
277.031	97.81
277.262	86.81
277.494	91.81
277.726	94.81
277.957	76.81
278.189	83.81
278.421	86.81
278.652	91.81
278.884	79.81
279.115	97.81
279.347	82.81
279.579	97.81
279.81	84.81
280.042	97.81
280.273	87.81
280.505	91.81
280.736	82.81
280.968	89.81
281.199	91.81
281.431	93.81
281.662	96.81
281.894	81.81
282.125	104.81
282.356	99.81
282.588	130.81
282.819	115.81
283.051	88.81
283.282	100.81
283.513	93.81
283.745	87.81
283.976	91.81
284.207	91.81
284.439	87.81
284.67	86.81
284.901	89.81
285.132	91.81
285.364	92.81
285.595	100.81
285.826	78.81
286.057	106.81
286.288	98.81
286.52	94.81
286.751	106.81
286.982	95.81
287.213	99.81
287.444	106.81
287.675	77.81
287.906	83.81
288.138	96.81
288.369	86.81
288.6	93.81
288.831	93.81
289.062	90.81
289.293	84.81
289.524	85.81
289.755	93.81
289.986	86.81
290.217	89.81
290.448	97.81
290.679	81.81
290.91	85.81
291.141	84.81
291.371	105.81
291.602	95.81
291.833	99.81
292.064	95.81
292.295	93.81
292.526	99.81
292.757	86.81
292.987	94.81
293.218	94.81
293.449	83.81
293.68	85.81
293.91	101.81
294.141	89.81
294.372	82.81
294.603	90.81
294.833	88.81
295.064	105.81
295.295	92.81
295.525	97.81
295.756	109.81
295.987	107.81
296.217	129.81
296.448	118.81
296.679	86.81
296.909	83.81
297.14	102.81
297.37	83.81
297.601	97.81
297.831	90.81
298.062	94.81
298.292	93.81
298.523	92.81
298.753	100.81
298.984	93.81
299.214	91.81
299.445	90.81
299.675	77.81
299.905	77.81
300.136	92.81
300.366	91.81
300.597	99.81
300.827	100.81
301.057	103.81
301.288	112.81
301.518	99.81
301.748	88.81
301.979	105.81
302.209	86.81
302.439	96.81
302.669	86.81
302.9	87.81
303.13	93.81
303.36	87.81
303.59	111.81
303.82	112.81
304.051	110.81
304.281	81.81
304.511	98.81
304.741	102.81
304.971	87.81
305.201	100.81
305.431	82.81
305.661	88.81
305.891	90.81
306.121	105.81
306.352	106.81
306.582	109.81
306.812	89.81
307.042	98.81
307.272	108.81
307.502	92.81
307.731	87.81
307.961	87.81
308.191	103.81
308.421	111.81
308.651	110.81
308.881	99.81
309.111	96.81
309.341	103.81
309.571	99.81
309.8	78.81
310.03	92.81
310.26	99.81
310.49	104.81
310.72	103.81
310.949	102.81
311.179	104.81
311.409	99.81
311.639	92.81
311.868	90.81
312.098	90.81
312.328	98.81
312.557	107.81
312.787	98.81
313.017	93.81
313.246	112.81
313.476	91.81
313.706	101.81
313.935	93.81
314.165	110.81
314.394	104.81
314.624	101.81
314.853	85.81
315.083	103.81
315.312	97.81
315.542	102.81
315.771	94.81
316.001	90.81
316.23	88.81
316.46	99.81
316.689	87.81
316.919	72.81
317.148	105.81
317.377	89.81
317.607	102.81
317.836	94.81
318.065	81.81
318.295	102.81
318.524	85.81
318.753	99.81
318.983	112.81
319.212	101.81
319.441	96.81
319.67	105.81
319.9	92.81
320.129	110.81
320.358	98.81
320.587	100.81
320.816	91.81
321.046	108.81
321.275	95.81
321.504	112.81
321.733	90.81
321.962	86.81
322.191	85.81
322.42	115.81
322.649	102.81
322.878	121.81
323.108	101.81
323.337	129.81
323.566	122.81
323.795	140.81
324.024	208.81
324.253	349.81
324.482	729.81
324.71	1516.81
324.939	1963.81
325.168	721.81
325.397	226.81
325.626	153.81
325.855	116.81
326.084	118.81
326.313	125.81
326.542	145.81
326.77	211.81
326.999	417.81
327.228	853.81
327.457	1580.81
327.686	1247.81
327.914	355.81
328.143	190.81
328.372	142.81
328.6	147.81
328.829	115.81
329.058	119.81
329.287	128.81
329.515	115.81
329.744	110.81
329.972	105.81
330.201	125.81
330.43	131.81
330.658	133.81
330.887	134.81
331.115	114.81
331.344	113.81
331.572	111.81
331.801	102.81
332.03	124.81
332.258	100.81
332.486	92.81
332.715	95.81
332.943	99.81
333.172	95.81
333.4	93.81
333.629	104.81
333.857	102.81
334.085	111.81
334.314	104.81
334.542	131.81
334.771	129.81
334.999	106.81
335.227	93.81
335.455	89.81
335.684	97.81
335.912	91.81
336.14	108.81
336.369	109.81
336.597	103.81
336.825	88.81
337.053	77.81
337.281	102.81
337.51	98.81
337.738	92.81
337.966	90.81
338.194	91.81
338.422	106.81
338.65	88.81
338.878	110.81
339.106	111.81
339.334	107.81
339.562	97.81
339.79	95.81
340.018	87.81
340.246	83.81
340.474	94.81
340.702	92.81
340.93	90.81
341.158	97.81
341.386	101.81
341.614	90.81
341.842	98.81
342.07	89.81
342.298	106.81
342.526	84.81
342.754	98.81
342.981	88.81
343.209	82.81
343.437	110.81
343.665	87.81
343.893	98.81
344.12	98.81
344.348	82.81
344.576	107.81
344.804	84.81
345.031	93.81
345.259	102.81
345.487	89.81
345.714	101.81
345.942	95.81
346.17	79.81
346.397	79.81
346.625	101.81
346.853	95.81
347.08	86.81
347.308	98.81
347.535	89.81
347.763	107.81
347.99	90.81
348.218	98.81
348.445	103.81
348.673	93.81
348.9	100.81
349.128	86.81
349.355	98.81
349.583	111.81
349.81	89.81
350.037	89.81
350.265	97.81
350.492	87.81
350.72	99.81
350.947	103.81
351.174	121.81
351.402	107.81
351.629	100.81
351.856	93.81
352.083	94.81
352.311	93.81
352.538	107.81
352.765	103.81
352.992	117.81
353.22	105.81
353.447	112.81
353.674	104.81
353.901	103.81
354.128	115.81
354.355	108.81
354.583	102.81
354.81	107.81
355.037	112.81
355.264	89.81
355.491	90.81
355.718	98.81
355.945	90.81
356.172	90.81
356.399	98.81
356.626	92.81
356.853	97.81
357.08	102.81
357.307	77.81
357.534	95.81
357.761	90.81
357.988	84.81
358.215	86.81
358.441	93.81
358.668	90.81
358.895	92.81
359.122	103.81
359.349	97.81
359.576	82.81
359.802	90.81
360.029	105.81
360.256	106.81
360.483	98.81
360.709	96.81
360.936	95.81
361.163	96.81
361.39	86.81
361.616	110.81
361.843	99.81
362.07	103.81
362.296	87.81
362.523	105.81
362.749	89.81
362.976	86.81
363.203	84.81
363.429	88.81
363.656	90.81
363.882	95.81
364.109	108.81
364.335	81.81
364.562	93.81
364.788	102.81
365.015	93.81
365.241	108.81
365.468	114.81
365.694	101.81
365.92	100.81
366.147	101.81
366.373	104.81
366.599	104.81
366.826	81.81
367.052	86.81
367.278	99.81
367.505	85.81
367.731	97.81
367.957	91.81
368.184	88.81
368.41	86.81
368.636	110.81
368.862	109.81
369.089	100.81
369.315	82.81
369.541	97.81
369.767	89.81
369.993	89.81
370.219	90.81
370.445	97.81
370.672	97.81
370.898	91.81
371.124	79.81
371.35	99.81
371.576	93.81
371.802	86.81
372.028	96.81
372.254	98.81
372.48	94.81
372.706	91.81
372.932	87.81
373.158	93.81
373.384	99.81
373.61	100.81
373.835	94.81
374.061	81.81
374.287	86.81
374.513	102.81
374.739	82.81
374.965	80.81
375.191	98.81
375.416	93.81
375.642	117.81
375.868	81.81
376.094	93.81
376.319	92.81
376.545	90.81
376.771	85.81
376.997	99.81
377.222	92.81
377.448	87.81
377.674	81.81
377.899	85.81
378.125	95.81
378.35	88.81
378.576	99.81
378.802	90.81
379.027	85.81
379.253	87.81
379.478	88.81
379.704	90.81
379.929	100.81
380.155	96.81
380.38	90.81
380.606	111.81
380.831	98.81
381.057	114.81
381.282	98.81
381.507	100.81
381.733	106.81
381.958	94.81
382.184	102.81
382.409	92.81
382.634	109.81
382.86	115.81
383.085	98.81
383.31	109.81
383.535	89.81
383.761	102.81
383.986	97.81
384.211	92.81
384.436	79.81
384.662	90.81
384.887	92.81
385.112	92.81
385.337	101.81
385.562	90.81
385.787	113.81
386.013	107.81
386.238	104.81
386.463	98.81
386.688	120.81
386.913	101.81
387.138	103.81
387.363	107.81
387.588	111.81
387.813	106.81
388.038	100.81
388.263	104.81
388.488	109.81
388.713	103.81
388.938	101.81
389.163	84.81
389.387	112.81
389.612	97.81
389.837	98.81
390.062	90.81
390.287	90.81
390.512	105.81
390.736	101.81
390.961	90.81
391.186	85.81
391.411	97.81
391.636	106.81
391.86	92.81
392.085	81.81
392.31	90.81
392.534	94.81
392.759	92.81
392.984	79.81
393.208	85.81
393.433	88.81
393.658	87.81
393.882	105.81
394.107	97.81
394.331	95.81
394.556	86.81
394.78	94.81
395.005	98.81
395.229	89.81
395.454	93.81
395.678	78.81
395.903	91.81
396.127	97.81
396.352	77.81
396.576	85.81
396.801	97.81
397.025	95.81
397.249	91.81
397.474	95.81
397.698	98.81
397.922	81.81
398.147	87.81
398.371	92.81
398.595	89.81
398.82	78.81
399.044	94.81
399.268	83.81
399.492	91.81
399.717	108.81
399.941	89.81
400.165	94.81
400.389	78.81
400.613	89.81
400.837	81.81
401.062	95.81
401.286	100.81
401.51	108.81
401.734	99.81
401.958	85.81
402.182	119.81
402.406	149.81
402.63	115.81
402.854	96.81
403.078	99.81
403.302	98.81
403.526	91.81
403.75	82.81
403.974	89.81
404.198	95.81
404.422	85.81
404.645	81.81
404.869	97.81
405.093	93.81
405.317	93.81
405.541	89.81
405.765	100.81
405.988	111.81
406.212	154.81
406.436	191.81
406.66	130.81
406.883	117.81
407.107	115.81
407.331	93.81
407.555	94.81
407.778	101.81
408.002	91.81
408.226	103.81
408.449	102.81
408.673	94.81
408.896	97.81
409.12	96.81
409.344	84.81
409.567	101.81
409.791	100.81
410.014	90.81
410.238	90.81
410.461	75.81
410.685	95.81
410.908	82.81
411.132	109.81
411.355	90.81
411.578	88.81
411.802	93.81
412.025	86.81
412.249	99.81
412.472	85.81
412.695	90.81
412.919	91.81
413.142	95.81
413.365	82.81
413.589	86.81
413.812	74.81
414.035	97.81
414.258	97.81
414.482	105.81
414.705	90.81
414.928	84.81
415.151	92.81
415.374	90.81
415.597	93.81
415.821	107.81
416.044	78.81
416.267	98.81
416.49	92.81
416.713	97.81
416.936	91.81
417.159	77.81
417.382	91.81
417.605	91.81
417.828	91.81
418.051	87.81
418.274	83.81
418.497	82.81
418.72	85.81
418.943	94.81
419.166	92.81
419.389	89.81
419.611	99.81
419.834	86.81
420.057	101.81
420.28	89.81
420.503	96.81
420.726	90.81
420.948	84.81
421.171	97.81
421.394	88.81
421.617	89.81
421.839	94.81
422.062	88.81
422.285	94.81
422.507	99.81
422.73	88.81
422.953	99.81
423.175	88.81
423.398	90.81
423.621	83.81
423.843	91.81
424.066	90.81
424.288	106.81
424.511	82.81
424.733	108.81
424.956	112.81
425.178	98.81
425.401	102.81
425.623	90.81
425.846	93.81
426.068	87.81
426.291	91.81
426.513	100.81
426.735	91.81
426.958	92.81
427.18	85.81
427.402	113.81
427.625	146.81
427.847	136.81
428.069	111.81
428.292	90.81
428.514	94.81
428.736	90.81
428.958	86.81
429.181	81.81
429.403	89.81
429.625	90.81
429.847	101.81
430.069	93.81
430.292	87.81
430.514	101.81
430.736	89.81
430.958	94.81
431.18	78.81
431.402	86.81
431.624	104.81
431.846	86.81
432.068	96.81
432.29	86.81
432.512	99.81
432.734	78.81
432.956	94.81
433.178	96.81
433.4	94.81
433.622	104.81
433.844	109.81
434.066	106.81
434.287	91.81
434.509	88.81
434.731	93.81
434.953	88.81
435.175	87.81
435.397	86.81
435.618	87.81
435.84	93.81
436.062	118.81
436.284	101.81
436.505	96.81
436.727	98.81
436.949	83.81
437.17	82.81
437.392	83.81
437.614	87.81
437.835	109.81
438.057	109.81
438.278	102.81
438.5	115.81
438.721	111.81
438.943	81.81
439.165	92.81
439.386	94.81
439.608	86.81
439.829	96.81
440.05	118.81
440.272	141.81
440.493	100.81
440.715	87.81
440.936	89.81
441.158	103.81
441.379	85.81
441.6	100.81
441.822	90.81
442.043	91.81
442.264	109.81
442.486	93.81
442.707	86.81
442.928	106.81
443.149	118.81
443.371	116.81
443.592	115.81
443.813	111.81
444.034	105.81
444.255	106.81
444.476	75.81
444.698	75.81
444.919	97.81
445.14	129.81
445.361	138.81
445.582	117.81
445.803	137.81
446.024	130.81
446.245	123.81
446.466	107.81
446.687	83.81
446.908	93.81
447.129	73.81
447.35	93.81
447.571	97.81
447.792	104.81
448.013	86.81
448.234	92.81
448.455	94.81
448.675	111.81
448.896	122.81
449.117	99.81
449.338	108.81
449.559	124.81
449.779	131.81
450	89.81
450.221	93.81
450.442	100.81
450.662	81.81
450.883	100.81
451.104	107.81
451.324	95.81
451.545	87.81
451.766	98.81
451.986	99.81
452.207	79.81
452.428	89.81
452.648	100.81
452.869	111.81
453.089	117.81
453.31	106.81
453.53	84.81
453.751	91.81
453.971	91.81
454.192	97.81
454.412	84.81
454.633	86.81
454.853	82.81
455.073	87.81
455.294	102.81
455.514	102.81
455.734	94.81
455.955	90.81
456.175	77.81
456.395	70.81
456.616	86.81
456.836	94.81
457.056	91.81
457.276	78.81
457.497	83.81
457.717	86.81
457.937	68.81
458.157	90.81
458.377	81.81
458.598	108.81
458.818	135.81
459.038	153.81
459.258	120.81
459.478	91.81
459.698	101.81
459.918	79.81
460.138	97.81
460.358	85.81
460.578	87.81
460.798	97.81
461.018	99.81
461.238	94.81
461.458	79.81
461.678	101.81
461.898	85.81
462.118	82.81
462.338	88.81
462.558	106.81
462.777	98.81
462.997	90.81
463.217	88.81
463.437	89.81
463.657	85.81
463.876	90.81
464.096	95.81
464.316	77.81
464.536	91.81
464.755	95.81
464.975	104.81
465.195	157.81
465.414	129.81
465.634	83.81
465.854	84.81
466.073	95.81
466.293	82.81
466.512	99.81
466.732	89.81
466.951	85.81
467.171	93.81
467.391	103.81
467.61	102.81
467.829	103.81
468.049	88.81
468.268	92.81
468.488	86.81
468.707	92.81
468.927	84.81
469.146	82.81
469.365	91.81
469.585	93.81
469.804	96.81
470.023	93.81
470.243	84.81
470.462	97.81
470.681	108.81
470.901	94.81
471.12	89.81
471.339	79.81
471.558	85.81
471.777	99.81
471.997	90.81
472.216	122.81
472.435	139.81
472.654	104.81
472.873	106.81
473.092	97.81
473.311	97.81
473.53	90.81
473.749	89.81
473.968	101.81
474.187	100.81
474.406	99.81
474.625	94.81
474.844	69.81
475.063	93.81
475.282	94.81
475.501	82.81
475.72	92.81
475.939	86.81
476.158	93.81
476.377	88.81
476.596	106.81
476.814	93.81
477.033	101.81
477.252	99.81
477.471	74.81
477.69	89.81
477.908	79.81
478.127	90.81
478.346	85.81
478.564	91.81
478.783	86.81
479.002	91.81
479.22	95.81
479.439	99.81
479.658	102.81
479.876	87.81
480.095	91.81
480.313	100.81
480.532	94.81
480.751	110.81
480.969	118.81
481.188	187.81
481.406	147.81
481.624	86.81
481.843	92.81
482.061	75.81
482.28	86.81
482.498	94.81
482.717	87.81
482.935	83.81
483.153	95.81
483.372	93.81
483.59	81.81
483.808	86.81
484.027	88.81
484.245	83.81
484.463	105.81
484.681	79.81
484.9	100.81
485.118	98.81
485.336	111.81
485.554	79.81
485.772	103.81
485.99	86.81
486.209	101.81
486.427	110.81
486.645	118.81
486.863	105.81
487.081	90.81
487.299	110.81
487.517	93.81
487.735	90.81
487.953	96.81
488.171	81.81
488.389	97.81
488.607	89.81
488.825	101.81
489.043	95.81
489.261	89.81
489.479	89.81
489.696	98.81
489.914	87.81
490.132	93.81
490.35	99.81
490.568	92.81
490.786	75.81
491.003	78.81
491.221	91.81
491.439	94.81
491.657	98.81
491.874	94.81
492.092	89.81
492.31	104.81
492.527	86.81
492.745	96.81
492.963	104.81
493.18	96.81
493.398	98.81
493.615	87.81
493.833	105.81
494.05	93.81
494.268	98.81
494.485	99.81
494.703	79.81
494.92	92.81
495.138	81.81
495.355	81.81
495.573	86.81
495.79	83.81
496.008	101.81
496.225	91.81
496.442	84.81
496.66	102.81
496.877	82.81
497.094	99.81
497.312	78.81
497.529	66.81
497.746	84.81
497.963	82.81
498.181	87.81
498.398	94.81
498.615	120.81
498.832	85.81
499.049	73.81
499.267	86.81
499.484	95.81
499.701	111.81
499.918	114.81
500.135	93.81
500.352	91.81
500.569	81.81
500.786	80.81
501.003	95.81
501.22	91.81
501.437	85.81
501.654	97.81
501.871	104.81
502.088	90.81
502.305	101.81
502.522	86.81
502.739	76.81
502.956	86.81
503.172	99.81
503.389	100.81
503.606	104.81
503.823	92.81
504.04	88.81
504.256	66.81
504.473	91.81
504.69	85.81
504.907	88.81
505.123	91.81
505.34	84.81
505.557	91.81
505.773	89.81
505.99	69.81
506.207	90.81
506.423	87.81
506.64	89.81
506.856	101.81
507.073	90.81
507.289	90.81
507.506	96.81
507.722	109.81
507.939	111.81
508.155	113.81
508.372	77.81
508.588	82.81
508.805	94.81
509.021	101.81
509.238	84.81
509.454	111.81
509.67	99.81
509.887	104.81
510.103	115.81
510.319	213.81
510.536	683.81
510.752	2080.81
510.968	568.81
511.184	145.81
511.401	102.81
511.617	102.81
511.833	93.81
512.049	84.81
512.265	95.81
512.481	100.81
512.698	94.81
512.914	106.81
513.13	101.81
513.346	92.81
513.562	101.81
513.778	98.81
513.994	89.81
514.21	108.81
514.426	123.81
514.642	136.81
514.858	121.81
515.074	147.81
