Data from Uncirc_1985_H10_HRD10591_00043.txt Node
Date: Wed Jan 03 12:18:26 EST 2024
User: Yrep
Spectrometer: HR+D1059
Trigger mode: 1
Integration Time (sec): 1.000000E-1
Scans to average: 1
Electric dark correction enabled: true
Nonlinearity correction enabled: false
Boxcar width: 0
XAxis mode: Wavelengths
Number of Pixels in Spectrum: 2048
>>>>>Begin Spectral Data<<<<<
223.165	-12.06
223.4	-12.06
223.635	-12.06
223.869	-26.06
224.104	-19.06
224.338	-11.06
224.573	-5.06
224.808	-11.06
225.042	-14.06
225.277	-6.06
225.511	-8.06
225.746	-0.06
225.98	12.94
226.215	5.94
226.449	15.94
226.683	23.94
226.918	33.94
227.152	19.94
227.387	41.94
227.621	42.94
227.856	37.94
228.09	48.94
228.324	63.94
228.559	62.94
228.793	72.94
229.027	60.94
229.262	62.94
229.496	71.94
229.73	77.94
229.964	79.94
230.199	69.94
230.433	73.94
230.667	77.94
230.901	71.94
231.136	88.94
231.37	93.94
231.604	85.94
231.838	71.94
232.072	85.94
232.306	78.94
232.541	88.94
232.775	89.94
233.009	80.94
233.243	94.94
233.477	84.94
233.711	82.94
233.945	82.94
234.179	82.94
234.413	82.94
234.647	84.94
234.881	88.94
235.115	67.94
235.349	75.94
235.583	85.94
235.817	68.94
236.051	87.94
236.285	68.94
236.519	73.94
236.753	72.94
236.987	73.94
237.221	77.94
237.455	68.94
237.689	77.94
237.922	71.94
238.156	79.94
238.39	82.94
238.624	69.94
238.858	87.94
239.091	72.94
239.325	81.94
239.559	92.94
239.793	86.94
240.027	74.94
240.26	84.94
240.494	78.94
240.728	89.94
240.961	67.94
241.195	81.94
241.429	72.94
241.662	79.94
241.896	73.94
242.13	65.94
242.363	74.94
242.597	65.94
242.83	92.94
243.064	81.94
243.298	73.94
243.531	60.94
243.765	75.94
243.998	82.94
244.232	86.94
244.465	90.94
244.699	89.94
244.932	87.94
245.166	83.94
245.399	85.94
245.633	71.94
245.866	86.94
246.099	71.94
246.333	64.94
246.566	90.94
246.8	73.94
247.033	91.94
247.266	70.94
247.5	79.94
247.733	73.94
247.966	83.94
248.2	78.94
248.433	88.94
248.666	99.94
248.899	82.94
249.133	88.94
249.366	104.94
249.599	103.94
249.832	83.94
250.066	88.94
250.299	89.94
250.532	85.94
250.765	67.94
250.998	85.94
251.231	84.94
251.465	70.94
251.698	99.94
251.931	79.94
252.164	85.94
252.397	86.94
252.63	70.94
252.863	82.94
253.096	86.94
253.329	90.94
253.562	86.94
253.795	78.94
254.028	95.94
254.261	82.94
254.494	87.94
254.727	81.94
254.96	76.94
255.193	55.94
255.426	75.94
255.659	80.94
255.892	87.94
256.124	81.94
256.357	81.94
256.59	97.94
256.823	80.94
257.056	84.94
257.289	69.94
257.521	80.94
257.754	78.94
257.987	69.94
258.22	71.94
258.452	81.94
258.685	83.94
258.918	81.94
259.151	76.94
259.383	84.94
259.616	87.94
259.849	72.94
260.081	81.94
260.314	84.94
260.547	95.94
260.779	70.94
261.012	84.94
261.244	91.94
261.477	109.94
261.71	100.94
261.942	109.94
262.175	111.94
262.407	84.94
262.64	94.94
262.872	87.94
263.105	82.94
263.337	91.94
263.57	87.94
263.802	93.94
264.035	72.94
264.267	85.94
264.499	88.94
264.732	69.94
264.964	63.94
265.197	88.94
265.429	75.94
265.661	84.94
265.894	68.94
266.126	92.94
266.358	95.94
266.591	87.94
266.823	81.94
267.055	79.94
267.287	86.94
267.52	80.94
267.752	83.94
267.984	81.94
268.216	83.94
268.448	84.94
268.681	85.94
268.913	74.94
269.145	87.94
269.377	90.94
269.609	83.94
269.841	86.94
270.073	88.94
270.306	92.94
270.538	87.94
270.77	89.94
271.002	72.94
271.234	91.94
271.466	100.94
271.698	82.94
271.93	74.94
272.162	79.94
272.394	84.94
272.626	91.94
272.858	84.94
273.09	89.94
273.322	81.94
273.553	81.94
273.785	81.94
274.017	104.94
274.249	94.94
274.481	91.94
274.713	81.94
274.945	101.94
275.176	81.94
275.408	82.94
275.64	86.94
275.872	82.94
276.104	92.94
276.335	97.94
276.567	113.94
276.799	106.94
277.031	98.94
277.262	89.94
277.494	81.94
277.726	82.94
277.957	76.94
278.189	85.94
278.421	91.94
278.652	96.94
278.884	80.94
279.115	91.94
279.347	85.94
279.579	74.94
279.81	94.94
280.042	101.94
280.273	89.94
280.505	93.94
280.736	85.94
280.968	94.94
281.199	99.94
281.431	95.94
281.662	76.94
281.894	91.94
282.125	102.94
282.356	125.94
282.588	147.94
282.819	113.94
283.051	81.94
283.282	81.94
283.513	92.94
283.745	85.94
283.976	91.94
284.207	85.94
284.439	89.94
284.67	88.94
284.901	95.94
285.132	89.94
285.364	88.94
285.595	80.94
285.826	94.94
286.057	96.94
286.288	98.94
286.52	95.94
286.751	91.94
286.982	72.94
287.213	89.94
287.444	87.94
287.675	80.94
287.906	95.94
288.138	86.94
288.369	83.94
288.6	88.94
288.831	78.94
289.062	84.94
289.293	91.94
289.524	84.94
289.755	94.94
289.986	92.94
290.217	76.94
290.448	92.94
290.679	79.94
290.91	87.94
291.141	68.94
291.371	101.94
291.602	98.94
291.833	98.94
292.064	88.94
292.295	81.94
292.526	98.94
292.757	87.94
292.987	95.94
293.218	89.94
293.449	85.94
293.68	84.94
293.91	97.94
294.141	80.94
294.372	93.94
294.603	90.94
294.833	75.94
295.064	86.94
295.295	99.94
295.525	79.94
295.756	111.94
295.987	116.94
296.217	141.94
296.448	111.94
296.679	95.94
296.909	79.94
297.14	83.94
297.37	85.94
297.601	97.94
297.831	91.94
298.062	105.94
298.292	85.94
298.523	95.94
298.753	88.94
298.984	76.94
299.214	84.94
299.445	95.94
299.675	73.94
299.905	88.94
300.136	91.94
300.366	95.94
300.597	101.94
300.827	68.94
301.057	94.94
301.288	105.94
301.518	79.94
301.748	95.94
301.979	98.94
302.209	94.94
302.439	86.94
302.669	89.94
302.9	96.94
303.13	85.94
303.36	97.94
303.59	104.94
303.82	92.94
304.051	93.94
304.281	91.94
304.511	85.94
304.741	100.94
304.971	82.94
305.201	95.94
305.431	91.94
305.661	83.94
305.891	89.94
306.121	92.94
306.352	104.94
306.582	99.94
306.812	97.94
307.042	88.94
307.272	86.94
307.502	89.94
307.731	90.94
307.961	95.94
308.191	84.94
308.421	88.94
308.651	100.94
308.881	76.94
309.111	89.94
309.341	87.94
309.571	91.94
309.8	80.94
310.03	98.94
310.26	89.94
310.49	82.94
310.72	91.94
310.949	96.94
311.179	98.94
311.409	89.94
311.639	86.94
311.868	92.94
312.098	94.94
312.328	98.94
312.557	102.94
312.787	131.94
313.017	96.94
313.246	103.94
313.476	104.94
313.706	81.94
313.935	87.94
314.165	99.94
314.394	86.94
314.624	97.94
314.853	101.94
315.083	86.94
315.312	76.94
315.542	75.94
315.771	102.94
316.001	87.94
316.23	99.94
316.46	83.94
316.689	95.94
316.919	91.94
317.148	101.94
317.377	97.94
317.607	96.94
317.836	95.94
318.065	98.94
318.295	93.94
318.524	96.94
318.753	94.94
318.983	108.94
319.212	116.94
319.441	110.94
319.67	107.94
319.9	89.94
320.129	103.94
320.358	89.94
320.587	88.94
320.816	100.94
321.046	111.94
321.275	92.94
321.504	91.94
321.733	109.94
321.962	83.94
322.191	110.94
322.42	108.94
322.649	111.94
322.878	119.94
323.108	113.94
323.337	117.94
323.566	134.94
323.795	151.94
324.024	169.94
324.253	387.94
324.482	831.94
324.71	1720.94
324.939	2271.94
325.168	859.94
325.397	260.94
325.626	154.94
325.855	142.94
326.084	123.94
326.313	124.94
326.542	165.94
326.77	241.94
326.999	477.94
327.228	955.94
327.457	1763.94
327.686	1424.94
327.914	390.94
328.143	179.94
328.372	159.94
328.6	123.94
328.829	114.94
329.058	135.94
329.287	132.94
329.515	109.94
329.744	91.94
329.972	96.94
330.201	108.94
330.43	116.94
330.658	127.94
330.887	143.94
331.115	104.94
331.344	105.94
331.572	103.94
331.801	99.94
332.03	88.94
332.258	96.94
332.486	87.94
332.715	99.94
332.943	104.94
333.172	87.94
333.4	100.94
333.629	116.94
333.857	108.94
334.085	116.94
334.314	109.94
334.542	144.94
334.771	114.94
334.999	94.94
335.227	97.94
335.455	97.94
335.684	91.94
335.912	94.94
336.14	102.94
336.369	102.94
336.597	112.94
336.825	85.94
337.053	100.94
337.281	88.94
337.51	89.94
337.738	103.94
337.966	98.94
338.194	92.94
338.422	97.94
338.65	87.94
338.878	80.94
339.106	92.94
339.334	96.94
339.562	87.94
339.79	88.94
340.018	84.94
340.246	98.94
340.474	107.94
340.702	100.94
340.93	85.94
341.158	91.94
341.386	97.94
341.614	88.94
341.842	88.94
342.07	95.94
342.298	88.94
342.526	98.94
342.754	83.94
342.981	92.94
343.209	94.94
343.437	99.94
343.665	99.94
343.893	89.94
344.12	101.94
344.348	92.94
344.576	94.94
344.804	77.94
345.031	97.94
345.259	90.94
345.487	85.94
345.714	99.94
345.942	87.94
346.17	95.94
346.397	97.94
346.625	100.94
346.853	79.94
347.08	79.94
347.308	90.94
347.535	96.94
347.763	93.94
347.99	106.94
348.218	111.94
348.445	112.94
348.673	91.94
348.9	87.94
349.128	99.94
349.355	83.94
349.583	99.94
349.81	95.94
350.037	89.94
350.265	95.94
350.492	89.94
350.72	90.94
350.947	94.94
351.174	120.94
351.402	102.94
351.629	121.94
351.856	105.94
352.083	96.94
352.311	108.94
352.538	95.94
352.765	101.94
352.992	116.94
353.22	109.94
353.447	107.94
353.674	102.94
353.901	108.94
354.128	89.94
354.355	88.94
354.583	107.94
354.81	84.94
355.037	93.94
355.264	95.94
355.491	92.94
355.718	93.94
355.945	89.94
356.172	99.94
356.399	90.94
356.626	99.94
356.853	91.94
357.08	81.94
357.307	93.94
357.534	98.94
357.761	86.94
357.988	100.94
358.215	88.94
358.441	95.94
358.668	90.94
358.895	89.94
359.122	87.94
359.349	82.94
359.576	93.94
359.802	86.94
360.029	117.94
360.256	103.94
360.483	97.94
360.709	99.94
360.936	103.94
361.163	89.94
361.39	99.94
361.616	95.94
361.843	75.94
362.07	86.94
362.296	100.94
362.523	85.94
362.749	84.94
362.976	91.94
363.203	100.94
363.429	95.94
363.656	88.94
363.882	74.94
364.109	81.94
364.335	89.94
364.562	85.94
364.788	100.94
365.015	109.94
365.241	84.94
365.468	105.94
365.694	95.94
365.92	97.94
366.147	79.94
366.373	71.94
366.599	84.94
366.826	91.94
367.052	90.94
367.278	97.94
367.505	74.94
367.731	93.94
367.957	70.94
368.184	87.94
368.41	98.94
368.636	107.94
368.862	113.94
369.089	106.94
369.315	100.94
369.541	96.94
369.767	96.94
369.993	100.94
370.219	95.94
370.445	83.94
370.672	113.94
370.898	91.94
371.124	90.94
371.35	91.94
371.576	89.94
371.802	85.94
372.028	88.94
372.254	93.94
372.48	93.94
372.706	92.94
372.932	71.94
373.158	79.94
373.384	97.94
373.61	82.94
373.835	90.94
374.061	100.94
374.287	84.94
374.513	102.94
374.739	89.94
374.965	92.94
375.191	84.94
375.416	92.94
375.642	95.94
375.868	87.94
376.094	69.94
376.319	83.94
376.545	83.94
376.771	83.94
376.997	87.94
377.222	92.94
377.448	87.94
377.674	89.94
377.899	72.94
378.125	85.94
378.35	85.94
378.576	98.94
378.802	88.94
379.027	89.94
379.253	105.94
379.478	71.94
379.704	91.94
379.929	81.94
380.155	85.94
380.38	86.94
380.606	93.94
380.831	101.94
381.057	106.94
381.282	103.94
381.507	90.94
381.733	97.94
381.958	97.94
382.184	96.94
382.409	79.94
382.634	107.94
382.86	105.94
383.085	92.94
383.31	105.94
383.535	99.94
383.761	99.94
383.986	95.94
384.211	100.94
384.436	88.94
384.662	107.94
384.887	99.94
385.112	109.94
385.337	99.94
385.562	84.94
385.787	102.94
386.013	107.94
386.238	110.94
386.463	116.94
386.688	109.94
386.913	112.94
387.138	115.94
387.363	104.94
387.588	109.94
387.813	101.94
388.038	99.94
388.263	103.94
388.488	91.94
388.713	92.94
388.938	97.94
389.163	85.94
389.387	97.94
389.612	90.94
389.837	98.94
390.062	100.94
390.287	97.94
390.512	100.94
390.736	95.94
390.961	92.94
391.186	81.94
391.411	90.94
391.636	98.94
391.86	93.94
392.085	83.94
392.31	85.94
392.534	79.94
392.759	83.94
392.984	87.94
393.208	97.94
393.433	99.94
393.658	80.94
393.882	100.94
394.107	88.94
394.331	98.94
394.556	76.94
394.78	85.94
395.005	92.94
395.229	83.94
395.454	82.94
395.678	86.94
395.903	93.94
396.127	95.94
396.352	99.94
396.576	82.94
396.801	100.94
397.025	81.94
397.249	84.94
397.474	90.94
397.698	92.94
397.922	89.94
398.147	102.94
398.371	80.94
398.595	101.94
398.82	89.94
399.044	81.94
399.268	99.94
399.492	77.94
399.717	89.94
399.941	78.94
400.165	99.94
400.389	84.94
400.613	79.94
400.837	77.94
401.062	91.94
401.286	84.94
401.51	77.94
401.734	84.94
401.958	99.94
402.182	109.94
402.406	152.94
402.63	115.94
402.854	97.94
403.078	93.94
403.302	84.94
403.526	100.94
403.75	88.94
403.974	89.94
404.198	86.94
404.422	88.94
404.645	87.94
404.869	100.94
405.093	97.94
405.317	104.94
405.541	117.94
405.765	102.94
405.988	115.94
406.212	167.94
406.436	211.94
406.66	136.94
406.883	95.94
407.107	87.94
407.331	101.94
407.555	104.94
407.778	87.94
408.002	96.94
408.226	104.94
408.449	85.94
408.673	79.94
408.896	100.94
409.12	97.94
409.344	76.94
409.567	85.94
409.791	91.94
410.014	97.94
410.238	99.94
410.461	92.94
410.685	83.94
410.908	94.94
411.132	95.94
411.355	94.94
411.578	88.94
411.802	82.94
412.025	81.94
412.249	74.94
412.472	91.94
412.695	95.94
412.919	96.94
413.142	105.94
413.365	89.94
413.589	92.94
413.812	83.94
414.035	86.94
414.258	92.94
414.482	103.94
414.705	86.94
414.928	83.94
415.151	98.94
415.374	93.94
415.597	87.94
415.821	84.94
416.044	86.94
416.267	94.94
416.49	90.94
416.713	85.94
416.936	87.94
417.159	96.94
417.382	84.94
417.605	101.94
417.828	99.94
418.051	87.94
418.274	93.94
418.497	65.94
418.72	87.94
418.943	95.94
419.166	95.94
419.389	85.94
419.611	100.94
419.834	85.94
420.057	90.94
420.28	87.94
420.503	79.94
420.726	92.94
420.948	92.94
421.171	88.94
421.394	91.94
421.617	89.94
421.839	76.94
422.062	91.94
422.285	85.94
422.507	105.94
422.73	99.94
422.953	92.94
423.175	100.94
423.398	85.94
423.621	102.94
423.843	84.94
424.066	89.94
424.288	88.94
424.511	100.94
424.733	101.94
424.956	103.94
425.178	95.94
425.401	85.94
425.623	111.94
425.846	95.94
426.068	81.94
426.291	89.94
426.513	100.94
426.735	86.94
426.958	96.94
427.18	109.94
427.402	140.94
427.625	165.94
427.847	119.94
428.069	109.94
428.292	98.94
428.514	81.94
428.736	72.94
428.958	93.94
429.181	98.94
429.403	81.94
429.625	82.94
429.847	76.94
430.069	100.94
430.292	90.94
430.514	77.94
430.736	85.94
430.958	95.94
431.18	88.94
431.402	94.94
431.624	88.94
431.846	87.94
432.068	93.94
432.29	95.94
432.512	96.94
432.734	85.94
432.956	98.94
433.178	86.94
433.4	93.94
433.622	84.94
433.844	90.94
434.066	89.94
434.287	101.94
434.509	81.94
434.731	85.94
434.953	75.94
435.175	85.94
435.397	91.94
435.618	87.94
435.84	112.94
436.062	124.94
436.284	108.94
436.505	112.94
436.727	99.94
436.949	79.94
437.17	79.94
437.392	86.94
437.614	100.94
437.835	95.94
438.057	112.94
438.278	99.94
438.5	113.94
438.721	120.94
438.943	110.94
439.165	84.94
439.386	92.94
439.608	107.94
439.829	108.94
440.05	132.94
440.272	140.94
440.493	109.94
440.715	80.94
440.936	79.94
441.158	92.94
441.379	105.94
441.6	79.94
441.822	105.94
442.043	88.94
442.264	106.94
442.486	96.94
442.707	97.94
442.928	86.94
443.149	130.94
443.371	113.94
443.592	92.94
443.813	103.94
444.034	103.94
444.255	100.94
444.476	98.94
444.698	91.94
444.919	88.94
445.14	136.94
445.361	127.94
445.582	109.94
445.803	126.94
446.024	124.94
446.245	120.94
446.466	111.94
446.687	100.94
446.908	83.94
447.129	92.94
447.35	99.94
447.571	92.94
447.792	100.94
448.013	92.94
448.234	108.94
448.455	100.94
448.675	119.94
448.896	120.94
449.117	104.94
449.338	98.94
449.559	123.94
449.779	135.94
450	101.94
450.221	97.94
450.442	88.94
450.662	92.94
450.883	93.94
451.104	120.94
451.324	90.94
451.545	102.94
451.766	88.94
451.986	88.94
452.207	84.94
452.428	79.94
452.648	95.94
452.869	114.94
453.089	104.94
453.31	115.94
453.53	83.94
453.751	108.94
453.971	109.94
454.192	103.94
454.412	95.94
454.633	89.94
454.853	93.94
455.073	88.94
455.294	81.94
455.514	104.94
455.734	87.94
455.955	103.94
456.175	82.94
456.395	83.94
456.616	85.94
456.836	61.94
457.056	83.94
457.276	82.94
457.497	93.94
457.717	81.94
457.937	79.94
458.157	91.94
458.377	87.94
458.598	102.94
458.818	140.94
459.038	163.94
459.258	115.94
459.478	93.94
459.698	76.94
459.918	89.94
460.138	61.94
460.358	103.94
460.578	87.94
460.798	96.94
461.018	88.94
461.238	89.94
461.458	84.94
461.678	88.94
461.898	81.94
462.118	85.94
462.338	68.94
462.558	96.94
462.777	76.94
462.997	79.94
463.217	92.94
463.437	88.94
463.657	82.94
463.876	81.94
464.096	104.94
464.316	94.94
464.536	84.94
464.755	98.94
464.975	101.94
465.195	159.94
465.414	151.94
465.634	111.94
465.854	96.94
466.073	85.94
466.293	82.94
466.512	87.94
466.732	91.94
466.951	88.94
467.171	85.94
467.391	78.94
467.61	97.94
467.829	104.94
468.049	108.94
468.268	100.94
468.488	80.94
468.707	95.94
468.927	85.94
469.146	94.94
469.365	101.94
469.585	95.94
469.804	99.94
470.023	100.94
470.243	97.94
470.462	88.94
470.681	106.94
470.901	103.94
471.12	86.94
471.339	92.94
471.558	90.94
471.777	82.94
471.997	88.94
472.216	96.94
472.435	106.94
472.654	94.94
472.873	83.94
473.092	82.94
473.311	96.94
473.53	74.94
473.749	80.94
473.968	88.94
474.187	93.94
474.406	102.94
474.625	93.94
474.844	97.94
475.063	84.94
475.282	86.94
475.501	92.94
475.72	91.94
475.939	79.94
476.158	76.94
476.377	87.94
476.596	89.94
476.814	96.94
477.033	90.94
477.252	107.94
477.471	83.94
477.69	90.94
477.908	92.94
478.127	89.94
478.346	91.94
478.564	90.94
478.783	103.94
479.002	106.94
479.22	92.94
479.439	95.94
479.658	96.94
479.876	99.94
480.095	102.94
480.313	113.94
480.532	99.94
480.751	106.94
480.969	108.94
481.188	164.94
481.406	137.94
481.624	94.94
481.843	90.94
482.061	92.94
482.28	83.94
482.498	91.94
482.717	97.94
482.935	105.94
483.153	82.94
483.372	86.94
483.59	60.94
483.808	86.94
484.027	95.94
484.245	97.94
484.463	91.94
484.681	89.94
484.9	87.94
485.118	100.94
485.336	91.94
485.554	98.94
485.772	97.94
485.99	108.94
486.209	99.94
486.427	96.94
486.645	111.94
486.863	116.94
487.081	76.94
487.299	96.94
487.517	101.94
487.735	99.94
487.953	99.94
488.171	104.94
488.389	96.94
488.607	103.94
488.825	89.94
489.043	95.94
489.261	92.94
489.479	96.94
489.696	103.94
489.914	91.94
490.132	83.94
490.35	85.94
490.568	82.94
490.786	92.94
491.003	99.94
491.221	98.94
491.439	80.94
491.657	89.94
491.874	79.94
492.092	103.94
492.31	91.94
492.527	89.94
492.745	94.94
492.963	101.94
493.18	88.94
493.398	83.94
493.615	87.94
493.833	88.94
494.05	91.94
494.268	90.94
494.485	77.94
494.703	91.94
494.92	97.94
495.138	88.94
495.355	84.94
495.573	98.94
495.79	84.94
496.008	89.94
496.225	87.94
496.442	86.94
496.66	76.94
496.877	81.94
497.094	97.94
497.312	97.94
497.529	89.94
497.746	89.94
497.963	99.94
498.181	87.94
498.398	86.94
498.615	97.94
498.832	80.94
499.049	101.94
499.267	87.94
499.484	100.94
499.701	104.94
499.918	101.94
500.135	86.94
500.352	95.94
500.569	92.94
500.786	95.94
501.003	86.94
501.22	76.94
501.437	79.94
501.654	103.94
501.871	106.94
502.088	99.94
502.305	96.94
502.522	88.94
502.739	97.94
502.956	91.94
503.172	96.94
503.389	84.94
503.606	105.94
503.823	101.94
504.04	92.94
504.256	87.94
504.473	90.94
504.69	87.94
504.907	97.94
505.123	80.94
505.34	83.94
505.557	81.94
505.773	84.94
505.99	87.94
506.207	96.94
506.423	94.94
506.64	95.94
506.856	91.94
507.073	88.94
507.289	94.94
507.506	100.94
507.722	103.94
507.939	109.94
508.155	107.94
508.372	106.94
508.588	86.94
508.805	90.94
509.021	99.94
509.238	96.94
509.454	89.94
509.67	106.94
509.887	104.94
510.103	133.94
510.319	196.94
510.536	754.94
510.752	2316.94
510.968	616.94
511.184	145.94
511.401	101.94
511.617	107.94
511.833	86.94
512.049	103.94
512.265	89.94
512.481	83.94
512.698	101.94
512.914	79.94
513.13	98.94
513.346	111.94
513.562	102.94
513.778	100.94
513.994	108.94
514.21	94.94
514.426	107.94
514.642	119.94
514.858	120.94
515.074	145.94
515.29	434.94
515.506	1403.94
