Data from Uncirc_1985_H10_HRD10591_00051.txt Node
Date: Wed Jan 03 12:18:27 EST 2024
User: Yrep
Spectrometer: HR+D1059
Trigger mode: 1
Integration Time (sec): 1.000000E-1
Scans to average: 1
Electric dark correction enabled: true
Nonlinearity correction enabled: false
Boxcar width: 0
XAxis mode: Wavelengths
Number of Pixels in Spectrum: 2048
>>>>>Begin Spectral Data<<<<<
223.165	-13.31
223.4	-13.31
223.635	-13.31
223.869	-17.31
224.104	-31.31
224.338	-21.31
224.573	9.69
224.808	-19.31
225.042	-11.31
225.277	-5.31
225.511	-12.31
225.746	-2.31
225.98	16.69
226.215	8.69
226.449	18.69
226.683	24.69
226.918	14.69
227.152	40.69
227.387	30.69
227.621	50.69
227.856	37.69
228.09	50.69
228.324	44.69
228.559	57.69
228.793	47.69
229.027	62.69
229.262	75.69
229.496	58.69
229.73	81.69
229.964	91.69
230.199	78.69
230.433	62.69
230.667	68.69
230.901	93.69
231.136	74.69
231.37	87.69
231.604	73.69
231.838	85.69
232.072	80.69
232.306	85.69
232.541	82.69
232.775	86.69
233.009	76.69
233.243	80.69
233.477	85.69
233.711	90.69
233.945	77.69
234.179	70.69
234.413	91.69
234.647	80.69
234.881	77.69
235.115	82.69
235.349	70.69
235.583	83.69
235.817	72.69
236.051	64.69
236.285	83.69
236.519	81.69
236.753	66.69
236.987	93.69
237.221	94.69
237.455	77.69
237.689	83.69
237.922	73.69
238.156	75.69
238.39	88.69
238.624	84.69
238.858	88.69
239.091	65.69
239.325	85.69
239.559	72.69
239.793	80.69
240.027	86.69
240.26	61.69
240.494	91.69
240.728	72.69
240.961	73.69
241.195	71.69
241.429	62.69
241.662	82.69
241.896	80.69
242.13	76.69
242.363	90.69
242.597	73.69
242.83	100.69
243.064	81.69
243.298	85.69
243.531	70.69
243.765	60.69
243.998	93.69
244.232	69.69
244.465	84.69
244.699	74.69
244.932	94.69
245.166	83.69
245.399	67.69
245.633	68.69
245.866	87.69
246.099	72.69
246.333	80.69
246.566	84.69
246.8	77.69
247.033	94.69
247.266	90.69
247.5	87.69
247.733	70.69
247.966	83.69
248.2	72.69
248.433	84.69
248.666	86.69
248.899	86.69
249.133	81.69
249.366	98.69
249.599	104.69
249.832	91.69
250.066	83.69
250.299	89.69
250.532	65.69
250.765	77.69
250.998	77.69
251.231	94.69
251.465	64.69
251.698	65.69
251.931	72.69
252.164	85.69
252.397	84.69
252.63	81.69
252.863	72.69
253.096	77.69
253.329	92.69
253.562	80.69
253.795	89.69
254.028	94.69
254.261	78.69
254.494	81.69
254.727	86.69
254.96	90.69
255.193	74.69
255.426	85.69
255.659	82.69
255.892	104.69
256.124	76.69
256.357	90.69
256.59	86.69
256.823	87.69
257.056	74.69
257.289	75.69
257.521	82.69
257.754	80.69
257.987	67.69
258.22	76.69
258.452	80.69
258.685	79.69
258.918	85.69
259.151	91.69
259.383	86.69
259.616	84.69
259.849	97.69
260.081	82.69
260.314	73.69
260.547	70.69
260.779	76.69
261.012	85.69
261.244	96.69
261.477	86.69
261.71	102.69
261.942	114.69
262.175	93.69
262.407	91.69
262.64	81.69
262.872	87.69
263.105	87.69
263.337	74.69
263.57	92.69
263.802	92.69
264.035	82.69
264.267	77.69
264.499	89.69
264.732	96.69
264.964	93.69
265.197	98.69
265.429	85.69
265.661	81.69
265.894	91.69
266.126	78.69
266.358	94.69
266.591	88.69
266.823	86.69
267.055	86.69
267.287	89.69
267.52	89.69
267.752	84.69
267.984	97.69
268.216	92.69
268.448	81.69
268.681	85.69
268.913	90.69
269.145	78.69
269.377	88.69
269.609	78.69
269.841	85.69
270.073	88.69
270.306	76.69
270.538	96.69
270.77	83.69
271.002	85.69
271.234	87.69
271.466	85.69
271.698	88.69
271.93	74.69
272.162	93.69
272.394	83.69
272.626	86.69
272.858	77.69
273.09	83.69
273.322	75.69
273.553	75.69
273.785	90.69
274.017	84.69
274.249	86.69
274.481	91.69
274.713	77.69
274.945	73.69
275.176	88.69
275.408	89.69
275.64	91.69
275.872	75.69
276.104	91.69
276.335	87.69
276.567	93.69
276.799	111.69
277.031	105.69
277.262	92.69
277.494	83.69
277.726	85.69
277.957	92.69
278.189	77.69
278.421	96.69
278.652	81.69
278.884	98.69
279.115	89.69
279.347	88.69
279.579	81.69
279.81	85.69
280.042	103.69
280.273	90.69
280.505	82.69
280.736	110.69
280.968	103.69
281.199	78.69
281.431	86.69
281.662	88.69
281.894	95.69
282.125	109.69
282.356	116.69
282.588	155.69
282.819	103.69
283.051	97.69
283.282	86.69
283.513	88.69
283.745	88.69
283.976	109.69
284.207	95.69
284.439	85.69
284.67	96.69
284.901	75.69
285.132	76.69
285.364	80.69
285.595	85.69
285.826	82.69
286.057	97.69
286.288	99.69
286.52	101.69
286.751	92.69
286.982	85.69
287.213	85.69
287.444	76.69
287.675	107.69
287.906	94.69
288.138	86.69
288.369	96.69
288.6	82.69
288.831	87.69
289.062	92.69
289.293	94.69
289.524	90.69
289.755	90.69
289.986	94.69
290.217	73.69
290.448	80.69
290.679	96.69
290.91	78.69
291.141	90.69
291.371	92.69
291.602	76.69
291.833	84.69
292.064	98.69
292.295	99.69
292.526	95.69
292.757	67.69
292.987	88.69
293.218	84.69
293.449	81.69
293.68	92.69
293.91	89.69
294.141	97.69
294.372	79.69
294.603	87.69
294.833	92.69
295.064	91.69
295.295	88.69
295.525	102.69
295.756	106.69
295.987	114.69
296.217	122.69
296.448	120.69
296.679	89.69
296.909	98.69
297.14	73.69
297.37	101.69
297.601	83.69
297.831	85.69
298.062	85.69
298.292	91.69
298.523	89.69
298.753	75.69
298.984	97.69
299.214	77.69
299.445	88.69
299.675	91.69
299.905	97.69
300.136	92.69
300.366	89.69
300.597	83.69
300.827	98.69
301.057	105.69
301.288	91.69
301.518	93.69
301.748	87.69
301.979	95.69
302.209	102.69
302.439	92.69
302.669	74.69
302.9	89.69
303.13	90.69
303.36	101.69
303.59	101.69
303.82	97.69
304.051	96.69
304.281	96.69
304.511	90.69
304.741	92.69
304.971	100.69
305.201	90.69
305.431	84.69
305.661	93.69
305.891	102.69
306.121	100.69
306.352	107.69
306.582	114.69
306.812	95.69
307.042	83.69
307.272	88.69
307.502	92.69
307.731	90.69
307.961	84.69
308.191	101.69
308.421	91.69
308.651	104.69
308.881	98.69
309.111	94.69
309.341	94.69
309.571	96.69
309.8	100.69
310.03	87.69
310.26	96.69
310.49	98.69
310.72	107.69
310.949	96.69
311.179	89.69
311.409	101.69
311.639	90.69
311.868	81.69
312.098	98.69
312.328	100.69
312.557	102.69
312.787	99.69
313.017	102.69
313.246	98.69
313.476	87.69
313.706	95.69
313.935	108.69
314.165	98.69
314.394	88.69
314.624	88.69
314.853	91.69
315.083	99.69
315.312	97.69
315.542	76.69
315.771	98.69
316.001	95.69
316.23	99.69
316.46	95.69
316.689	80.69
316.919	99.69
317.148	101.69
317.377	85.69
317.607	93.69
317.836	89.69
318.065	89.69
318.295	75.69
318.524	82.69
318.753	89.69
318.983	102.69
319.212	89.69
319.441	98.69
319.67	94.69
319.9	103.69
320.129	92.69
320.358	99.69
320.587	106.69
320.816	85.69
321.046	111.69
321.275	99.69
321.504	94.69
321.733	101.69
321.962	110.69
322.191	107.69
322.42	113.69
322.649	105.69
322.878	102.69
323.108	121.69
323.337	120.69
323.566	118.69
323.795	134.69
324.024	202.69
324.253	380.69
324.482	798.69
324.71	1647.69
324.939	2146.69
325.168	790.69
325.397	243.69
325.626	157.69
325.855	130.69
326.084	127.69
326.313	130.69
326.542	148.69
326.77	193.69
326.999	432.69
327.228	920.69
327.457	1664.69
327.686	1312.69
327.914	372.69
328.143	204.69
328.372	169.69
328.6	124.69
328.829	120.69
329.058	128.69
329.287	121.69
329.515	119.69
329.744	102.69
329.972	128.69
330.201	117.69
330.43	129.69
330.658	120.69
330.887	137.69
331.115	124.69
331.344	89.69
331.572	100.69
331.801	116.69
332.03	93.69
332.258	91.69
332.486	88.69
332.715	85.69
332.943	105.69
333.172	108.69
333.4	97.69
333.629	116.69
333.857	112.69
334.085	118.69
334.314	125.69
334.542	131.69
334.771	139.69
334.999	107.69
335.227	98.69
335.455	89.69
335.684	90.69
335.912	105.69
336.14	104.69
336.369	94.69
336.597	97.69
336.825	105.69
337.053	90.69
337.281	98.69
337.51	79.69
337.738	105.69
337.966	94.69
338.194	92.69
338.422	102.69
338.65	87.69
338.878	80.69
339.106	100.69
339.334	97.69
339.562	98.69
339.79	91.69
340.018	81.69
340.246	90.69
340.474	85.69
340.702	93.69
340.93	88.69
341.158	88.69
341.386	105.69
341.614	89.69
341.842	79.69
342.07	77.69
342.298	99.69
342.526	106.69
342.754	88.69
342.981	92.69
343.209	93.69
343.437	109.69
343.665	73.69
343.893	85.69
344.12	88.69
344.348	98.69
344.576	88.69
344.804	100.69
345.031	109.69
345.259	94.69
345.487	99.69
345.714	96.69
345.942	95.69
346.17	93.69
346.397	109.69
346.625	90.69
346.853	94.69
347.08	88.69
347.308	82.69
347.535	105.69
347.763	94.69
347.99	102.69
348.218	110.69
348.445	113.69
348.673	98.69
348.9	92.69
349.128	95.69
349.355	86.69
349.583	95.69
349.81	104.69
350.037	89.69
350.265	102.69
350.492	102.69
350.72	99.69
350.947	110.69
351.174	99.69
351.402	89.69
351.629	106.69
351.856	107.69
352.083	101.69
352.311	106.69
352.538	91.69
352.765	102.69
352.992	119.69
353.22	107.69
353.447	102.69
353.674	99.69
353.901	104.69
354.128	102.69
354.355	77.69
354.583	101.69
354.81	94.69
355.037	101.69
355.264	81.69
355.491	85.69
355.718	109.69
355.945	98.69
356.172	95.69
356.399	96.69
356.626	106.69
356.853	75.69
357.08	90.69
357.307	92.69
357.534	96.69
357.761	86.69
357.988	105.69
358.215	86.69
358.441	86.69
358.668	84.69
358.895	89.69
359.122	93.69
359.349	90.69
359.576	100.69
359.802	110.69
360.029	121.69
360.256	128.69
360.483	98.69
360.709	88.69
360.936	100.69
361.163	96.69
361.39	95.69
361.616	92.69
361.843	81.69
362.07	99.69
362.296	100.69
362.523	91.69
362.749	89.69
362.976	96.69
363.203	84.69
363.429	96.69
363.656	95.69
363.882	93.69
364.109	101.69
364.335	91.69
364.562	89.69
364.788	96.69
365.015	88.69
365.241	97.69
365.468	110.69
365.694	95.69
365.92	80.69
366.147	84.69
366.373	98.69
366.599	77.69
366.826	92.69
367.052	89.69
367.278	95.69
367.505	86.69
367.731	99.69
367.957	80.69
368.184	104.69
368.41	94.69
368.636	121.69
368.862	123.69
369.089	97.69
369.315	85.69
369.541	96.69
369.767	93.69
369.993	92.69
370.219	87.69
370.445	101.69
370.672	89.69
370.898	75.69
371.124	91.69
371.35	74.69
371.576	72.69
371.802	88.69
372.028	82.69
372.254	93.69
372.48	81.69
372.706	87.69
372.932	88.69
373.158	93.69
373.384	80.69
373.61	87.69
373.835	85.69
374.061	87.69
374.287	104.69
374.513	88.69
374.739	96.69
374.965	90.69
375.191	97.69
375.416	94.69
375.642	96.69
375.868	99.69
376.094	92.69
376.319	89.69
376.545	96.69
376.771	87.69
376.997	92.69
377.222	93.69
377.448	102.69
377.674	89.69
377.899	103.69
378.125	103.69
378.35	88.69
378.576	94.69
378.802	85.69
379.027	93.69
379.253	98.69
379.478	85.69
379.704	105.69
379.929	100.69
380.155	92.69
380.38	78.69
380.606	88.69
380.831	86.69
381.057	87.69
381.282	91.69
381.507	90.69
381.733	80.69
381.958	94.69
382.184	84.69
382.409	96.69
382.634	106.69
382.86	92.69
383.085	104.69
383.31	113.69
383.535	87.69
383.761	110.69
383.986	101.69
384.211	99.69
384.436	105.69
384.662	101.69
384.887	86.69
385.112	108.69
385.337	97.69
385.562	104.69
385.787	108.69
386.013	113.69
386.238	113.69
386.463	91.69
386.688	103.69
386.913	105.69
387.138	87.69
387.363	89.69
387.588	83.69
387.813	96.69
388.038	100.69
388.263	118.69
388.488	101.69
388.713	107.69
388.938	97.69
389.163	97.69
389.387	109.69
389.612	97.69
389.837	96.69
390.062	93.69
390.287	97.69
390.512	103.69
390.736	85.69
390.961	97.69
391.186	80.69
391.411	92.69
391.636	96.69
391.86	78.69
392.085	75.69
392.31	89.69
392.534	84.69
392.759	97.69
392.984	90.69
393.208	81.69
393.433	76.69
393.658	86.69
393.882	93.69
394.107	81.69
394.331	92.69
394.556	81.69
394.78	70.69
395.005	97.69
395.229	76.69
395.454	96.69
395.678	85.69
395.903	83.69
396.127	88.69
396.352	97.69
396.576	86.69
396.801	72.69
397.025	98.69
397.249	90.69
397.474	78.69
397.698	89.69
397.922	82.69
398.147	80.69
398.371	90.69
398.595	95.69
398.82	84.69
399.044	90.69
399.268	88.69
399.492	81.69
399.717	82.69
399.941	92.69
400.165	99.69
400.389	94.69
400.613	89.69
400.837	87.69
401.062	82.69
401.286	80.69
401.51	85.69
401.734	93.69
401.958	107.69
402.182	121.69
402.406	150.69
402.63	99.69
402.854	101.69
403.078	87.69
403.302	69.69
403.526	70.69
403.75	81.69
403.974	96.69
404.198	77.69
404.422	88.69
404.645	77.69
404.869	77.69
405.093	89.69
405.317	99.69
405.541	95.69
405.765	97.69
405.988	116.69
406.212	166.69
406.436	210.69
406.66	136.69
406.883	101.69
407.107	84.69
407.331	92.69
407.555	96.69
407.778	105.69
408.002	96.69
408.226	94.69
408.449	86.69
408.673	89.69
408.896	80.69
409.12	98.69
409.344	85.69
409.567	84.69
409.791	79.69
410.014	102.69
410.238	90.69
410.461	100.69
410.685	105.69
410.908	106.69
411.132	117.69
411.355	105.69
411.578	92.69
411.802	98.69
412.025	94.69
412.249	97.69
412.472	97.69
412.695	98.69
412.919	73.69
413.142	84.69
413.365	77.69
413.589	98.69
413.812	105.69
414.035	93.69
414.258	93.69
414.482	91.69
414.705	94.69
414.928	89.69
415.151	92.69
415.374	98.69
415.597	82.69
415.821	85.69
416.044	104.69
416.267	86.69
416.49	91.69
416.713	101.69
416.936	87.69
417.159	81.69
417.382	93.69
417.605	94.69
417.828	99.69
418.051	96.69
418.274	84.69
418.497	84.69
418.72	97.69
418.943	89.69
419.166	73.69
419.389	92.69
419.611	88.69
419.834	89.69
420.057	91.69
420.28	73.69
420.503	89.69
420.726	96.69
420.948	72.69
421.171	101.69
421.394	92.69
421.617	89.69
421.839	91.69
422.062	80.69
422.285	101.69
422.507	97.69
422.73	94.69
422.953	98.69
423.175	90.69
423.398	101.69
423.621	92.69
423.843	85.69
424.066	98.69
424.288	84.69
424.511	93.69
424.733	96.69
424.956	117.69
425.178	98.69
425.401	107.69
425.623	93.69
425.846	97.69
426.068	90.69
426.291	89.69
426.513	85.69
426.735	91.69
426.958	96.69
427.18	121.69
427.402	131.69
427.625	162.69
427.847	124.69
428.069	115.69
428.292	91.69
428.514	91.69
428.736	94.69
428.958	82.69
429.181	95.69
429.403	94.69
429.625	89.69
429.847	87.69
430.069	110.69
430.292	87.69
430.514	92.69
430.736	92.69
430.958	89.69
431.18	91.69
431.402	90.69
431.624	77.69
431.846	80.69
432.068	84.69
432.29	87.69
432.512	96.69
432.734	90.69
432.956	98.69
433.178	89.69
433.4	99.69
433.622	88.69
433.844	95.69
434.066	98.69
434.287	101.69
434.509	79.69
434.731	93.69
434.953	99.69
435.175	78.69
435.397	82.69
435.618	94.69
435.84	99.69
436.062	112.69
436.284	119.69
436.505	112.69
436.727	108.69
436.949	91.69
437.17	92.69
437.392	76.69
437.614	98.69
437.835	100.69
438.057	116.69
438.278	108.69
438.5	91.69
438.721	107.69
438.943	100.69
439.165	90.69
439.386	73.69
439.608	93.69
439.829	85.69
440.05	115.69
440.272	128.69
440.493	87.69
440.715	81.69
440.936	83.69
441.158	91.69
441.379	101.69
441.6	99.69
441.822	100.69
442.043	85.69
442.264	95.69
442.486	92.69
442.707	87.69
442.928	99.69
443.149	128.69
443.371	127.69
443.592	96.69
443.813	116.69
444.034	91.69
444.255	86.69
444.476	82.69
444.698	85.69
444.919	102.69
445.14	144.69
445.361	114.69
445.582	108.69
445.803	113.69
446.024	135.69
446.245	116.69
446.466	110.69
446.687	94.69
446.908	103.69
447.129	86.69
447.35	99.69
447.571	92.69
447.792	92.69
448.013	91.69
448.234	110.69
448.455	109.69
448.675	101.69
448.896	104.69
449.117	97.69
449.338	100.69
449.559	123.69
449.779	109.69
450	100.69
450.221	84.69
450.442	89.69
450.662	98.69
450.883	118.69
451.104	102.69
451.324	96.69
451.545	86.69
451.766	99.69
451.986	88.69
452.207	82.69
452.428	92.69
452.648	97.69
452.869	114.69
453.089	109.69
453.31	97.69
453.53	100.69
453.751	95.69
453.971	101.69
454.192	94.69
454.412	94.69
454.633	78.69
454.853	77.69
455.073	99.69
455.294	98.69
455.514	97.69
455.734	95.69
455.955	88.69
456.175	87.69
456.395	78.69
456.616	91.69
456.836	86.69
457.056	91.69
457.276	89.69
457.497	89.69
457.717	78.69
457.937	86.69
458.157	92.69
458.377	87.69
458.598	106.69
458.818	123.69
459.038	139.69
459.258	108.69
459.478	89.69
459.698	85.69
459.918	77.69
460.138	94.69
460.358	90.69
460.578	84.69
460.798	93.69
461.018	101.69
461.238	88.69
461.458	83.69
461.678	92.69
461.898	85.69
462.118	92.69
462.338	91.69
462.558	76.69
462.777	73.69
462.997	101.69
463.217	88.69
463.437	78.69
463.657	92.69
463.876	91.69
464.096	93.69
464.316	90.69
464.536	101.69
464.755	85.69
464.975	108.69
465.195	156.69
465.414	149.69
465.634	87.69
465.854	91.69
466.073	87.69
466.293	78.69
466.512	92.69
466.732	87.69
466.951	77.69
467.171	86.69
467.391	102.69
467.61	107.69
467.829	104.69
468.049	88.69
468.268	102.69
468.488	83.69
468.707	96.69
468.927	89.69
469.146	90.69
469.365	87.69
469.585	78.69
469.804	100.69
470.023	85.69
470.243	91.69
470.462	110.69
470.681	118.69
470.901	100.69
471.12	84.69
471.339	87.69
471.558	87.69
471.777	88.69
471.997	78.69
472.216	118.69
472.435	157.69
472.654	117.69
472.873	124.69
473.092	94.69
473.311	75.69
473.53	86.69
473.749	95.69
473.968	86.69
474.187	97.69
474.406	105.69
474.625	82.69
474.844	82.69
475.063	67.69
475.282	84.69
475.501	93.69
475.72	96.69
475.939	76.69
476.158	90.69
476.377	97.69
476.596	83.69
476.814	93.69
477.033	85.69
477.252	96.69
477.471	86.69
477.69	92.69
477.908	88.69
478.127	83.69
478.346	86.69
478.564	85.69
478.783	92.69
479.002	93.69
479.22	99.69
479.439	106.69
479.658	104.69
479.876	97.69
480.095	75.69
480.313	92.69
480.532	104.69
480.751	85.69
480.969	125.69
481.188	200.69
481.406	167.69
481.624	101.69
481.843	88.69
482.061	88.69
482.28	90.69
482.498	91.69
482.717	98.69
482.935	90.69
483.153	90.69
483.372	89.69
483.59	83.69
483.808	89.69
484.027	89.69
484.245	89.69
484.463	110.69
484.681	91.69
484.9	86.69
485.118	102.69
485.336	85.69
485.554	97.69
485.772	98.69
485.99	103.69
486.209	100.69
486.427	118.69
486.645	116.69
486.863	107.69
487.081	107.69
487.299	100.69
487.517	108.69
487.735	97.69
487.953	91.69
488.171	97.69
488.389	84.69
488.607	94.69
488.825	98.69
489.043	93.69
489.261	96.69
489.479	80.69
489.696	93.69
489.914	106.69
490.132	93.69
490.35	93.69
490.568	80.69
490.786	89.69
491.003	100.69
491.221	89.69
491.439	88.69
491.657	103.69
491.874	75.69
492.092	90.69
492.31	80.69
492.527	96.69
492.745	98.69
492.963	92.69
493.18	76.69
493.398	82.69
493.615	96.69
493.833	97.69
494.05	90.69
494.268	96.69
494.485	85.69
494.703	85.69
494.92	69.69
495.138	81.69
495.355	90.69
495.573	88.69
495.79	84.69
496.008	82.69
496.225	82.69
496.442	89.69
496.66	88.69
496.877	75.69
497.094	109.69
497.312	76.69
497.529	93.69
497.746	85.69
497.963	91.69
498.181	101.69
498.398	97.69
498.615	106.69
498.832	97.69
499.049	97.69
499.267	92.69
499.484	76.69
499.701	86.69
499.918	82.69
500.135	87.69
500.352	88.69
500.569	87.69
500.786	80.69
501.003	93.69
501.22	81.69
501.437	86.69
501.654	77.69
501.871	104.69
502.088	76.69
502.305	93.69
502.522	86.69
502.739	97.69
502.956	106.69
503.172	104.69
503.389	97.69
503.606	83.69
503.823	93.69
504.04	100.69
504.256	80.69
504.473	88.69
504.69	99.69
504.907	80.69
505.123	86.69
505.34	92.69
505.557	87.69
505.773	79.69
505.99	98.69
506.207	91.69
506.423	82.69
506.64	103.69
506.856	90.69
507.073	92.69
507.289	96.69
507.506	104.69
507.722	117.69
507.939	112.69
508.155	82.69
508.372	85.69
508.588	106.69
508.805	96.69
509.021	81.69
509.238	99.69
509.454	99.69
509.67	103.69
509.887	108.69
510.103	139.69
510.319	230.69
510.536	799.69
510.752	2442.69
510.968	662.69
511.184	149.69
511.401	100.69
511.617	76.69
511.833	101.69
512.049	98.69
512.265	100.69
512.481	102.69
512.698	91.69
512.914	88.69
513.13	98.69
513.346	92.69
513.562	86.69
513.778	86.69
513.994	108.69
514.21	92.69
514.426	107.69
514.642	134.69
514.858	123.69
515.074	166.69
515.29	464.69
515.506	1461.69
