Data from Uncirc_1985_H10_HRD10591_00057.txt Node
Date: Wed Jan 03 12:18:28 EST 2024
User: Yrep
Spectrometer: HR+D1059
Trigger mode: 1
Integration Time (sec): 1.000000E-1
Scans to average: 1
Electric dark correction enabled: true
Nonlinearity correction enabled: false
Boxcar width: 0
XAxis mode: Wavelengths
Number of Pixels in Spectrum: 2048
>>>>>Begin Spectral Data<<<<<
223.165	-20.38
223.4	-20.38
223.635	-20.38
223.869	-23.38
224.104	-31.38
224.338	-13.38
224.573	3.62
224.808	-2.38
225.042	-9.38
225.277	-2.38
225.511	-6.38
225.746	6.62
225.98	5.62
226.215	8.62
226.449	7.62
226.683	25.62
226.918	22.62
227.152	28.62
227.387	35.62
227.621	43.62
227.856	49.62
228.09	33.62
228.324	31.62
228.559	72.62
228.793	50.62
229.027	61.62
229.262	63.62
229.496	69.62
229.73	70.62
229.964	84.62
230.199	80.62
230.433	80.62
230.667	62.62
230.901	78.62
231.136	77.62
231.37	79.62
231.604	75.62
231.838	75.62
232.072	74.62
232.306	78.62
232.541	82.62
232.775	75.62
233.009	86.62
233.243	87.62
233.477	81.62
233.711	86.62
233.945	80.62
234.179	76.62
234.413	82.62
234.647	84.62
234.881	76.62
235.115	83.62
235.349	75.62
235.583	80.62
235.817	83.62
236.051	80.62
236.285	68.62
236.519	79.62
236.753	82.62
236.987	73.62
237.221	91.62
237.455	88.62
237.689	68.62
237.922	85.62
238.156	74.62
238.39	74.62
238.624	71.62
238.858	74.62
239.091	61.62
239.325	72.62
239.559	86.62
239.793	84.62
240.027	78.62
240.26	63.62
240.494	71.62
240.728	70.62
240.961	74.62
241.195	73.62
241.429	68.62
241.662	65.62
241.896	68.62
242.13	65.62
242.363	69.62
242.597	67.62
242.83	77.62
243.064	79.62
243.298	80.62
243.531	76.62
243.765	77.62
243.998	73.62
244.232	74.62
244.465	79.62
244.699	64.62
244.932	73.62
245.166	68.62
245.399	86.62
245.633	66.62
245.866	81.62
246.099	82.62
246.333	85.62
246.566	69.62
246.8	83.62
247.033	76.62
247.266	75.62
247.5	64.62
247.733	78.62
247.966	72.62
248.2	78.62
248.433	68.62
248.666	81.62
248.899	78.62
249.133	79.62
249.366	90.62
249.599	94.62
249.832	91.62
250.066	78.62
250.299	96.62
250.532	71.62
250.765	77.62
250.998	72.62
251.231	80.62
251.465	84.62
251.698	94.62
251.931	76.62
252.164	90.62
252.397	73.62
252.63	82.62
252.863	78.62
253.096	81.62
253.329	80.62
253.562	95.62
253.795	79.62
254.028	92.62
254.261	86.62
254.494	82.62
254.727	72.62
254.96	74.62
255.193	60.62
255.426	64.62
255.659	76.62
255.892	84.62
256.124	67.62
256.357	88.62
256.59	82.62
256.823	74.62
257.056	78.62
257.289	85.62
257.521	99.62
257.754	75.62
257.987	87.62
258.22	78.62
258.452	81.62
258.685	86.62
258.918	84.62
259.151	92.62
259.383	75.62
259.616	83.62
259.849	92.62
260.081	83.62
260.314	84.62
260.547	76.62
260.779	78.62
261.012	82.62
261.244	78.62
261.477	91.62
261.71	95.62
261.942	88.62
262.175	122.62
262.407	93.62
262.64	90.62
262.872	91.62
263.105	77.62
263.337	84.62
263.57	78.62
263.802	88.62
264.035	84.62
264.267	82.62
264.499	81.62
264.732	88.62
264.964	78.62
265.197	88.62
265.429	100.62
265.661	83.62
265.894	83.62
266.126	68.62
266.358	84.62
266.591	93.62
266.823	86.62
267.055	86.62
267.287	69.62
267.52	92.62
267.752	87.62
267.984	91.62
268.216	79.62
268.448	84.62
268.681	84.62
268.913	86.62
269.145	89.62
269.377	82.62
269.609	83.62
269.841	82.62
270.073	84.62
270.306	83.62
270.538	91.62
270.77	81.62
271.002	64.62
271.234	78.62
271.466	84.62
271.698	91.62
271.93	79.62
272.162	65.62
272.394	82.62
272.626	90.62
272.858	81.62
273.09	82.62
273.322	89.62
273.553	73.62
273.785	86.62
274.017	90.62
274.249	73.62
274.481	82.62
274.713	79.62
274.945	82.62
275.176	83.62
275.408	104.62
275.64	75.62
275.872	84.62
276.104	96.62
276.335	85.62
276.567	106.62
276.799	123.62
277.031	101.62
277.262	82.62
277.494	85.62
277.726	102.62
277.957	80.62
278.189	83.62
278.421	75.62
278.652	91.62
278.884	81.62
279.115	76.62
279.347	67.62
279.579	92.62
279.81	88.62
280.042	85.62
280.273	95.62
280.505	99.62
280.736	93.62
280.968	88.62
281.199	72.62
281.431	61.62
281.662	86.62
281.894	96.62
282.125	108.62
282.356	125.62
282.588	130.62
282.819	118.62
283.051	88.62
283.282	79.62
283.513	84.62
283.745	91.62
283.976	81.62
284.207	92.62
284.439	85.62
284.67	86.62
284.901	75.62
285.132	86.62
285.364	93.62
285.595	88.62
285.826	86.62
286.057	87.62
286.288	78.62
286.52	87.62
286.751	83.62
286.982	78.62
287.213	85.62
287.444	86.62
287.675	82.62
287.906	85.62
288.138	100.62
288.369	93.62
288.6	85.62
288.831	76.62
289.062	94.62
289.293	74.62
289.524	83.62
289.755	82.62
289.986	94.62
290.217	95.62
290.448	84.62
290.679	96.62
290.91	103.62
291.141	90.62
291.371	75.62
291.602	92.62
291.833	79.62
292.064	85.62
292.295	92.62
292.526	76.62
292.757	86.62
292.987	86.62
293.218	81.62
293.449	92.62
293.68	95.62
293.91	68.62
294.141	89.62
294.372	86.62
294.603	83.62
294.833	95.62
295.064	89.62
295.295	90.62
295.525	104.62
295.756	108.62
295.987	101.62
296.217	139.62
296.448	121.62
296.679	91.62
296.909	96.62
297.14	94.62
297.37	102.62
297.601	90.62
297.831	86.62
298.062	94.62
298.292	84.62
298.523	90.62
298.753	92.62
298.984	88.62
299.214	87.62
299.445	90.62
299.675	82.62
299.905	84.62
300.136	73.62
300.366	86.62
300.597	98.62
300.827	87.62
301.057	81.62
301.288	93.62
301.518	94.62
301.748	91.62
301.979	97.62
302.209	87.62
302.439	101.62
302.669	90.62
302.9	95.62
303.13	98.62
303.36	89.62
303.59	99.62
303.82	92.62
304.051	96.62
304.281	74.62
304.511	88.62
304.741	106.62
304.971	97.62
305.201	84.62
305.431	96.62
305.661	80.62
305.891	93.62
306.121	93.62
306.352	107.62
306.582	109.62
306.812	97.62
307.042	83.62
307.272	94.62
307.502	102.62
307.731	86.62
307.961	90.62
308.191	90.62
308.421	95.62
308.651	88.62
308.881	95.62
309.111	104.62
309.341	86.62
309.571	93.62
309.8	94.62
310.03	88.62
310.26	96.62
310.49	112.62
310.72	95.62
310.949	91.62
311.179	95.62
311.409	104.62
311.639	97.62
311.868	99.62
312.098	101.62
312.328	96.62
312.557	100.62
312.787	111.62
313.017	95.62
313.246	89.62
313.476	83.62
313.706	90.62
313.935	98.62
314.165	90.62
314.394	110.62
314.624	95.62
314.853	96.62
315.083	91.62
315.312	92.62
315.542	90.62
315.771	91.62
316.001	84.62
316.23	93.62
316.46	102.62
316.689	90.62
316.919	79.62
317.148	83.62
317.377	90.62
317.607	82.62
317.836	96.62
318.065	90.62
318.295	103.62
318.524	92.62
318.753	82.62
318.983	94.62
319.212	106.62
319.441	96.62
319.67	108.62
319.9	83.62
320.129	104.62
320.358	91.62
320.587	101.62
320.816	107.62
321.046	100.62
321.275	92.62
321.504	92.62
321.733	92.62
321.962	103.62
322.191	88.62
322.42	99.62
322.649	101.62
322.878	111.62
323.108	119.62
323.337	115.62
323.566	141.62
323.795	153.62
324.024	202.62
324.253	382.62
324.482	812.62
324.71	1712.62
324.939	2310.62
325.168	854.62
325.397	248.62
325.626	162.62
325.855	145.62
326.084	120.62
326.313	133.62
326.542	162.62
326.77	226.62
326.999	459.62
327.228	953.62
327.457	1806.62
327.686	1400.62
327.914	406.62
328.143	197.62
328.372	158.62
328.6	126.62
328.829	123.62
329.058	124.62
329.287	122.62
329.515	95.62
329.744	105.62
329.972	107.62
330.201	117.62
330.43	146.62
330.658	122.62
330.887	130.62
331.115	118.62
331.344	88.62
331.572	107.62
331.801	99.62
332.03	93.62
332.258	91.62
332.486	101.62
332.715	104.62
332.943	106.62
333.172	89.62
333.4	90.62
333.629	92.62
333.857	106.62
334.085	113.62
334.314	122.62
334.542	136.62
334.771	153.62
334.999	103.62
335.227	97.62
335.455	114.62
335.684	105.62
335.912	92.62
336.14	96.62
336.369	102.62
336.597	98.62
336.825	92.62
337.053	87.62
337.281	81.62
337.51	89.62
337.738	97.62
337.966	89.62
338.194	85.62
338.422	86.62
338.65	88.62
338.878	90.62
339.106	95.62
339.334	100.62
339.562	97.62
339.79	89.62
340.018	88.62
340.246	86.62
340.474	90.62
340.702	96.62
340.93	86.62
341.158	94.62
341.386	82.62
341.614	95.62
341.842	97.62
342.07	83.62
342.298	88.62
342.526	84.62
342.754	91.62
342.981	89.62
343.209	83.62
343.437	108.62
343.665	89.62
343.893	84.62
344.12	95.62
344.348	84.62
344.576	83.62
344.804	98.62
345.031	106.62
345.259	91.62
345.487	98.62
345.714	86.62
345.942	88.62
346.17	91.62
346.397	87.62
346.625	100.62
346.853	87.62
347.08	89.62
347.308	109.62
347.535	100.62
347.763	100.62
347.99	92.62
348.218	94.62
348.445	86.62
348.673	91.62
348.9	102.62
349.128	92.62
349.355	87.62
349.583	99.62
349.81	97.62
350.037	85.62
350.265	101.62
350.492	96.62
350.72	97.62
350.947	100.62
351.174	99.62
351.402	120.62
351.629	96.62
351.856	94.62
352.083	113.62
352.311	95.62
352.538	103.62
352.765	100.62
352.992	113.62
353.22	102.62
353.447	100.62
353.674	100.62
353.901	104.62
354.128	92.62
354.355	84.62
354.583	100.62
354.81	91.62
355.037	78.62
355.264	91.62
355.491	91.62
355.718	75.62
355.945	96.62
356.172	96.62
356.399	104.62
356.626	102.62
356.853	92.62
357.08	94.62
357.307	83.62
357.534	74.62
357.761	97.62
357.988	96.62
358.215	91.62
358.441	84.62
358.668	88.62
358.895	88.62
359.122	89.62
359.349	89.62
359.576	99.62
359.802	108.62
360.029	113.62
360.256	110.62
360.483	99.62
360.709	88.62
360.936	86.62
361.163	98.62
361.39	101.62
361.616	94.62
361.843	89.62
362.07	90.62
362.296	103.62
362.523	93.62
362.749	92.62
362.976	100.62
363.203	90.62
363.429	90.62
363.656	88.62
363.882	88.62
364.109	102.62
364.335	97.62
364.562	98.62
364.788	92.62
365.015	100.62
365.241	92.62
365.468	116.62
365.694	106.62
365.92	90.62
366.147	82.62
366.373	81.62
366.599	105.62
366.826	91.62
367.052	82.62
367.278	101.62
367.505	99.62
367.731	84.62
367.957	96.62
368.184	85.62
368.41	98.62
368.636	113.62
368.862	129.62
369.089	103.62
369.315	113.62
369.541	86.62
369.767	95.62
369.993	96.62
370.219	98.62
370.445	92.62
370.672	86.62
370.898	79.62
371.124	96.62
371.35	88.62
371.576	95.62
371.802	98.62
372.028	81.62
372.254	68.62
372.48	96.62
372.706	75.62
372.932	88.62
373.158	86.62
373.384	94.62
373.61	87.62
373.835	89.62
374.061	92.62
374.287	80.62
374.513	92.62
374.739	94.62
374.965	78.62
375.191	90.62
375.416	102.62
375.642	89.62
375.868	88.62
376.094	90.62
376.319	94.62
376.545	85.62
376.771	92.62
376.997	86.62
377.222	91.62
377.448	84.62
377.674	83.62
377.899	95.62
378.125	90.62
378.35	102.62
378.576	90.62
378.802	89.62
379.027	86.62
379.253	92.62
379.478	96.62
379.704	78.62
379.929	92.62
380.155	90.62
380.38	105.62
380.606	92.62
380.831	90.62
381.057	97.62
381.282	99.62
381.507	104.62
381.733	97.62
381.958	110.62
382.184	90.62
382.409	99.62
382.634	98.62
382.86	112.62
383.085	105.62
383.31	104.62
383.535	105.62
383.761	87.62
383.986	96.62
384.211	86.62
384.436	100.62
384.662	99.62
384.887	102.62
385.112	95.62
385.337	83.62
385.562	96.62
385.787	105.62
386.013	100.62
386.238	106.62
386.463	103.62
386.688	102.62
386.913	86.62
387.138	102.62
387.363	96.62
387.588	107.62
387.813	88.62
388.038	91.62
388.263	108.62
388.488	115.62
388.713	86.62
388.938	90.62
389.163	91.62
389.387	84.62
389.612	93.62
389.837	92.62
390.062	86.62
390.287	84.62
390.512	87.62
390.736	91.62
390.961	109.62
391.186	101.62
391.411	91.62
391.636	94.62
391.86	84.62
392.085	79.62
392.31	97.62
392.534	85.62
392.759	85.62
392.984	90.62
393.208	88.62
393.433	93.62
393.658	82.62
393.882	89.62
394.107	81.62
394.331	93.62
394.556	76.62
394.78	112.62
395.005	87.62
395.229	83.62
395.454	86.62
395.678	76.62
395.903	94.62
396.127	99.62
396.352	92.62
396.576	82.62
396.801	75.62
397.025	95.62
397.249	91.62
397.474	88.62
397.698	85.62
397.922	86.62
398.147	84.62
398.371	80.62
398.595	87.62
398.82	89.62
399.044	91.62
399.268	87.62
399.492	101.62
399.717	99.62
399.941	89.62
400.165	88.62
400.389	92.62
400.613	95.62
400.837	83.62
401.062	78.62
401.286	107.62
401.51	89.62
401.734	75.62
401.958	96.62
402.182	100.62
402.406	138.62
402.63	119.62
402.854	90.62
403.078	87.62
403.302	97.62
403.526	81.62
403.75	81.62
403.974	84.62
404.198	80.62
404.422	90.62
404.645	94.62
404.869	97.62
405.093	90.62
405.317	99.62
405.541	88.62
405.765	84.62
405.988	122.62
406.212	185.62
406.436	223.62
406.66	132.62
406.883	87.62
407.107	92.62
407.331	112.62
407.555	103.62
407.778	89.62
408.002	85.62
408.226	91.62
408.449	82.62
408.673	90.62
408.896	91.62
409.12	95.62
409.344	82.62
409.567	99.62
409.791	91.62
410.014	103.62
410.238	93.62
410.461	87.62
410.685	74.62
410.908	94.62
411.132	96.62
411.355	98.62
411.578	81.62
411.802	90.62
412.025	84.62
412.249	99.62
412.472	91.62
412.695	104.62
412.919	88.62
413.142	96.62
413.365	89.62
413.589	81.62
413.812	101.62
414.035	94.62
414.258	94.62
414.482	90.62
414.705	87.62
414.928	91.62
415.151	80.62
415.374	95.62
415.597	105.62
415.821	84.62
416.044	90.62
416.267	83.62
416.49	85.62
416.713	73.62
416.936	72.62
417.159	83.62
417.382	82.62
417.605	89.62
417.828	100.62
418.051	90.62
418.274	82.62
418.497	89.62
418.72	91.62
418.943	80.62
419.166	87.62
419.389	82.62
419.611	88.62
419.834	81.62
420.057	84.62
420.28	95.62
420.503	89.62
420.726	90.62
420.948	79.62
421.171	82.62
421.394	79.62
421.617	94.62
421.839	95.62
422.062	78.62
422.285	86.62
422.507	98.62
422.73	90.62
422.953	88.62
423.175	94.62
423.398	82.62
423.621	87.62
423.843	95.62
424.066	93.62
424.288	83.62
424.511	95.62
424.733	103.62
424.956	104.62
425.178	101.62
425.401	94.62
425.623	90.62
425.846	84.62
426.068	87.62
426.291	98.62
426.513	93.62
426.735	79.62
426.958	98.62
427.18	98.62
427.402	122.62
427.625	159.62
427.847	145.62
428.069	113.62
428.292	80.62
428.514	85.62
428.736	88.62
428.958	82.62
429.181	97.62
429.403	102.62
429.625	85.62
429.847	101.62
430.069	92.62
430.292	75.62
430.514	82.62
430.736	96.62
430.958	94.62
431.18	77.62
431.402	88.62
431.624	91.62
431.846	84.62
432.068	83.62
432.29	93.62
432.512	78.62
432.734	78.62
432.956	75.62
433.178	93.62
433.4	101.62
433.622	79.62
433.844	86.62
434.066	83.62
434.287	94.62
434.509	86.62
434.731	81.62
434.953	84.62
435.175	88.62
435.397	92.62
435.618	84.62
435.84	77.62
436.062	107.62
436.284	113.62
436.505	100.62
436.727	98.62
436.949	89.62
437.17	92.62
437.392	89.62
437.614	94.62
437.835	101.62
438.057	114.62
438.278	104.62
438.5	106.62
438.721	112.62
438.943	99.62
439.165	91.62
439.386	84.62
439.608	87.62
439.829	85.62
440.05	106.62
440.272	122.62
440.493	94.62
440.715	92.62
440.936	83.62
441.158	79.62
441.379	98.62
441.6	88.62
441.822	95.62
442.043	81.62
442.264	108.62
442.486	103.62
442.707	93.62
442.928	98.62
443.149	129.62
443.371	128.62
443.592	122.62
443.813	108.62
444.034	107.62
444.255	100.62
444.476	95.62
444.698	90.62
444.919	86.62
445.14	119.62
445.361	110.62
445.582	108.62
445.803	162.62
446.024	147.62
446.245	120.62
446.466	108.62
446.687	107.62
446.908	85.62
447.129	93.62
447.35	100.62
447.571	92.62
447.792	106.62
448.013	90.62
448.234	102.62
448.455	107.62
448.675	108.62
448.896	115.62
449.117	98.62
449.338	87.62
449.559	120.62
449.779	130.62
450	91.62
450.221	88.62
450.442	71.62
450.662	85.62
450.883	98.62
451.104	112.62
451.324	90.62
451.545	84.62
451.766	96.62
451.986	101.62
452.207	110.62
452.428	89.62
452.648	100.62
452.869	97.62
453.089	109.62
453.31	106.62
453.53	87.62
453.751	105.62
453.971	100.62
454.192	111.62
454.412	95.62
454.633	79.62
454.853	81.62
455.073	94.62
455.294	98.62
455.514	94.62
455.734	75.62
455.955	79.62
456.175	96.62
456.395	84.62
456.616	74.62
456.836	91.62
457.056	86.62
457.276	73.62
457.497	79.62
457.717	96.62
457.937	86.62
458.157	91.62
458.377	94.62
458.598	109.62
458.818	144.62
459.038	159.62
459.258	115.62
459.478	98.62
459.698	90.62
459.918	96.62
460.138	86.62
460.358	95.62
460.578	90.62
460.798	82.62
461.018	84.62
461.238	88.62
461.458	93.62
461.678	87.62
461.898	92.62
462.118	86.62
462.338	92.62
462.558	82.62
462.777	85.62
462.997	79.62
463.217	94.62
463.437	96.62
463.657	91.62
463.876	84.62
464.096	95.62
464.316	84.62
464.536	86.62
464.755	89.62
464.975	100.62
465.195	156.62
465.414	152.62
465.634	101.62
465.854	81.62
466.073	90.62
466.293	86.62
466.512	73.62
466.732	79.62
466.951	80.62
467.171	102.62
467.391	92.62
467.61	107.62
467.829	93.62
468.049	106.62
468.268	97.62
468.488	73.62
468.707	83.62
468.927	87.62
469.146	81.62
469.365	79.62
469.585	89.62
469.804	95.62
470.023	95.62
470.243	70.62
470.462	86.62
470.681	105.62
470.901	80.62
471.12	88.62
471.339	90.62
471.558	80.62
471.777	83.62
471.997	93.62
472.216	129.62
472.435	132.62
472.654	105.62
472.873	109.62
473.092	82.62
473.311	95.62
473.53	75.62
473.749	90.62
473.968	93.62
474.187	106.62
474.406	97.62
474.625	87.62
474.844	71.62
475.063	87.62
475.282	92.62
475.501	80.62
475.72	94.62
475.939	80.62
476.158	85.62
476.377	82.62
476.596	86.62
476.814	79.62
477.033	90.62
477.252	82.62
477.471	95.62
477.69	93.62
477.908	93.62
478.127	83.62
478.346	78.62
478.564	99.62
478.783	98.62
479.002	93.62
479.22	93.62
479.439	115.62
479.658	87.62
479.876	102.62
480.095	92.62
480.313	88.62
480.532	99.62
480.751	87.62
480.969	129.62
481.188	244.62
481.406	178.62
481.624	87.62
481.843	96.62
482.061	82.62
482.28	76.62
482.498	75.62
482.717	88.62
482.935	91.62
483.153	95.62
483.372	91.62
483.59	81.62
483.808	82.62
484.027	83.62
484.245	83.62
484.463	106.62
484.681	95.62
484.9	74.62
485.118	108.62
485.336	100.62
485.554	94.62
485.772	88.62
485.99	103.62
486.209	102.62
486.427	98.62
486.645	111.62
486.863	101.62
487.081	96.62
487.299	101.62
487.517	96.62
487.735	81.62
487.953	106.62
488.171	106.62
488.389	96.62
488.607	84.62
488.825	88.62
489.043	95.62
489.261	101.62
489.479	81.62
489.696	89.62
489.914	96.62
490.132	84.62
490.35	86.62
490.568	74.62
490.786	84.62
491.003	83.62
491.221	89.62
491.439	77.62
491.657	107.62
491.874	81.62
492.092	87.62
492.31	89.62
492.527	88.62
492.745	90.62
492.963	94.62
493.18	82.62
493.398	84.62
493.615	86.62
493.833	86.62
494.05	86.62
494.268	87.62
494.485	102.62
494.703	92.62
494.92	99.62
495.138	89.62
495.355	86.62
495.573	97.62
495.79	100.62
496.008	86.62
496.225	86.62
496.442	83.62
496.66	89.62
496.877	80.62
497.094	98.62
497.312	91.62
497.529	82.62
497.746	97.62
497.963	76.62
498.181	88.62
498.398	99.62
498.615	111.62
498.832	105.62
499.049	84.62
499.267	98.62
499.484	94.62
499.701	74.62
499.918	86.62
500.135	84.62
500.352	89.62
500.569	88.62
500.786	98.62
501.003	82.62
501.22	90.62
501.437	98.62
501.654	93.62
501.871	106.62
502.088	89.62
502.305	96.62
502.522	83.62
502.739	88.62
502.956	89.62
503.172	85.62
503.389	85.62
503.606	89.62
503.823	94.62
504.04	98.62
504.256	96.62
504.473	83.62
504.69	91.62
504.907	85.62
505.123	76.62
505.34	68.62
505.557	93.62
505.773	94.62
505.99	85.62
506.207	90.62
506.423	95.62
506.64	90.62
506.856	99.62
507.073	85.62
507.289	99.62
507.506	110.62
507.722	105.62
507.939	103.62
508.155	116.62
508.372	88.62
508.588	92.62
508.805	87.62
509.021	86.62
509.238	92.62
509.454	107.62
509.67	104.62
509.887	116.62
510.103	129.62
510.319	214.62
510.536	776.62
510.752	2486.62
510.968	692.62
511.184	159.62
511.401	106.62
511.617	104.62
511.833	109.62
512.049	90.62
512.265	84.62
512.481	89.62
512.698	84.62
512.914	96.62
513.13	99.62
513.346	103.62
513.562	84.62
513.778	93.62
513.994	84.62
514.21	106.62
514.426	126.62
514.642	133.62
514.858	117.62
515.074	172.62
515.29	456.62
515.506	1513.62
515.721	550.62
515.937	151.62
516.153	110.62
