Data from Uncirc_1985_H10_HRD10591_00035.txt Node
Date: Wed Jan 03 12:18:24 EST 2024
User: Yrep
Spectrometer: HR+D1059
Trigger mode: 1
Integration Time (sec): 1.000000E-1
Scans to average: 1
Electric dark correction enabled: true
Nonlinearity correction enabled: false
Boxcar width: 0
XAxis mode: Wavelengths
Number of Pixels in Spectrum: 2048
>>>>>Begin Spectral Data<<<<<
223.165	-8
223.4	-8
223.635	-8
223.869	-24
224.104	-23
224.338	-18
224.573	-16
224.808	-11
225.042	-1
225.277	-11
225.511	-15
225.746	-10
225.98	17
226.215	21
226.449	11
226.683	22
226.918	27
227.152	39
227.387	57
227.621	46
227.856	36
228.09	32
228.324	61
228.559	63
228.793	52
229.027	59
229.262	53
229.496	81
229.73	73
229.964	86
230.199	71
230.433	76
230.667	84
230.901	81
231.136	73
231.37	87
231.604	72
231.838	83
232.072	83
232.306	72
232.541	86
232.775	92
233.009	74
233.243	85
233.477	77
233.711	69
233.945	78
234.179	73
234.413	80
234.647	77
234.881	59
235.115	93
235.349	73
235.583	67
235.817	65
236.051	87
236.285	81
236.519	80
236.753	85
236.987	80
237.221	74
237.455	85
237.689	79
237.922	85
238.156	83
238.39	83
238.624	66
238.858	71
239.091	82
239.325	57
239.559	85
239.793	76
240.027	71
240.26	73
240.494	79
240.728	73
240.961	88
241.195	79
241.429	73
241.662	71
241.896	79
242.13	63
242.363	69
242.597	86
242.83	61
243.064	70
243.298	75
243.531	89
243.765	75
243.998	90
244.232	85
244.465	91
244.699	80
244.932	95
245.166	71
245.399	82
245.633	88
245.866	71
246.099	81
246.333	88
246.566	79
246.8	82
247.033	84
247.266	80
247.5	75
247.733	79
247.966	95
248.2	88
248.433	83
248.666	83
248.899	88
249.133	93
249.366	89
249.599	93
249.832	92
250.066	72
250.299	76
250.532	88
250.765	74
250.998	78
251.231	75
251.465	81
251.698	83
251.931	97
252.164	83
252.397	70
252.63	82
252.863	87
253.096	85
253.329	87
253.562	87
253.795	88
254.028	81
254.261	63
254.494	77
254.727	82
254.96	84
255.193	83
255.426	81
255.659	74
255.892	84
256.124	91
256.357	80
256.59	85
256.823	91
257.056	76
257.289	89
257.521	81
257.754	72
257.987	96
258.22	91
258.452	95
258.685	77
258.918	81
259.151	85
259.383	97
259.616	91
259.849	65
260.081	76
260.314	81
260.547	93
260.779	70
261.012	79
261.244	86
261.477	86
261.71	92
261.942	109
262.175	118
262.407	86
262.64	96
262.872	85
263.105	84
263.337	85
263.57	92
263.802	104
264.035	90
264.267	83
264.499	80
264.732	81
264.964	80
265.197	80
265.429	83
265.661	85
265.894	86
266.126	72
266.358	80
266.591	84
266.823	81
267.055	93
267.287	91
267.52	90
267.752	85
267.984	93
268.216	83
268.448	91
268.681	76
268.913	90
269.145	80
269.377	85
269.609	81
269.841	86
270.073	92
270.306	88
270.538	85
270.77	82
271.002	89
271.234	79
271.466	82
271.698	73
271.93	85
272.162	91
272.394	92
272.626	90
272.858	74
273.09	81
273.322	92
273.553	102
273.785	100
274.017	85
274.249	90
274.481	72
274.713	81
274.945	85
275.176	87
275.408	96
275.64	84
275.872	89
276.104	95
276.335	95
276.567	93
276.799	90
277.031	88
277.262	94
277.494	79
277.726	92
277.957	79
278.189	79
278.421	95
278.652	84
278.884	81
279.115	91
279.347	83
279.579	91
279.81	80
280.042	81
280.273	91
280.505	84
280.736	98
280.968	91
281.199	97
281.431	100
281.662	96
281.894	86
282.125	95
282.356	112
282.588	130
282.819	115
283.051	88
283.282	87
283.513	84
283.745	82
283.976	93
284.207	73
284.439	84
284.67	85
284.901	84
285.132	105
285.364	90
285.595	97
285.826	93
286.057	79
286.288	84
286.52	96
286.751	87
286.982	88
287.213	83
287.444	93
287.675	72
287.906	83
288.138	81
288.369	83
288.6	81
288.831	70
289.062	93
289.293	91
289.524	83
289.755	82
289.986	84
290.217	83
290.448	92
290.679	103
290.91	92
291.141	81
291.371	89
291.602	98
291.833	83
292.064	99
292.295	86
292.526	85
292.757	75
292.987	93
293.218	93
293.449	98
293.68	92
293.91	88
294.141	81
294.372	85
294.603	83
294.833	82
295.064	87
295.295	72
295.525	95
295.756	94
295.987	106
296.217	133
296.448	122
296.679	99
296.909	94
297.14	96
297.37	89
297.601	101
297.831	105
298.062	89
298.292	101
298.523	104
298.753	99
298.984	95
299.214	87
299.445	106
299.675	111
299.905	99
300.136	84
300.366	82
300.597	89
300.827	87
301.057	103
301.288	107
301.518	97
301.748	84
301.979	87
302.209	86
302.439	88
302.669	89
302.9	94
303.13	91
303.36	101
303.59	108
303.82	84
304.051	88
304.281	84
304.511	89
304.741	82
304.971	79
305.201	96
305.431	92
305.661	92
305.891	101
306.121	95
306.352	91
306.582	87
306.812	101
307.042	92
307.272	91
307.502	101
307.731	104
307.961	95
308.191	93
308.421	97
308.651	88
308.881	95
309.111	103
309.341	99
309.571	94
309.8	95
310.03	82
310.26	87
310.49	101
310.72	105
310.949	99
311.179	102
311.409	100
311.639	90
311.868	85
312.098	93
312.328	99
312.557	105
312.787	103
313.017	108
313.246	90
313.476	96
313.706	98
313.935	86
314.165	105
314.394	96
314.624	105
314.853	101
315.083	81
315.312	96
315.542	108
315.771	85
316.001	90
316.23	95
316.46	91
316.689	93
316.919	98
317.148	103
317.377	112
317.607	90
317.836	84
318.065	92
318.295	95
318.524	100
318.753	85
318.983	84
319.212	89
319.441	107
319.67	108
319.9	96
320.129	91
320.358	101
320.587	102
320.816	105
321.046	115
321.275	104
321.504	109
321.733	97
321.962	87
322.191	101
322.42	89
322.649	96
322.878	123
323.108	113
323.337	116
323.566	128
323.795	145
324.024	195
324.253	360
324.482	759
324.71	1556
324.939	2043
325.168	774
325.397	224
325.626	135
325.855	128
326.084	116
326.313	142
326.542	144
326.77	227
326.999	424
327.228	897
327.457	1591
327.686	1303
327.914	346
328.143	171
328.372	131
328.6	125
328.829	109
329.058	125
329.287	116
329.515	99
329.744	103
329.972	106
330.201	120
330.43	109
330.658	127
330.887	143
331.115	131
331.344	104
331.572	90
331.801	98
332.03	96
332.258	85
332.486	94
332.715	85
332.943	102
333.172	83
333.4	101
333.629	107
333.857	124
334.085	113
334.314	109
334.542	116
334.771	114
334.999	91
335.227	106
335.455	110
335.684	95
335.912	90
336.14	99
336.369	91
336.597	95
336.825	94
337.053	104
337.281	91
337.51	88
337.738	91
337.966	97
338.194	100
338.422	90
338.65	83
338.878	103
339.106	90
339.334	90
339.562	96
339.79	74
340.018	89
340.246	103
340.474	89
340.702	96
340.93	84
341.158	92
341.386	96
341.614	98
341.842	85
342.07	97
342.298	88
342.526	79
342.754	87
342.981	94
343.209	97
343.437	92
343.665	98
343.893	92
344.12	104
344.348	86
344.576	98
344.804	92
345.031	99
345.259	81
345.487	92
345.714	102
345.942	106
346.17	82
346.397	84
346.625	99
346.853	93
347.08	99
347.308	97
347.535	95
347.763	105
347.99	90
348.218	97
348.445	104
348.673	104
348.9	97
349.128	106
349.355	102
349.583	84
349.81	93
350.037	97
350.265	96
350.492	98
350.72	105
350.947	96
351.174	109
351.402	107
351.629	104
351.856	92
352.083	106
352.311	116
352.538	107
352.765	96
352.992	96
353.22	104
353.447	96
353.674	97
353.901	87
354.128	92
354.355	93
354.583	104
354.81	103
355.037	93
355.264	95
355.491	84
355.718	92
355.945	97
356.172	87
356.399	104
356.626	97
356.853	91
357.08	102
357.307	99
357.534	90
357.761	92
357.988	92
358.215	95
358.441	93
358.668	100
358.895	88
359.122	88
359.349	90
359.576	85
359.802	97
360.029	98
360.256	100
360.483	96
360.709	89
360.936	99
361.163	83
361.39	105
361.616	102
361.843	95
362.07	93
362.296	89
362.523	104
362.749	93
362.976	106
363.203	100
363.429	80
363.656	85
363.882	95
364.109	82
364.335	96
364.562	91
364.788	88
365.015	85
365.241	107
365.468	95
365.694	107
365.92	92
366.147	85
366.373	92
366.599	104
366.826	95
367.052	103
367.278	92
367.505	88
367.731	101
367.957	91
368.184	104
368.41	98
368.636	126
368.862	109
369.089	100
369.315	97
369.541	87
369.767	91
369.993	108
370.219	99
370.445	96
370.672	76
370.898	92
371.124	91
371.35	101
371.576	95
371.802	78
372.028	78
372.254	89
372.48	95
372.706	94
372.932	92
373.158	84
373.384	92
373.61	83
373.835	79
374.061	95
374.287	93
374.513	79
374.739	87
374.965	95
375.191	84
375.416	87
375.642	94
375.868	105
376.094	81
376.319	89
376.545	94
376.771	97
376.997	99
377.222	83
377.448	95
377.674	89
377.899	90
378.125	87
378.35	87
378.576	94
378.802	79
379.027	98
379.253	75
379.478	77
379.704	82
379.929	83
380.155	107
380.38	86
380.606	93
380.831	103
381.057	103
381.282	90
381.507	86
381.733	102
381.958	95
382.184	94
382.409	93
382.634	99
382.86	107
383.085	88
383.31	97
383.535	98
383.761	85
383.986	89
384.211	114
384.436	94
384.662	100
384.887	106
385.112	103
385.337	116
385.562	102
385.787	98
386.013	117
386.238	108
386.463	113
386.688	116
386.913	96
387.138	92
387.363	108
387.588	100
387.813	90
388.038	92
388.263	96
388.488	106
388.713	103
388.938	95
389.163	97
389.387	86
389.612	96
389.837	92
390.062	87
390.287	107
390.512	100
390.736	86
390.961	91
391.186	90
391.411	109
391.636	96
391.86	89
392.085	73
392.31	90
392.534	96
392.759	89
392.984	94
393.208	102
393.433	117
393.658	99
393.882	82
394.107	84
394.331	88
394.556	84
394.78	108
395.005	82
395.229	89
395.454	86
395.678	88
395.903	98
396.127	102
396.352	91
396.576	83
396.801	77
397.025	94
397.249	80
397.474	110
397.698	83
397.922	89
398.147	86
398.371	79
398.595	91
398.82	100
399.044	85
399.268	84
399.492	75
399.717	85
399.941	95
400.165	87
400.389	87
400.613	94
400.837	91
401.062	95
401.286	84
401.51	80
401.734	80
401.958	97
402.182	117
402.406	138
402.63	98
402.854	90
403.078	90
403.302	89
403.526	91
403.75	82
403.974	97
404.198	92
404.422	93
404.645	99
404.869	98
405.093	82
405.317	100
405.541	94
405.765	95
405.988	117
406.212	167
406.436	210
406.66	128
406.883	108
407.107	73
407.331	83
407.555	108
407.778	97
408.002	91
408.226	92
408.449	82
408.673	89
408.896	90
409.12	92
409.344	98
409.567	83
409.791	95
410.014	97
410.238	94
410.461	97
410.685	83
410.908	93
411.132	91
411.355	105
411.578	81
411.802	75
412.025	87
412.249	81
412.472	100
412.695	91
412.919	87
413.142	91
413.365	87
413.589	89
413.812	87
414.035	105
414.258	99
414.482	98
414.705	99
414.928	87
415.151	79
415.374	80
415.597	81
415.821	84
416.044	81
416.267	88
416.49	92
416.713	92
416.936	94
417.159	89
417.382	74
417.605	93
417.828	98
418.051	84
418.274	76
418.497	84
418.72	97
418.943	92
419.166	88
419.389	81
419.611	86
419.834	93
420.057	95
420.28	90
420.503	82
420.726	91
420.948	100
421.171	90
421.394	100
421.617	88
421.839	92
422.062	98
422.285	98
422.507	99
422.73	110
422.953	101
423.175	106
423.398	90
423.621	94
423.843	83
424.066	81
424.288	86
424.511	95
424.733	93
424.956	104
425.178	82
425.401	88
425.623	101
425.846	103
426.068	84
426.291	104
426.513	84
426.735	80
426.958	94
427.18	108
427.402	133
427.625	145
427.847	102
428.069	97
428.292	93
428.514	86
428.736	83
428.958	101
429.181	95
429.403	90
429.625	89
429.847	82
430.069	104
430.292	105
430.514	89
430.736	82
430.958	75
431.18	86
431.402	81
431.624	87
431.846	88
432.068	76
432.29	79
432.512	101
432.734	98
432.956	109
433.178	103
433.4	101
433.622	91
433.844	92
434.066	89
434.287	104
434.509	92
434.731	88
434.953	95
435.175	88
435.397	95
435.618	85
435.84	107
436.062	101
436.284	98
436.505	98
436.727	86
436.949	100
437.17	97
437.392	89
437.614	99
437.835	93
438.057	114
438.278	107
438.5	107
438.721	121
438.943	99
439.165	90
439.386	79
439.608	86
439.829	93
440.05	114
440.272	125
440.493	93
440.715	94
440.936	96
441.158	92
441.379	94
441.6	98
441.822	86
442.043	93
442.264	80
442.486	97
442.707	91
442.928	109
443.149	125
443.371	112
443.592	95
443.813	111
444.034	96
444.255	83
444.476	91
444.698	73
444.919	85
445.14	144
445.361	124
445.582	113
445.803	121
446.024	141
446.245	120
446.466	112
446.687	73
446.908	83
447.129	101
447.35	75
447.571	91
447.792	91
448.013	96
448.234	90
448.455	98
448.675	114
448.896	108
449.117	102
449.338	102
449.559	117
449.779	116
450	95
450.221	81
450.442	91
450.662	103
450.883	92
451.104	109
451.324	90
451.545	97
451.766	85
451.986	93
452.207	85
452.428	94
452.648	90
452.869	103
453.089	113
453.31	104
453.53	97
453.751	86
453.971	106
454.192	97
454.412	99
454.633	81
454.853	75
455.073	90
455.294	87
455.514	83
455.734	76
455.955	83
456.175	79
456.395	93
456.616	97
456.836	68
457.056	87
457.276	83
457.497	92
457.717	86
457.937	80
458.157	103
458.377	88
458.598	95
458.818	117
459.038	131
459.258	106
459.478	91
459.698	86
459.918	88
460.138	89
460.358	81
460.578	77
460.798	96
461.018	95
461.238	88
461.458	87
461.678	79
461.898	84
462.118	87
462.338	87
462.558	75
462.777	69
462.997	69
463.217	80
463.437	92
463.657	84
463.876	82
464.096	92
464.316	100
464.536	81
464.755	112
464.975	99
465.195	149
465.414	148
465.634	100
465.854	93
466.073	99
466.293	99
466.512	82
466.732	94
466.951	88
467.171	76
467.391	89
467.61	73
467.829	102
468.049	105
468.268	88
468.488	99
468.707	88
468.927	76
469.146	83
469.365	96
469.585	87
469.804	84
470.023	84
470.243	79
470.462	92
470.681	98
470.901	87
471.12	88
471.339	72
471.558	84
471.777	84
471.997	92
472.216	104
472.435	117
472.654	91
472.873	89
473.092	94
473.311	97
473.53	91
473.749	87
473.968	92
474.187	94
474.406	100
474.625	87
474.844	94
475.063	96
475.282	81
475.501	84
475.72	96
475.939	96
476.158	85
476.377	96
476.596	93
476.814	93
477.033	84
477.252	79
477.471	93
477.69	80
477.908	89
478.127	74
478.346	89
478.564	81
478.783	104
479.002	93
479.22	104
479.439	90
479.658	96
479.876	97
480.095	88
480.313	83
480.532	83
480.751	99
480.969	105
481.188	154
481.406	132
481.624	99
481.843	95
482.061	102
482.28	100
482.498	90
482.717	106
482.935	90
483.153	106
483.372	99
483.59	100
483.808	77
484.027	97
484.245	85
484.463	95
484.681	95
484.9	96
485.118	107
485.336	101
485.554	99
485.772	93
485.99	98
486.209	112
486.427	108
486.645	96
486.863	101
487.081	100
487.299	98
487.517	107
487.735	89
487.953	92
488.171	96
488.389	104
488.607	94
488.825	79
489.043	81
489.261	88
489.479	88
489.696	88
489.914	95
490.132	88
490.35	95
490.568	91
490.786	91
491.003	97
491.221	85
491.439	83
491.657	76
491.874	92
492.092	86
492.31	86
492.527	96
492.745	82
492.963	85
493.18	81
493.398	83
493.615	87
493.833	94
494.05	78
494.268	81
494.485	95
494.703	82
494.92	98
495.138	83
495.355	77
495.573	79
495.79	81
496.008	97
496.225	84
496.442	85
496.66	80
496.877	95
497.094	83
497.312	84
497.529	85
497.746	87
497.963	93
498.181	91
498.398	96
498.615	109
498.832	104
499.049	95
499.267	102
499.484	87
499.701	92
499.918	89
500.135	104
500.352	109
500.569	97
500.786	93
501.003	91
501.22	90
501.437	100
501.654	94
501.871	108
502.088	111
502.305	85
502.522	106
502.739	87
502.956	87
503.172	95
503.389	88
503.606	87
503.823	93
504.04	94
504.256	102
504.473	68
504.69	77
504.907	107
505.123	84
505.34	92
505.557	106
505.773	92
505.99	88
506.207	79
506.423	95
506.64	86
506.856	81
507.073	93
507.289	112
507.506	99
507.722	110
507.939	106
508.155	100
508.372	92
508.588	73
508.805	85
509.021	90
509.238	92
509.454	98
509.67	95
509.887	107
510.103	135
510.319	186
510.536	695
510.752	2130
510.968	586
511.184	140
511.401	105
511.617	105
511.833	105
512.049	91
512.265	80
512.481	92
512.698	99
512.914	88
513.13	87
513.346	100
513.562	107
513.778	92
513.994	92
514.21	104
514.426	113
514.642	122
514.858	121
515.074	162
515.29	378
515.506	1265
515.721	463
515.937	152
516.153	102
516.369	83
516.585	107
516.801	98
517.016	99
517.232	84
517.448	94
517.664	92
517.879	93
518.095	89
518.311	96
518.527	98
518.742	93
518.958	87
519.173	95
519.389	108
519.605	97
519.82	90
520.036	108
520.251	96
520.467	95
520.682	84
520.898	99
521.113	95
521.329	131
521.544	192
521.76	493
521.975	2111
522.19	1254
522.406	299
522.621	107
522.836	100
523.052	104
523.267	108
523.482	97
523.698	95
523.913	113
524.128	99
524.343	87
524.559	107
524.774	101
524.989	95
525.204	109
525.419	108
525.634	87
525.849	92
526.064	93
526.28	92
526.495	105
526.71	91
526.925	86
527.14	85
527.355	84
527.57	104
527.785	84
527.999	91
528.214	98
528.429	89
528.644	98
528.859	76
529.074	81
529.289	127
529.503	162
529.718	104
529.933	92
530.148	86
530.363	81
530.577	87
530.792	86
531.007	95
531.221	104
531.436	96
531.651	93
531.865	106
532.08	84
532.295	87
532.509	98
532.724	108
532.938	96
533.153	81
533.367	87
533.582	104
533.796	92
534.011	96
534.225	84
534.44	88
534.654	85
534.868	91
535.083	104
535.297	106
535.511	97
535.726	93
535.94	98
536.154	108
536.369	89
536.583	93
536.797	93
537.011	92
537.225	77
537.44	83
537.654	87
537.868	94
538.082	92
538.296	83
538.51	93
538.724	100
538.938	98
539.153	100
539.367	88
539.581	85
539.795	107
540.009	98
540.222	83
540.436	98
540.65	87
540.864	101
541.078	86
541.292	87
541.506	85
541.72	79
541.934	72
542.147	95
542.361	79
542.575	84
542.789	91
543.002	87
543.216	95
543.43	100
543.644	98
543.857	95
544.071	91
544.285	99
544.498	90
544.712	76
544.925	91
545.139	99
545.352	90
545.566	95
545.779	85
545.993	87
546.206	80
546.42	94
546.633	99
546.847	77
547.06	90
547.274	96
547.487	96
547.7	96
547.914	102
548.127	99
548.34	85
548.554	93
548.767	98
548.98	95
549.193	89
549.407	92
549.62	76
549.833	89
550.046	93
550.259	96
550.473	74
550.686	81
550.899	86
551.112	86
551.325	75
551.538	92
551.751	103
551.964	100
552.177	92
552.39	88
552.603	99
552.816	96
553.029	106
553.242	81
553.455	91
553.667	103
553.88	101
554.093	77
554.306	91
554.519	88
554.732	96
554.944	103
555.157	97
555.37	99
555.583	95
555.795	89
556.008	79
556.221	87
556.433	92
556.646	89
556.859	106
557.071	115
557.284	79
557.496	90
557.709	96
557.921	86
558.134	91
558.346	100
558.559	106
558.771	84
558.984	94
559.196	91
559.409	88
559.621	75
559.833	94
560.046	95
560.258	72
560.47	87
560.683	81
560.895	113
561.107	92
561.32	93
561.532	86
561.744	89
561.956	101
562.168	98
562.381	93
562.593	105
562.805	101
563.017	80
563.229	85
563.441	85
563.653	99
563.865	84
564.077	95
564.289	101
564.501	86
564.713	100
564.925	101
565.137	103
565.349	93
565.561	91
565.773	79
565.985	83
566.197	87
566.408	85
566.62	93
566.832	95
567.044	80
567.255	91
567.467	89
567.679	93
567.891	81
568.102	104
568.314	88
568.526	90
568.737	103
568.949	71
569.161	88
569.372	85
569.584	95
569.795	97
570.007	99
570.218	227
570.43	127
570.641	85
570.853	80
571.064	102
571.276	84
571.487	87
571.698	88
571.91	84
572.121	88
572.333	83
572.544	86
572.755	85
572.966	101
573.178	94
573.389	81
573.6	105
573.811	92
574.023	92
574.234	96
574.445	88
574.656	84
574.867	91
575.078	91
575.289	80
575.501	101
575.712	99
575.923	77
576.134	81
576.345	79
576.556	103
576.767	85
576.978	103
577.188	87
577.399	100
577.61	90
577.821	100
578.032	121
578.243	263
578.454	689
578.665	199
578.875	101
579.086	94
579.297	89
579.508	81
579.718	99
579.929	98
580.14	82
580.35	96
580.561	85
580.772	83
580.982	90
581.193	87
581.403	77
581.614	84
581.825	97
582.035	90
582.246	83
582.456	84
582.667	85
582.877	98
583.087	88
583.298	96
583.508	72
583.719	77
583.929	100
584.139	96
