Data from Uncirc_1985_H10_HRD10591_00088.txt Node
Date: Wed Jan 03 12:18:35 EST 2024
User: Yrep
Spectrometer: HR+D1059
Trigger mode: 1
Integration Time (sec): 1.000000E-1
Scans to average: 1
Electric dark correction enabled: true
Nonlinearity correction enabled: false
Boxcar width: 0
XAxis mode: Wavelengths
Number of Pixels in Spectrum: 2048
>>>>>Begin Spectral Data<<<<<
223.165	-28.25
223.4	-28.25
223.635	-28.25
223.869	-11.25
224.104	-17.25
224.338	-23.25
224.573	-12.25
224.808	-18.25
225.042	-2.25
225.277	-1.25
225.511	-1.25
225.746	3.75
225.98	1.75
226.215	28.75
226.449	-3.25
226.683	25.75
226.918	31.75
227.152	26.75
227.387	35.75
227.621	46.75
227.856	37.75
228.09	41.75
228.324	46.75
228.559	56.75
228.793	50.75
229.027	54.75
229.262	75.75
229.496	72.75
229.73	82.75
229.964	70.75
230.199	85.75
230.433	70.75
230.667	60.75
230.901	83.75
231.136	84.75
231.37	89.75
231.604	77.75
231.838	91.75
232.072	92.75
232.306	77.75
232.541	89.75
232.775	85.75
233.009	80.75
233.243	84.75
233.477	85.75
233.711	88.75
233.945	74.75
234.179	82.75
234.413	88.75
234.647	99.75
234.881	80.75
235.115	75.75
235.349	82.75
235.583	87.75
235.817	76.75
236.051	77.75
236.285	90.75
236.519	73.75
236.753	91.75
236.987	85.75
237.221	80.75
237.455	84.75
237.689	91.75
237.922	75.75
238.156	76.75
238.39	78.75
238.624	87.75
238.858	82.75
239.091	69.75
239.325	82.75
239.559	82.75
239.793	90.75
240.027	87.75
240.26	66.75
240.494	74.75
240.728	88.75
240.961	80.75
241.195	81.75
241.429	75.75
241.662	85.75
241.896	77.75
242.13	75.75
242.363	66.75
242.597	68.75
242.83	78.75
243.064	87.75
243.298	76.75
243.531	68.75
243.765	75.75
243.998	80.75
244.232	87.75
244.465	91.75
244.699	98.75
244.932	70.75
245.166	92.75
245.399	77.75
245.633	64.75
245.866	75.75
246.099	66.75
246.333	56.75
246.566	73.75
246.8	83.75
247.033	71.75
247.266	82.75
247.5	82.75
247.733	77.75
247.966	75.75
248.2	82.75
248.433	73.75
248.666	74.75
248.899	91.75
249.133	76.75
249.366	94.75
249.599	93.75
249.832	96.75
250.066	92.75
250.299	78.75
250.532	74.75
250.765	75.75
250.998	76.75
251.231	83.75
251.465	73.75
251.698	86.75
251.931	80.75
252.164	90.75
252.397	82.75
252.63	96.75
252.863	77.75
253.096	89.75
253.329	83.75
253.562	91.75
253.795	66.75
254.028	84.75
254.261	77.75
254.494	88.75
254.727	82.75
254.96	75.75
255.193	76.75
255.426	82.75
255.659	89.75
255.892	90.75
256.124	79.75
256.357	80.75
256.59	83.75
256.823	59.75
257.056	80.75
257.289	76.75
257.521	83.75
257.754	79.75
257.987	90.75
258.22	80.75
258.452	77.75
258.685	68.75
258.918	80.75
259.151	94.75
259.383	75.75
259.616	75.75
259.849	80.75
260.081	76.75
260.314	72.75
260.547	85.75
260.779	91.75
261.012	87.75
261.244	84.75
261.477	85.75
261.71	92.75
261.942	96.75
262.175	104.75
262.407	104.75
262.64	78.75
262.872	84.75
263.105	85.75
263.337	71.75
263.57	88.75
263.802	100.75
264.035	64.75
264.267	89.75
264.499	76.75
264.732	75.75
264.964	87.75
265.197	71.75
265.429	84.75
265.661	77.75
265.894	88.75
266.126	76.75
266.358	80.75
266.591	78.75
266.823	72.75
267.055	74.75
267.287	73.75
267.52	91.75
267.752	83.75
267.984	100.75
268.216	89.75
268.448	84.75
268.681	89.75
268.913	77.75
269.145	82.75
269.377	80.75
269.609	77.75
269.841	80.75
270.073	88.75
270.306	76.75
270.538	98.75
270.77	88.75
271.002	97.75
271.234	90.75
271.466	101.75
271.698	82.75
271.93	85.75
272.162	90.75
272.394	83.75
272.626	88.75
272.858	84.75
273.09	89.75
273.322	89.75
273.553	93.75
273.785	75.75
274.017	85.75
274.249	84.75
274.481	79.75
274.713	105.75
274.945	94.75
275.176	82.75
275.408	95.75
275.64	96.75
275.872	83.75
276.104	89.75
276.335	90.75
276.567	100.75
276.799	107.75
277.031	98.75
277.262	89.75
277.494	90.75
277.726	74.75
277.957	90.75
278.189	80.75
278.421	87.75
278.652	97.75
278.884	75.75
279.115	73.75
279.347	88.75
279.579	89.75
279.81	82.75
280.042	81.75
280.273	85.75
280.505	102.75
280.736	82.75
280.968	86.75
281.199	75.75
281.431	87.75
281.662	82.75
281.894	88.75
282.125	95.75
282.356	122.75
282.588	129.75
282.819	106.75
283.051	94.75
283.282	105.75
283.513	81.75
283.745	73.75
283.976	113.75
284.207	85.75
284.439	87.75
284.67	90.75
284.901	89.75
285.132	91.75
285.364	93.75
285.595	82.75
285.826	87.75
286.057	88.75
286.288	87.75
286.52	90.75
286.751	85.75
286.982	84.75
287.213	88.75
287.444	92.75
287.675	88.75
287.906	86.75
288.138	98.75
288.369	100.75
288.6	97.75
288.831	73.75
289.062	92.75
289.293	77.75
289.524	88.75
289.755	87.75
289.986	87.75
290.217	95.75
290.448	98.75
290.679	94.75
290.91	98.75
291.141	94.75
291.371	78.75
291.602	73.75
291.833	94.75
292.064	92.75
292.295	75.75
292.526	90.75
292.757	91.75
292.987	86.75
293.218	81.75
293.449	92.75
293.68	80.75
293.91	80.75
294.141	97.75
294.372	84.75
294.603	83.75
294.833	93.75
295.064	89.75
295.295	88.75
295.525	88.75
295.756	101.75
295.987	123.75
296.217	122.75
296.448	130.75
296.679	98.75
296.909	86.75
297.14	102.75
297.37	98.75
297.601	80.75
297.831	91.75
298.062	96.75
298.292	85.75
298.523	82.75
298.753	92.75
298.984	67.75
299.214	94.75
299.445	91.75
299.675	84.75
299.905	90.75
300.136	84.75
300.366	105.75
300.597	85.75
300.827	91.75
301.057	103.75
301.288	101.75
301.518	102.75
301.748	85.75
301.979	113.75
302.209	90.75
302.439	87.75
302.669	96.75
302.9	107.75
303.13	102.75
303.36	91.75
303.59	93.75
303.82	110.75
304.051	103.75
304.281	91.75
304.511	101.75
304.741	101.75
304.971	89.75
305.201	88.75
305.431	91.75
305.661	84.75
305.891	97.75
306.121	93.75
306.352	99.75
306.582	104.75
306.812	85.75
307.042	98.75
307.272	91.75
307.502	94.75
307.731	87.75
307.961	86.75
308.191	99.75
308.421	102.75
308.651	90.75
308.881	88.75
309.111	98.75
309.341	91.75
309.571	95.75
309.8	93.75
310.03	99.75
310.26	106.75
310.49	96.75
310.72	96.75
310.949	98.75
311.179	95.75
311.409	89.75
311.639	102.75
311.868	90.75
312.098	100.75
312.328	93.75
312.557	92.75
312.787	104.75
313.017	113.75
313.246	116.75
313.476	105.75
313.706	74.75
313.935	91.75
314.165	103.75
314.394	100.75
314.624	94.75
314.853	91.75
315.083	91.75
315.312	95.75
315.542	102.75
315.771	98.75
316.001	86.75
316.23	89.75
316.46	85.75
316.689	82.75
316.919	89.75
317.148	95.75
317.377	84.75
317.607	98.75
317.836	98.75
318.065	83.75
318.295	75.75
318.524	89.75
318.753	99.75
318.983	94.75
319.212	93.75
319.441	103.75
319.67	113.75
319.9	98.75
320.129	96.75
320.358	102.75
320.587	97.75
320.816	90.75
321.046	108.75
321.275	92.75
321.504	100.75
321.733	96.75
321.962	89.75
322.191	106.75
322.42	95.75
322.649	108.75
322.878	97.75
323.108	101.75
323.337	110.75
323.566	132.75
323.795	141.75
324.024	193.75
324.253	353.75
324.482	728.75
324.71	1516.75
324.939	1969.75
325.168	734.75
325.397	218.75
325.626	137.75
325.855	125.75
326.084	109.75
326.313	143.75
326.542	139.75
326.77	209.75
326.999	402.75
327.228	824.75
327.457	1490.75
327.686	1224.75
327.914	354.75
328.143	178.75
328.372	173.75
328.6	144.75
328.829	108.75
329.058	121.75
329.287	134.75
329.515	118.75
329.744	107.75
329.972	118.75
330.201	134.75
330.43	160.75
330.658	121.75
330.887	128.75
331.115	126.75
331.344	105.75
331.572	115.75
331.801	97.75
332.03	111.75
332.258	97.75
332.486	97.75
332.715	97.75
332.943	98.75
333.172	83.75
333.4	97.75
333.629	97.75
333.857	116.75
334.085	110.75
334.314	131.75
334.542	168.75
334.771	172.75
334.999	111.75
335.227	80.75
335.455	87.75
335.684	102.75
335.912	85.75
336.14	90.75
336.369	105.75
336.597	90.75
336.825	91.75
337.053	98.75
337.281	98.75
337.51	91.75
337.738	80.75
337.966	96.75
338.194	96.75
338.422	92.75
338.65	104.75
338.878	90.75
339.106	96.75
339.334	97.75
339.562	102.75
339.79	87.75
340.018	109.75
340.246	86.75
340.474	100.75
340.702	92.75
340.93	91.75
341.158	78.75
341.386	93.75
341.614	93.75
341.842	102.75
342.07	86.75
342.298	95.75
342.526	95.75
342.754	91.75
342.981	88.75
343.209	85.75
343.437	93.75
343.665	97.75
343.893	76.75
344.12	97.75
344.348	78.75
344.576	95.75
344.804	92.75
345.031	109.75
345.259	95.75
345.487	90.75
345.714	86.75
345.942	99.75
346.17	84.75
346.397	88.75
346.625	92.75
346.853	90.75
347.08	81.75
347.308	88.75
347.535	102.75
347.763	98.75
347.99	97.75
348.218	95.75
348.445	106.75
348.673	103.75
348.9	94.75
349.128	100.75
349.355	94.75
349.583	87.75
349.81	83.75
350.037	91.75
350.265	89.75
350.492	89.75
350.72	94.75
350.947	109.75
351.174	92.75
351.402	108.75
351.629	104.75
351.856	97.75
352.083	102.75
352.311	90.75
352.538	101.75
352.765	102.75
352.992	114.75
353.22	122.75
353.447	96.75
353.674	90.75
353.901	93.75
354.128	102.75
354.355	93.75
354.583	89.75
354.81	89.75
355.037	100.75
355.264	103.75
355.491	108.75
355.718	100.75
355.945	94.75
356.172	93.75
356.399	102.75
356.626	95.75
356.853	94.75
357.08	106.75
357.307	84.75
357.534	76.75
357.761	81.75
357.988	90.75
358.215	93.75
358.441	92.75
358.668	85.75
358.895	92.75
359.122	92.75
359.349	81.75
359.576	97.75
359.802	100.75
360.029	104.75
360.256	97.75
360.483	100.75
360.709	93.75
360.936	92.75
361.163	88.75
361.39	98.75
361.616	90.75
361.843	92.75
362.07	74.75
362.296	103.75
362.523	86.75
362.749	93.75
362.976	98.75
363.203	97.75
363.429	85.75
363.656	81.75
363.882	90.75
364.109	88.75
364.335	91.75
364.562	98.75
364.788	96.75
365.015	104.75
365.241	106.75
365.468	103.75
365.694	99.75
365.92	94.75
366.147	95.75
366.373	88.75
366.599	92.75
366.826	98.75
367.052	93.75
367.278	105.75
367.505	103.75
367.731	99.75
367.957	83.75
368.184	71.75
368.41	96.75
368.636	97.75
368.862	102.75
369.089	100.75
369.315	98.75
369.541	108.75
369.767	92.75
369.993	84.75
370.219	94.75
370.445	93.75
370.672	110.75
370.898	80.75
371.124	96.75
371.35	99.75
371.576	109.75
371.802	101.75
372.028	75.75
372.254	90.75
372.48	95.75
372.706	92.75
372.932	82.75
373.158	93.75
373.384	93.75
373.61	96.75
373.835	99.75
374.061	97.75
374.287	88.75
374.513	98.75
374.739	94.75
374.965	101.75
375.191	97.75
375.416	100.75
375.642	96.75
375.868	93.75
376.094	105.75
376.319	102.75
376.545	83.75
376.771	90.75
376.997	75.75
377.222	84.75
377.448	100.75
377.674	98.75
377.899	100.75
378.125	89.75
378.35	92.75
378.576	100.75
378.802	96.75
379.027	92.75
379.253	104.75
379.478	91.75
379.704	82.75
379.929	85.75
380.155	84.75
380.38	99.75
380.606	90.75
380.831	85.75
381.057	90.75
381.282	87.75
381.507	88.75
381.733	74.75
381.958	93.75
382.184	92.75
382.409	97.75
382.634	102.75
382.86	106.75
383.085	103.75
383.31	101.75
383.535	96.75
383.761	89.75
383.986	97.75
384.211	96.75
384.436	84.75
384.662	88.75
384.887	105.75
385.112	97.75
385.337	89.75
385.562	92.75
385.787	92.75
386.013	100.75
386.238	94.75
386.463	104.75
386.688	114.75
386.913	84.75
387.138	104.75
387.363	104.75
387.588	90.75
387.813	110.75
388.038	107.75
388.263	97.75
388.488	103.75
388.713	95.75
388.938	109.75
389.163	101.75
389.387	95.75
389.612	86.75
389.837	86.75
390.062	96.75
390.287	102.75
390.512	114.75
390.736	91.75
390.961	93.75
391.186	97.75
391.411	91.75
391.636	84.75
391.86	92.75
392.085	95.75
392.31	93.75
392.534	91.75
392.759	77.75
392.984	82.75
393.208	81.75
393.433	80.75
393.658	90.75
393.882	82.75
394.107	85.75
394.331	102.75
394.556	86.75
394.78	77.75
395.005	88.75
395.229	99.75
395.454	99.75
395.678	87.75
395.903	95.75
396.127	92.75
396.352	92.75
396.576	73.75
396.801	84.75
397.025	96.75
397.249	76.75
397.474	100.75
397.698	80.75
397.922	88.75
398.147	93.75
398.371	105.75
398.595	87.75
398.82	90.75
399.044	75.75
399.268	106.75
399.492	87.75
399.717	93.75
399.941	88.75
400.165	87.75
400.389	93.75
400.613	87.75
400.837	90.75
401.062	98.75
401.286	90.75
401.51	88.75
401.734	89.75
401.958	90.75
402.182	105.75
402.406	153.75
402.63	107.75
402.854	84.75
403.078	78.75
403.302	88.75
403.526	89.75
403.75	96.75
403.974	98.75
404.198	99.75
404.422	88.75
404.645	74.75
404.869	91.75
405.093	109.75
405.317	94.75
405.541	98.75
405.765	97.75
405.988	104.75
406.212	155.75
406.436	204.75
406.66	145.75
406.883	108.75
407.107	93.75
407.331	95.75
407.555	92.75
407.778	83.75
408.002	99.75
408.226	95.75
408.449	94.75
408.673	91.75
408.896	88.75
409.12	91.75
409.344	98.75
409.567	82.75
409.791	82.75
410.014	83.75
410.238	96.75
410.461	94.75
410.685	96.75
410.908	99.75
411.132	94.75
411.355	87.75
411.578	99.75
411.802	96.75
412.025	74.75
412.249	95.75
412.472	83.75
412.695	108.75
412.919	97.75
413.142	95.75
413.365	90.75
413.589	99.75
413.812	86.75
414.035	88.75
414.258	90.75
414.482	102.75
414.705	99.75
414.928	95.75
415.151	77.75
415.374	83.75
415.597	94.75
415.821	89.75
416.044	93.75
416.267	92.75
416.49	72.75
416.713	91.75
416.936	96.75
417.159	91.75
417.382	99.75
417.605	89.75
417.828	87.75
418.051	85.75
418.274	93.75
418.497	96.75
418.72	89.75
418.943	90.75
419.166	88.75
419.389	78.75
419.611	98.75
419.834	91.75
420.057	103.75
420.28	93.75
420.503	88.75
420.726	77.75
420.948	96.75
421.171	86.75
421.394	91.75
421.617	71.75
421.839	88.75
422.062	93.75
422.285	84.75
422.507	89.75
422.73	110.75
422.953	84.75
423.175	87.75
423.398	94.75
423.621	87.75
423.843	84.75
424.066	82.75
424.288	100.75
424.511	84.75
424.733	96.75
424.956	116.75
425.178	100.75
425.401	97.75
425.623	104.75
425.846	89.75
426.068	88.75
426.291	96.75
426.513	85.75
426.735	91.75
426.958	85.75
427.18	109.75
427.402	116.75
427.625	156.75
427.847	129.75
428.069	112.75
428.292	93.75
428.514	94.75
428.736	90.75
428.958	94.75
429.181	84.75
429.403	77.75
429.625	80.75
429.847	86.75
430.069	108.75
430.292	92.75
430.514	70.75
430.736	92.75
430.958	85.75
431.18	68.75
431.402	78.75
431.624	76.75
431.846	86.75
432.068	98.75
432.29	97.75
432.512	89.75
432.734	87.75
432.956	85.75
433.178	98.75
433.4	95.75
433.622	90.75
433.844	94.75
434.066	92.75
434.287	85.75
434.509	82.75
434.731	103.75
434.953	94.75
435.175	77.75
435.397	85.75
435.618	92.75
435.84	96.75
436.062	121.75
436.284	116.75
436.505	111.75
436.727	88.75
436.949	79.75
437.17	69.75
437.392	73.75
437.614	97.75
437.835	97.75
438.057	117.75
438.278	109.75
438.5	111.75
438.721	104.75
438.943	102.75
439.165	112.75
439.386	85.75
439.608	92.75
439.829	109.75
440.05	115.75
440.272	136.75
440.493	101.75
440.715	88.75
440.936	90.75
441.158	89.75
441.379	77.75
441.6	96.75
441.822	101.75
442.043	100.75
442.264	92.75
442.486	93.75
442.707	86.75
442.928	104.75
443.149	117.75
443.371	121.75
443.592	106.75
443.813	110.75
444.034	101.75
444.255	106.75
444.476	95.75
444.698	78.75
444.919	80.75
445.14	130.75
445.361	124.75
445.582	99.75
445.803	132.75
446.024	119.75
446.245	117.75
446.466	108.75
446.687	90.75
446.908	87.75
447.129	99.75
447.35	92.75
447.571	86.75
447.792	100.75
448.013	92.75
448.234	88.75
448.455	114.75
448.675	107.75
448.896	104.75
449.117	105.75
449.338	103.75
449.559	113.75
449.779	114.75
450	97.75
450.221	100.75
450.442	94.75
450.662	103.75
450.883	112.75
451.104	99.75
451.324	100.75
451.545	84.75
451.766	77.75
451.986	85.75
452.207	92.75
452.428	108.75
452.648	99.75
452.869	96.75
453.089	96.75
453.31	112.75
453.53	93.75
453.751	92.75
453.971	109.75
454.192	112.75
454.412	81.75
454.633	73.75
454.853	102.75
455.073	85.75
455.294	101.75
455.514	78.75
455.734	70.75
455.955	81.75
456.175	82.75
456.395	83.75
456.616	90.75
456.836	89.75
457.056	73.75
457.276	78.75
457.497	100.75
457.717	89.75
457.937	96.75
458.157	88.75
458.377	96.75
458.598	106.75
458.818	145.75
459.038	129.75
459.258	103.75
459.478	100.75
459.698	84.75
459.918	93.75
460.138	87.75
460.358	88.75
460.578	88.75
460.798	81.75
461.018	80.75
461.238	81.75
461.458	104.75
461.678	82.75
461.898	82.75
462.118	80.75
462.338	86.75
462.558	93.75
462.777	84.75
462.997	80.75
463.217	97.75
463.437	89.75
463.657	91.75
463.876	86.75
464.096	92.75
464.316	89.75
464.536	83.75
464.755	93.75
464.975	105.75
465.195	159.75
465.414	152.75
465.634	89.75
465.854	73.75
466.073	95.75
466.293	106.75
466.512	73.75
466.732	80.75
466.951	102.75
467.171	90.75
467.391	101.75
467.61	95.75
467.829	105.75
468.049	115.75
468.268	128.75
468.488	86.75
468.707	93.75
468.927	85.75
469.146	86.75
469.365	85.75
469.585	86.75
469.804	86.75
470.023	93.75
470.243	89.75
470.462	86.75
470.681	99.75
470.901	97.75
471.12	85.75
471.339	99.75
471.558	81.75
471.777	82.75
471.997	96.75
472.216	144.75
472.435	192.75
472.654	112.75
472.873	97.75
473.092	92.75
473.311	84.75
473.53	99.75
473.749	97.75
473.968	98.75
474.187	110.75
474.406	77.75
474.625	85.75
474.844	80.75
475.063	72.75
475.282	104.75
475.501	85.75
475.72	68.75
475.939	81.75
476.158	96.75
476.377	100.75
476.596	92.75
476.814	94.75
477.033	91.75
477.252	106.75
477.471	88.75
477.69	85.75
477.908	88.75
478.127	98.75
478.346	81.75
478.564	97.75
478.783	93.75
479.002	80.75
479.22	94.75
479.439	99.75
479.658	100.75
479.876	100.75
480.095	104.75
480.313	84.75
480.532	104.75
480.751	100.75
480.969	142.75
481.188	332.75
481.406	210.75
481.624	100.75
481.843	92.75
482.061	84.75
482.28	87.75
482.498	83.75
482.717	79.75
482.935	89.75
483.153	90.75
483.372	93.75
483.59	93.75
483.808	92.75
484.027	80.75
484.245	96.75
484.463	98.75
484.681	102.75
484.9	86.75
485.118	97.75
485.336	104.75
485.554	97.75
485.772	114.75
485.99	96.75
486.209	98.75
486.427	115.75
486.645	103.75
486.863	109.75
487.081	110.75
487.299	107.75
487.517	97.75
487.735	104.75
487.953	106.75
488.171	95.75
488.389	82.75
488.607	100.75
488.825	99.75
489.043	94.75
489.261	100.75
489.479	99.75
489.696	91.75
489.914	80.75
490.132	90.75
490.35	90.75
490.568	100.75
490.786	90.75
491.003	82.75
491.221	108.75
491.439	94.75
491.657	97.75
491.874	94.75
492.092	99.75
492.31	98.75
492.527	96.75
492.745	91.75
492.963	89.75
493.18	94.75
493.398	92.75
493.615	103.75
493.833	102.75
494.05	109.75
494.268	89.75
494.485	96.75
494.703	83.75
494.92	96.75
495.138	90.75
495.355	87.75
495.573	82.75
495.79	87.75
496.008	111.75
496.225	90.75
496.442	82.75
496.66	92.75
496.877	85.75
497.094	100.75
497.312	93.75
497.529	89.75
497.746	101.75
497.963	99.75
498.181	91.75
498.398	102.75
498.615	108.75
498.832	104.75
499.049	95.75
499.267	100.75
499.484	93.75
499.701	81.75
499.918	84.75
500.135	84.75
500.352	92.75
500.569	98.75
500.786	86.75
501.003	97.75
501.22	96.75
501.437	94.75
501.654	102.75
501.871	96.75
502.088	91.75
502.305	85.75
502.522	86.75
502.739	85.75
502.956	80.75
503.172	88.75
503.389	94.75
503.606	102.75
503.823	89.75
504.04	102.75
504.256	96.75
504.473	89.75
504.69	70.75
504.907	100.75
505.123	96.75
505.34	94.75
505.557	94.75
505.773	89.75
505.99	89.75
506.207	91.75
506.423	96.75
506.64	88.75
506.856	91.75
507.073	96.75
507.289	83.75
507.506	108.75
507.722	111.75
507.939	101.75
508.155	104.75
508.372	95.75
508.588	87.75
508.805	89.75
509.021	108.75
509.238	89.75
509.454	95.75
509.67	99.75
509.887	109.75
510.103	119.75
510.319	193.75
510.536	688.75
510.752	2155.75
510.968	600.75
511.184	150.75
511.401	104.75
511.617	98.75
511.833	85.75
512.049	108.75
512.265	99.75
512.481	106.75
512.698	89.75
512.914	83.75
513.13	96.75
513.346	96.75
513.562	99.75
513.778	104.75
513.994	97.75
514.21	101.75
514.426	110.75
514.642	122.75
514.858	118.75
515.074	161.75
515.29	395.75
515.506	1320.75
