Data from Uncirc_1985_H10_HRD10591_00082.txt Node
Date: Wed Jan 03 12:18:33 EST 2024
User: Yrep
Spectrometer: HR+D1059
Trigger mode: 1
Integration Time (sec): 1.000000E-1
Scans to average: 1
Electric dark correction enabled: true
Nonlinearity correction enabled: false
Boxcar width: 0
XAxis mode: Wavelengths
Number of Pixels in Spectrum: 2048
>>>>>Begin Spectral Data<<<<<
223.165	-9.19
223.4	-9.19
223.635	-9.19
223.869	-13.19
224.104	-8.19
224.338	-12.19
224.573	-16.19
224.808	-13.19
225.042	-14.19
225.277	-15.19
225.511	-6.19
225.746	-3.19
225.98	14.81
226.215	18.81
226.449	4.81
226.683	26.81
226.918	16.81
227.152	28.81
227.387	34.81
227.621	45.81
227.856	38.81
228.09	52.81
228.324	52.81
228.559	66.81
228.793	164.81
229.027	430.81
229.262	503.81
229.496	554.81
229.73	747.81
229.964	748.81
230.199	540.81
230.433	475.81
230.667	448.81
230.901	446.81
231.136	446.81
231.37	455.81
231.604	439.81
231.838	465.81
232.072	473.81
232.306	464.81
232.541	451.81
232.775	483.81
233.009	466.81
233.243	482.81
233.477	486.81
233.711	495.81
233.945	516.81
234.179	516.81
234.413	528.81
234.647	492.81
234.881	520.81
235.115	540.81
235.349	555.81
235.583	567.81
235.817	575.81
236.051	627.81
236.285	603.81
236.519	591.81
236.753	686.81
236.987	832.81
237.221	1251.81
237.455	1398.81
237.689	882.81
237.922	749.81
238.156	699.81
238.39	682.81
238.624	692.81
238.858	662.81
239.091	662.81
239.325	662.81
239.559	678.81
239.793	699.81
240.027	762.81
240.26	850.81
240.494	913.81
240.728	934.81
240.961	887.81
241.195	835.81
241.429	767.81
241.662	783.81
241.896	786.81
242.13	788.81
242.363	791.81
242.597	799.81
242.83	837.81
243.064	839.81
243.298	835.81
243.531	849.81
243.765	848.81
243.998	856.81
244.232	866.81
244.465	896.81
244.699	901.81
244.932	905.81
245.166	922.81
245.399	924.81
245.633	919.81
245.866	917.81
246.099	925.81
246.333	980.81
246.566	978.81
246.8	999.81
247.033	1017.81
247.266	1019.81
247.5	1090.81
247.733	1142.81
247.966	1120.81
248.2	1128.81
248.433	1190.81
248.666	1226.81
248.899	1322.81
249.133	1436.81
249.366	1403.81
249.599	1331.81
249.832	1247.81
250.066	1270.81
250.299	1339.81
250.532	1506.81
250.765	1648.81
250.998	1762.81
251.231	1639.81
251.465	1530.81
251.698	1488.81
251.931	1440.81
252.164	1394.81
252.397	1446.81
252.63	1464.81
252.863	1577.81
253.096	1663.81
253.329	1724.81
253.562	1638.81
253.795	1606.81
254.028	1579.81
254.261	1622.81
254.494	1817.81
254.727	2048.81
254.96	2152.81
255.193	1940.81
255.426	1842.81
255.659	1773.81
255.892	1869.81
256.124	1990.81
256.357	1990.81
256.59	1790.81
256.823	1694.81
257.056	1604.81
257.289	1611.81
257.521	1640.81
257.754	1570.81
257.987	1544.81
258.22	1575.81
258.452	1575.81
258.685	1550.81
258.918	1623.81
259.151	1646.81
259.383	1698.81
259.616	1716.81
259.849	1732.81
260.081	1901.81
260.314	2014.81
260.547	1952.81
260.779	1827.81
261.012	1732.81
261.244	1745.81
261.477	1678.81
261.71	1716.81
261.942	1766.81
262.175	1752.81
262.407	1710.81
262.64	1667.81
262.872	1680.81
263.105	1651.81
263.337	1691.81
263.57	1667.81
263.802	1685.81
264.035	1668.81
264.267	1662.81
264.499	1667.81
264.732	1719.81
264.964	1719.81
265.197	1747.81
265.429	1770.81
265.661	1732.81
265.894	1744.81
266.126	1755.81
266.358	1751.81
266.591	1788.81
266.823	1876.81
267.055	1881.81
267.287	1889.81
267.52	1838.81
267.752	1852.81
267.984	1840.81
268.216	1935.81
268.448	1937.81
268.681	1971.81
268.913	2088.81
269.145	2289.81
269.377	2318.81
269.609	2239.81
269.841	2243.81
270.073	2334.81
270.306	2537.81
270.538	2696.81
270.77	2598.81
271.002	2425.81
271.234	2407.81
271.466	2513.81
271.698	2612.81
271.93	2617.81
272.162	2695.81
272.394	2576.81
272.626	2407.81
272.858	2339.81
273.09	2310.81
273.322	2256.81
273.553	2223.81
273.785	2254.81
274.017	2228.81
274.249	2262.81
274.481	2247.81
274.713	2246.81
274.945	2282.81
275.176	2310.81
275.408	2266.81
275.64	2285.81
275.872	2298.81
276.104	2299.81
276.335	2286.81
276.567	2423.81
276.799	2478.81
277.031	2705.81
277.262	2807.81
277.494	2735.81
277.726	2548.81
277.957	2543.81
278.189	2472.81
278.421	2374.81
278.652	2417.81
278.884	2440.81
279.115	2391.81
279.347	2397.81
279.579	2385.81
279.81	2403.81
280.042	2427.81
280.273	2416.81
280.505	2408.81
280.736	2456.81
280.968	2451.81
281.199	2480.81
281.431	2456.81
281.662	2486.81
281.894	2514.81
282.125	2530.81
282.356	2686.81
282.588	2792.81
282.819	2652.81
283.051	2571.81
283.282	2520.81
283.513	2560.81
283.745	2610.81
283.976	2633.81
284.207	2658.81
284.439	2638.81
284.67	2632.81
284.901	2630.81
285.132	2655.81
285.364	2619.81
285.595	2622.81
285.826	2635.81
286.057	2675.81
286.288	2655.81
286.52	2675.81
286.751	2616.81
286.982	2753.81
287.213	2732.81
287.444	2758.81
287.675	2770.81
287.906	2843.81
288.138	2918.81
288.369	2944.81
288.6	2906.81
288.831	2841.81
289.062	2814.81
289.293	2828.81
289.524	2830.81
289.755	2852.81
289.986	2852.81
290.217	2783.81
290.448	2803.81
290.679	2866.81
290.91	2838.81
291.141	2803.81
291.371	2837.81
291.602	2870.81
291.833	2804.81
292.064	2843.81
292.295	2838.81
292.526	2822.81
292.757	2820.81
292.987	2798.81
293.218	2843.81
293.449	2852.81
293.68	2866.81
293.91	2822.81
294.141	2862.81
294.372	2815.81
294.603	2856.81
294.833	2854.81
295.064	2900.81
295.295	2914.81
295.525	2889.81
295.756	2939.81
295.987	2960.81
296.217	3114.81
296.448	3085.81
296.679	2996.81
296.909	2949.81
297.14	2965.81
297.37	2995.81
297.601	3055.81
297.831	3063.81
298.062	3002.81
298.292	3039.81
298.523	3148.81
298.753	3143.81
298.984	3075.81
299.214	3115.81
299.445	3088.81
299.675	3102.81
299.905	3180.81
300.136	3077.81
300.366	3136.81
300.597	3154.81
300.827	3223.81
301.057	3300.81
301.288	3385.81
301.518	3270.81
301.748	3337.81
301.979	3331.81
302.209	3331.81
302.439	3355.81
302.669	3279.81
302.9	3283.81
303.13	3289.81
303.36	3323.81
303.59	3335.81
303.82	3388.81
304.051	3408.81
304.281	3322.81
304.511	3280.81
304.741	3255.81
304.971	3318.81
305.201	3250.81
305.431	3256.81
305.661	3263.81
305.891	3200.81
306.121	3258.81
306.352	3326.81
306.582	3317.81
306.812	3268.81
307.042	3200.81
307.272	3300.81
307.502	3264.81
307.731	3248.81
307.961	3283.81
308.191	3272.81
308.421	3282.81
308.651	3314.81
308.881	3283.81
309.111	3319.81
309.341	3308.81
309.571	3448.81
309.8	3421.81
310.03	3490.81
310.26	3490.81
310.49	3526.81
310.72	3601.81
310.949	3700.81
311.179	3634.81
311.409	3508.81
311.639	3561.81
311.868	3586.81
312.098	3604.81
312.328	3690.81
312.557	3800.81
312.787	3884.81
313.017	3697.81
313.246	3697.81
313.476	3662.81
313.706	3676.81
313.935	3767.81
314.165	3838.81
314.394	3806.81
314.624	3830.81
314.853	3723.81
315.083	3708.81
315.312	3659.81
315.542	3657.81
315.771	3633.81
316.001	3687.81
316.23	3638.81
316.46	3609.81
316.689	3658.81
316.919	3688.81
317.148	3702.81
317.377	3683.81
317.607	3693.81
317.836	3644.81
318.065	3620.81
318.295	3583.81
318.524	3650.81
318.753	3587.81
318.983	3653.81
319.212	3662.81
319.441	3693.81
319.67	3687.81
319.9	3618.81
320.129	3715.81
320.358	3595.81
320.587	3632.81
320.816	3671.81
321.046	3786.81
321.275	3766.81
321.504	3828.81
321.733	3796.81
321.962	3831.81
322.191	3896.81
322.42	4067.81
322.649	4055.81
322.878	4129.81
323.108	4176.81
323.337	4336.81
323.566	4468.81
323.795	4694.81
324.024	5196.81
324.253	6520.81
324.482	9630.81
324.71	14178.81
324.939	15628.81
325.168	10826.81
325.397	6097.81
325.626	5013.81
325.855	4659.81
326.084	4561.81
326.313	4591.81
326.542	4744.81
326.77	5256.81
326.999	6346.81
327.228	9228.81
327.457	13286.81
327.686	12428.81
327.914	6835.81
328.143	5706.81
328.372	5314.81
328.6	5100.81
328.829	4934.81
329.058	5145.81
329.287	5145.81
329.515	4924.81
329.744	4822.81
329.972	5113.81
330.201	5398.81
330.43	5672.81
330.658	5487.81
330.887	5509.81
331.115	5196.81
331.344	4904.81
331.572	4843.81
331.801	4916.81
332.03	4924.81
332.258	4902.81
332.486	4955.81
332.715	5067.81
332.943	5182.81
333.172	5359.81
333.4	5601.81
333.629	5740.81
333.857	5867.81
334.085	5993.81
334.314	6293.81
334.542	6520.81
334.771	6358.81
334.999	5657.81
335.227	5355.81
335.455	5259.81
335.684	5068.81
335.912	5001.81
336.14	4992.81
336.369	4888.81
336.597	4930.81
336.825	4896.81
337.053	4825.81
337.281	4760.81
337.51	4694.81
337.738	4694.81
337.966	4679.81
338.194	4627.81
338.422	4537.81
338.65	4483.81
338.878	4503.81
339.106	4436.81
339.334	4524.81
339.562	4405.81
339.79	4360.81
340.018	4378.81
340.246	4287.81
340.474	4347.81
340.702	4375.81
340.93	4360.81
341.158	4380.81
341.386	4309.81
341.614	4346.81
341.842	4382.81
342.07	4289.81
342.298	4274.81
342.526	4243.81
342.754	4229.81
342.981	4271.81
343.209	4326.81
343.437	4568.81
343.665	4851.81
343.893	5107.81
344.12	5086.81
344.348	4842.81
344.576	4707.81
344.804	4609.81
345.031	4548.81
345.259	4496.81
345.487	4411.81
345.714	4284.81
345.942	4243.81
346.17	4187.81
346.397	4130.81
346.625	4123.81
346.853	4091.81
347.08	4079.81
347.308	4112.81
347.535	4232.81
347.763	4167.81
347.99	4175.81
348.218	4210.81
348.445	4274.81
348.673	4104.81
348.9	4066.81
349.128	4024.81
349.355	3988.81
349.583	3991.81
349.81	3983.81
350.037	4006.81
350.265	4005.81
350.492	4005.81
350.72	4000.81
350.947	4012.81
351.174	4044.81
351.402	4067.81
351.629	4096.81
351.856	4057.81
352.083	4100.81
352.311	4148.81
352.538	4115.81
352.765	4107.81
352.992	4010.81
353.22	4031.81
353.447	4018.81
353.674	4003.81
353.901	3928.81
354.128	3897.81
354.355	3943.81
354.583	3911.81
354.81	3934.81
355.037	3934.81
355.264	3940.81
355.491	3880.81
355.718	3884.81
355.945	3879.81
356.172	3898.81
356.399	3954.81
356.626	3945.81
356.853	3913.81
357.08	3863.81
357.307	3835.81
357.534	3880.81
357.761	3874.81
357.988	3985.81
358.215	3951.81
358.441	3939.81
358.668	3955.81
358.895	3996.81
359.122	3978.81
359.349	4072.81
359.576	4148.81
359.802	4303.81
360.029	4388.81
360.256	4387.81
360.483	4293.81
360.709	4092.81
360.936	4094.81
361.163	4089.81
361.39	4102.81
361.616	4046.81
361.843	4106.81
362.07	4114.81
362.296	4085.81
362.523	4025.81
362.749	4091.81
362.976	4008.81
363.203	3972.81
363.429	3958.81
363.656	4034.81
363.882	4039.81
364.109	3928.81
364.335	3927.81
364.562	3993.81
364.788	3963.81
365.015	3971.81
365.241	4038.81
365.468	4072.81
365.694	4020.81
365.92	4063.81
366.147	3974.81
366.373	3954.81
366.599	3906.81
366.826	3918.81
367.052	3944.81
367.278	3972.81
367.505	4040.81
367.731	4097.81
367.957	3956.81
368.184	4050.81
368.41	4119.81
368.636	4154.81
368.862	4231.81
369.089	4126.81
369.315	4113.81
369.541	4125.81
369.767	4090.81
369.993	4119.81
370.219	4120.81
370.445	4194.81
370.672	4210.81
370.898	4144.81
371.124	4196.81
371.35	4291.81
371.576	4227.81
371.802	4243.81
372.028	4229.81
372.254	4283.81
372.48	4311.81
372.706	4394.81
372.932	4454.81
373.158	4411.81
373.384	4298.81
373.61	4287.81
373.835	4291.81
374.061	4245.81
374.287	4339.81
374.513	4486.81
374.739	4643.81
374.965	4696.81
375.191	4734.81
375.416	4618.81
375.642	4496.81
375.868	4420.81
376.094	4417.81
376.319	4328.81
376.545	4368.81
376.771	4386.81
376.997	4285.81
377.222	4221.81
377.448	4290.81
377.674	4336.81
377.899	4228.81
378.125	4258.81
378.35	4235.81
378.576	4276.81
378.802	4161.81
379.027	4267.81
379.253	4244.81
379.478	4131.81
379.704	4185.81
379.929	4280.81
380.155	4207.81
380.38	4218.81
380.606	4291.81
380.831	4244.81
381.057	4332.81
381.282	4263.81
381.507	4272.81
381.733	4283.81
381.958	4359.81
382.184	4478.81
382.409	4444.81
382.634	4529.81
382.86	4515.81
383.085	4594.81
383.31	4649.81
383.535	4743.81
383.761	4692.81
383.986	4760.81
384.211	4899.81
384.436	4993.81
384.662	4985.81
384.887	5099.81
385.112	5108.81
385.337	5118.81
385.562	5149.81
385.787	5205.81
386.013	5231.81
386.238	5218.81
386.463	5226.81
386.688	5206.81
386.913	5063.81
387.138	5125.81
387.363	5090.81
387.588	5050.81
387.813	5085.81
388.038	5074.81
388.263	5140.81
388.488	5123.81
388.713	5134.81
388.938	5080.81
389.163	5039.81
389.387	5077.81
389.612	4980.81
389.837	5018.81
390.062	4977.81
390.287	5052.81
390.512	5043.81
390.736	5142.81
390.961	5186.81
391.186	5274.81
391.411	5408.81
391.636	5564.81
391.86	5685.81
392.085	5826.81
392.31	5632.81
392.534	5499.81
392.759	5444.81
392.984	5412.81
393.208	5349.81
393.433	5312.81
393.658	5293.81
393.882	5297.81
394.107	5378.81
394.331	5438.81
394.556	5347.81
394.78	5451.81
395.005	5520.81
395.229	5496.81
395.454	5647.81
395.678	5744.81
395.903	5768.81
396.127	5763.81
396.352	5625.81
396.576	5450.81
396.801	5414.81
397.025	5518.81
397.249	5652.81
397.474	5708.81
397.698	5829.81
397.922	5878.81
398.147	6046.81
398.371	6087.81
398.595	6215.81
398.82	6499.81
399.044	7054.81
399.268	7870.81
399.492	8985.81
399.717	9608.81
399.941	9304.81
400.165	8670.81
400.389	8000.81
400.613	7233.81
400.837	6716.81
401.062	6587.81
401.286	6463.81
401.51	6415.81
401.734	6390.81
401.958	6574.81
402.182	6601.81
402.406	6732.81
402.63	6878.81
402.854	6932.81
403.078	6971.81
403.302	7122.81
403.526	7302.81
403.75	7417.81
403.974	7432.81
404.198	7509.81
404.422	7395.81
404.645	7360.81
404.869	7376.81
405.093	7740.81
405.317	8034.81
405.541	8029.81
405.765	7468.81
405.988	7209.81
406.212	7419.81
406.436	7562.81
406.66	7646.81
406.883	7728.81
407.107	8264.81
407.331	8741.81
407.555	9148.81
407.778	9002.81
408.002	8257.81
408.226	7779.81
408.449	7677.81
408.673	7554.81
408.896	7703.81
409.12	7822.81
409.344	7499.81
409.567	7162.81
409.791	7003.81
410.014	6975.81
410.238	6936.81
410.461	7039.81
410.685	7051.81
410.908	7040.81
411.132	7266.81
411.355	7223.81
411.578	7027.81
411.802	6798.81
412.025	6783.81
412.249	7009.81
412.472	7326.81
412.695	7473.81
412.919	7033.81
413.142	6725.81
413.365	6614.81
413.589	6537.81
413.812	6399.81
414.035	6273.81
414.258	6348.81
414.482	6452.81
414.705	6547.81
414.928	6343.81
415.151	6436.81
415.374	6303.81
415.597	6290.81
415.821	6272.81
416.044	6262.81
416.267	6200.81
416.49	6176.81
416.713	6156.81
416.936	6251.81
417.159	6158.81
417.382	6328.81
417.605	6343.81
417.828	6486.81
418.051	6578.81
418.274	6459.81
418.497	6526.81
418.72	6573.81
418.943	6438.81
419.166	6965.81
419.389	7346.81
419.611	7180.81
419.834	6991.81
420.057	6871.81
420.28	6772.81
420.503	6679.81
420.726	6594.81
420.948	6664.81
421.171	7042.81
421.394	7023.81
421.617	6530.81
421.839	6484.81
422.062	6523.81
422.285	6675.81
422.507	7382.81
422.73	7811.81
422.953	7314.81
423.175	6959.81
423.398	6935.81
423.621	7002.81
423.843	7158.81
424.066	7205.81
424.288	7016.81
424.511	7138.81
424.733	7659.81
424.956	8038.81
425.178	7470.81
425.401	7711.81
425.623	7565.81
425.846	6640.81
426.068	6647.81
426.291	6489.81
426.513	6518.81
426.735	6523.81
426.958	6967.81
427.18	7654.81
427.402	8672.81
427.625	8753.81
427.847	7625.81
428.069	7124.81
428.292	6452.81
428.514	6096.81
428.736	5932.81
428.958	5979.81
429.181	5768.81
429.403	5867.81
429.625	5914.81
429.847	6152.81
430.069	6666.81
430.292	6195.81
430.514	5789.81
430.736	5746.81
430.958	5754.81
431.18	5544.81
431.402	5645.81
431.624	5542.81
431.846	5694.81
432.068	5662.81
432.29	5810.81
432.512	5699.81
432.734	5771.81
432.956	5696.81
433.178	5876.81
433.4	5765.81
433.622	5699.81
433.844	5678.81
434.066	5715.81
434.287	5836.81
434.509	6071.81
434.731	6265.81
434.953	6421.81
435.175	6517.81
435.397	6594.81
435.618	6511.81
435.84	6804.81
436.062	7543.81
436.284	7432.81
436.505	6383.81
436.727	6143.81
436.949	5894.81
437.17	5740.81
437.392	5774.81
437.614	5811.81
437.835	6247.81
438.057	6996.81
438.278	7648.81
438.5	7588.81
438.721	8374.81
438.943	7378.81
439.165	6244.81
439.386	6023.81
439.608	6132.81
439.829	6209.81
440.05	6479.81
440.272	6736.81
440.493	6233.81
440.715	6050.81
440.936	6039.81
441.158	6099.81
441.379	6198.81
441.6	6476.81
441.822	6704.81
442.043	7163.81
442.264	7842.81
442.486	7546.81
442.707	6770.81
442.928	6644.81
443.149	6773.81
443.371	6934.81
443.592	7440.81
443.813	8350.81
444.034	8365.81
444.255	7362.81
444.476	7284.81
444.698	7608.81
444.919	7491.81
445.14	7310.81
445.361	7156.81
445.582	7337.81
445.803	7682.81
446.024	8252.81
446.245	7859.81
446.466	7118.81
446.687	6246.81
446.908	6036.81
447.129	5741.81
447.35	5530.81
447.571	5588.81
447.792	5398.81
448.013	5552.81
448.234	5745.81
448.455	6330.81
448.675	7467.81
448.896	7838.81
449.117	6498.81
449.338	6848.81
449.559	8016.81
449.779	8062.81
450	6274.81
450.221	5588.81
450.442	5476.81
450.662	5405.81
450.883	5465.81
451.104	5494.81
451.324	5335.81
451.545	5255.81
451.766	5117.81
451.986	5028.81
452.207	5040.81
452.428	5016.81
452.648	5092.81
452.869	5022.81
453.089	5046.81
453.31	5177.81
453.53	5018.81
453.751	4916.81
453.971	4977.81
454.192	5070.81
454.412	4885.81
454.633	4863.81
454.853	4922.81
455.073	4851.81
455.294	5259.81
455.514	5686.81
455.734	5191.81
455.955	4718.81
456.175	4641.81
456.395	4542.81
456.616	4594.81
456.836	4622.81
457.056	4634.81
457.276	4535.81
457.497	4686.81
457.717	4701.81
457.937	4673.81
458.157	4779.81
458.377	4907.81
458.598	5158.81
458.818	5739.81
459.038	6442.81
459.258	6474.81
459.478	5875.81
459.698	5705.81
459.918	5810.81
460.138	6020.81
460.358	6231.81
460.578	6320.81
460.798	6430.81
461.018	6351.81
461.238	6179.81
461.458	6220.81
461.678	6110.81
461.898	6316.81
462.118	6324.81
462.338	6752.81
462.558	6826.81
462.777	7104.81
462.997	7769.81
463.217	8126.81
463.437	7911.81
463.657	7238.81
463.876	7183.81
464.096	7104.81
464.316	7147.81
464.536	7091.81
464.755	6900.81
464.975	6806.81
465.195	6789.81
465.414	6777.81
465.634	6052.81
465.854	5763.81
466.073	5537.81
466.293	5437.81
466.512	5273.81
466.732	5126.81
466.951	5200.81
467.171	5185.81
467.391	5236.81
467.61	5308.81
467.829	5234.81
468.049	5254.81
468.268	5208.81
468.488	5026.81
468.707	4984.81
468.927	4972.81
469.146	4933.81
469.365	5015.81
469.585	5054.81
469.804	5283.81
470.023	5384.81
470.243	5329.81
470.462	5556.81
470.681	5506.81
470.901	5479.81
471.12	5315.81
471.339	5236.81
471.558	5202.81
471.777	5194.81
471.997	5106.81
472.216	5321.81
472.435	5733.81
472.654	5321.81
472.873	5084.81
473.092	5024.81
473.311	5046.81
473.53	5012.81
473.749	5101.81
473.968	5635.81
474.187	6446.81
474.406	6062.81
474.625	5286.81
474.844	5084.81
475.063	4971.81
475.282	4984.81
475.501	5137.81
475.72	5090.81
475.939	5173.81
476.158	5144.81
476.377	5189.81
476.596	5214.81
476.814	5338.81
477.033	5369.81
477.252	5446.81
477.471	5558.81
477.69	5655.81
477.908	5768.81
478.127	5924.81
478.346	6020.81
478.564	6065.81
478.783	6123.81
479.002	6290.81
479.22	6337.81
479.439	6316.81
479.658	6442.81
479.876	6562.81
480.095	6745.81
480.313	7091.81
480.532	7042.81
480.751	6953.81
480.969	7049.81
481.188	7853.81
481.406	7591.81
481.624	6732.81
481.843	6354.81
482.061	6155.81
482.28	6048.81
482.498	5927.81
482.717	5940.81
482.935	5862.81
483.153	5772.81
483.372	5885.81
483.59	5840.81
483.808	5874.81
484.027	5904.81
484.245	6018.81
484.463	5991.81
484.681	6034.81
484.9	6006.81
485.118	6120.81
485.336	6092.81
485.554	6242.81
485.772	6298.81
485.99	6212.81
486.209	6240.81
486.427	6339.81
486.645	6282.81
486.863	6420.81
487.081	6301.81
487.299	6312.81
487.517	6256.81
487.735	6238.81
487.953	6180.81
