Data from Uncirc_1985_H10_HRD10591_00028.txt Node
Date: Wed Jan 03 12:18:23 EST 2024
User: Yrep
Spectrometer: HR+D1059
Trigger mode: 1
Integration Time (sec): 1.000000E-1
Scans to average: 1
Electric dark correction enabled: true
Nonlinearity correction enabled: false
Boxcar width: 0
XAxis mode: Wavelengths
Number of Pixels in Spectrum: 2048
>>>>>Begin Spectral Data<<<<<
223.165	-16.62
223.4	-16.62
223.635	-16.62
223.869	-23.62
224.104	-28.62
224.338	-22.62
224.573	-11.62
224.808	2.38
225.042	-9.62
225.277	5.38
225.511	1.38
225.746	-2.62
225.98	0.38
226.215	9.38
226.449	16.38
226.683	16.38
226.918	17.38
227.152	46.38
227.387	27.38
227.621	45.38
227.856	44.38
228.09	42.38
228.324	55.38
228.559	40.38
228.793	54.38
229.027	72.38
229.262	63.38
229.496	80.38
229.73	71.38
229.964	69.38
230.199	63.38
230.433	74.38
230.667	71.38
230.901	69.38
231.136	68.38
231.37	81.38
231.604	72.38
231.838	86.38
232.072	83.38
232.306	90.38
232.541	84.38
232.775	72.38
233.009	75.38
233.243	96.38
233.477	67.38
233.711	79.38
233.945	68.38
234.179	89.38
234.413	80.38
234.647	79.38
234.881	69.38
235.115	86.38
235.349	54.38
235.583	81.38
235.817	80.38
236.051	78.38
236.285	68.38
236.519	78.38
236.753	96.38
236.987	75.38
237.221	88.38
237.455	73.38
237.689	68.38
237.922	70.38
238.156	56.38
238.39	57.38
238.624	75.38
238.858	73.38
239.091	72.38
239.325	71.38
239.559	70.38
239.793	71.38
240.027	75.38
240.26	70.38
240.494	88.38
240.728	76.38
240.961	84.38
241.195	78.38
241.429	87.38
241.662	59.38
241.896	68.38
242.13	71.38
242.363	81.38
242.597	72.38
242.83	77.38
243.064	74.38
243.298	74.38
243.531	86.38
243.765	74.38
243.998	78.38
244.232	73.38
244.465	91.38
244.699	78.38
244.932	74.38
245.166	78.38
245.399	85.38
245.633	89.38
245.866	82.38
246.099	85.38
246.333	83.38
246.566	88.38
246.8	67.38
247.033	82.38
247.266	83.38
247.5	90.38
247.733	74.38
247.966	82.38
248.2	66.38
248.433	88.38
248.666	82.38
248.899	67.38
249.133	82.38
249.366	85.38
249.599	82.38
249.832	79.38
250.066	69.38
250.299	68.38
250.532	82.38
250.765	78.38
250.998	72.38
251.231	88.38
251.465	76.38
251.698	90.38
251.931	65.38
252.164	78.38
252.397	80.38
252.63	84.38
252.863	87.38
253.096	84.38
253.329	91.38
253.562	77.38
253.795	74.38
254.028	78.38
254.261	90.38
254.494	72.38
254.727	85.38
254.96	85.38
255.193	74.38
255.426	70.38
255.659	84.38
255.892	92.38
256.124	72.38
256.357	79.38
256.59	75.38
256.823	75.38
257.056	88.38
257.289	88.38
257.521	74.38
257.754	80.38
257.987	90.38
258.22	78.38
258.452	91.38
258.685	82.38
258.918	82.38
259.151	73.38
259.383	86.38
259.616	74.38
259.849	87.38
260.081	71.38
260.314	69.38
260.547	72.38
260.779	72.38
261.012	62.38
261.244	86.38
261.477	90.38
261.71	95.38
261.942	118.38
262.175	99.38
262.407	88.38
262.64	79.38
262.872	73.38
263.105	74.38
263.337	77.38
263.57	99.38
263.802	85.38
264.035	87.38
264.267	85.38
264.499	99.38
264.732	67.38
264.964	87.38
265.197	66.38
265.429	86.38
265.661	80.38
265.894	89.38
266.126	82.38
266.358	88.38
266.591	82.38
266.823	75.38
267.055	88.38
267.287	86.38
267.52	95.38
267.752	85.38
267.984	83.38
268.216	100.38
268.448	90.38
268.681	88.38
268.913	78.38
269.145	79.38
269.377	83.38
269.609	95.38
269.841	85.38
270.073	89.38
270.306	90.38
270.538	88.38
270.77	74.38
271.002	81.38
271.234	84.38
271.466	80.38
271.698	80.38
271.93	96.38
272.162	85.38
272.394	82.38
272.626	93.38
272.858	86.38
273.09	95.38
273.322	90.38
273.553	84.38
273.785	90.38
274.017	74.38
274.249	88.38
274.481	94.38
274.713	89.38
274.945	63.38
275.176	94.38
275.408	85.38
275.64	84.38
275.872	91.38
276.104	90.38
276.335	87.38
276.567	95.38
276.799	112.38
277.031	95.38
277.262	90.38
277.494	91.38
277.726	79.38
277.957	88.38
278.189	94.38
278.421	88.38
278.652	86.38
278.884	88.38
279.115	70.38
279.347	80.38
279.579	79.38
279.81	87.38
280.042	81.38
280.273	92.38
280.505	99.38
280.736	87.38
280.968	74.38
281.199	83.38
281.431	84.38
281.662	94.38
281.894	91.38
282.125	97.38
282.356	111.38
282.588	122.38
282.819	108.38
283.051	83.38
283.282	80.38
283.513	88.38
283.745	81.38
283.976	82.38
284.207	104.38
284.439	88.38
284.67	97.38
284.901	90.38
285.132	82.38
285.364	89.38
285.595	91.38
285.826	89.38
286.057	99.38
286.288	86.38
286.52	88.38
286.751	74.38
286.982	87.38
287.213	84.38
287.444	76.38
287.675	67.38
287.906	84.38
288.138	96.38
288.369	99.38
288.6	94.38
288.831	92.38
289.062	81.38
289.293	87.38
289.524	89.38
289.755	96.38
289.986	82.38
290.217	76.38
290.448	80.38
290.679	93.38
290.91	94.38
291.141	80.38
291.371	93.38
291.602	92.38
291.833	91.38
292.064	87.38
292.295	90.38
292.526	84.38
292.757	76.38
292.987	70.38
293.218	86.38
293.449	87.38
293.68	84.38
293.91	88.38
294.141	90.38
294.372	88.38
294.603	96.38
294.833	84.38
295.064	84.38
295.295	96.38
295.525	98.38
295.756	94.38
295.987	107.38
296.217	130.38
296.448	117.38
296.679	88.38
296.909	87.38
297.14	94.38
297.37	78.38
297.601	92.38
297.831	81.38
298.062	97.38
298.292	93.38
298.523	91.38
298.753	77.38
298.984	89.38
299.214	84.38
299.445	87.38
299.675	87.38
299.905	96.38
300.136	93.38
300.366	81.38
300.597	88.38
300.827	92.38
301.057	100.38
301.288	111.38
301.518	95.38
301.748	95.38
301.979	102.38
302.209	96.38
302.439	91.38
302.669	88.38
302.9	79.38
303.13	86.38
303.36	98.38
303.59	73.38
303.82	92.38
304.051	105.38
304.281	88.38
304.511	92.38
304.741	95.38
304.971	99.38
305.201	87.38
305.431	94.38
305.661	89.38
305.891	102.38
306.121	108.38
306.352	93.38
306.582	109.38
306.812	98.38
307.042	83.38
307.272	95.38
307.502	94.38
307.731	90.38
307.961	92.38
308.191	87.38
308.421	96.38
308.651	90.38
308.881	98.38
309.111	98.38
309.341	79.38
309.571	102.38
309.8	94.38
310.03	109.38
310.26	87.38
310.49	90.38
310.72	97.38
310.949	92.38
311.179	87.38
311.409	94.38
311.639	76.38
311.868	98.38
312.098	96.38
312.328	84.38
312.557	90.38
312.787	100.38
313.017	86.38
313.246	80.38
313.476	95.38
313.706	94.38
313.935	85.38
314.165	94.38
314.394	92.38
314.624	91.38
314.853	91.38
315.083	103.38
315.312	92.38
315.542	91.38
315.771	99.38
316.001	106.38
316.23	99.38
316.46	85.38
316.689	102.38
316.919	89.38
317.148	97.38
317.377	96.38
317.607	75.38
317.836	89.38
318.065	94.38
318.295	87.38
318.524	82.38
318.753	89.38
318.983	102.38
319.212	109.38
319.441	108.38
319.67	100.38
319.9	106.38
320.129	105.38
320.358	90.38
320.587	107.38
320.816	94.38
321.046	86.38
321.275	82.38
321.504	100.38
321.733	86.38
321.962	96.38
322.191	81.38
322.42	89.38
322.649	110.38
322.878	118.38
323.108	112.38
323.337	120.38
323.566	114.38
323.795	133.38
324.024	192.38
324.253	359.38
324.482	776.38
324.71	1610.38
324.939	2072.38
325.168	744.38
325.397	239.38
325.626	150.38
325.855	115.38
326.084	122.38
326.313	132.38
326.542	148.38
326.77	208.38
326.999	427.38
327.228	886.38
327.457	1622.38
327.686	1312.38
327.914	354.38
328.143	182.38
328.372	145.38
328.6	124.38
328.829	117.38
329.058	115.38
329.287	113.38
329.515	105.38
329.744	110.38
329.972	98.38
330.201	106.38
330.43	119.38
330.658	120.38
330.887	119.38
331.115	117.38
331.344	109.38
331.572	91.38
331.801	104.38
332.03	98.38
332.258	92.38
332.486	94.38
332.715	85.38
332.943	94.38
333.172	87.38
333.4	106.38
333.629	97.38
333.857	108.38
334.085	87.38
334.314	107.38
334.542	121.38
334.771	122.38
334.999	105.38
335.227	97.38
335.455	95.38
335.684	85.38
335.912	92.38
336.14	100.38
336.369	100.38
336.597	88.38
336.825	90.38
337.053	96.38
337.281	80.38
337.51	87.38
337.738	82.38
337.966	98.38
338.194	93.38
338.422	94.38
338.65	94.38
338.878	88.38
339.106	96.38
339.334	105.38
339.562	95.38
339.79	93.38
340.018	90.38
340.246	94.38
340.474	98.38
340.702	91.38
340.93	86.38
341.158	86.38
341.386	106.38
341.614	106.38
341.842	92.38
342.07	97.38
342.298	107.38
342.526	93.38
342.754	101.38
342.981	100.38
343.209	84.38
343.437	102.38
343.665	90.38
343.893	95.38
344.12	85.38
344.348	86.38
344.576	85.38
344.804	82.38
345.031	95.38
345.259	94.38
345.487	100.38
345.714	102.38
345.942	97.38
346.17	80.38
346.397	98.38
346.625	97.38
346.853	100.38
347.08	96.38
347.308	90.38
347.535	88.38
347.763	98.38
347.99	95.38
348.218	108.38
348.445	100.38
348.673	86.38
348.9	87.38
349.128	94.38
349.355	80.38
349.583	88.38
349.81	97.38
350.037	106.38
350.265	103.38
350.492	103.38
350.72	114.38
350.947	100.38
351.174	94.38
351.402	103.38
351.629	88.38
351.856	104.38
352.083	92.38
352.311	96.38
352.538	90.38
352.765	119.38
352.992	106.38
353.22	106.38
353.447	98.38
353.674	105.38
353.901	98.38
354.128	88.38
354.355	92.38
354.583	114.38
354.81	98.38
355.037	96.38
355.264	115.38
355.491	91.38
355.718	99.38
355.945	88.38
356.172	96.38
356.399	97.38
356.626	104.38
356.853	85.38
357.08	98.38
357.307	91.38
357.534	84.38
357.761	111.38
357.988	95.38
358.215	97.38
358.441	94.38
358.668	89.38
358.895	103.38
359.122	96.38
359.349	84.38
359.576	84.38
359.802	76.38
360.029	94.38
360.256	100.38
360.483	113.38
360.709	101.38
360.936	95.38
361.163	96.38
361.39	94.38
361.616	80.38
361.843	75.38
362.07	99.38
362.296	98.38
362.523	80.38
362.749	87.38
362.976	79.38
363.203	85.38
363.429	81.38
363.656	95.38
363.882	94.38
364.109	97.38
364.335	97.38
364.562	91.38
364.788	93.38
365.015	102.38
365.241	92.38
365.468	110.38
365.694	96.38
365.92	87.38
366.147	90.38
366.373	92.38
366.599	95.38
366.826	94.38
367.052	82.38
367.278	85.38
367.505	85.38
367.731	98.38
367.957	98.38
368.184	88.38
368.41	98.38
368.636	103.38
368.862	105.38
369.089	119.38
369.315	91.38
369.541	82.38
369.767	94.38
369.993	85.38
370.219	101.38
370.445	89.38
370.672	92.38
370.898	86.38
371.124	84.38
371.35	90.38
371.576	80.38
371.802	75.38
372.028	80.38
372.254	84.38
372.48	73.38
372.706	75.38
372.932	85.38
373.158	88.38
373.384	88.38
373.61	89.38
373.835	98.38
374.061	87.38
374.287	91.38
374.513	86.38
374.739	90.38
374.965	91.38
375.191	91.38
375.416	82.38
375.642	90.38
375.868	105.38
376.094	94.38
376.319	86.38
376.545	90.38
376.771	80.38
376.997	87.38
377.222	108.38
377.448	85.38
377.674	88.38
377.899	99.38
378.125	74.38
378.35	78.38
378.576	87.38
378.802	76.38
379.027	86.38
379.253	99.38
379.478	90.38
379.704	100.38
379.929	96.38
380.155	98.38
380.38	89.38
380.606	99.38
380.831	86.38
381.057	112.38
381.282	99.38
381.507	90.38
381.733	82.38
381.958	99.38
382.184	91.38
382.409	100.38
382.634	101.38
382.86	113.38
383.085	98.38
383.31	95.38
383.535	96.38
383.761	97.38
383.986	95.38
384.211	82.38
384.436	104.38
384.662	99.38
384.887	85.38
385.112	111.38
385.337	108.38
385.562	95.38
385.787	86.38
386.013	92.38
386.238	111.38
386.463	104.38
386.688	112.38
386.913	99.38
387.138	100.38
387.363	104.38
387.588	95.38
387.813	93.38
388.038	100.38
388.263	100.38
388.488	90.38
388.713	101.38
388.938	94.38
389.163	103.38
389.387	100.38
389.612	101.38
389.837	101.38
390.062	104.38
390.287	79.38
390.512	95.38
390.736	99.38
390.961	89.38
391.186	87.38
391.411	95.38
391.636	100.38
391.86	82.38
392.085	91.38
392.31	74.38
392.534	80.38
392.759	94.38
392.984	93.38
393.208	83.38
393.433	96.38
393.658	82.38
393.882	87.38
394.107	97.38
394.331	67.38
394.556	78.38
394.78	82.38
395.005	96.38
395.229	83.38
395.454	85.38
395.678	88.38
395.903	97.38
396.127	93.38
396.352	94.38
396.576	82.38
396.801	82.38
397.025	83.38
397.249	78.38
397.474	93.38
397.698	95.38
397.922	97.38
398.147	80.38
398.371	79.38
398.595	82.38
398.82	87.38
399.044	65.38
399.268	88.38
399.492	89.38
399.717	99.38
399.941	85.38
400.165	91.38
400.389	76.38
400.613	81.38
400.837	80.38
401.062	96.38
401.286	89.38
401.51	90.38
401.734	87.38
401.958	105.38
402.182	123.38
402.406	151.38
402.63	116.38
402.854	91.38
403.078	86.38
403.302	88.38
403.526	90.38
403.75	90.38
403.974	94.38
404.198	82.38
404.422	66.38
404.645	90.38
404.869	82.38
405.093	91.38
405.317	108.38
405.541	102.38
405.765	100.38
405.988	98.38
406.212	146.38
406.436	200.38
406.66	141.38
406.883	95.38
407.107	90.38
407.331	98.38
407.555	83.38
407.778	90.38
408.002	88.38
408.226	88.38
408.449	73.38
408.673	88.38
408.896	101.38
409.12	91.38
409.344	86.38
409.567	94.38
409.791	87.38
410.014	89.38
410.238	98.38
410.461	94.38
410.685	94.38
410.908	106.38
411.132	99.38
411.355	82.38
411.578	78.38
411.802	85.38
412.025	78.38
412.249	97.38
412.472	84.38
412.695	87.38
412.919	83.38
413.142	80.38
413.365	86.38
413.589	81.38
413.812	90.38
414.035	86.38
414.258	74.38
414.482	91.38
414.705	103.38
414.928	85.38
415.151	89.38
415.374	95.38
415.597	82.38
415.821	96.38
416.044	96.38
416.267	79.38
416.49	88.38
416.713	81.38
416.936	68.38
417.159	89.38
417.382	77.38
417.605	99.38
417.828	78.38
418.051	84.38
418.274	87.38
418.497	79.38
418.72	98.38
418.943	76.38
419.166	75.38
419.389	96.38
419.611	102.38
419.834	88.38
420.057	86.38
420.28	78.38
420.503	80.38
420.726	82.38
420.948	85.38
421.171	86.38
421.394	87.38
421.617	89.38
421.839	94.38
422.062	96.38
422.285	95.38
422.507	97.38
422.73	98.38
422.953	101.38
423.175	82.38
423.398	94.38
423.621	95.38
423.843	88.38
424.066	101.38
424.288	79.38
424.511	79.38
424.733	91.38
424.956	112.38
425.178	95.38
425.401	100.38
425.623	96.38
425.846	88.38
426.068	94.38
426.291	95.38
426.513	81.38
426.735	94.38
426.958	79.38
427.18	86.38
427.402	120.38
427.625	147.38
427.847	123.38
428.069	112.38
428.292	78.38
428.514	92.38
428.736	91.38
428.958	104.38
429.181	80.38
429.403	84.38
429.625	71.38
429.847	87.38
430.069	99.38
430.292	94.38
430.514	79.38
430.736	87.38
430.958	74.38
431.18	75.38
431.402	83.38
431.624	82.38
431.846	84.38
432.068	91.38
432.29	92.38
432.512	86.38
432.734	87.38
432.956	80.38
433.178	91.38
433.4	88.38
433.622	83.38
433.844	97.38
434.066	90.38
434.287	88.38
434.509	85.38
434.731	94.38
434.953	87.38
435.175	74.38
435.397	88.38
435.618	92.38
435.84	95.38
436.062	114.38
436.284	106.38
436.505	98.38
436.727	102.38
436.949	89.38
437.17	82.38
437.392	86.38
437.614	88.38
437.835	119.38
438.057	117.38
438.278	116.38
438.5	101.38
438.721	104.38
438.943	101.38
439.165	95.38
439.386	81.38
439.608	92.38
439.829	112.38
440.05	122.38
440.272	136.38
440.493	79.38
440.715	84.38
440.936	85.38
441.158	94.38
441.379	78.38
441.6	86.38
441.822	78.38
442.043	87.38
442.264	93.38
442.486	91.38
442.707	90.38
442.928	99.38
443.149	119.38
443.371	123.38
443.592	103.38
443.813	106.38
444.034	112.38
444.255	90.38
444.476	96.38
444.698	82.38
444.919	93.38
445.14	131.38
445.361	118.38
445.582	112.38
445.803	116.38
446.024	130.38
446.245	139.38
446.466	102.38
446.687	90.38
446.908	75.38
447.129	80.38
447.35	90.38
447.571	104.38
447.792	88.38
448.013	99.38
448.234	116.38
448.455	92.38
448.675	100.38
448.896	105.38
449.117	91.38
449.338	98.38
449.559	112.38
449.779	127.38
450	96.38
450.221	95.38
450.442	84.38
450.662	81.38
450.883	96.38
451.104	117.38
451.324	99.38
451.545	85.38
451.766	89.38
451.986	85.38
452.207	91.38
452.428	97.38
452.648	89.38
452.869	113.38
453.089	96.38
453.31	109.38
453.53	82.38
453.751	77.38
453.971	89.38
454.192	81.38
454.412	96.38
454.633	75.38
454.853	80.38
455.073	70.38
455.294	80.38
455.514	102.38
455.734	83.38
455.955	69.38
456.175	91.38
456.395	87.38
456.616	96.38
456.836	90.38
457.056	87.38
457.276	91.38
457.497	84.38
457.717	86.38
457.937	91.38
458.157	84.38
458.377	82.38
458.598	98.38
458.818	153.38
459.038	132.38
459.258	103.38
459.478	73.38
459.698	88.38
459.918	83.38
460.138	74.38
460.358	68.38
460.578	84.38
460.798	86.38
461.018	88.38
461.238	88.38
461.458	73.38
461.678	94.38
461.898	101.38
462.118	89.38
462.338	86.38
462.558	89.38
462.777	75.38
462.997	91.38
463.217	80.38
463.437	80.38
463.657	92.38
463.876	99.38
464.096	101.38
464.316	94.38
464.536	84.38
464.755	103.38
464.975	103.38
465.195	159.38
465.414	140.38
465.634	105.38
465.854	91.38
466.073	96.38
466.293	88.38
466.512	71.38
466.732	86.38
466.951	78.38
467.171	91.38
467.391	94.38
467.61	108.38
467.829	103.38
468.049	80.38
468.268	91.38
468.488	98.38
468.707	90.38
468.927	84.38
469.146	70.38
469.365	86.38
469.585	90.38
469.804	104.38
470.023	85.38
470.243	86.38
470.462	104.38
470.681	105.38
470.901	95.38
471.12	84.38
471.339	87.38
471.558	78.38
471.777	76.38
471.997	79.38
472.216	95.38
472.435	109.38
472.654	88.38
472.873	103.38
473.092	78.38
473.311	89.38
473.53	83.38
473.749	89.38
473.968	95.38
474.187	94.38
474.406	84.38
474.625	93.38
474.844	90.38
475.063	89.38
475.282	97.38
475.501	82.38
475.72	83.38
475.939	90.38
476.158	104.38
476.377	81.38
476.596	84.38
476.814	86.38
477.033	92.38
477.252	80.38
477.471	95.38
477.69	84.38
477.908	78.38
478.127	92.38
478.346	78.38
478.564	83.38
478.783	73.38
479.002	94.38
479.22	97.38
479.439	100.38
479.658	93.38
479.876	81.38
480.095	80.38
480.313	96.38
480.532	98.38
480.751	93.38
480.969	93.38
481.188	161.38
481.406	108.38
481.624	84.38
481.843	84.38
482.061	85.38
482.28	86.38
482.498	88.38
482.717	82.38
482.935	81.38
483.153	89.38
483.372	84.38
483.59	86.38
483.808	88.38
484.027	88.38
484.245	94.38
484.463	90.38
484.681	82.38
484.9	84.38
485.118	95.38
485.336	82.38
485.554	82.38
485.772	95.38
485.99	92.38
486.209	92.38
486.427	93.38
486.645	103.38
486.863	99.38
487.081	118.38
487.299	91.38
487.517	101.38
487.735	98.38
487.953	92.38
488.171	88.38
488.389	100.38
488.607	98.38
488.825	82.38
489.043	96.38
489.261	91.38
489.479	98.38
489.696	87.38
489.914	78.38
490.132	83.38
490.35	99.38
490.568	82.38
490.786	86.38
491.003	75.38
491.221	100.38
491.439	87.38
491.657	100.38
491.874	83.38
492.092	94.38
492.31	90.38
492.527	95.38
492.745	80.38
492.963	81.38
493.18	85.38
493.398	84.38
493.615	86.38
493.833	96.38
494.05	89.38
494.268	83.38
494.485	75.38
494.703	82.38
494.92	97.38
495.138	91.38
495.355	88.38
495.573	93.38
495.79	91.38
496.008	91.38
496.225	111.38
496.442	108.38
496.66	92.38
496.877	81.38
497.094	80.38
497.312	75.38
497.529	88.38
497.746	96.38
497.963	81.38
498.181	87.38
498.398	96.38
498.615	114.38
498.832	112.38
499.049	80.38
499.267	89.38
499.484	104.38
499.701	96.38
499.918	96.38
500.135	81.38
500.352	83.38
500.569	93.38
500.786	82.38
501.003	85.38
501.22	86.38
501.437	76.38
501.654	80.38
501.871	114.38
502.088	87.38
502.305	94.38
502.522	94.38
502.739	95.38
502.956	91.38
503.172	90.38
503.389	100.38
503.606	102.38
503.823	78.38
504.04	97.38
504.256	92.38
504.473	88.38
504.69	100.38
504.907	91.38
505.123	80.38
505.34	92.38
505.557	92.38
505.773	95.38
505.99	98.38
506.207	97.38
506.423	85.38
506.64	100.38
506.856	75.38
507.073	82.38
507.289	89.38
507.506	106.38
507.722	111.38
507.939	96.38
508.155	103.38
508.372	95.38
508.588	96.38
508.805	79.38
509.021	102.38
509.238	98.38
509.454	83.38
509.67	108.38
509.887	116.38
510.103	108.38
510.319	200.38
510.536	692.38
510.752	2154.38
510.968	596.38
511.184	140.38
511.401	115.38
511.617	98.38
511.833	107.38
512.049	111.38
512.265	86.38
512.481	96.38
512.698	86.38
512.914	84.38
513.13	93.38
513.346	90.38
513.562	85.38
513.778	82.38
513.994	94.38
514.21	96.38
514.426	110.38
514.642	117.38
514.858	125.38
515.074	162.38
515.29	412.38
515.506	1289.38
515.721	482.38
515.937	147.38
516.153	102.38
516.369	90.38
