Data from Uncirc_1985_H10_HRD10591_00001.txt Node
Date: Wed Jan 03 12:18:17 EST 2024
User: Yrep
Spectrometer: HR+D1059
Trigger mode: 1
Integration Time (sec): 1.000000E-1
Scans to average: 1
Electric dark correction enabled: true
Nonlinearity correction enabled: false
Boxcar width: 0
XAxis mode: Wavelengths
Number of Pixels in Spectrum: 2048
>>>>>Begin Spectral Data<<<<<
223.165	-21.12
223.4	-21.12
223.635	-21.12
223.869	-21.12
224.104	-23.12
224.338	-18.12
224.573	-17.12
224.808	-11.12
225.042	1.88
225.277	1.88
225.511	-12.12
225.746	3.88
225.98	5.88
226.215	14.88
226.449	9.88
226.683	17.88
226.918	32.88
227.152	34.88
227.387	46.88
227.621	28.88
227.856	30.88
228.09	44.88
228.324	39.88
228.559	56.88
228.793	55.88
229.027	50.88
229.262	65.88
229.496	67.88
229.73	78.88
229.964	86.88
230.199	67.88
230.433	56.88
230.667	62.88
230.901	69.88
231.136	71.88
231.37	69.88
231.604	84.88
231.838	81.88
232.072	76.88
232.306	79.88
232.541	66.88
232.775	68.88
233.009	87.88
233.243	80.88
233.477	70.88
233.711	84.88
233.945	80.88
234.179	87.88
234.413	84.88
234.647	76.88
234.881	84.88
235.115	72.88
235.349	68.88
235.583	79.88
235.817	86.88
236.051	79.88
236.285	79.88
236.519	78.88
236.753	70.88
236.987	73.88
237.221	84.88
237.455	70.88
237.689	88.88
237.922	90.88
238.156	89.88
238.39	72.88
238.624	87.88
238.858	84.88
239.091	83.88
239.325	83.88
239.559	71.88
239.793	70.88
240.027	76.88
240.26	83.88
240.494	89.88
240.728	70.88
240.961	66.88
241.195	79.88
241.429	67.88
241.662	79.88
241.896	71.88
242.13	65.88
242.363	72.88
242.597	85.88
242.83	78.88
243.064	72.88
243.298	77.88
243.531	73.88
243.765	66.88
243.998	68.88
244.232	79.88
244.465	69.88
244.699	80.88
244.932	77.88
245.166	76.88
245.399	79.88
245.633	84.88
245.866	73.88
246.099	67.88
246.333	71.88
246.566	70.88
246.8	83.88
247.033	85.88
247.266	66.88
247.5	79.88
247.733	87.88
247.966	82.88
248.2	83.88
248.433	76.88
248.666	92.88
248.899	66.88
249.133	79.88
249.366	97.88
249.599	84.88
249.832	69.88
250.066	71.88
250.299	72.88
250.532	93.88
250.765	76.88
250.998	71.88
251.231	82.88
251.465	90.88
251.698	76.88
251.931	83.88
252.164	90.88
252.397	74.88
252.63	76.88
252.863	78.88
253.096	84.88
253.329	94.88
253.562	69.88
253.795	79.88
254.028	72.88
254.261	75.88
254.494	73.88
254.727	82.88
254.96	59.88
255.193	85.88
255.426	70.88
255.659	73.88
255.892	89.88
256.124	73.88
256.357	60.88
256.59	66.88
256.823	85.88
257.056	81.88
257.289	94.88
257.521	86.88
257.754	65.88
257.987	80.88
258.22	96.88
258.452	87.88
258.685	73.88
258.918	75.88
259.151	80.88
259.383	80.88
259.616	80.88
259.849	77.88
260.081	70.88
260.314	77.88
260.547	86.88
260.779	74.88
261.012	70.88
261.244	77.88
261.477	92.88
261.71	92.88
261.942	96.88
262.175	96.88
262.407	90.88
262.64	85.88
262.872	79.88
263.105	83.88
263.337	91.88
263.57	79.88
263.802	77.88
264.035	82.88
264.267	76.88
264.499	79.88
264.732	91.88
264.964	82.88
265.197	84.88
265.429	85.88
265.661	98.88
265.894	86.88
266.126	86.88
266.358	81.88
266.591	76.88
266.823	71.88
267.055	78.88
267.287	92.88
267.52	79.88
267.752	90.88
267.984	76.88
268.216	85.88
268.448	73.88
268.681	78.88
268.913	81.88
269.145	90.88
269.377	78.88
269.609	90.88
269.841	77.88
270.073	87.88
270.306	80.88
270.538	85.88
270.77	66.88
271.002	96.88
271.234	80.88
271.466	92.88
271.698	101.88
271.93	103.88
272.162	80.88
272.394	98.88
272.626	70.88
272.858	85.88
273.09	95.88
273.322	96.88
273.553	86.88
273.785	84.88
274.017	91.88
274.249	78.88
274.481	87.88
274.713	101.88
274.945	86.88
275.176	74.88
275.408	84.88
275.64	104.88
275.872	89.88
276.104	85.88
276.335	100.88
276.567	93.88
276.799	101.88
277.031	101.88
277.262	101.88
277.494	85.88
277.726	82.88
277.957	82.88
278.189	101.88
278.421	77.88
278.652	86.88
278.884	81.88
279.115	84.88
279.347	79.88
279.579	104.88
279.81	91.88
280.042	87.88
280.273	82.88
280.505	100.88
280.736	69.88
280.968	86.88
281.199	88.88
281.431	98.88
281.662	88.88
281.894	85.88
282.125	92.88
282.356	106.88
282.588	125.88
282.819	106.88
283.051	75.88
283.282	82.88
283.513	89.88
283.745	96.88
283.976	82.88
284.207	88.88
284.439	90.88
284.67	97.88
284.901	73.88
285.132	86.88
285.364	73.88
285.595	88.88
285.826	85.88
286.057	89.88
286.288	85.88
286.52	88.88
286.751	85.88
286.982	90.88
287.213	80.88
287.444	71.88
287.675	85.88
287.906	88.88
288.138	66.88
288.369	92.88
288.6	83.88
288.831	80.88
289.062	85.88
289.293	83.88
289.524	72.88
289.755	82.88
289.986	96.88
290.217	72.88
290.448	71.88
290.679	88.88
290.91	101.88
291.141	75.88
291.371	73.88
291.602	84.88
291.833	94.88
292.064	95.88
292.295	79.88
292.526	69.88
292.757	86.88
292.987	81.88
293.218	91.88
293.449	80.88
293.68	92.88
293.91	88.88
294.141	82.88
294.372	87.88
294.603	97.88
294.833	78.88
295.064	86.88
295.295	93.88
295.525	79.88
295.756	107.88
295.987	96.88
296.217	113.88
296.448	113.88
296.679	106.88
296.909	106.88
297.14	77.88
297.37	85.88
297.601	73.88
297.831	82.88
298.062	84.88
298.292	86.88
298.523	87.88
298.753	83.88
298.984	89.88
299.214	71.88
299.445	81.88
299.675	88.88
299.905	93.88
300.136	86.88
300.366	89.88
300.597	85.88
300.827	87.88
301.057	99.88
301.288	90.88
301.518	87.88
301.748	81.88
301.979	102.88
302.209	94.88
302.439	78.88
302.669	96.88
302.9	91.88
303.13	84.88
303.36	89.88
303.59	85.88
303.82	90.88
304.051	86.88
304.281	77.88
304.511	90.88
304.741	68.88
304.971	83.88
305.201	84.88
305.431	93.88
305.661	80.88
305.891	86.88
306.121	102.88
306.352	96.88
306.582	95.88
306.812	91.88
307.042	85.88
307.272	80.88
307.502	99.88
307.731	92.88
307.961	80.88
308.191	94.88
308.421	86.88
308.651	84.88
308.881	84.88
309.111	73.88
309.341	110.88
309.571	98.88
309.8	103.88
310.03	101.88
310.26	105.88
310.49	88.88
310.72	86.88
310.949	102.88
311.179	103.88
311.409	102.88
311.639	85.88
311.868	95.88
312.098	85.88
312.328	94.88
312.557	91.88
312.787	73.88
313.017	92.88
313.246	96.88
313.476	93.88
313.706	101.88
313.935	90.88
314.165	100.88
314.394	96.88
314.624	93.88
314.853	101.88
315.083	96.88
315.312	93.88
315.542	89.88
315.771	87.88
316.001	89.88
316.23	93.88
316.46	82.88
316.689	94.88
316.919	89.88
317.148	91.88
317.377	92.88
317.607	101.88
317.836	94.88
318.065	83.88
318.295	89.88
318.524	93.88
318.753	97.88
318.983	88.88
319.212	105.88
319.441	99.88
319.67	95.88
319.9	74.88
320.129	95.88
320.358	102.88
320.587	98.88
320.816	103.88
321.046	102.88
321.275	106.88
321.504	84.88
321.733	93.88
321.962	85.88
322.191	94.88
322.42	94.88
322.649	97.88
322.878	114.88
323.108	101.88
323.337	99.88
323.566	114.88
323.795	147.88
324.024	169.88
324.253	345.88
324.482	680.88
324.71	1413.88
324.939	1832.88
325.168	689.88
325.397	208.88
325.626	138.88
325.855	117.88
326.084	115.88
326.313	128.88
326.542	146.88
326.77	202.88
326.999	378.88
327.228	824.88
327.457	1493.88
327.686	1143.88
327.914	325.88
328.143	154.88
328.372	125.88
328.6	108.88
328.829	105.88
329.058	111.88
329.287	99.88
329.515	94.88
329.744	89.88
329.972	108.88
330.201	107.88
330.43	94.88
330.658	105.88
330.887	125.88
331.115	94.88
331.344	90.88
331.572	86.88
331.801	91.88
332.03	99.88
332.258	73.88
332.486	103.88
332.715	108.88
332.943	101.88
333.172	94.88
333.4	74.88
333.629	95.88
333.857	86.88
334.085	92.88
334.314	106.88
334.542	105.88
334.771	105.88
334.999	103.88
335.227	87.88
335.455	97.88
335.684	100.88
335.912	90.88
336.14	81.88
336.369	89.88
336.597	93.88
336.825	73.88
337.053	98.88
337.281	110.88
337.51	92.88
337.738	87.88
337.966	74.88
338.194	95.88
338.422	84.88
338.65	99.88
338.878	78.88
339.106	98.88
339.334	87.88
339.562	104.88
339.79	85.88
340.018	90.88
340.246	74.88
340.474	100.88
340.702	100.88
340.93	86.88
341.158	93.88
341.386	96.88
341.614	96.88
341.842	83.88
342.07	80.88
342.298	93.88
342.526	93.88
342.754	91.88
342.981	82.88
343.209	93.88
343.437	99.88
343.665	88.88
343.893	90.88
344.12	84.88
344.348	85.88
344.576	93.88
344.804	87.88
345.031	85.88
345.259	99.88
345.487	98.88
345.714	92.88
345.942	104.88
346.17	97.88
346.397	100.88
346.625	100.88
346.853	81.88
347.08	90.88
347.308	89.88
347.535	98.88
347.763	96.88
347.99	109.88
348.218	100.88
348.445	89.88
348.673	101.88
348.9	85.88
349.128	96.88
349.355	88.88
349.583	102.88
349.81	90.88
350.037	107.88
350.265	72.88
350.492	90.88
350.72	97.88
350.947	110.88
351.174	106.88
351.402	97.88
351.629	97.88
351.856	108.88
352.083	96.88
352.311	91.88
352.538	93.88
352.765	101.88
352.992	95.88
353.22	116.88
353.447	95.88
353.674	90.88
353.901	98.88
354.128	88.88
354.355	91.88
354.583	90.88
354.81	88.88
355.037	85.88
355.264	88.88
355.491	89.88
355.718	92.88
355.945	82.88
356.172	88.88
356.399	102.88
356.626	86.88
356.853	97.88
357.08	87.88
357.307	96.88
357.534	79.88
357.761	90.88
357.988	94.88
358.215	98.88
358.441	78.88
358.668	96.88
358.895	89.88
359.122	96.88
359.349	86.88
359.576	90.88
359.802	93.88
360.029	93.88
360.256	91.88
360.483	86.88
360.709	102.88
360.936	93.88
361.163	85.88
361.39	97.88
361.616	85.88
361.843	82.88
362.07	83.88
362.296	82.88
362.523	85.88
362.749	89.88
362.976	82.88
363.203	90.88
363.429	78.88
363.656	94.88
363.882	90.88
364.109	88.88
364.335	83.88
364.562	81.88
364.788	76.88
365.015	83.88
365.241	81.88
365.468	83.88
365.694	102.88
365.92	81.88
366.147	90.88
366.373	85.88
366.599	84.88
366.826	77.88
367.052	79.88
367.278	99.88
367.505	98.88
367.731	96.88
367.957	79.88
368.184	89.88
368.41	97.88
368.636	75.88
368.862	94.88
369.089	92.88
369.315	95.88
369.541	77.88
369.767	95.88
369.993	86.88
370.219	86.88
370.445	79.88
370.672	79.88
370.898	80.88
371.124	94.88
371.35	80.88
371.576	88.88
371.802	92.88
372.028	86.88
372.254	71.88
372.48	87.88
372.706	89.88
372.932	79.88
373.158	87.88
373.384	93.88
373.61	93.88
373.835	89.88
374.061	82.88
374.287	92.88
374.513	86.88
374.739	92.88
374.965	69.88
375.191	81.88
375.416	82.88
375.642	95.88
375.868	92.88
376.094	85.88
376.319	94.88
376.545	92.88
376.771	89.88
376.997	83.88
377.222	100.88
377.448	97.88
377.674	78.88
377.899	86.88
378.125	86.88
378.35	97.88
378.576	93.88
378.802	91.88
379.027	91.88
379.253	94.88
379.478	78.88
379.704	103.88
379.929	96.88
380.155	84.88
380.38	93.88
380.606	87.88
380.831	101.88
381.057	109.88
381.282	84.88
381.507	83.88
381.733	97.88
381.958	98.88
382.184	97.88
382.409	108.88
382.634	96.88
382.86	101.88
383.085	113.88
383.31	118.88
383.535	100.88
383.761	80.88
383.986	98.88
384.211	88.88
384.436	92.88
384.662	106.88
384.887	110.88
385.112	105.88
385.337	112.88
385.562	95.88
385.787	106.88
386.013	104.88
386.238	101.88
386.463	99.88
386.688	114.88
386.913	106.88
387.138	105.88
387.363	90.88
387.588	113.88
387.813	90.88
388.038	104.88
388.263	119.88
388.488	100.88
388.713	83.88
388.938	106.88
389.163	87.88
389.387	87.88
389.612	102.88
389.837	82.88
390.062	97.88
390.287	89.88
390.512	81.88
390.736	80.88
390.961	78.88
391.186	97.88
391.411	72.88
391.636	88.88
391.86	92.88
392.085	79.88
392.31	77.88
392.534	89.88
392.759	94.88
392.984	94.88
393.208	103.88
393.433	76.88
393.658	97.88
393.882	90.88
394.107	99.88
394.331	77.88
394.556	77.88
394.78	81.88
395.005	76.88
395.229	84.88
395.454	79.88
395.678	81.88
395.903	88.88
396.127	96.88
396.352	90.88
396.576	82.88
396.801	72.88
397.025	92.88
397.249	87.88
397.474	78.88
397.698	86.88
397.922	83.88
398.147	82.88
398.371	87.88
398.595	88.88
398.82	81.88
399.044	84.88
399.268	76.88
399.492	69.88
399.717	87.88
399.941	101.88
400.165	89.88
400.389	92.88
400.613	88.88
400.837	76.88
401.062	82.88
401.286	86.88
401.51	89.88
401.734	71.88
401.958	93.88
402.182	121.88
402.406	122.88
402.63	104.88
402.854	80.88
403.078	84.88
403.302	73.88
403.526	80.88
403.75	78.88
403.974	90.88
404.198	72.88
404.422	81.88
404.645	82.88
404.869	86.88
405.093	85.88
405.317	91.88
405.541	96.88
405.765	96.88
405.988	82.88
406.212	135.88
406.436	178.88
406.66	117.88
406.883	93.88
407.107	101.88
407.331	102.88
407.555	100.88
407.778	93.88
408.002	89.88
408.226	83.88
408.449	79.88
408.673	81.88
408.896	90.88
409.12	88.88
409.344	84.88
409.567	80.88
409.791	96.88
410.014	104.88
410.238	94.88
410.461	85.88
410.685	93.88
410.908	102.88
411.132	95.88
411.355	97.88
411.578	102.88
411.802	90.88
412.025	92.88
412.249	90.88
412.472	78.88
412.695	81.88
412.919	83.88
413.142	80.88
413.365	91.88
413.589	82.88
413.812	88.88
414.035	87.88
414.258	74.88
414.482	92.88
414.705	80.88
414.928	88.88
415.151	95.88
415.374	96.88
415.597	81.88
415.821	79.88
416.044	93.88
416.267	90.88
416.49	74.88
416.713	90.88
416.936	96.88
417.159	90.88
417.382	84.88
417.605	93.88
417.828	90.88
418.051	98.88
418.274	84.88
418.497	66.88
418.72	86.88
418.943	83.88
419.166	66.88
419.389	94.88
419.611	89.88
419.834	81.88
420.057	101.88
420.28	68.88
420.503	86.88
420.726	70.88
420.948	84.88
421.171	80.88
421.394	79.88
421.617	81.88
421.839	75.88
422.062	86.88
422.285	100.88
422.507	100.88
422.73	93.88
422.953	80.88
423.175	86.88
423.398	98.88
423.621	73.88
423.843	78.88
424.066	76.88
424.288	82.88
424.511	76.88
424.733	101.88
424.956	96.88
425.178	85.88
425.401	103.88
425.623	86.88
425.846	86.88
426.068	79.88
426.291	97.88
426.513	90.88
426.735	94.88
426.958	81.88
427.18	90.88
427.402	128.88
427.625	148.88
427.847	126.88
428.069	100.88
428.292	92.88
428.514	79.88
428.736	88.88
428.958	80.88
429.181	84.88
429.403	89.88
429.625	88.88
429.847	82.88
430.069	93.88
430.292	89.88
430.514	74.88
430.736	89.88
430.958	100.88
431.18	84.88
431.402	94.88
431.624	96.88
431.846	80.88
432.068	76.88
432.29	79.88
432.512	78.88
432.734	85.88
432.956	87.88
433.178	74.88
433.4	74.88
433.622	97.88
433.844	96.88
434.066	103.88
434.287	75.88
434.509	73.88
434.731	80.88
434.953	91.88
435.175	94.88
435.397	95.88
435.618	95.88
435.84	86.88
436.062	117.88
436.284	96.88
436.505	96.88
436.727	108.88
436.949	85.88
437.17	95.88
437.392	80.88
437.614	82.88
437.835	103.88
438.057	100.88
438.278	100.88
438.5	98.88
438.721	123.88
438.943	91.88
439.165	103.88
439.386	89.88
439.608	74.88
439.829	90.88
440.05	110.88
440.272	134.88
440.493	95.88
440.715	88.88
440.936	84.88
441.158	81.88
441.379	96.88
441.6	92.88
441.822	91.88
442.043	84.88
442.264	91.88
442.486	93.88
442.707	92.88
442.928	84.88
443.149	108.88
443.371	120.88
443.592	102.88
443.813	124.88
444.034	95.88
444.255	89.88
444.476	98.88
444.698	74.88
444.919	86.88
445.14	138.88
445.361	115.88
445.582	106.88
445.803	118.88
446.024	106.88
446.245	125.88
446.466	100.88
446.687	82.88
446.908	84.88
447.129	81.88
447.35	78.88
447.571	79.88
447.792	91.88
448.013	95.88
448.234	96.88
448.455	98.88
448.675	105.88
448.896	108.88
449.117	96.88
449.338	96.88
449.559	111.88
449.779	115.88
450	86.88
450.221	78.88
450.442	77.88
450.662	87.88
450.883	97.88
451.104	101.88
451.324	83.88
451.545	85.88
451.766	98.88
451.986	99.88
452.207	93.88
452.428	87.88
452.648	91.88
452.869	111.88
453.089	103.88
453.31	106.88
453.53	84.88
453.751	80.88
453.971	104.88
454.192	93.88
454.412	85.88
454.633	92.88
454.853	83.88
455.073	69.88
455.294	89.88
455.514	86.88
455.734	84.88
455.955	80.88
456.175	84.88
456.395	78.88
456.616	72.88
456.836	63.88
457.056	88.88
457.276	88.88
457.497	86.88
457.717	99.88
457.937	95.88
458.157	82.88
458.377	100.88
458.598	84.88
458.818	115.88
459.038	133.88
459.258	113.88
459.478	96.88
459.698	88.88
459.918	101.88
460.138	61.88
460.358	78.88
460.578	93.88
460.798	85.88
461.018	88.88
461.238	86.88
461.458	92.88
461.678	72.88
461.898	85.88
462.118	67.88
462.338	88.88
462.558	73.88
462.777	90.88
462.997	85.88
463.217	93.88
463.437	82.88
463.657	84.88
463.876	80.88
464.096	80.88
464.316	93.88
464.536	95.88
464.755	89.88
464.975	94.88
465.195	128.88
465.414	121.88
465.634	80.88
465.854	92.88
466.073	97.88
466.293	97.88
466.512	92.88
466.732	88.88
466.951	101.88
467.171	80.88
467.391	82.88
467.61	104.88
467.829	102.88
468.049	99.88
468.268	80.88
468.488	72.88
468.707	80.88
468.927	86.88
469.146	84.88
469.365	97.88
469.585	83.88
469.804	83.88
470.023	80.88
470.243	78.88
470.462	101.88
470.681	92.88
470.901	75.88
471.12	88.88
471.339	88.88
471.558	91.88
471.777	69.88
471.997	104.88
472.216	96.88
472.435	94.88
472.654	94.88
472.873	111.88
473.092	78.88
473.311	88.88
473.53	88.88
473.749	96.88
473.968	98.88
474.187	89.88
474.406	90.88
474.625	88.88
474.844	83.88
475.063	83.88
475.282	88.88
475.501	96.88
475.72	92.88
475.939	102.88
476.158	77.88
476.377	91.88
476.596	76.88
476.814	88.88
477.033	82.88
477.252	84.88
477.471	78.88
477.69	80.88
477.908	87.88
478.127	96.88
478.346	80.88
478.564	93.88
478.783	85.88
479.002	89.88
479.22	79.88
479.439	94.88
479.658	90.88
479.876	95.88
480.095	88.88
480.313	80.88
480.532	96.88
480.751	98.88
480.969	85.88
481.188	109.88
481.406	94.88
481.624	96.88
481.843	79.88
482.061	98.88
482.28	94.88
482.498	82.88
482.717	81.88
482.935	76.88
483.153	88.88
483.372	87.88
483.59	106.88
483.808	90.88
484.027	97.88
484.245	84.88
484.463	92.88
484.681	100.88
484.9	102.88
485.118	89.88
485.336	94.88
485.554	82.88
485.772	104.88
485.99	92.88
486.209	112.88
486.427	106.88
486.645	98.88
486.863	92.88
487.081	94.88
487.299	93.88
487.517	90.88
487.735	100.88
487.953	104.88
488.171	100.88
488.389	81.88
488.607	101.88
488.825	93.88
489.043	86.88
489.261	76.88
489.479	67.88
489.696	90.88
489.914	84.88
490.132	95.88
490.35	89.88
490.568	81.88
490.786	82.88
491.003	95.88
491.221	92.88
491.439	78.88
491.657	92.88
491.874	100.88
492.092	80.88
492.31	94.88
492.527	82.88
492.745	90.88
492.963	77.88
493.18	87.88
493.398	84.88
493.615	85.88
493.833	82.88
494.05	70.88
494.268	92.88
494.485	96.88
494.703	85.88
494.92	92.88
495.138	84.88
495.355	83.88
495.573	80.88
495.79	99.88
496.008	78.88
496.225	89.88
496.442	60.88
496.66	96.88
496.877	87.88
497.094	93.88
497.312	94.88
497.529	86.88
497.746	106.88
497.963	95.88
498.181	102.88
498.398	80.88
498.615	83.88
498.832	96.88
499.049	98.88
499.267	90.88
499.484	86.88
499.701	82.88
499.918	85.88
500.135	93.88
500.352	94.88
500.569	99.88
500.786	79.88
501.003	107.88
501.22	86.88
501.437	95.88
501.654	96.88
501.871	97.88
502.088	87.88
502.305	93.88
502.522	91.88
502.739	89.88
502.956	95.88
503.172	103.88
503.389	91.88
503.606	91.88
503.823	78.88
504.04	98.88
504.256	91.88
504.473	82.88
504.69	100.88
504.907	103.88
505.123	89.88
505.34	92.88
505.557	95.88
505.773	95.88
505.99	64.88
506.207	80.88
506.423	78.88
506.64	94.88
506.856	106.88
507.073	94.88
507.289	76.88
507.506	96.88
507.722	90.88
507.939	105.88
508.155	90.88
508.372	87.88
508.588	101.88
508.805	86.88
509.021	100.88
509.238	87.88
509.454	105.88
509.67	86.88
509.887	106.88
510.103	114.88
510.319	179.88
510.536	608.88
510.752	1790.88
510.968	486.88
511.184	134.88
511.401	112.88
511.617	82.88
511.833	89.88
512.049	105.88
512.265	85.88
512.481	96.88
512.698	106.88
512.914	92.88
513.13	85.88
513.346	89.88
513.562	98.88
513.778	92.88
513.994	91.88
514.21	102.88
514.426	97.88
514.642	125.88
514.858	120.88
515.074	156.88
515.29	336.88
515.506	987.88
515.721	398.88
515.937	121.88
516.153	97.88
516.369	89.88
516.585	85.88
516.801	93.88
