Data from Uncirc_1985_H10_HRD10591_00073.txt Node
Date: Wed Jan 03 12:18:32 EST 2024
User: Yrep
Spectrometer: HR+D1059
Trigger mode: 1
Integration Time (sec): 1.000000E-1
Scans to average: 1
Electric dark correction enabled: true
Nonlinearity correction enabled: false
Boxcar width: 0
XAxis mode: Wavelengths
Number of Pixels in Spectrum: 2048
>>>>>Begin Spectral Data<<<<<
223.165	-13.44
223.4	-13.44
223.635	-13.44
223.869	-9.44
224.104	-23.44
224.338	-21.44
224.573	-22.44
224.808	-20.44
225.042	-16.44
225.277	-21.44
225.511	1.56
225.746	23.56
225.98	8.56
226.215	17.56
226.449	11.56
226.683	21.56
226.918	28.56
227.152	35.56
227.387	25.56
227.621	21.56
227.856	39.56
228.09	47.56
228.324	62.56
228.559	50.56
228.793	53.56
229.027	60.56
229.262	64.56
229.496	73.56
229.73	88.56
229.964	80.56
230.199	79.56
230.433	60.56
230.667	75.56
230.901	76.56
231.136	93.56
231.37	80.56
231.604	85.56
231.838	84.56
232.072	85.56
232.306	85.56
232.541	67.56
232.775	85.56
233.009	89.56
233.243	77.56
233.477	68.56
233.711	72.56
233.945	56.56
234.179	83.56
234.413	82.56
234.647	94.56
234.881	77.56
235.115	90.56
235.349	71.56
235.583	72.56
235.817	76.56
236.051	72.56
236.285	78.56
236.519	86.56
236.753	87.56
236.987	77.56
237.221	88.56
237.455	80.56
237.689	82.56
237.922	72.56
238.156	71.56
238.39	91.56
238.624	81.56
238.858	78.56
239.091	77.56
239.325	79.56
239.559	79.56
239.793	63.56
240.027	68.56
240.26	77.56
240.494	75.56
240.728	79.56
240.961	69.56
241.195	78.56
241.429	60.56
241.662	82.56
241.896	72.56
242.13	92.56
242.363	65.56
242.597	79.56
242.83	73.56
243.064	59.56
243.298	76.56
243.531	72.56
243.765	63.56
243.998	77.56
244.232	74.56
244.465	76.56
244.699	82.56
244.932	77.56
245.166	73.56
245.399	81.56
245.633	72.56
245.866	65.56
246.099	77.56
246.333	87.56
246.566	65.56
246.8	78.56
247.033	93.56
247.266	63.56
247.5	69.56
247.733	77.56
247.966	85.56
248.2	55.56
248.433	81.56
248.666	72.56
248.899	83.56
249.133	87.56
249.366	96.56
249.599	96.56
249.832	82.56
250.066	85.56
250.299	65.56
250.532	89.56
250.765	64.56
250.998	66.56
251.231	77.56
251.465	68.56
251.698	75.56
251.931	87.56
252.164	83.56
252.397	64.56
252.63	81.56
252.863	66.56
253.096	92.56
253.329	84.56
253.562	62.56
253.795	72.56
254.028	82.56
254.261	76.56
254.494	83.56
254.727	75.56
254.96	78.56
255.193	71.56
255.426	81.56
255.659	68.56
255.892	81.56
256.124	79.56
256.357	77.56
256.59	73.56
256.823	75.56
257.056	85.56
257.289	61.56
257.521	76.56
257.754	90.56
257.987	82.56
258.22	82.56
258.452	71.56
258.685	79.56
258.918	64.56
259.151	85.56
259.383	78.56
259.616	79.56
259.849	78.56
260.081	79.56
260.314	93.56
260.547	83.56
260.779	88.56
261.012	77.56
261.244	91.56
261.477	94.56
261.71	83.56
261.942	106.56
262.175	111.56
262.407	93.56
262.64	84.56
262.872	77.56
263.105	83.56
263.337	79.56
263.57	96.56
263.802	81.56
264.035	84.56
264.267	77.56
264.499	76.56
264.732	88.56
264.964	71.56
265.197	77.56
265.429	85.56
265.661	68.56
265.894	100.56
266.126	73.56
266.358	72.56
266.591	84.56
266.823	79.56
267.055	89.56
267.287	59.56
267.52	93.56
267.752	78.56
267.984	65.56
268.216	71.56
268.448	90.56
268.681	69.56
268.913	71.56
269.145	87.56
269.377	93.56
269.609	79.56
269.841	97.56
270.073	88.56
270.306	78.56
270.538	81.56
270.77	77.56
271.002	81.56
271.234	88.56
271.466	62.56
271.698	69.56
271.93	75.56
272.162	79.56
272.394	95.56
272.626	72.56
272.858	85.56
273.09	86.56
273.322	70.56
273.553	81.56
273.785	75.56
274.017	83.56
274.249	72.56
274.481	82.56
274.713	83.56
274.945	72.56
275.176	84.56
275.408	86.56
275.64	70.56
275.872	86.56
276.104	89.56
276.335	81.56
276.567	92.56
276.799	116.56
277.031	92.56
277.262	80.56
277.494	94.56
277.726	100.56
277.957	71.56
278.189	92.56
278.421	71.56
278.652	73.56
278.884	92.56
279.115	80.56
279.347	75.56
279.579	85.56
279.81	77.56
280.042	83.56
280.273	92.56
280.505	68.56
280.736	88.56
280.968	92.56
281.199	88.56
281.431	100.56
281.662	102.56
281.894	80.56
282.125	93.56
282.356	115.56
282.588	138.56
282.819	97.56
283.051	88.56
283.282	73.56
283.513	88.56
283.745	83.56
283.976	91.56
284.207	93.56
284.439	84.56
284.67	84.56
284.901	71.56
285.132	82.56
285.364	77.56
285.595	81.56
285.826	87.56
286.057	86.56
286.288	78.56
286.52	100.56
286.751	87.56
286.982	69.56
287.213	66.56
287.444	91.56
287.675	88.56
287.906	82.56
288.138	77.56
288.369	89.56
288.6	103.56
288.831	83.56
289.062	92.56
289.293	92.56
289.524	86.56
289.755	80.56
289.986	94.56
290.217	77.56
290.448	65.56
290.679	84.56
290.91	68.56
291.141	87.56
291.371	86.56
291.602	87.56
291.833	81.56
292.064	70.56
292.295	93.56
292.526	87.56
292.757	75.56
292.987	65.56
293.218	91.56
293.449	84.56
293.68	85.56
293.91	71.56
294.141	92.56
294.372	80.56
294.603	96.56
294.833	80.56
295.064	83.56
295.295	97.56
295.525	99.56
295.756	89.56
295.987	118.56
296.217	131.56
296.448	115.56
296.679	87.56
296.909	89.56
297.14	87.56
297.37	85.56
297.601	82.56
297.831	81.56
298.062	86.56
298.292	91.56
298.523	76.56
298.753	73.56
298.984	79.56
299.214	87.56
299.445	95.56
299.675	93.56
299.905	100.56
300.136	70.56
300.366	80.56
300.597	92.56
300.827	87.56
301.057	94.56
301.288	98.56
301.518	92.56
301.748	94.56
301.979	104.56
302.209	67.56
302.439	77.56
302.669	80.56
302.9	82.56
303.13	85.56
303.36	80.56
303.59	101.56
303.82	100.56
304.051	100.56
304.281	85.56
304.511	87.56
304.741	85.56
304.971	84.56
305.201	99.56
305.431	90.56
305.661	91.56
305.891	86.56
306.121	84.56
306.352	92.56
306.582	86.56
306.812	87.56
307.042	88.56
307.272	91.56
307.502	109.56
307.731	88.56
307.961	95.56
308.191	91.56
308.421	96.56
308.651	89.56
308.881	84.56
309.111	83.56
309.341	99.56
309.571	80.56
309.8	107.56
310.03	81.56
310.26	92.56
310.49	90.56
310.72	79.56
310.949	100.56
311.179	88.56
311.409	92.56
311.639	93.56
311.868	85.56
312.098	98.56
312.328	97.56
312.557	93.56
312.787	94.56
313.017	99.56
313.246	89.56
313.476	95.56
313.706	87.56
313.935	83.56
314.165	91.56
314.394	98.56
314.624	94.56
314.853	100.56
315.083	86.56
315.312	92.56
315.542	89.56
315.771	103.56
316.001	96.56
316.23	88.56
316.46	88.56
316.689	77.56
316.919	85.56
317.148	91.56
317.377	79.56
317.607	85.56
317.836	91.56
318.065	86.56
318.295	82.56
318.524	84.56
318.753	79.56
318.983	89.56
319.212	97.56
319.441	104.56
319.67	108.56
319.9	82.56
320.129	101.56
320.358	97.56
320.587	109.56
320.816	91.56
321.046	84.56
321.275	92.56
321.504	88.56
321.733	89.56
321.962	96.56
322.191	102.56
322.42	105.56
322.649	115.56
322.878	96.56
323.108	111.56
323.337	125.56
323.566	126.56
323.795	134.56
324.024	201.56
324.253	364.56
324.482	801.56
324.71	1641.56
324.939	2162.56
325.168	807.56
325.397	228.56
325.626	141.56
325.855	135.56
326.084	106.56
326.313	127.56
326.542	141.56
326.77	221.56
326.999	443.56
327.228	893.56
327.457	1658.56
327.686	1325.56
327.914	368.56
328.143	192.56
328.372	166.56
328.6	125.56
328.829	112.56
329.058	123.56
329.287	113.56
329.515	117.56
329.744	100.56
329.972	114.56
330.201	135.56
330.43	144.56
330.658	118.56
330.887	135.56
331.115	115.56
331.344	89.56
331.572	100.56
331.801	76.56
332.03	98.56
332.258	95.56
332.486	81.56
332.715	94.56
332.943	93.56
333.172	102.56
333.4	103.56
333.629	100.56
333.857	115.56
334.085	134.56
334.314	121.56
334.542	148.56
334.771	146.56
334.999	94.56
335.227	87.56
335.455	100.56
335.684	84.56
335.912	84.56
336.14	100.56
336.369	93.56
336.597	105.56
336.825	106.56
337.053	87.56
337.281	83.56
337.51	99.56
337.738	98.56
337.966	84.56
338.194	84.56
338.422	97.56
338.65	76.56
338.878	83.56
339.106	80.56
339.334	89.56
339.562	87.56
339.79	76.56
340.018	87.56
340.246	96.56
340.474	95.56
340.702	93.56
340.93	77.56
341.158	79.56
341.386	90.56
341.614	94.56
341.842	99.56
342.07	97.56
342.298	83.56
342.526	94.56
342.754	81.56
342.981	72.56
343.209	77.56
343.437	104.56
343.665	90.56
343.893	91.56
344.12	84.56
344.348	93.56
344.576	79.56
344.804	89.56
345.031	74.56
345.259	107.56
345.487	78.56
345.714	87.56
345.942	87.56
346.17	97.56
346.397	87.56
346.625	91.56
346.853	97.56
347.08	88.56
347.308	79.56
347.535	99.56
347.763	107.56
347.99	101.56
348.218	93.56
348.445	99.56
348.673	97.56
348.9	89.56
349.128	90.56
349.355	96.56
349.583	91.56
349.81	75.56
350.037	101.56
350.265	106.56
350.492	95.56
350.72	102.56
350.947	101.56
351.174	104.56
351.402	96.56
351.629	88.56
351.856	110.56
352.083	115.56
352.311	100.56
352.538	83.56
352.765	101.56
352.992	100.56
353.22	98.56
353.447	95.56
353.674	88.56
353.901	87.56
354.128	81.56
354.355	100.56
354.583	102.56
354.81	102.56
355.037	84.56
355.264	96.56
355.491	82.56
355.718	80.56
355.945	92.56
356.172	96.56
356.399	94.56
356.626	83.56
356.853	83.56
357.08	89.56
357.307	92.56
357.534	97.56
357.761	95.56
357.988	95.56
358.215	97.56
358.441	94.56
358.668	100.56
358.895	97.56
359.122	91.56
359.349	101.56
359.576	86.56
359.802	106.56
360.029	117.56
360.256	105.56
360.483	95.56
360.709	92.56
360.936	83.56
361.163	77.56
361.39	93.56
361.616	81.56
361.843	88.56
362.07	102.56
362.296	101.56
362.523	73.56
362.749	102.56
362.976	80.56
363.203	78.56
363.429	83.56
363.656	91.56
363.882	88.56
364.109	94.56
364.335	83.56
364.562	95.56
364.788	86.56
365.015	102.56
365.241	86.56
365.468	111.56
365.694	111.56
365.92	82.56
366.147	81.56
366.373	77.56
366.599	88.56
366.826	103.56
367.052	87.56
367.278	84.56
367.505	89.56
367.731	82.56
367.957	79.56
368.184	72.56
368.41	91.56
368.636	102.56
368.862	100.56
369.089	97.56
369.315	80.56
369.541	87.56
369.767	83.56
369.993	91.56
370.219	84.56
370.445	83.56
370.672	88.56
370.898	100.56
371.124	92.56
371.35	96.56
371.576	89.56
371.802	89.56
372.028	79.56
372.254	93.56
372.48	96.56
372.706	71.56
372.932	87.56
373.158	79.56
373.384	84.56
373.61	76.56
373.835	80.56
374.061	84.56
374.287	102.56
374.513	95.56
374.739	78.56
374.965	81.56
375.191	92.56
375.416	95.56
375.642	91.56
375.868	85.56
376.094	87.56
376.319	68.56
376.545	87.56
376.771	97.56
376.997	96.56
377.222	84.56
377.448	85.56
377.674	86.56
377.899	87.56
378.125	79.56
378.35	89.56
378.576	102.56
378.802	79.56
379.027	83.56
379.253	84.56
379.478	94.56
379.704	95.56
379.929	89.56
380.155	100.56
380.38	95.56
380.606	83.56
380.831	80.56
381.057	104.56
381.282	92.56
381.507	93.56
381.733	92.56
381.958	90.56
382.184	92.56
382.409	85.56
382.634	104.56
382.86	98.56
383.085	97.56
383.31	84.56
383.535	91.56
383.761	88.56
383.986	96.56
384.211	87.56
384.436	99.56
384.662	92.56
384.887	86.56
385.112	81.56
385.337	101.56
385.562	110.56
385.787	97.56
386.013	94.56
386.238	115.56
386.463	97.56
386.688	104.56
386.913	101.56
387.138	96.56
387.363	87.56
387.588	84.56
387.813	95.56
388.038	110.56
388.263	110.56
388.488	93.56
388.713	86.56
388.938	80.56
389.163	101.56
389.387	95.56
389.612	83.56
389.837	89.56
390.062	89.56
390.287	96.56
390.512	93.56
390.736	91.56
390.961	89.56
391.186	82.56
391.411	88.56
391.636	101.56
391.86	83.56
392.085	81.56
392.31	101.56
392.534	78.56
392.759	79.56
392.984	86.56
393.208	80.56
393.433	74.56
393.658	93.56
393.882	79.56
394.107	68.56
394.331	83.56
394.556	80.56
394.78	75.56
395.005	81.56
395.229	94.56
395.454	103.56
395.678	90.56
395.903	91.56
396.127	77.56
396.352	83.56
396.576	70.56
396.801	81.56
397.025	93.56
397.249	91.56
397.474	86.56
397.698	92.56
397.922	92.56
398.147	82.56
398.371	82.56
398.595	80.56
398.82	86.56
399.044	84.56
399.268	85.56
399.492	85.56
399.717	89.56
399.941	74.56
400.165	79.56
400.389	79.56
400.613	80.56
400.837	79.56
401.062	77.56
401.286	79.56
401.51	91.56
401.734	82.56
401.958	87.56
402.182	107.56
402.406	149.56
402.63	118.56
402.854	91.56
403.078	85.56
403.302	83.56
403.526	77.56
403.75	87.56
403.974	83.56
404.198	86.56
404.422	81.56
404.645	89.56
404.869	79.56
405.093	97.56
405.317	94.56
405.541	103.56
405.765	97.56
405.988	111.56
406.212	141.56
406.436	222.56
406.66	143.56
406.883	92.56
407.107	70.56
407.331	94.56
407.555	79.56
407.778	97.56
408.002	95.56
408.226	101.56
408.449	87.56
408.673	85.56
408.896	81.56
409.12	97.56
409.344	84.56
409.567	82.56
409.791	105.56
410.014	93.56
410.238	91.56
410.461	87.56
410.685	85.56
410.908	80.56
411.132	100.56
411.355	96.56
411.578	86.56
411.802	82.56
412.025	86.56
412.249	85.56
412.472	78.56
412.695	83.56
412.919	82.56
413.142	86.56
413.365	79.56
413.589	86.56
413.812	81.56
414.035	83.56
414.258	101.56
414.482	77.56
414.705	81.56
414.928	78.56
415.151	64.56
415.374	87.56
415.597	87.56
415.821	102.56
416.044	85.56
416.267	88.56
416.49	83.56
416.713	88.56
416.936	85.56
417.159	66.56
417.382	87.56
417.605	93.56
417.828	88.56
418.051	83.56
418.274	82.56
418.497	73.56
418.72	75.56
418.943	81.56
419.166	79.56
419.389	86.56
419.611	81.56
419.834	72.56
420.057	89.56
420.28	99.56
420.503	91.56
420.726	97.56
420.948	87.56
421.171	89.56
421.394	79.56
421.617	81.56
421.839	91.56
422.062	86.56
422.285	82.56
422.507	91.56
422.73	108.56
422.953	86.56
423.175	86.56
423.398	88.56
423.621	81.56
423.843	78.56
424.066	88.56
424.288	90.56
424.511	75.56
424.733	87.56
424.956	96.56
425.178	98.56
425.401	105.56
425.623	101.56
425.846	92.56
426.068	94.56
426.291	87.56
426.513	83.56
426.735	97.56
426.958	87.56
427.18	95.56
427.402	130.56
427.625	142.56
427.847	125.56
428.069	104.56
428.292	84.56
428.514	81.56
428.736	84.56
428.958	77.56
429.181	83.56
429.403	99.56
429.625	82.56
429.847	83.56
430.069	100.56
430.292	87.56
430.514	81.56
430.736	79.56
430.958	79.56
431.18	81.56
431.402	80.56
431.624	93.56
431.846	81.56
432.068	79.56
432.29	86.56
432.512	82.56
432.734	88.56
432.956	91.56
433.178	105.56
433.4	93.56
433.622	72.56
433.844	83.56
434.066	79.56
434.287	82.56
434.509	51.56
434.731	93.56
434.953	84.56
435.175	91.56
435.397	89.56
435.618	95.56
435.84	91.56
436.062	115.56
436.284	101.56
436.505	105.56
436.727	92.56
436.949	94.56
437.17	71.56
437.392	88.56
437.614	96.56
437.835	103.56
438.057	111.56
438.278	116.56
438.5	86.56
438.721	102.56
438.943	77.56
439.165	96.56
439.386	85.56
439.608	77.56
439.829	92.56
440.05	109.56
440.272	125.56
440.493	95.56
440.715	68.56
440.936	77.56
441.158	87.56
441.379	83.56
441.6	92.56
441.822	94.56
442.043	82.56
442.264	95.56
442.486	82.56
442.707	98.56
442.928	87.56
443.149	115.56
443.371	111.56
443.592	105.56
443.813	91.56
444.034	92.56
444.255	91.56
444.476	76.56
444.698	61.56
444.919	89.56
445.14	150.56
445.361	124.56
445.582	128.56
445.803	129.56
446.024	127.56
446.245	123.56
446.466	113.56
446.687	69.56
446.908	85.56
447.129	81.56
447.35	93.56
447.571	104.56
447.792	83.56
448.013	101.56
448.234	88.56
448.455	95.56
448.675	104.56
448.896	95.56
449.117	84.56
449.338	86.56
449.559	117.56
449.779	110.56
450	83.56
450.221	82.56
450.442	86.56
450.662	90.56
450.883	96.56
451.104	101.56
451.324	97.56
451.545	97.56
451.766	83.56
451.986	68.56
452.207	103.56
452.428	89.56
452.648	97.56
452.869	110.56
453.089	111.56
453.31	107.56
453.53	96.56
453.751	100.56
453.971	103.56
454.192	106.56
454.412	94.56
454.633	67.56
454.853	89.56
455.073	100.56
455.294	65.56
455.514	100.56
455.734	77.56
455.955	79.56
456.175	70.56
456.395	80.56
456.616	95.56
456.836	91.56
457.056	93.56
457.276	95.56
457.497	90.56
457.717	85.56
457.937	93.56
458.157	87.56
458.377	78.56
458.598	103.56
458.818	124.56
459.038	164.56
459.258	115.56
459.478	77.56
459.698	80.56
459.918	72.56
460.138	88.56
460.358	84.56
460.578	94.56
460.798	91.56
461.018	97.56
461.238	88.56
461.458	83.56
461.678	62.56
461.898	75.56
462.118	83.56
462.338	85.56
462.558	82.56
462.777	77.56
462.997	76.56
463.217	82.56
463.437	78.56
463.657	81.56
463.876	79.56
464.096	79.56
464.316	85.56
464.536	86.56
464.755	81.56
464.975	99.56
465.195	157.56
465.414	137.56
465.634	94.56
465.854	79.56
466.073	79.56
466.293	87.56
466.512	84.56
466.732	91.56
466.951	77.56
467.171	78.56
467.391	87.56
467.61	115.56
467.829	100.56
468.049	105.56
468.268	105.56
468.488	100.56
468.707	79.56
468.927	78.56
469.146	76.56
469.365	81.56
469.585	75.56
469.804	91.56
470.023	95.56
470.243	92.56
470.462	87.56
470.681	99.56
470.901	89.56
471.12	73.56
471.339	86.56
471.558	94.56
471.777	80.56
471.997	103.56
472.216	133.56
472.435	184.56
472.654	102.56
472.873	91.56
473.092	76.56
473.311	87.56
473.53	88.56
473.749	97.56
473.968	92.56
474.187	116.56
474.406	88.56
474.625	76.56
474.844	94.56
475.063	89.56
475.282	80.56
475.501	84.56
475.72	87.56
475.939	77.56
476.158	91.56
476.377	83.56
476.596	82.56
476.814	88.56
477.033	75.56
477.252	72.56
477.471	79.56
477.69	79.56
477.908	73.56
478.127	83.56
478.346	85.56
478.564	82.56
478.783	100.56
479.002	88.56
479.22	80.56
479.439	95.56
479.658	92.56
479.876	101.56
480.095	89.56
480.313	88.56
480.532	99.56
480.751	94.56
480.969	116.56
481.188	286.56
481.406	196.56
481.624	91.56
481.843	91.56
482.061	102.56
482.28	73.56
482.498	61.56
482.717	71.56
482.935	86.56
483.153	91.56
483.372	73.56
483.59	91.56
483.808	87.56
484.027	88.56
484.245	93.56
484.463	91.56
484.681	87.56
484.9	85.56
485.118	90.56
485.336	67.56
485.554	76.56
485.772	93.56
485.99	106.56
486.209	112.56
486.427	96.56
486.645	112.56
486.863	103.56
487.081	85.56
487.299	100.56
487.517	96.56
487.735	99.56
487.953	88.56
488.171	88.56
488.389	101.56
488.607	88.56
488.825	75.56
489.043	88.56
489.261	83.56
489.479	95.56
489.696	86.56
489.914	74.56
490.132	85.56
490.35	75.56
490.568	91.56
490.786	84.56
491.003	101.56
491.221	94.56
491.439	87.56
491.657	79.56
491.874	93.56
492.092	87.56
492.31	91.56
492.527	91.56
492.745	88.56
492.963	79.56
493.18	94.56
493.398	93.56
493.615	94.56
493.833	84.56
494.05	91.56
494.268	84.56
494.485	78.56
494.703	75.56
494.92	82.56
495.138	81.56
495.355	78.56
495.573	91.56
495.79	84.56
496.008	66.56
496.225	88.56
496.442	85.56
496.66	75.56
496.877	80.56
497.094	82.56
497.312	85.56
497.529	89.56
497.746	100.56
497.963	87.56
498.181	78.56
498.398	89.56
498.615	103.56
498.832	111.56
499.049	91.56
499.267	95.56
499.484	102.56
499.701	81.56
499.918	95.56
500.135	91.56
500.352	80.56
500.569	79.56
500.786	87.56
501.003	96.56
501.22	87.56
501.437	86.56
501.654	94.56
501.871	88.56
502.088	93.56
502.305	76.56
502.522	73.56
502.739	98.56
502.956	82.56
503.172	86.56
503.389	87.56
503.606	88.56
503.823	86.56
504.04	90.56
504.256	89.56
504.473	107.56
504.69	84.56
504.907	88.56
505.123	75.56
505.34	84.56
505.557	93.56
505.773	88.56
505.99	83.56
506.207	79.56
506.423	94.56
506.64	81.56
506.856	79.56
507.073	84.56
507.289	86.56
507.506	99.56
507.722	100.56
507.939	87.56
508.155	97.56
508.372	95.56
508.588	82.56
508.805	83.56
509.021	87.56
509.238	98.56
509.454	100.56
509.67	80.56
509.887	102.56
510.103	141.56
510.319	209.56
510.536	786.56
510.752	2441.56
510.968	647.56
511.184	158.56
511.401	101.56
511.617	84.56
511.833	81.56
512.049	91.56
512.265	93.56
512.481	89.56
512.698	102.56
512.914	89.56
513.13	85.56
513.346	88.56
513.562	93.56
513.778	95.56
513.994	106.56
514.21	83.56
514.426	127.56
514.642	138.56
514.858	128.56
515.074	155.56
515.29	443.56
515.506	1419.56
515.721	542.56
515.937	127.56
516.153	113.56
516.369	95.56
516.585	84.56
