Data from Uncirc_1985_H10_HRD10591_00054.txt Node
Date: Wed Jan 03 12:18:28 EST 2024
User: Yrep
Spectrometer: HR+D1059
Trigger mode: 1
Integration Time (sec): 1.000000E-1
Scans to average: 1
Electric dark correction enabled: true
Nonlinearity correction enabled: false
Boxcar width: 0
XAxis mode: Wavelengths
Number of Pixels in Spectrum: 2048
>>>>>Begin Spectral Data<<<<<
223.165	-8.81
223.4	-8.81
223.635	-8.81
223.869	-14.81
224.104	-13.81
224.338	-13.81
224.573	-19.81
224.808	-14.81
225.042	-9.81
225.277	-13.81
225.511	-7.81
225.746	5.19
225.98	7.19
226.215	10.19
226.449	16.19
226.683	16.19
226.918	27.19
227.152	35.19
227.387	33.19
227.621	32.19
227.856	51.19
228.09	51.19
228.324	56.19
228.559	59.19
228.793	52.19
229.027	73.19
229.262	57.19
229.496	78.19
229.73	90.19
229.964	90.19
230.199	75.19
230.433	81.19
230.667	86.19
230.901	74.19
231.136	72.19
231.37	75.19
231.604	84.19
231.838	66.19
232.072	87.19
232.306	71.19
232.541	75.19
232.775	88.19
233.009	83.19
233.243	82.19
233.477	86.19
233.711	76.19
233.945	85.19
234.179	82.19
234.413	77.19
234.647	75.19
234.881	72.19
235.115	73.19
235.349	80.19
235.583	93.19
235.817	80.19
236.051	74.19
236.285	82.19
236.519	80.19
236.753	96.19
236.987	83.19
237.221	78.19
237.455	76.19
237.689	73.19
237.922	75.19
238.156	71.19
238.39	83.19
238.624	75.19
238.858	84.19
239.091	67.19
239.325	75.19
239.559	62.19
239.793	90.19
240.027	83.19
240.26	68.19
240.494	79.19
240.728	75.19
240.961	80.19
241.195	82.19
241.429	63.19
241.662	78.19
241.896	69.19
242.13	76.19
242.363	74.19
242.597	72.19
242.83	80.19
243.064	87.19
243.298	74.19
243.531	84.19
243.765	82.19
243.998	84.19
244.232	84.19
244.465	88.19
244.699	73.19
244.932	69.19
245.166	80.19
245.399	66.19
245.633	73.19
245.866	78.19
246.099	74.19
246.333	80.19
246.566	76.19
246.8	88.19
247.033	64.19
247.266	67.19
247.5	78.19
247.733	70.19
247.966	71.19
248.2	88.19
248.433	79.19
248.666	75.19
248.899	81.19
249.133	92.19
249.366	91.19
249.599	98.19
249.832	86.19
250.066	87.19
250.299	80.19
250.532	89.19
250.765	87.19
250.998	69.19
251.231	84.19
251.465	71.19
251.698	73.19
251.931	82.19
252.164	88.19
252.397	81.19
252.63	87.19
252.863	91.19
253.096	86.19
253.329	94.19
253.562	65.19
253.795	68.19
254.028	83.19
254.261	83.19
254.494	72.19
254.727	74.19
254.96	80.19
255.193	78.19
255.426	74.19
255.659	75.19
255.892	90.19
256.124	84.19
256.357	78.19
256.59	88.19
256.823	84.19
257.056	76.19
257.289	69.19
257.521	74.19
257.754	67.19
257.987	90.19
258.22	82.19
258.452	77.19
258.685	67.19
258.918	90.19
259.151	80.19
259.383	74.19
259.616	72.19
259.849	102.19
260.081	75.19
260.314	85.19
260.547	91.19
260.779	74.19
261.012	90.19
261.244	84.19
261.477	81.19
261.71	96.19
261.942	113.19
262.175	127.19
262.407	93.19
262.64	78.19
262.872	86.19
263.105	90.19
263.337	74.19
263.57	72.19
263.802	90.19
264.035	70.19
264.267	68.19
264.499	89.19
264.732	87.19
264.964	91.19
265.197	81.19
265.429	80.19
265.661	65.19
265.894	68.19
266.126	76.19
266.358	79.19
266.591	83.19
266.823	75.19
267.055	72.19
267.287	69.19
267.52	88.19
267.752	73.19
267.984	83.19
268.216	82.19
268.448	80.19
268.681	82.19
268.913	90.19
269.145	85.19
269.377	96.19
269.609	98.19
269.841	80.19
270.073	81.19
270.306	82.19
270.538	79.19
270.77	78.19
271.002	74.19
271.234	98.19
271.466	74.19
271.698	85.19
271.93	90.19
272.162	89.19
272.394	72.19
272.626	84.19
272.858	97.19
273.09	76.19
273.322	95.19
273.553	80.19
273.785	96.19
274.017	93.19
274.249	86.19
274.481	64.19
274.713	87.19
274.945	101.19
275.176	80.19
275.408	76.19
275.64	82.19
275.872	91.19
276.104	81.19
276.335	86.19
276.567	94.19
276.799	91.19
277.031	102.19
277.262	74.19
277.494	92.19
277.726	89.19
277.957	74.19
278.189	86.19
278.421	79.19
278.652	82.19
278.884	79.19
279.115	95.19
279.347	76.19
279.579	88.19
279.81	80.19
280.042	88.19
280.273	89.19
280.505	84.19
280.736	86.19
280.968	98.19
281.199	76.19
281.431	76.19
281.662	79.19
281.894	86.19
282.125	94.19
282.356	126.19
282.588	131.19
282.819	114.19
283.051	86.19
283.282	103.19
283.513	79.19
283.745	79.19
283.976	92.19
284.207	86.19
284.439	86.19
284.67	99.19
284.901	78.19
285.132	82.19
285.364	95.19
285.595	85.19
285.826	94.19
286.057	97.19
286.288	92.19
286.52	83.19
286.751	87.19
286.982	88.19
287.213	86.19
287.444	86.19
287.675	92.19
287.906	95.19
288.138	97.19
288.369	93.19
288.6	77.19
288.831	92.19
289.062	92.19
289.293	89.19
289.524	66.19
289.755	87.19
289.986	80.19
290.217	96.19
290.448	84.19
290.679	83.19
290.91	72.19
291.141	89.19
291.371	78.19
291.602	83.19
291.833	104.19
292.064	88.19
292.295	80.19
292.526	91.19
292.757	91.19
292.987	95.19
293.218	88.19
293.449	117.19
293.68	92.19
293.91	89.19
294.141	85.19
294.372	84.19
294.603	94.19
294.833	92.19
295.064	91.19
295.295	89.19
295.525	89.19
295.756	83.19
295.987	107.19
296.217	137.19
296.448	108.19
296.679	107.19
296.909	108.19
297.14	91.19
297.37	89.19
297.601	91.19
297.831	95.19
298.062	90.19
298.292	90.19
298.523	73.19
298.753	88.19
298.984	86.19
299.214	75.19
299.445	86.19
299.675	84.19
299.905	98.19
300.136	95.19
300.366	107.19
300.597	90.19
300.827	79.19
301.057	104.19
301.288	102.19
301.518	85.19
301.748	92.19
301.979	95.19
302.209	90.19
302.439	88.19
302.669	112.19
302.9	90.19
303.13	77.19
303.36	103.19
303.59	118.19
303.82	119.19
304.051	107.19
304.281	91.19
304.511	90.19
304.741	83.19
304.971	92.19
305.201	104.19
305.431	91.19
305.661	91.19
305.891	92.19
306.121	97.19
306.352	106.19
306.582	110.19
306.812	70.19
307.042	94.19
307.272	97.19
307.502	97.19
307.731	92.19
307.961	86.19
308.191	95.19
308.421	90.19
308.651	89.19
308.881	85.19
309.111	84.19
309.341	100.19
309.571	106.19
309.8	100.19
310.03	98.19
310.26	104.19
310.49	100.19
310.72	85.19
310.949	97.19
311.179	95.19
311.409	95.19
311.639	84.19
311.868	87.19
312.098	100.19
312.328	91.19
312.557	93.19
312.787	98.19
313.017	105.19
313.246	109.19
313.476	96.19
313.706	99.19
313.935	95.19
314.165	102.19
314.394	99.19
314.624	92.19
314.853	88.19
315.083	92.19
315.312	96.19
315.542	86.19
315.771	97.19
316.001	82.19
316.23	85.19
316.46	88.19
316.689	78.19
316.919	100.19
317.148	100.19
317.377	94.19
317.607	91.19
317.836	116.19
318.065	92.19
318.295	75.19
318.524	98.19
318.753	86.19
318.983	98.19
319.212	96.19
319.441	102.19
319.67	107.19
319.9	103.19
320.129	90.19
320.358	98.19
320.587	100.19
320.816	96.19
321.046	99.19
321.275	109.19
321.504	80.19
321.733	86.19
321.962	91.19
322.191	100.19
322.42	99.19
322.649	105.19
322.878	125.19
323.108	115.19
323.337	125.19
323.566	135.19
323.795	164.19
324.024	223.19
324.253	393.19
324.482	866.19
324.71	1816.19
324.939	2394.19
325.168	860.19
325.397	259.19
325.626	158.19
325.855	114.19
326.084	127.19
326.313	131.19
326.542	156.19
326.77	247.19
326.999	496.19
327.228	990.19
327.457	1898.19
327.686	1482.19
327.914	394.19
328.143	201.19
328.372	166.19
328.6	107.19
328.829	116.19
329.058	134.19
329.287	141.19
329.515	105.19
329.744	103.19
329.972	102.19
330.201	124.19
330.43	135.19
330.658	123.19
330.887	133.19
331.115	127.19
331.344	104.19
331.572	99.19
331.801	105.19
332.03	106.19
332.258	98.19
332.486	87.19
332.715	74.19
332.943	91.19
333.172	88.19
333.4	100.19
333.629	98.19
333.857	120.19
334.085	121.19
334.314	126.19
334.542	142.19
334.771	136.19
334.999	104.19
335.227	94.19
335.455	111.19
335.684	92.19
335.912	103.19
336.14	115.19
336.369	104.19
336.597	94.19
336.825	95.19
337.053	102.19
337.281	105.19
337.51	92.19
337.738	91.19
337.966	85.19
338.194	98.19
338.422	88.19
338.65	107.19
338.878	82.19
339.106	98.19
339.334	92.19
339.562	74.19
339.79	98.19
340.018	106.19
340.246	92.19
340.474	97.19
340.702	94.19
340.93	86.19
341.158	98.19
341.386	89.19
341.614	95.19
341.842	91.19
342.07	96.19
342.298	81.19
342.526	79.19
342.754	88.19
342.981	86.19
343.209	92.19
343.437	108.19
343.665	81.19
343.893	86.19
344.12	89.19
344.348	90.19
344.576	91.19
344.804	74.19
345.031	102.19
345.259	103.19
345.487	99.19
345.714	99.19
345.942	81.19
346.17	97.19
346.397	87.19
346.625	89.19
346.853	89.19
347.08	90.19
347.308	97.19
347.535	83.19
347.763	90.19
347.99	101.19
348.218	109.19
348.445	102.19
348.673	102.19
348.9	97.19
349.128	89.19
349.355	94.19
349.583	99.19
349.81	104.19
350.037	90.19
350.265	86.19
350.492	87.19
350.72	95.19
350.947	101.19
351.174	109.19
351.402	123.19
351.629	105.19
351.856	108.19
352.083	98.19
352.311	107.19
352.538	102.19
352.765	112.19
352.992	119.19
353.22	102.19
353.447	88.19
353.674	118.19
353.901	112.19
354.128	105.19
354.355	86.19
354.583	82.19
354.81	85.19
355.037	101.19
355.264	106.19
355.491	103.19
355.718	89.19
355.945	105.19
356.172	82.19
356.399	95.19
356.626	98.19
356.853	94.19
357.08	82.19
357.307	74.19
357.534	94.19
357.761	87.19
357.988	94.19
358.215	105.19
358.441	103.19
358.668	96.19
358.895	100.19
359.122	80.19
359.349	92.19
359.576	87.19
359.802	114.19
360.029	123.19
360.256	122.19
360.483	95.19
360.709	100.19
360.936	94.19
361.163	90.19
361.39	86.19
361.616	95.19
361.843	88.19
362.07	103.19
362.296	106.19
362.523	100.19
362.749	71.19
362.976	103.19
363.203	94.19
363.429	86.19
363.656	85.19
363.882	103.19
364.109	97.19
364.335	96.19
364.562	95.19
364.788	88.19
365.015	91.19
365.241	93.19
365.468	108.19
365.694	94.19
365.92	102.19
366.147	99.19
366.373	97.19
366.599	94.19
366.826	97.19
367.052	76.19
367.278	84.19
367.505	103.19
367.731	103.19
367.957	91.19
368.184	97.19
368.41	91.19
368.636	114.19
368.862	127.19
369.089	116.19
369.315	91.19
369.541	92.19
369.767	106.19
369.993	106.19
370.219	100.19
370.445	94.19
370.672	101.19
370.898	89.19
371.124	97.19
371.35	84.19
371.576	82.19
371.802	87.19
372.028	90.19
372.254	106.19
372.48	84.19
372.706	83.19
372.932	97.19
373.158	100.19
373.384	90.19
373.61	87.19
373.835	93.19
374.061	97.19
374.287	87.19
374.513	81.19
374.739	97.19
374.965	96.19
375.191	91.19
375.416	90.19
375.642	91.19
375.868	94.19
376.094	95.19
376.319	94.19
376.545	100.19
376.771	90.19
376.997	106.19
377.222	94.19
377.448	87.19
377.674	81.19
377.899	100.19
378.125	65.19
378.35	94.19
378.576	83.19
378.802	84.19
379.027	85.19
379.253	98.19
379.478	86.19
379.704	105.19
379.929	105.19
380.155	99.19
380.38	82.19
380.606	103.19
380.831	91.19
381.057	96.19
381.282	102.19
381.507	96.19
381.733	91.19
381.958	93.19
382.184	90.19
382.409	104.19
382.634	104.19
382.86	87.19
383.085	78.19
383.31	98.19
383.535	86.19
383.761	104.19
383.986	104.19
384.211	94.19
384.436	111.19
384.662	92.19
384.887	89.19
385.112	98.19
385.337	101.19
385.562	107.19
385.787	106.19
386.013	103.19
386.238	112.19
386.463	96.19
386.688	91.19
386.913	101.19
387.138	99.19
387.363	97.19
387.588	95.19
387.813	93.19
388.038	91.19
388.263	100.19
388.488	100.19
388.713	96.19
388.938	88.19
389.163	78.19
389.387	84.19
389.612	87.19
389.837	100.19
390.062	98.19
390.287	86.19
390.512	82.19
390.736	92.19
390.961	81.19
391.186	90.19
391.411	91.19
391.636	101.19
391.86	95.19
392.085	96.19
392.31	98.19
392.534	88.19
392.759	78.19
392.984	85.19
393.208	83.19
393.433	89.19
393.658	89.19
393.882	85.19
394.107	83.19
394.331	79.19
394.556	89.19
394.78	87.19
395.005	75.19
395.229	88.19
395.454	84.19
395.678	91.19
395.903	71.19
396.127	91.19
396.352	89.19
396.576	89.19
396.801	82.19
397.025	83.19
397.249	79.19
397.474	89.19
397.698	64.19
397.922	86.19
398.147	96.19
398.371	85.19
398.595	66.19
398.82	84.19
399.044	90.19
399.268	95.19
399.492	86.19
399.717	75.19
399.941	77.19
400.165	92.19
400.389	83.19
400.613	94.19
400.837	102.19
401.062	93.19
401.286	94.19
401.51	81.19
401.734	90.19
401.958	103.19
402.182	121.19
402.406	155.19
402.63	110.19
402.854	94.19
403.078	80.19
403.302	88.19
403.526	89.19
403.75	98.19
403.974	92.19
404.198	91.19
404.422	94.19
404.645	119.19
404.869	100.19
405.093	86.19
405.317	98.19
405.541	89.19
405.765	120.19
405.988	107.19
406.212	174.19
406.436	223.19
406.66	143.19
406.883	96.19
407.107	87.19
407.331	86.19
407.555	96.19
407.778	114.19
408.002	97.19
408.226	84.19
408.449	85.19
408.673	91.19
408.896	94.19
409.12	95.19
409.344	99.19
409.567	88.19
409.791	82.19
410.014	90.19
410.238	90.19
410.461	90.19
410.685	90.19
410.908	90.19
411.132	95.19
411.355	115.19
411.578	90.19
411.802	80.19
412.025	84.19
412.249	81.19
412.472	80.19
412.695	87.19
412.919	83.19
413.142	91.19
413.365	99.19
413.589	83.19
413.812	86.19
414.035	103.19
414.258	100.19
414.482	90.19
414.705	79.19
414.928	80.19
415.151	86.19
415.374	82.19
415.597	70.19
415.821	90.19
416.044	93.19
416.267	84.19
416.49	98.19
416.713	83.19
416.936	72.19
417.159	82.19
417.382	89.19
417.605	89.19
417.828	73.19
418.051	96.19
418.274	89.19
418.497	88.19
418.72	81.19
418.943	88.19
419.166	78.19
419.389	81.19
419.611	85.19
419.834	76.19
420.057	87.19
420.28	66.19
420.503	83.19
420.726	88.19
420.948	90.19
421.171	100.19
421.394	85.19
421.617	82.19
421.839	91.19
422.062	82.19
422.285	94.19
422.507	103.19
422.73	103.19
422.953	88.19
423.175	97.19
423.398	95.19
423.621	78.19
423.843	98.19
424.066	91.19
424.288	88.19
424.511	88.19
424.733	91.19
424.956	105.19
425.178	93.19
425.401	95.19
425.623	88.19
425.846	86.19
426.068	78.19
426.291	87.19
426.513	81.19
426.735	105.19
426.958	91.19
427.18	107.19
427.402	131.19
427.625	145.19
427.847	139.19
428.069	127.19
428.292	84.19
428.514	82.19
428.736	60.19
428.958	80.19
429.181	80.19
429.403	89.19
429.625	75.19
429.847	76.19
430.069	101.19
430.292	73.19
430.514	84.19
430.736	88.19
430.958	81.19
431.18	86.19
431.402	87.19
431.624	97.19
431.846	91.19
432.068	91.19
432.29	92.19
432.512	89.19
432.734	108.19
432.956	78.19
433.178	97.19
433.4	93.19
433.622	82.19
433.844	87.19
434.066	82.19
434.287	92.19
434.509	90.19
434.731	83.19
434.953	89.19
435.175	86.19
435.397	75.19
435.618	97.19
435.84	107.19
436.062	112.19
436.284	122.19
436.505	111.19
436.727	107.19
436.949	91.19
437.17	92.19
437.392	91.19
437.614	106.19
437.835	95.19
438.057	116.19
438.278	118.19
438.5	101.19
438.721	127.19
438.943	104.19
439.165	78.19
439.386	87.19
439.608	92.19
439.829	94.19
440.05	143.19
440.272	139.19
440.493	100.19
440.715	89.19
440.936	88.19
441.158	95.19
441.379	74.19
441.6	93.19
441.822	74.19
442.043	90.19
442.264	103.19
442.486	99.19
442.707	106.19
442.928	92.19
443.149	130.19
443.371	126.19
443.592	109.19
443.813	101.19
444.034	91.19
444.255	102.19
444.476	98.19
444.698	87.19
444.919	81.19
445.14	148.19
445.361	137.19
445.582	120.19
445.803	131.19
446.024	126.19
446.245	114.19
446.466	87.19
446.687	86.19
446.908	92.19
447.129	92.19
447.35	87.19
447.571	107.19
447.792	86.19
448.013	102.19
448.234	91.19
448.455	104.19
448.675	105.19
448.896	119.19
449.117	94.19
449.338	105.19
449.559	120.19
449.779	119.19
450	88.19
450.221	82.19
450.442	82.19
450.662	94.19
450.883	108.19
451.104	98.19
451.324	103.19
451.545	83.19
451.766	76.19
451.986	82.19
452.207	72.19
452.428	84.19
452.648	91.19
452.869	118.19
453.089	126.19
453.31	118.19
453.53	94.19
453.751	76.19
453.971	102.19
454.192	118.19
454.412	95.19
454.633	91.19
454.853	93.19
455.073	76.19
455.294	81.19
455.514	98.19
455.734	93.19
455.955	87.19
456.175	87.19
456.395	90.19
456.616	100.19
456.836	94.19
457.056	83.19
457.276	91.19
457.497	90.19
457.717	81.19
457.937	89.19
458.157	87.19
458.377	82.19
458.598	128.19
458.818	172.19
459.038	156.19
459.258	102.19
459.478	86.19
459.698	99.19
459.918	82.19
460.138	89.19
460.358	75.19
460.578	94.19
460.798	92.19
461.018	95.19
461.238	83.19
461.458	86.19
461.678	87.19
461.898	89.19
462.118	89.19
462.338	91.19
462.558	90.19
462.777	80.19
462.997	96.19
463.217	81.19
463.437	84.19
463.657	88.19
463.876	90.19
464.096	75.19
464.316	73.19
464.536	107.19
464.755	99.19
464.975	93.19
465.195	149.19
465.414	148.19
465.634	84.19
465.854	87.19
466.073	83.19
466.293	74.19
466.512	91.19
466.732	94.19
466.951	80.19
467.171	84.19
467.391	96.19
467.61	103.19
467.829	93.19
468.049	103.19
468.268	108.19
468.488	89.19
468.707	84.19
468.927	91.19
469.146	87.19
469.365	71.19
469.585	89.19
469.804	100.19
470.023	80.19
470.243	95.19
470.462	90.19
470.681	104.19
470.901	92.19
471.12	86.19
471.339	89.19
471.558	80.19
471.777	98.19
471.997	88.19
472.216	112.19
472.435	138.19
472.654	91.19
472.873	90.19
473.092	83.19
473.311	90.19
473.53	82.19
473.749	87.19
473.968	94.19
474.187	103.19
474.406	100.19
474.625	92.19
474.844	86.19
475.063	103.19
475.282	75.19
475.501	85.19
475.72	84.19
475.939	102.19
476.158	88.19
476.377	74.19
476.596	78.19
476.814	89.19
477.033	97.19
477.252	97.19
477.471	94.19
477.69	94.19
477.908	90.19
478.127	94.19
478.346	80.19
478.564	84.19
478.783	92.19
479.002	91.19
479.22	94.19
479.439	101.19
479.658	95.19
479.876	75.19
480.095	94.19
480.313	106.19
480.532	89.19
480.751	92.19
480.969	117.19
481.188	224.19
481.406	158.19
481.624	86.19
481.843	78.19
482.061	88.19
482.28	84.19
482.498	97.19
482.717	88.19
482.935	81.19
483.153	80.19
483.372	75.19
483.59	85.19
483.808	90.19
484.027	87.19
484.245	84.19
484.463	61.19
484.681	103.19
484.9	90.19
485.118	98.19
485.336	100.19
485.554	100.19
485.772	88.19
485.99	96.19
486.209	97.19
486.427	88.19
486.645	106.19
486.863	112.19
487.081	108.19
487.299	99.19
487.517	100.19
487.735	91.19
487.953	93.19
488.171	82.19
488.389	100.19
488.607	94.19
488.825	88.19
489.043	89.19
489.261	108.19
489.479	90.19
489.696	79.19
489.914	92.19
490.132	88.19
490.35	85.19
490.568	93.19
490.786	78.19
491.003	87.19
491.221	88.19
491.439	88.19
491.657	95.19
491.874	93.19
492.092	106.19
492.31	96.19
492.527	94.19
492.745	79.19
492.963	94.19
493.18	99.19
493.398	83.19
493.615	96.19
493.833	98.19
494.05	104.19
494.268	82.19
494.485	86.19
494.703	86.19
494.92	91.19
495.138	95.19
495.355	89.19
495.573	86.19
495.79	87.19
496.008	81.19
496.225	96.19
496.442	83.19
496.66	90.19
496.877	101.19
497.094	97.19
497.312	95.19
497.529	97.19
497.746	97.19
497.963	85.19
498.181	80.19
498.398	95.19
498.615	114.19
498.832	96.19
499.049	93.19
499.267	94.19
499.484	82.19
499.701	79.19
499.918	88.19
500.135	95.19
500.352	88.19
500.569	87.19
500.786	80.19
501.003	98.19
501.22	92.19
501.437	90.19
501.654	92.19
501.871	111.19
502.088	80.19
502.305	90.19
502.522	102.19
502.739	99.19
502.956	96.19
503.172	88.19
503.389	105.19
503.606	110.19
503.823	100.19
504.04	104.19
504.256	91.19
504.473	90.19
504.69	95.19
504.907	94.19
505.123	88.19
505.34	83.19
505.557	97.19
505.773	100.19
505.99	87.19
506.207	87.19
506.423	81.19
506.64	93.19
506.856	104.19
507.073	94.19
507.289	94.19
507.506	99.19
507.722	120.19
507.939	113.19
508.155	78.19
508.372	91.19
508.588	107.19
508.805	103.19
509.021	88.19
509.238	90.19
509.454	87.19
509.67	102.19
509.887	120.19
510.103	133.19
510.319	209.19
510.536	830.19
510.752	2590.19
510.968	674.19
511.184	170.19
511.401	115.19
511.617	96.19
511.833	90.19
512.049	80.19
512.265	90.19
512.481	95.19
512.698	102.19
512.914	92.19
513.13	92.19
513.346	98.19
513.562	86.19
513.778	97.19
513.994	104.19
514.21	107.19
514.426	121.19
514.642	130.19
514.858	117.19
515.074	162.19
515.29	469.19
515.506	1566.19
515.721	560.19
