Data from Uncirc_1985_H10_HRD10591_00048.txt Node
Date: Wed Jan 03 12:18:27 EST 2024
User: Yrep
Spectrometer: HR+D1059
Trigger mode: 1
Integration Time (sec): 1.000000E-1
Scans to average: 1
Electric dark correction enabled: true
Nonlinearity correction enabled: false
Boxcar width: 0
XAxis mode: Wavelengths
Number of Pixels in Spectrum: 2048
>>>>>Begin Spectral Data<<<<<
223.165	-13.25
223.4	-13.25
223.635	-13.25
223.869	-8.25
224.104	-0.25
224.338	-18.25
224.573	-25.25
224.808	-14.25
225.042	-10.25
225.277	-13.25
225.511	1.75
225.746	3.75
225.98	3.75
226.215	11.75
226.449	12.75
226.683	21.75
226.918	18.75
227.152	28.75
227.387	19.75
227.621	33.75
227.856	40.75
228.09	43.75
228.324	63.75
228.559	55.75
228.793	59.75
229.027	59.75
229.262	69.75
229.496	77.75
229.73	79.75
229.964	89.75
230.199	65.75
230.433	65.75
230.667	72.75
230.901	74.75
231.136	86.75
231.37	77.75
231.604	91.75
231.838	79.75
232.072	64.75
232.306	72.75
232.541	79.75
232.775	82.75
233.009	90.75
233.243	87.75
233.477	84.75
233.711	84.75
233.945	81.75
234.179	67.75
234.413	81.75
234.647	80.75
234.881	75.75
235.115	80.75
235.349	76.75
235.583	80.75
235.817	80.75
236.051	85.75
236.285	73.75
236.519	71.75
236.753	86.75
236.987	71.75
237.221	87.75
237.455	85.75
237.689	73.75
237.922	85.75
238.156	80.75
238.39	73.75
238.624	63.75
238.858	84.75
239.091	83.75
239.325	75.75
239.559	74.75
239.793	88.75
240.027	81.75
240.26	80.75
240.494	77.75
240.728	74.75
240.961	67.75
241.195	80.75
241.429	60.75
241.662	83.75
241.896	71.75
242.13	69.75
242.363	76.75
242.597	81.75
242.83	76.75
243.064	76.75
243.298	73.75
243.531	72.75
243.765	82.75
243.998	88.75
244.232	74.75
244.465	88.75
244.699	72.75
244.932	84.75
245.166	76.75
245.399	76.75
245.633	74.75
245.866	68.75
246.099	83.75
246.333	76.75
246.566	85.75
246.8	68.75
247.033	73.75
247.266	80.75
247.5	74.75
247.733	63.75
247.966	83.75
248.2	81.75
248.433	66.75
248.666	83.75
248.899	89.75
249.133	98.75
249.366	74.75
249.599	102.75
249.832	89.75
250.066	85.75
250.299	83.75
250.532	85.75
250.765	83.75
250.998	89.75
251.231	89.75
251.465	83.75
251.698	84.75
251.931	83.75
252.164	97.75
252.397	82.75
252.63	79.75
252.863	67.75
253.096	90.75
253.329	87.75
253.562	74.75
253.795	81.75
254.028	85.75
254.261	71.75
254.494	83.75
254.727	67.75
254.96	60.75
255.193	98.75
255.426	91.75
255.659	87.75
255.892	75.75
256.124	78.75
256.357	79.75
256.59	79.75
256.823	59.75
257.056	89.75
257.289	87.75
257.521	87.75
257.754	84.75
257.987	83.75
258.22	81.75
258.452	77.75
258.685	84.75
258.918	90.75
259.151	80.75
259.383	99.75
259.616	95.75
259.849	83.75
260.081	85.75
260.314	82.75
260.547	75.75
260.779	83.75
261.012	80.75
261.244	78.75
261.477	70.75
261.71	79.75
261.942	97.75
262.175	113.75
262.407	82.75
262.64	75.75
262.872	73.75
263.105	85.75
263.337	83.75
263.57	81.75
263.802	81.75
264.035	71.75
264.267	64.75
264.499	77.75
264.732	90.75
264.964	85.75
265.197	80.75
265.429	86.75
265.661	66.75
265.894	90.75
266.126	83.75
266.358	91.75
266.591	80.75
266.823	68.75
267.055	76.75
267.287	81.75
267.52	95.75
267.752	85.75
267.984	84.75
268.216	96.75
268.448	75.75
268.681	80.75
268.913	81.75
269.145	87.75
269.377	84.75
269.609	84.75
269.841	92.75
270.073	79.75
270.306	96.75
270.538	90.75
270.77	60.75
271.002	67.75
271.234	87.75
271.466	104.75
271.698	76.75
271.93	87.75
272.162	92.75
272.394	86.75
272.626	99.75
272.858	85.75
273.09	92.75
273.322	94.75
273.553	83.75
273.785	100.75
274.017	68.75
274.249	76.75
274.481	90.75
274.713	87.75
274.945	99.75
275.176	82.75
275.408	79.75
275.64	71.75
275.872	88.75
276.104	104.75
276.335	87.75
276.567	95.75
276.799	99.75
277.031	111.75
277.262	95.75
277.494	89.75
277.726	87.75
277.957	69.75
278.189	87.75
278.421	88.75
278.652	80.75
278.884	93.75
279.115	89.75
279.347	93.75
279.579	91.75
279.81	99.75
280.042	84.75
280.273	79.75
280.505	97.75
280.736	93.75
280.968	69.75
281.199	88.75
281.431	91.75
281.662	100.75
281.894	95.75
282.125	94.75
282.356	107.75
282.588	105.75
282.819	105.75
283.051	95.75
283.282	83.75
283.513	91.75
283.745	73.75
283.976	89.75
284.207	83.75
284.439	82.75
284.67	88.75
284.901	91.75
285.132	87.75
285.364	76.75
285.595	80.75
285.826	83.75
286.057	104.75
286.288	90.75
286.52	88.75
286.751	81.75
286.982	95.75
287.213	85.75
287.444	72.75
287.675	71.75
287.906	84.75
288.138	95.75
288.369	93.75
288.6	87.75
288.831	85.75
289.062	97.75
289.293	92.75
289.524	100.75
289.755	76.75
289.986	82.75
290.217	104.75
290.448	84.75
290.679	91.75
290.91	84.75
291.141	93.75
291.371	86.75
291.602	80.75
291.833	85.75
292.064	89.75
292.295	94.75
292.526	89.75
292.757	97.75
292.987	87.75
293.218	97.75
293.449	86.75
293.68	95.75
293.91	95.75
294.141	86.75
294.372	86.75
294.603	85.75
294.833	86.75
295.064	92.75
295.295	100.75
295.525	98.75
295.756	96.75
295.987	119.75
296.217	125.75
296.448	115.75
296.679	96.75
296.909	83.75
297.14	85.75
297.37	83.75
297.601	78.75
297.831	81.75
298.062	83.75
298.292	89.75
298.523	94.75
298.753	91.75
298.984	101.75
299.214	87.75
299.445	81.75
299.675	98.75
299.905	92.75
300.136	80.75
300.366	89.75
300.597	108.75
300.827	81.75
301.057	104.75
301.288	100.75
301.518	94.75
301.748	77.75
301.979	98.75
302.209	96.75
302.439	79.75
302.669	104.75
302.9	99.75
303.13	93.75
303.36	90.75
303.59	102.75
303.82	91.75
304.051	92.75
304.281	100.75
304.511	99.75
304.741	76.75
304.971	86.75
305.201	75.75
305.431	97.75
305.661	98.75
305.891	91.75
306.121	89.75
306.352	106.75
306.582	107.75
306.812	95.75
307.042	103.75
307.272	92.75
307.502	98.75
307.731	83.75
307.961	84.75
308.191	87.75
308.421	96.75
308.651	97.75
308.881	93.75
309.111	98.75
309.341	93.75
309.571	92.75
309.8	88.75
310.03	94.75
310.26	95.75
310.49	102.75
310.72	94.75
310.949	106.75
311.179	104.75
311.409	96.75
311.639	71.75
311.868	94.75
312.098	93.75
312.328	95.75
312.557	98.75
312.787	87.75
313.017	100.75
313.246	92.75
313.476	95.75
313.706	96.75
313.935	79.75
314.165	105.75
314.394	91.75
314.624	108.75
314.853	94.75
315.083	101.75
315.312	102.75
315.542	101.75
315.771	93.75
316.001	73.75
316.23	88.75
316.46	85.75
316.689	98.75
316.919	107.75
317.148	97.75
317.377	81.75
317.607	98.75
317.836	98.75
318.065	85.75
318.295	88.75
318.524	85.75
318.753	95.75
318.983	104.75
319.212	98.75
319.441	105.75
319.67	111.75
319.9	90.75
320.129	86.75
320.358	87.75
320.587	99.75
320.816	106.75
321.046	106.75
321.275	93.75
321.504	88.75
321.733	83.75
321.962	87.75
322.191	103.75
322.42	105.75
322.649	108.75
322.878	109.75
323.108	105.75
323.337	109.75
323.566	124.75
323.795	149.75
324.024	187.75
324.253	350.75
324.482	741.75
324.71	1502.75
324.939	2024.75
325.168	727.75
325.397	230.75
325.626	152.75
325.855	108.75
326.084	128.75
326.313	123.75
326.542	159.75
326.77	218.75
326.999	427.75
327.228	845.75
327.457	1561.75
327.686	1218.75
327.914	343.75
328.143	193.75
328.372	144.75
328.6	112.75
328.829	114.75
329.058	109.75
329.287	126.75
329.515	111.75
329.744	97.75
329.972	110.75
330.201	109.75
330.43	121.75
330.658	124.75
330.887	121.75
331.115	110.75
331.344	99.75
331.572	109.75
331.801	95.75
332.03	89.75
332.258	101.75
332.486	90.75
332.715	90.75
332.943	106.75
333.172	101.75
333.4	95.75
333.629	110.75
333.857	114.75
334.085	100.75
334.314	112.75
334.542	127.75
334.771	131.75
334.999	101.75
335.227	100.75
335.455	84.75
335.684	99.75
335.912	87.75
336.14	87.75
336.369	107.75
336.597	105.75
336.825	101.75
337.053	101.75
337.281	95.75
337.51	96.75
337.738	101.75
337.966	78.75
338.194	84.75
338.422	99.75
338.65	86.75
338.878	106.75
339.106	91.75
339.334	82.75
339.562	91.75
339.79	101.75
340.018	77.75
340.246	81.75
340.474	86.75
340.702	95.75
340.93	67.75
341.158	101.75
341.386	105.75
341.614	82.75
341.842	91.75
342.07	84.75
342.298	98.75
342.526	98.75
342.754	86.75
342.981	91.75
343.209	74.75
343.437	97.75
343.665	89.75
343.893	97.75
344.12	90.75
344.348	82.75
344.576	71.75
344.804	95.75
345.031	109.75
345.259	90.75
345.487	94.75
345.714	93.75
345.942	87.75
346.17	91.75
346.397	90.75
346.625	102.75
346.853	83.75
347.08	86.75
347.308	86.75
347.535	99.75
347.763	91.75
347.99	97.75
348.218	93.75
348.445	89.75
348.673	106.75
348.9	95.75
349.128	92.75
349.355	102.75
349.583	94.75
349.81	87.75
350.037	98.75
350.265	92.75
350.492	91.75
350.72	89.75
350.947	101.75
351.174	107.75
351.402	113.75
351.629	100.75
351.856	101.75
352.083	107.75
352.311	107.75
352.538	100.75
352.765	109.75
352.992	117.75
353.22	111.75
353.447	88.75
353.674	101.75
353.901	96.75
354.128	97.75
354.355	99.75
354.583	105.75
354.81	88.75
355.037	89.75
355.264	91.75
355.491	84.75
355.718	102.75
355.945	86.75
356.172	94.75
356.399	88.75
356.626	85.75
356.853	98.75
357.08	83.75
357.307	86.75
357.534	107.75
357.761	101.75
357.988	83.75
358.215	92.75
358.441	81.75
358.668	85.75
358.895	90.75
359.122	80.75
359.349	90.75
359.576	96.75
359.802	108.75
360.029	106.75
360.256	100.75
360.483	96.75
360.709	85.75
360.936	94.75
361.163	89.75
361.39	81.75
361.616	97.75
361.843	87.75
362.07	93.75
362.296	109.75
362.523	98.75
362.749	83.75
362.976	98.75
363.203	97.75
363.429	85.75
363.656	104.75
363.882	98.75
364.109	86.75
364.335	96.75
364.562	95.75
364.788	91.75
365.015	106.75
365.241	117.75
365.468	107.75
365.694	108.75
365.92	90.75
366.147	85.75
366.373	89.75
366.599	89.75
366.826	84.75
367.052	88.75
367.278	90.75
367.505	87.75
367.731	79.75
367.957	97.75
368.184	94.75
368.41	91.75
368.636	101.75
368.862	114.75
369.089	101.75
369.315	79.75
369.541	95.75
369.767	88.75
369.993	86.75
370.219	92.75
370.445	85.75
370.672	99.75
370.898	76.75
371.124	93.75
371.35	85.75
371.576	86.75
371.802	92.75
372.028	92.75
372.254	90.75
372.48	79.75
372.706	79.75
372.932	93.75
373.158	81.75
373.384	105.75
373.61	91.75
373.835	93.75
374.061	80.75
374.287	83.75
374.513	81.75
374.739	77.75
374.965	83.75
375.191	93.75
375.416	96.75
375.642	86.75
375.868	100.75
376.094	87.75
376.319	96.75
376.545	99.75
376.771	86.75
376.997	79.75
377.222	84.75
377.448	83.75
377.674	108.75
377.899	91.75
378.125	89.75
378.35	90.75
378.576	86.75
378.802	95.75
379.027	83.75
379.253	78.75
379.478	87.75
379.704	95.75
379.929	91.75
380.155	84.75
380.38	88.75
380.606	91.75
380.831	99.75
381.057	105.75
381.282	95.75
381.507	99.75
381.733	73.75
381.958	95.75
382.184	101.75
382.409	91.75
382.634	100.75
382.86	107.75
383.085	105.75
383.31	98.75
383.535	100.75
383.761	105.75
383.986	93.75
384.211	98.75
384.436	92.75
384.662	95.75
384.887	94.75
385.112	118.75
385.337	89.75
385.562	92.75
385.787	96.75
386.013	116.75
386.238	100.75
386.463	96.75
386.688	106.75
386.913	89.75
387.138	92.75
387.363	96.75
387.588	91.75
387.813	99.75
388.038	94.75
388.263	102.75
388.488	106.75
388.713	100.75
388.938	102.75
389.163	101.75
389.387	95.75
389.612	87.75
389.837	90.75
390.062	101.75
390.287	76.75
390.512	95.75
390.736	90.75
390.961	92.75
391.186	90.75
391.411	86.75
391.636	90.75
391.86	93.75
392.085	84.75
392.31	75.75
392.534	88.75
392.759	83.75
392.984	83.75
393.208	91.75
393.433	95.75
393.658	90.75
393.882	82.75
394.107	91.75
394.331	91.75
394.556	85.75
394.78	96.75
395.005	90.75
395.229	100.75
395.454	95.75
395.678	84.75
395.903	90.75
396.127	87.75
396.352	84.75
396.576	89.75
396.801	81.75
397.025	86.75
397.249	94.75
397.474	90.75
397.698	80.75
397.922	93.75
398.147	84.75
398.371	101.75
398.595	95.75
398.82	93.75
399.044	91.75
399.268	101.75
399.492	85.75
399.717	91.75
399.941	86.75
400.165	89.75
400.389	95.75
400.613	91.75
400.837	74.75
401.062	75.75
401.286	83.75
401.51	91.75
401.734	95.75
401.958	93.75
402.182	112.75
402.406	139.75
402.63	110.75
402.854	89.75
403.078	82.75
403.302	76.75
403.526	102.75
403.75	93.75
403.974	77.75
404.198	86.75
404.422	75.75
404.645	83.75
404.869	95.75
405.093	91.75
405.317	101.75
405.541	101.75
405.765	90.75
405.988	113.75
406.212	172.75
406.436	199.75
406.66	132.75
406.883	81.75
407.107	97.75
407.331	98.75
407.555	88.75
407.778	100.75
408.002	89.75
408.226	95.75
408.449	87.75
408.673	104.75
408.896	95.75
409.12	96.75
409.344	82.75
409.567	99.75
409.791	81.75
410.014	93.75
410.238	99.75
410.461	100.75
410.685	87.75
410.908	82.75
411.132	103.75
411.355	108.75
411.578	89.75
411.802	95.75
412.025	86.75
412.249	98.75
412.472	89.75
412.695	101.75
412.919	92.75
413.142	85.75
413.365	92.75
413.589	91.75
413.812	91.75
414.035	98.75
414.258	80.75
414.482	81.75
414.705	86.75
414.928	83.75
415.151	86.75
415.374	84.75
415.597	83.75
415.821	83.75
416.044	75.75
416.267	101.75
416.49	84.75
416.713	95.75
416.936	97.75
417.159	88.75
417.382	77.75
417.605	79.75
417.828	95.75
418.051	88.75
418.274	97.75
418.497	91.75
418.72	77.75
418.943	93.75
419.166	97.75
419.389	91.75
419.611	95.75
419.834	91.75
420.057	95.75
420.28	95.75
420.503	96.75
420.726	89.75
420.948	80.75
421.171	81.75
421.394	96.75
421.617	87.75
421.839	90.75
422.062	97.75
422.285	95.75
422.507	93.75
422.73	109.75
422.953	87.75
423.175	95.75
423.398	98.75
423.621	83.75
423.843	77.75
424.066	93.75
424.288	98.75
424.511	82.75
424.733	99.75
424.956	108.75
425.178	92.75
425.401	106.75
425.623	81.75
425.846	95.75
426.068	85.75
426.291	98.75
426.513	86.75
426.735	100.75
426.958	98.75
427.18	95.75
427.402	126.75
427.625	169.75
427.847	115.75
428.069	108.75
428.292	104.75
428.514	82.75
428.736	105.75
428.958	93.75
429.181	95.75
429.403	89.75
429.625	74.75
429.847	91.75
430.069	95.75
430.292	106.75
430.514	85.75
430.736	92.75
430.958	95.75
431.18	69.75
431.402	70.75
431.624	100.75
431.846	88.75
432.068	88.75
432.29	92.75
432.512	81.75
432.734	83.75
432.956	83.75
433.178	99.75
433.4	98.75
433.622	91.75
433.844	89.75
434.066	94.75
434.287	80.75
434.509	87.75
434.731	93.75
434.953	85.75
435.175	83.75
435.397	98.75
435.618	89.75
435.84	105.75
436.062	124.75
436.284	111.75
436.505	87.75
436.727	99.75
436.949	83.75
437.17	90.75
437.392	90.75
437.614	76.75
437.835	96.75
438.057	100.75
438.278	112.75
438.5	95.75
438.721	111.75
438.943	111.75
439.165	92.75
439.386	87.75
439.608	82.75
439.829	96.75
440.05	111.75
440.272	157.75
440.493	104.75
440.715	93.75
440.936	81.75
441.158	95.75
441.379	87.75
441.6	101.75
441.822	83.75
442.043	89.75
442.264	103.75
442.486	103.75
442.707	99.75
442.928	93.75
443.149	122.75
443.371	115.75
443.592	102.75
443.813	98.75
444.034	108.75
444.255	86.75
444.476	88.75
444.698	84.75
444.919	87.75
445.14	148.75
445.361	131.75
445.582	119.75
445.803	123.75
446.024	110.75
446.245	120.75
446.466	94.75
446.687	97.75
446.908	81.75
447.129	69.75
447.35	86.75
447.571	89.75
447.792	95.75
448.013	101.75
448.234	74.75
448.455	107.75
448.675	102.75
448.896	112.75
449.117	98.75
449.338	99.75
449.559	122.75
449.779	120.75
450	91.75
450.221	73.75
450.442	82.75
450.662	97.75
450.883	107.75
451.104	105.75
451.324	92.75
451.545	93.75
451.766	77.75
451.986	103.75
452.207	85.75
452.428	82.75
452.648	93.75
452.869	106.75
453.089	96.75
453.31	117.75
453.53	99.75
453.751	107.75
453.971	95.75
454.192	119.75
454.412	96.75
454.633	77.75
454.853	86.75
455.073	84.75
455.294	95.75
455.514	105.75
455.734	87.75
455.955	94.75
456.175	98.75
456.395	89.75
456.616	97.75
456.836	79.75
457.056	80.75
457.276	86.75
457.497	87.75
457.717	69.75
457.937	87.75
458.157	88.75
458.377	82.75
458.598	92.75
458.818	144.75
459.038	133.75
459.258	106.75
459.478	86.75
459.698	90.75
459.918	83.75
460.138	87.75
460.358	77.75
460.578	85.75
460.798	87.75
461.018	75.75
461.238	85.75
461.458	87.75
461.678	85.75
461.898	87.75
462.118	87.75
462.338	79.75
462.558	72.75
462.777	89.75
462.997	84.75
463.217	89.75
463.437	95.75
463.657	91.75
463.876	88.75
464.096	93.75
464.316	87.75
464.536	85.75
464.755	107.75
464.975	96.75
465.195	150.75
465.414	146.75
465.634	88.75
465.854	86.75
466.073	80.75
466.293	82.75
466.512	91.75
466.732	85.75
466.951	79.75
467.171	98.75
467.391	93.75
467.61	111.75
467.829	95.75
468.049	102.75
468.268	96.75
468.488	73.75
468.707	80.75
468.927	93.75
469.146	85.75
469.365	85.75
469.585	95.75
469.804	89.75
470.023	86.75
470.243	94.75
470.462	94.75
470.681	99.75
470.901	93.75
471.12	72.75
471.339	83.75
471.558	79.75
471.777	83.75
471.997	82.75
472.216	111.75
472.435	139.75
472.654	97.75
472.873	87.75
473.092	81.75
473.311	99.75
473.53	85.75
473.749	90.75
473.968	98.75
474.187	99.75
474.406	79.75
474.625	87.75
474.844	91.75
475.063	92.75
475.282	88.75
475.501	87.75
475.72	82.75
475.939	80.75
476.158	90.75
476.377	93.75
476.596	80.75
476.814	100.75
477.033	83.75
477.252	94.75
477.471	94.75
477.69	88.75
477.908	89.75
478.127	93.75
478.346	85.75
478.564	99.75
478.783	85.75
479.002	86.75
479.22	96.75
479.439	98.75
479.658	117.75
479.876	96.75
480.095	90.75
480.313	104.75
480.532	91.75
480.751	102.75
480.969	113.75
481.188	185.75
481.406	141.75
481.624	95.75
481.843	81.75
482.061	98.75
482.28	92.75
482.498	91.75
482.717	97.75
482.935	92.75
483.153	79.75
483.372	91.75
483.59	99.75
483.808	90.75
484.027	93.75
484.245	82.75
484.463	95.75
484.681	100.75
484.9	94.75
485.118	95.75
485.336	89.75
485.554	83.75
485.772	95.75
485.99	102.75
486.209	92.75
486.427	102.75
486.645	95.75
486.863	115.75
487.081	93.75
487.299	88.75
487.517	102.75
487.735	82.75
487.953	95.75
488.171	92.75
488.389	98.75
488.607	100.75
488.825	102.75
489.043	93.75
489.261	98.75
489.479	98.75
489.696	85.75
489.914	82.75
490.132	88.75
490.35	94.75
490.568	90.75
490.786	88.75
491.003	88.75
491.221	92.75
491.439	99.75
491.657	99.75
491.874	89.75
492.092	90.75
492.31	76.75
492.527	83.75
492.745	81.75
492.963	98.75
493.18	95.75
493.398	90.75
493.615	100.75
493.833	75.75
494.05	85.75
494.268	105.75
494.485	81.75
494.703	99.75
494.92	83.75
495.138	91.75
495.355	87.75
495.573	88.75
495.79	83.75
496.008	89.75
496.225	81.75
496.442	88.75
496.66	103.75
496.877	94.75
497.094	91.75
497.312	91.75
497.529	86.75
497.746	99.75
497.963	92.75
498.181	91.75
498.398	96.75
498.615	111.75
498.832	104.75
499.049	91.75
499.267	99.75
499.484	89.75
499.701	91.75
499.918	78.75
500.135	87.75
500.352	87.75
500.569	85.75
500.786	90.75
501.003	90.75
501.22	87.75
501.437	82.75
501.654	87.75
501.871	114.75
502.088	90.75
502.305	91.75
502.522	87.75
502.739	81.75
502.956	85.75
503.172	101.75
503.389	95.75
503.606	103.75
503.823	93.75
504.04	80.75
504.256	85.75
504.473	89.75
504.69	98.75
504.907	91.75
505.123	99.75
505.34	83.75
505.557	84.75
505.773	86.75
505.99	86.75
506.207	93.75
506.423	93.75
506.64	100.75
506.856	76.75
507.073	82.75
507.289	81.75
507.506	88.75
507.722	106.75
507.939	105.75
508.155	85.75
508.372	102.75
508.588	87.75
508.805	83.75
509.021	87.75
509.238	97.75
509.454	92.75
509.67	100.75
509.887	102.75
510.103	123.75
510.319	205.75
510.536	680.75
510.752	2079.75
510.968	569.75
511.184	152.75
511.401	98.75
511.617	104.75
511.833	102.75
512.049	88.75
512.265	95.75
512.481	83.75
512.698	83.75
512.914	82.75
513.13	91.75
513.346	88.75
513.562	87.75
513.778	97.75
513.994	97.75
514.21	92.75
514.426	105.75
514.642	135.75
514.858	108.75
515.074	137.75
515.29	406.75
515.506	1251.75
515.721	473.75
515.937	124.75
516.153	101.75
