Data from Uncirc_1985_H10_HRD10591_00068.txt Node
Date: Wed Jan 03 12:18:31 EST 2024
User: Yrep
Spectrometer: HR+D1059
Trigger mode: 1
Integration Time (sec): 1.000000E-1
Scans to average: 1
Electric dark correction enabled: true
Nonlinearity correction enabled: false
Boxcar width: 0
XAxis mode: Wavelengths
Number of Pixels in Spectrum: 2048
>>>>>Begin Spectral Data<<<<<
223.165	-19.12
223.4	-19.12
223.635	-19.12
223.869	-17.12
224.104	-15.12
224.338	-17.12
224.573	-17.12
224.808	-18.12
225.042	-11.12
225.277	-10.12
225.511	-3.12
225.746	-4.12
225.98	1.88
226.215	12.88
226.449	17.88
226.683	28.88
226.918	34.88
227.152	35.88
227.387	56.88
227.621	33.88
227.856	46.88
228.09	45.88
228.324	57.88
228.559	68.88
228.793	65.88
229.027	47.88
229.262	69.88
229.496	73.88
229.73	97.88
229.964	90.88
230.199	74.88
230.433	69.88
230.667	78.88
230.901	84.88
231.136	76.88
231.37	67.88
231.604	87.88
231.838	81.88
232.072	87.88
232.306	88.88
232.541	94.88
232.775	70.88
233.009	86.88
233.243	91.88
233.477	85.88
233.711	87.88
233.945	93.88
234.179	78.88
234.413	87.88
234.647	85.88
234.881	73.88
235.115	85.88
235.349	89.88
235.583	71.88
235.817	82.88
236.051	79.88
236.285	89.88
236.519	79.88
236.753	93.88
236.987	73.88
237.221	81.88
237.455	74.88
237.689	81.88
237.922	83.88
238.156	82.88
238.39	91.88
238.624	86.88
238.858	76.88
239.091	74.88
239.325	77.88
239.559	87.88
239.793	71.88
240.027	76.88
240.26	73.88
240.494	80.88
240.728	77.88
240.961	85.88
241.195	75.88
241.429	76.88
241.662	88.88
241.896	75.88
242.13	87.88
242.363	85.88
242.597	81.88
242.83	82.88
243.064	68.88
243.298	73.88
243.531	84.88
243.765	79.88
243.998	93.88
244.232	86.88
244.465	89.88
244.699	83.88
244.932	64.88
245.166	81.88
245.399	86.88
245.633	71.88
245.866	78.88
246.099	67.88
246.333	91.88
246.566	74.88
246.8	77.88
247.033	65.88
247.266	91.88
247.5	94.88
247.733	76.88
247.966	81.88
248.2	88.88
248.433	83.88
248.666	93.88
248.899	87.88
249.133	78.88
249.366	99.88
249.599	99.88
249.832	76.88
250.066	98.88
250.299	84.88
250.532	76.88
250.765	82.88
250.998	77.88
251.231	81.88
251.465	73.88
251.698	69.88
251.931	90.88
252.164	69.88
252.397	75.88
252.63	84.88
252.863	83.88
253.096	74.88
253.329	98.88
253.562	78.88
253.795	83.88
254.028	90.88
254.261	95.88
254.494	93.88
254.727	89.88
254.96	79.88
255.193	95.88
255.426	91.88
255.659	74.88
255.892	76.88
256.124	88.88
256.357	108.88
256.59	88.88
256.823	84.88
257.056	87.88
257.289	89.88
257.521	81.88
257.754	72.88
257.987	80.88
258.22	82.88
258.452	97.88
258.685	90.88
258.918	80.88
259.151	79.88
259.383	81.88
259.616	88.88
259.849	90.88
260.081	84.88
260.314	94.88
260.547	77.88
260.779	83.88
261.012	87.88
261.244	86.88
261.477	88.88
261.71	94.88
261.942	106.88
262.175	111.88
262.407	90.88
262.64	89.88
262.872	82.88
263.105	78.88
263.337	83.88
263.57	90.88
263.802	77.88
264.035	88.88
264.267	87.88
264.499	82.88
264.732	82.88
264.964	88.88
265.197	94.88
265.429	87.88
265.661	82.88
265.894	83.88
266.126	85.88
266.358	76.88
266.591	81.88
266.823	83.88
267.055	91.88
267.287	83.88
267.52	94.88
267.752	91.88
267.984	89.88
268.216	81.88
268.448	81.88
268.681	88.88
268.913	84.88
269.145	85.88
269.377	87.88
269.609	77.88
269.841	97.88
270.073	75.88
270.306	78.88
270.538	77.88
270.77	93.88
271.002	83.88
271.234	90.88
271.466	84.88
271.698	104.88
271.93	88.88
272.162	90.88
272.394	78.88
272.626	93.88
272.858	91.88
273.09	84.88
273.322	91.88
273.553	87.88
273.785	79.88
274.017	82.88
274.249	82.88
274.481	94.88
274.713	90.88
274.945	90.88
275.176	95.88
275.408	96.88
275.64	85.88
275.872	83.88
276.104	102.88
276.335	82.88
276.567	101.88
276.799	113.88
277.031	89.88
277.262	89.88
277.494	84.88
277.726	100.88
277.957	71.88
278.189	87.88
278.421	87.88
278.652	85.88
278.884	92.88
279.115	100.88
279.347	86.88
279.579	72.88
279.81	87.88
280.042	93.88
280.273	93.88
280.505	86.88
280.736	84.88
280.968	98.88
281.199	99.88
281.431	79.88
281.662	92.88
281.894	113.88
282.125	101.88
282.356	108.88
282.588	135.88
282.819	106.88
283.051	85.88
283.282	81.88
283.513	91.88
283.745	86.88
283.976	77.88
284.207	97.88
284.439	81.88
284.67	92.88
284.901	92.88
285.132	112.88
285.364	92.88
285.595	89.88
285.826	92.88
286.057	90.88
286.288	90.88
286.52	98.88
286.751	85.88
286.982	90.88
287.213	99.88
287.444	88.88
287.675	93.88
287.906	93.88
288.138	90.88
288.369	102.88
288.6	98.88
288.831	91.88
289.062	97.88
289.293	97.88
289.524	92.88
289.755	91.88
289.986	90.88
290.217	87.88
290.448	91.88
290.679	92.88
290.91	85.88
291.141	84.88
291.371	93.88
291.602	87.88
291.833	86.88
292.064	87.88
292.295	91.88
292.526	91.88
292.757	86.88
292.987	95.88
293.218	81.88
293.449	92.88
293.68	98.88
293.91	96.88
294.141	93.88
294.372	83.88
294.603	90.88
294.833	91.88
295.064	92.88
295.295	93.88
295.525	87.88
295.756	100.88
295.987	111.88
296.217	132.88
296.448	128.88
296.679	92.88
296.909	85.88
297.14	99.88
297.37	84.88
297.601	91.88
297.831	85.88
298.062	80.88
298.292	94.88
298.523	93.88
298.753	99.88
298.984	87.88
299.214	90.88
299.445	102.88
299.675	93.88
299.905	94.88
300.136	91.88
300.366	78.88
300.597	98.88
300.827	89.88
301.057	111.88
301.288	99.88
301.518	98.88
301.748	88.88
301.979	99.88
302.209	93.88
302.439	106.88
302.669	92.88
302.9	93.88
303.13	91.88
303.36	94.88
303.59	101.88
303.82	107.88
304.051	92.88
304.281	97.88
304.511	87.88
304.741	79.88
304.971	89.88
305.201	100.88
305.431	84.88
305.661	68.88
305.891	95.88
306.121	107.88
306.352	87.88
306.582	101.88
306.812	106.88
307.042	89.88
307.272	97.88
307.502	105.88
307.731	88.88
307.961	94.88
308.191	100.88
308.421	97.88
308.651	102.88
308.881	101.88
309.111	105.88
309.341	94.88
309.571	106.88
309.8	102.88
310.03	98.88
310.26	84.88
310.49	81.88
310.72	86.88
310.949	109.88
311.179	102.88
311.409	105.88
311.639	106.88
311.868	94.88
312.098	101.88
312.328	99.88
312.557	102.88
312.787	94.88
313.017	92.88
313.246	104.88
313.476	90.88
313.706	96.88
313.935	101.88
314.165	104.88
314.394	107.88
314.624	96.88
314.853	76.88
315.083	87.88
315.312	97.88
315.542	81.88
315.771	100.88
316.001	100.88
316.23	98.88
316.46	92.88
316.689	93.88
316.919	88.88
317.148	104.88
317.377	100.88
317.607	90.88
317.836	83.88
318.065	91.88
318.295	99.88
318.524	92.88
318.753	95.88
318.983	111.88
319.212	100.88
319.441	112.88
319.67	98.88
319.9	105.88
320.129	78.88
320.358	94.88
320.587	92.88
320.816	100.88
321.046	103.88
321.275	105.88
321.504	108.88
321.733	85.88
321.962	89.88
322.191	116.88
322.42	107.88
322.649	106.88
322.878	118.88
323.108	119.88
323.337	117.88
323.566	134.88
323.795	147.88
324.024	193.88
324.253	355.88
324.482	755.88
324.71	1534.88
324.939	2034.88
325.168	749.88
325.397	227.88
325.626	162.88
325.855	134.88
326.084	128.88
326.313	142.88
326.542	151.88
326.77	216.88
326.999	409.88
327.228	887.88
327.457	1622.88
327.686	1262.88
327.914	353.88
328.143	198.88
328.372	138.88
328.6	125.88
328.829	102.88
329.058	122.88
329.287	126.88
329.515	115.88
329.744	106.88
329.972	106.88
330.201	140.88
330.43	145.88
330.658	139.88
330.887	133.88
331.115	112.88
331.344	98.88
331.572	112.88
331.801	111.88
332.03	104.88
332.258	104.88
332.486	95.88
332.715	106.88
332.943	87.88
333.172	93.88
333.4	99.88
333.629	103.88
333.857	121.88
334.085	120.88
334.314	114.88
334.542	159.88
334.771	150.88
334.999	111.88
335.227	92.88
335.455	90.88
335.684	104.88
335.912	100.88
336.14	101.88
336.369	95.88
336.597	98.88
336.825	87.88
337.053	96.88
337.281	97.88
337.51	97.88
337.738	104.88
337.966	98.88
338.194	108.88
338.422	93.88
338.65	103.88
338.878	100.88
339.106	101.88
339.334	93.88
339.562	83.88
339.79	92.88
340.018	95.88
340.246	88.88
340.474	103.88
340.702	111.88
340.93	97.88
341.158	79.88
341.386	101.88
341.614	114.88
341.842	93.88
342.07	91.88
342.298	92.88
342.526	85.88
342.754	86.88
342.981	77.88
343.209	86.88
343.437	96.88
343.665	91.88
343.893	97.88
344.12	100.88
344.348	87.88
344.576	94.88
344.804	107.88
345.031	92.88
345.259	87.88
345.487	93.88
345.714	88.88
345.942	102.88
346.17	90.88
346.397	101.88
346.625	97.88
346.853	93.88
347.08	110.88
347.308	90.88
347.535	83.88
347.763	100.88
347.99	104.88
348.218	101.88
348.445	99.88
348.673	97.88
348.9	95.88
349.128	89.88
349.355	100.88
349.583	79.88
349.81	97.88
350.037	88.88
350.265	92.88
350.492	95.88
350.72	121.88
350.947	107.88
351.174	113.88
351.402	109.88
351.629	91.88
351.856	102.88
352.083	109.88
352.311	99.88
352.538	107.88
352.765	127.88
352.992	109.88
353.22	112.88
353.447	106.88
353.674	101.88
353.901	104.88
354.128	109.88
354.355	84.88
354.583	98.88
354.81	98.88
355.037	94.88
355.264	97.88
355.491	79.88
355.718	83.88
355.945	82.88
356.172	94.88
356.399	87.88
356.626	88.88
356.853	91.88
357.08	93.88
357.307	94.88
357.534	100.88
357.761	90.88
357.988	103.88
358.215	95.88
358.441	94.88
358.668	91.88
358.895	103.88
359.122	85.88
359.349	100.88
359.576	77.88
359.802	90.88
360.029	120.88
360.256	103.88
360.483	100.88
360.709	98.88
360.936	94.88
361.163	105.88
361.39	85.88
361.616	93.88
361.843	100.88
362.07	101.88
362.296	93.88
362.523	94.88
362.749	93.88
362.976	78.88
363.203	91.88
363.429	91.88
363.656	101.88
363.882	99.88
364.109	98.88
364.335	100.88
364.562	102.88
364.788	87.88
365.015	91.88
365.241	87.88
365.468	90.88
365.694	99.88
365.92	88.88
366.147	86.88
366.373	86.88
366.599	100.88
366.826	91.88
367.052	93.88
367.278	94.88
367.505	100.88
367.731	101.88
367.957	90.88
368.184	101.88
368.41	86.88
368.636	109.88
368.862	113.88
369.089	115.88
369.315	105.88
369.541	90.88
369.767	95.88
369.993	76.88
370.219	87.88
370.445	92.88
370.672	95.88
370.898	87.88
371.124	89.88
371.35	86.88
371.576	85.88
371.802	84.88
372.028	89.88
372.254	96.88
372.48	83.88
372.706	69.88
372.932	86.88
373.158	78.88
373.384	84.88
373.61	100.88
373.835	97.88
374.061	98.88
374.287	78.88
374.513	82.88
374.739	91.88
374.965	105.88
375.191	85.88
375.416	88.88
375.642	94.88
375.868	93.88
376.094	96.88
376.319	106.88
376.545	103.88
376.771	91.88
376.997	85.88
377.222	88.88
377.448	100.88
377.674	98.88
377.899	88.88
378.125	101.88
378.35	81.88
378.576	105.88
378.802	93.88
379.027	107.88
379.253	103.88
379.478	108.88
379.704	84.88
379.929	94.88
380.155	89.88
380.38	95.88
380.606	111.88
380.831	99.88
381.057	87.88
381.282	79.88
381.507	97.88
381.733	97.88
381.958	98.88
382.184	105.88
382.409	100.88
382.634	110.88
382.86	100.88
383.085	102.88
383.31	97.88
383.535	109.88
383.761	99.88
383.986	100.88
384.211	102.88
384.436	98.88
384.662	97.88
384.887	102.88
385.112	99.88
385.337	99.88
385.562	98.88
385.787	95.88
386.013	115.88
386.238	108.88
386.463	109.88
386.688	104.88
386.913	103.88
387.138	101.88
387.363	97.88
387.588	105.88
387.813	101.88
388.038	107.88
388.263	102.88
388.488	110.88
388.713	109.88
388.938	95.88
389.163	107.88
389.387	115.88
389.612	98.88
389.837	100.88
390.062	84.88
390.287	90.88
390.512	91.88
390.736	110.88
390.961	103.88
391.186	91.88
391.411	98.88
391.636	98.88
391.86	89.88
392.085	94.88
392.31	92.88
392.534	83.88
392.759	105.88
392.984	85.88
393.208	95.88
393.433	83.88
393.658	85.88
393.882	88.88
394.107	92.88
394.331	83.88
394.556	97.88
394.78	90.88
395.005	94.88
395.229	89.88
395.454	90.88
395.678	75.88
395.903	102.88
396.127	76.88
396.352	93.88
396.576	89.88
396.801	93.88
397.025	92.88
397.249	93.88
397.474	85.88
397.698	103.88
397.922	103.88
398.147	89.88
398.371	85.88
398.595	88.88
398.82	85.88
399.044	76.88
399.268	83.88
399.492	76.88
399.717	89.88
399.941	96.88
400.165	82.88
400.389	93.88
400.613	92.88
400.837	80.88
401.062	75.88
401.286	89.88
401.51	88.88
401.734	92.88
401.958	92.88
402.182	131.88
402.406	152.88
402.63	110.88
402.854	73.88
403.078	93.88
403.302	90.88
403.526	92.88
403.75	93.88
403.974	83.88
404.198	94.88
404.422	92.88
404.645	100.88
404.869	99.88
405.093	89.88
405.317	98.88
405.541	104.88
405.765	107.88
405.988	104.88
406.212	147.88
406.436	194.88
406.66	137.88
406.883	102.88
407.107	91.88
407.331	85.88
407.555	99.88
407.778	90.88
408.002	95.88
408.226	93.88
408.449	96.88
408.673	97.88
408.896	89.88
409.12	97.88
409.344	105.88
409.567	88.88
409.791	88.88
410.014	94.88
410.238	95.88
410.461	109.88
410.685	97.88
410.908	88.88
411.132	98.88
411.355	94.88
411.578	95.88
411.802	95.88
412.025	89.88
412.249	85.88
412.472	88.88
412.695	103.88
412.919	92.88
413.142	92.88
413.365	83.88
413.589	91.88
413.812	84.88
414.035	92.88
414.258	92.88
414.482	103.88
414.705	88.88
414.928	101.88
415.151	91.88
415.374	92.88
415.597	81.88
415.821	83.88
416.044	85.88
416.267	92.88
416.49	77.88
416.713	82.88
416.936	75.88
417.159	91.88
417.382	97.88
417.605	89.88
417.828	99.88
418.051	93.88
418.274	94.88
418.497	82.88
418.72	97.88
418.943	99.88
419.166	86.88
419.389	87.88
419.611	95.88
419.834	79.88
420.057	104.88
420.28	87.88
420.503	71.88
420.726	87.88
420.948	73.88
421.171	89.88
421.394	102.88
421.617	96.88
421.839	91.88
422.062	91.88
422.285	91.88
422.507	97.88
422.73	116.88
422.953	96.88
423.175	95.88
423.398	98.88
423.621	89.88
423.843	94.88
424.066	90.88
424.288	87.88
424.511	86.88
424.733	98.88
424.956	106.88
425.178	90.88
425.401	89.88
425.623	99.88
425.846	83.88
426.068	78.88
426.291	95.88
426.513	105.88
426.735	102.88
426.958	107.88
427.18	108.88
427.402	133.88
427.625	161.88
427.847	127.88
428.069	103.88
428.292	99.88
428.514	87.88
428.736	88.88
428.958	86.88
429.181	87.88
429.403	101.88
429.625	95.88
429.847	84.88
430.069	104.88
430.292	109.88
430.514	84.88
430.736	94.88
430.958	90.88
431.18	78.88
431.402	86.88
431.624	83.88
431.846	82.88
432.068	83.88
432.29	66.88
432.512	89.88
432.734	78.88
432.956	89.88
433.178	94.88
433.4	92.88
433.622	97.88
433.844	85.88
434.066	105.88
434.287	97.88
434.509	78.88
434.731	87.88
434.953	95.88
435.175	83.88
435.397	89.88
435.618	105.88
435.84	103.88
436.062	124.88
436.284	121.88
436.505	89.88
436.727	103.88
436.949	90.88
437.17	90.88
437.392	85.88
437.614	95.88
437.835	99.88
438.057	107.88
438.278	112.88
438.5	113.88
438.721	116.88
438.943	94.88
439.165	98.88
439.386	81.88
439.608	94.88
439.829	97.88
440.05	134.88
440.272	137.88
440.493	111.88
440.715	72.88
440.936	96.88
441.158	88.88
441.379	93.88
441.6	78.88
441.822	87.88
442.043	99.88
442.264	108.88
442.486	86.88
442.707	91.88
442.928	115.88
443.149	132.88
443.371	126.88
443.592	110.88
443.813	113.88
444.034	106.88
444.255	95.88
444.476	92.88
444.698	78.88
444.919	92.88
445.14	150.88
445.361	134.88
445.582	116.88
445.803	131.88
446.024	132.88
446.245	125.88
446.466	108.88
446.687	96.88
446.908	88.88
447.129	90.88
447.35	99.88
447.571	100.88
447.792	85.88
448.013	83.88
448.234	93.88
448.455	99.88
448.675	101.88
448.896	107.88
449.117	83.88
449.338	114.88
449.559	115.88
449.779	146.88
450	78.88
450.221	81.88
450.442	93.88
450.662	103.88
450.883	82.88
451.104	109.88
451.324	101.88
451.545	94.88
451.766	84.88
451.986	96.88
452.207	102.88
452.428	87.88
452.648	97.88
452.869	100.88
453.089	121.88
453.31	122.88
453.53	97.88
453.751	99.88
453.971	98.88
454.192	102.88
454.412	88.88
454.633	81.88
454.853	86.88
455.073	90.88
455.294	98.88
455.514	83.88
455.734	88.88
455.955	90.88
456.175	89.88
456.395	74.88
456.616	81.88
456.836	80.88
457.056	90.88
457.276	78.88
457.497	85.88
457.717	94.88
457.937	96.88
458.157	61.88
458.377	89.88
458.598	108.88
458.818	144.88
459.038	140.88
459.258	89.88
459.478	83.88
459.698	91.88
459.918	92.88
460.138	94.88
460.358	74.88
460.578	94.88
460.798	99.88
461.018	92.88
461.238	89.88
461.458	84.88
461.678	67.88
461.898	83.88
462.118	75.88
462.338	86.88
462.558	82.88
462.777	98.88
462.997	83.88
463.217	75.88
463.437	92.88
463.657	88.88
463.876	82.88
464.096	85.88
464.316	94.88
464.536	98.88
464.755	98.88
464.975	112.88
465.195	151.88
465.414	161.88
465.634	106.88
465.854	97.88
466.073	81.88
466.293	90.88
466.512	89.88
466.732	100.88
466.951	92.88
467.171	97.88
467.391	92.88
467.61	100.88
467.829	101.88
468.049	110.88
468.268	114.88
468.488	96.88
468.707	85.88
468.927	90.88
469.146	95.88
469.365	94.88
469.585	97.88
469.804	99.88
470.023	111.88
470.243	98.88
470.462	100.88
470.681	108.88
470.901	89.88
471.12	89.88
471.339	93.88
471.558	87.88
471.777	75.88
471.997	97.88
472.216	109.88
472.435	179.88
472.654	101.88
472.873	87.88
473.092	95.88
473.311	84.88
473.53	82.88
473.749	92.88
473.968	108.88
474.187	102.88
474.406	101.88
474.625	104.88
474.844	93.88
475.063	83.88
475.282	73.88
475.501	94.88
475.72	103.88
475.939	93.88
476.158	91.88
476.377	101.88
476.596	92.88
476.814	97.88
477.033	101.88
477.252	83.88
477.471	91.88
477.69	78.88
477.908	102.88
478.127	85.88
478.346	96.88
478.564	89.88
478.783	105.88
479.002	93.88
479.22	92.88
479.439	90.88
479.658	102.88
479.876	82.88
480.095	84.88
480.313	84.88
480.532	90.88
480.751	98.88
480.969	138.88
481.188	260.88
481.406	173.88
481.624	111.88
481.843	102.88
482.061	93.88
482.28	93.88
482.498	85.88
482.717	92.88
482.935	77.88
483.153	84.88
483.372	95.88
483.59	85.88
483.808	81.88
484.027	99.88
484.245	82.88
484.463	83.88
484.681	98.88
484.9	87.88
485.118	105.88
485.336	93.88
485.554	94.88
485.772	107.88
485.99	102.88
486.209	98.88
486.427	118.88
486.645	107.88
486.863	106.88
487.081	94.88
487.299	89.88
487.517	92.88
487.735	90.88
487.953	96.88
488.171	94.88
488.389	104.88
488.607	89.88
488.825	103.88
489.043	93.88
489.261	98.88
489.479	90.88
489.696	104.88
489.914	102.88
490.132	89.88
490.35	99.88
490.568	85.88
490.786	87.88
491.003	88.88
491.221	89.88
491.439	120.88
491.657	105.88
491.874	79.88
492.092	101.88
492.31	97.88
492.527	78.88
492.745	99.88
492.963	93.88
493.18	92.88
493.398	91.88
493.615	102.88
493.833	81.88
494.05	93.88
494.268	90.88
494.485	89.88
494.703	90.88
494.92	85.88
495.138	93.88
495.355	89.88
495.573	95.88
495.79	90.88
496.008	94.88
496.225	104.88
496.442	100.88
496.66	104.88
496.877	90.88
497.094	103.88
497.312	97.88
497.529	97.88
497.746	92.88
497.963	92.88
498.181	77.88
498.398	109.88
498.615	110.88
498.832	103.88
499.049	93.88
499.267	89.88
499.484	103.88
499.701	95.88
499.918	99.88
500.135	83.88
500.352	87.88
500.569	94.88
500.786	91.88
501.003	85.88
501.22	91.88
501.437	98.88
501.654	85.88
501.871	102.88
502.088	88.88
502.305	97.88
502.522	92.88
502.739	85.88
502.956	95.88
503.172	87.88
503.389	108.88
503.606	107.88
503.823	87.88
504.04	103.88
504.256	84.88
504.473	88.88
504.69	77.88
504.907	93.88
505.123	86.88
505.34	85.88
505.557	78.88
505.773	89.88
505.99	93.88
506.207	97.88
506.423	92.88
506.64	91.88
506.856	86.88
507.073	104.88
507.289	100.88
507.506	83.88
507.722	103.88
507.939	101.88
508.155	98.88
508.372	83.88
508.588	93.88
508.805	95.88
509.021	82.88
509.238	97.88
509.454	100.88
509.67	87.88
509.887	108.88
510.103	119.88
510.319	203.88
510.536	698.88
510.752	2107.88
510.968	591.88
511.184	147.88
511.401	117.88
511.617	97.88
511.833	95.88
512.049	90.88
512.265	88.88
512.481	95.88
512.698	95.88
512.914	97.88
513.13	94.88
513.346	96.88
513.562	98.88
513.778	109.88
513.994	91.88
514.21	113.88
514.426	122.88
514.642	135.88
514.858	116.88
