Data from Uncirc_1985_H10_HRD10591_00090.txt Node
Date: Wed Jan 03 12:18:35 EST 2024
User: Yrep
Spectrometer: HR+D1059
Trigger mode: 1
Integration Time (sec): 1.000000E-1
Scans to average: 1
Electric dark correction enabled: true
Nonlinearity correction enabled: false
Boxcar width: 0
XAxis mode: Wavelengths
Number of Pixels in Spectrum: 2048
>>>>>Begin Spectral Data<<<<<
223.165	-32.25
223.4	-32.25
223.635	-32.25
223.869	-15.25
224.104	-8.25
224.338	-18.25
224.573	-10.25
224.808	-10.25
225.042	-14.25
225.277	7.75
225.511	-1.25
225.746	-8.25
225.98	8.75
226.215	5.75
226.449	16.75
226.683	19.75
226.918	21.75
227.152	37.75
227.387	36.75
227.621	47.75
227.856	31.75
228.09	52.75
228.324	59.75
228.559	52.75
228.793	51.75
229.027	57.75
229.262	54.75
229.496	70.75
229.73	78.75
229.964	82.75
230.199	75.75
230.433	75.75
230.667	72.75
230.901	65.75
231.136	85.75
231.37	68.75
231.604	74.75
231.838	77.75
232.072	80.75
232.306	72.75
232.541	85.75
232.775	69.75
233.009	77.75
233.243	79.75
233.477	73.75
233.711	79.75
233.945	84.75
234.179	76.75
234.413	84.75
234.647	99.75
234.881	80.75
235.115	65.75
235.349	65.75
235.583	78.75
235.817	71.75
236.051	69.75
236.285	84.75
236.519	83.75
236.753	71.75
236.987	82.75
237.221	77.75
237.455	81.75
237.689	68.75
237.922	81.75
238.156	86.75
238.39	64.75
238.624	68.75
238.858	65.75
239.091	73.75
239.325	77.75
239.559	63.75
239.793	69.75
240.027	79.75
240.26	75.75
240.494	83.75
240.728	72.75
240.961	82.75
241.195	80.75
241.429	69.75
241.662	64.75
241.896	77.75
242.13	62.75
242.363	79.75
242.597	80.75
242.83	59.75
243.064	83.75
243.298	72.75
243.531	55.75
243.765	71.75
243.998	82.75
244.232	72.75
244.465	89.75
244.699	88.75
244.932	76.75
245.166	78.75
245.399	83.75
245.633	73.75
245.866	85.75
246.099	75.75
246.333	77.75
246.566	74.75
246.8	72.75
247.033	76.75
247.266	62.75
247.5	75.75
247.733	77.75
247.966	66.75
248.2	81.75
248.433	91.75
248.666	88.75
248.899	81.75
249.133	83.75
249.366	70.75
249.599	100.75
249.832	83.75
250.066	77.75
250.299	82.75
250.532	64.75
250.765	70.75
250.998	95.75
251.231	81.75
251.465	63.75
251.698	75.75
251.931	69.75
252.164	71.75
252.397	66.75
252.63	87.75
252.863	72.75
253.096	89.75
253.329	97.75
253.562	83.75
253.795	68.75
254.028	79.75
254.261	73.75
254.494	82.75
254.727	76.75
254.96	84.75
255.193	78.75
255.426	75.75
255.659	64.75
255.892	81.75
256.124	81.75
256.357	81.75
256.59	78.75
256.823	79.75
257.056	87.75
257.289	78.75
257.521	89.75
257.754	85.75
257.987	88.75
258.22	80.75
258.452	92.75
258.685	82.75
258.918	71.75
259.151	87.75
259.383	79.75
259.616	86.75
259.849	78.75
260.081	82.75
260.314	87.75
260.547	94.75
260.779	92.75
261.012	76.75
261.244	83.75
261.477	83.75
261.71	92.75
261.942	85.75
262.175	104.75
262.407	86.75
262.64	88.75
262.872	89.75
263.105	87.75
263.337	87.75
263.57	80.75
263.802	84.75
264.035	83.75
264.267	64.75
264.499	65.75
264.732	64.75
264.964	70.75
265.197	89.75
265.429	90.75
265.661	98.75
265.894	79.75
266.126	80.75
266.358	87.75
266.591	71.75
266.823	88.75
267.055	81.75
267.287	88.75
267.52	71.75
267.752	85.75
267.984	87.75
268.216	77.75
268.448	91.75
268.681	79.75
268.913	86.75
269.145	85.75
269.377	72.75
269.609	81.75
269.841	75.75
270.073	71.75
270.306	71.75
270.538	84.75
270.77	71.75
271.002	74.75
271.234	88.75
271.466	94.75
271.698	87.75
271.93	82.75
272.162	88.75
272.394	86.75
272.626	85.75
272.858	97.75
273.09	70.75
273.322	84.75
273.553	83.75
273.785	86.75
274.017	69.75
274.249	65.75
274.481	93.75
274.713	93.75
274.945	84.75
275.176	84.75
275.408	70.75
275.64	95.75
275.872	81.75
276.104	76.75
276.335	69.75
276.567	100.75
276.799	111.75
277.031	104.75
277.262	97.75
277.494	83.75
277.726	75.75
277.957	83.75
278.189	85.75
278.421	85.75
278.652	87.75
278.884	77.75
279.115	96.75
279.347	78.75
279.579	92.75
279.81	84.75
280.042	88.75
280.273	92.75
280.505	89.75
280.736	104.75
280.968	83.75
281.199	88.75
281.431	89.75
281.662	88.75
281.894	71.75
282.125	97.75
282.356	116.75
282.588	134.75
282.819	110.75
283.051	80.75
283.282	77.75
283.513	79.75
283.745	78.75
283.976	97.75
284.207	77.75
284.439	80.75
284.67	83.75
284.901	80.75
285.132	89.75
285.364	84.75
285.595	82.75
285.826	83.75
286.057	92.75
286.288	86.75
286.52	81.75
286.751	80.75
286.982	91.75
287.213	88.75
287.444	91.75
287.675	95.75
287.906	88.75
288.138	86.75
288.369	95.75
288.6	90.75
288.831	100.75
289.062	80.75
289.293	84.75
289.524	75.75
289.755	79.75
289.986	81.75
290.217	76.75
290.448	82.75
290.679	79.75
290.91	86.75
291.141	88.75
291.371	82.75
291.602	94.75
291.833	84.75
292.064	78.75
292.295	72.75
292.526	90.75
292.757	93.75
292.987	81.75
293.218	76.75
293.449	89.75
293.68	83.75
293.91	85.75
294.141	87.75
294.372	78.75
294.603	88.75
294.833	83.75
295.064	86.75
295.295	89.75
295.525	96.75
295.756	93.75
295.987	113.75
296.217	124.75
296.448	109.75
296.679	80.75
296.909	98.75
297.14	77.75
297.37	91.75
297.601	95.75
297.831	89.75
298.062	83.75
298.292	104.75
298.523	79.75
298.753	90.75
298.984	92.75
299.214	85.75
299.445	77.75
299.675	89.75
299.905	84.75
300.136	68.75
300.366	85.75
300.597	89.75
300.827	96.75
301.057	94.75
301.288	97.75
301.518	96.75
301.748	88.75
301.979	85.75
302.209	93.75
302.439	80.75
302.669	93.75
302.9	73.75
303.13	87.75
303.36	87.75
303.59	100.75
303.82	94.75
304.051	92.75
304.281	88.75
304.511	87.75
304.741	83.75
304.971	80.75
305.201	93.75
305.431	91.75
305.661	86.75
305.891	97.75
306.121	100.75
306.352	97.75
306.582	95.75
306.812	91.75
307.042	97.75
307.272	113.75
307.502	107.75
307.731	98.75
307.961	92.75
308.191	87.75
308.421	85.75
308.651	86.75
308.881	91.75
309.111	101.75
309.341	87.75
309.571	85.75
309.8	96.75
310.03	91.75
310.26	97.75
310.49	107.75
310.72	97.75
310.949	87.75
311.179	88.75
311.409	105.75
311.639	91.75
311.868	89.75
312.098	86.75
312.328	97.75
312.557	94.75
312.787	103.75
313.017	101.75
313.246	94.75
313.476	96.75
313.706	101.75
313.935	104.75
314.165	86.75
314.394	90.75
314.624	77.75
314.853	79.75
315.083	100.75
315.312	105.75
315.542	89.75
315.771	78.75
316.001	95.75
316.23	88.75
316.46	93.75
316.689	92.75
316.919	82.75
317.148	87.75
317.377	89.75
317.607	95.75
317.836	85.75
318.065	87.75
318.295	89.75
318.524	81.75
318.753	84.75
318.983	107.75
319.212	99.75
319.441	102.75
319.67	120.75
319.9	94.75
320.129	84.75
320.358	85.75
320.587	97.75
320.816	94.75
321.046	88.75
321.275	93.75
321.504	97.75
321.733	88.75
321.962	96.75
322.191	88.75
322.42	111.75
322.649	101.75
322.878	93.75
323.108	117.75
323.337	110.75
323.566	130.75
323.795	160.75
324.024	183.75
324.253	370.75
324.482	735.75
324.71	1573.75
324.939	2050.75
325.168	763.75
325.397	230.75
325.626	144.75
325.855	125.75
326.084	128.75
326.313	122.75
326.542	146.75
326.77	211.75
326.999	439.75
327.228	879.75
327.457	1629.75
327.686	1302.75
327.914	349.75
328.143	199.75
328.372	138.75
328.6	125.75
328.829	109.75
329.058	108.75
329.287	127.75
329.515	120.75
329.744	98.75
329.972	115.75
330.201	129.75
330.43	183.75
330.658	136.75
330.887	132.75
331.115	117.75
331.344	107.75
331.572	100.75
331.801	100.75
332.03	103.75
332.258	113.75
332.486	91.75
332.715	62.75
332.943	90.75
333.172	81.75
333.4	95.75
333.629	107.75
333.857	105.75
334.085	115.75
334.314	130.75
334.542	178.75
334.771	159.75
334.999	116.75
335.227	97.75
335.455	83.75
335.684	100.75
335.912	102.75
336.14	94.75
336.369	95.75
336.597	105.75
336.825	95.75
337.053	100.75
337.281	86.75
337.51	79.75
337.738	105.75
337.966	105.75
338.194	82.75
338.422	82.75
338.65	96.75
338.878	88.75
339.106	100.75
339.334	94.75
339.562	77.75
339.79	85.75
340.018	96.75
340.246	85.75
340.474	87.75
340.702	92.75
340.93	88.75
341.158	83.75
341.386	74.75
341.614	81.75
341.842	99.75
342.07	95.75
342.298	83.75
342.526	84.75
342.754	78.75
342.981	87.75
343.209	92.75
343.437	107.75
343.665	88.75
343.893	79.75
344.12	91.75
344.348	72.75
344.576	81.75
344.804	79.75
345.031	82.75
345.259	91.75
345.487	95.75
345.714	96.75
345.942	95.75
346.17	94.75
346.397	80.75
346.625	75.75
346.853	106.75
347.08	90.75
347.308	98.75
347.535	100.75
347.763	81.75
347.99	89.75
348.218	94.75
348.445	99.75
348.673	94.75
348.9	101.75
349.128	100.75
349.355	92.75
349.583	80.75
349.81	91.75
350.037	88.75
350.265	95.75
350.492	97.75
350.72	94.75
350.947	93.75
351.174	101.75
351.402	120.75
351.629	95.75
351.856	87.75
352.083	101.75
352.311	98.75
352.538	112.75
352.765	108.75
352.992	107.75
353.22	119.75
353.447	98.75
353.674	95.75
353.901	92.75
354.128	99.75
354.355	83.75
354.583	94.75
354.81	112.75
355.037	72.75
355.264	91.75
355.491	75.75
355.718	90.75
355.945	91.75
356.172	80.75
356.399	101.75
356.626	89.75
356.853	89.75
357.08	95.75
357.307	93.75
357.534	94.75
357.761	93.75
357.988	86.75
358.215	95.75
358.441	85.75
358.668	87.75
358.895	82.75
359.122	94.75
359.349	79.75
359.576	87.75
359.802	100.75
360.029	122.75
360.256	112.75
360.483	86.75
360.709	86.75
360.936	95.75
361.163	89.75
361.39	95.75
361.616	87.75
361.843	90.75
362.07	91.75
362.296	82.75
362.523	85.75
362.749	80.75
362.976	92.75
363.203	90.75
363.429	84.75
363.656	87.75
363.882	94.75
364.109	80.75
364.335	91.75
364.562	87.75
364.788	95.75
365.015	91.75
365.241	89.75
365.468	115.75
365.694	104.75
365.92	97.75
366.147	90.75
366.373	94.75
366.599	75.75
366.826	82.75
367.052	84.75
367.278	76.75
367.505	80.75
367.731	94.75
367.957	99.75
368.184	88.75
368.41	106.75
368.636	96.75
368.862	129.75
369.089	112.75
369.315	87.75
369.541	95.75
369.767	91.75
369.993	85.75
370.219	93.75
370.445	90.75
370.672	81.75
370.898	87.75
371.124	79.75
371.35	61.75
371.576	91.75
371.802	74.75
372.028	87.75
372.254	83.75
372.48	97.75
372.706	94.75
372.932	79.75
373.158	82.75
373.384	89.75
373.61	88.75
373.835	83.75
374.061	88.75
374.287	91.75
374.513	83.75
374.739	95.75
374.965	94.75
375.191	88.75
375.416	93.75
375.642	70.75
375.868	100.75
376.094	91.75
376.319	95.75
376.545	85.75
376.771	78.75
376.997	100.75
377.222	75.75
377.448	79.75
377.674	88.75
377.899	96.75
378.125	86.75
378.35	87.75
378.576	75.75
378.802	78.75
379.027	92.75
379.253	82.75
379.478	87.75
379.704	87.75
379.929	93.75
380.155	88.75
380.38	94.75
380.606	89.75
380.831	84.75
381.057	103.75
381.282	88.75
381.507	86.75
381.733	88.75
381.958	80.75
382.184	86.75
382.409	95.75
382.634	90.75
382.86	81.75
383.085	89.75
383.31	81.75
383.535	94.75
383.761	95.75
383.986	96.75
384.211	91.75
384.436	92.75
384.662	94.75
384.887	80.75
385.112	98.75
385.337	94.75
385.562	82.75
385.787	95.75
386.013	112.75
386.238	104.75
386.463	84.75
386.688	97.75
386.913	94.75
387.138	93.75
387.363	100.75
387.588	97.75
387.813	73.75
388.038	92.75
388.263	87.75
388.488	100.75
388.713	95.75
388.938	81.75
389.163	72.75
389.387	99.75
389.612	73.75
389.837	91.75
390.062	95.75
390.287	82.75
390.512	85.75
390.736	94.75
390.961	92.75
391.186	100.75
391.411	105.75
391.636	96.75
391.86	84.75
392.085	91.75
392.31	75.75
392.534	79.75
392.759	81.75
392.984	87.75
393.208	72.75
393.433	93.75
393.658	86.75
393.882	88.75
394.107	81.75
394.331	96.75
394.556	77.75
394.78	94.75
395.005	75.75
395.229	69.75
395.454	91.75
395.678	79.75
395.903	69.75
396.127	112.75
396.352	92.75
396.576	81.75
396.801	87.75
397.025	86.75
397.249	86.75
397.474	84.75
397.698	80.75
397.922	99.75
398.147	83.75
398.371	87.75
398.595	70.75
398.82	63.75
399.044	86.75
399.268	81.75
399.492	97.75
399.717	77.75
399.941	87.75
400.165	81.75
400.389	93.75
400.613	65.75
400.837	86.75
401.062	79.75
401.286	91.75
401.51	79.75
401.734	89.75
401.958	86.75
402.182	121.75
402.406	150.75
402.63	99.75
402.854	98.75
403.078	88.75
403.302	86.75
403.526	65.75
403.75	86.75
403.974	75.75
404.198	82.75
404.422	75.75
404.645	84.75
404.869	92.75
405.093	96.75
405.317	102.75
405.541	101.75
405.765	109.75
405.988	107.75
406.212	163.75
406.436	217.75
406.66	139.75
406.883	90.75
407.107	100.75
407.331	92.75
407.555	100.75
407.778	87.75
408.002	89.75
408.226	88.75
408.449	88.75
408.673	68.75
408.896	69.75
409.12	90.75
409.344	97.75
409.567	86.75
409.791	98.75
410.014	94.75
410.238	93.75
410.461	84.75
410.685	81.75
410.908	95.75
411.132	93.75
411.355	96.75
411.578	84.75
411.802	98.75
412.025	79.75
412.249	88.75
412.472	71.75
412.695	102.75
412.919	93.75
413.142	87.75
413.365	94.75
413.589	85.75
413.812	75.75
414.035	88.75
414.258	84.75
414.482	92.75
414.705	87.75
414.928	83.75
415.151	82.75
415.374	87.75
415.597	86.75
415.821	88.75
416.044	77.75
416.267	62.75
416.49	87.75
416.713	81.75
416.936	79.75
417.159	89.75
417.382	88.75
417.605	77.75
417.828	100.75
418.051	91.75
418.274	80.75
418.497	99.75
418.72	86.75
418.943	83.75
419.166	91.75
419.389	83.75
419.611	99.75
419.834	86.75
420.057	81.75
420.28	75.75
420.503	85.75
420.726	99.75
420.948	88.75
421.171	84.75
421.394	77.75
421.617	94.75
421.839	79.75
422.062	90.75
422.285	65.75
422.507	84.75
422.73	100.75
422.953	85.75
423.175	71.75
423.398	89.75
423.621	85.75
423.843	95.75
424.066	91.75
424.288	81.75
424.511	89.75
424.733	83.75
424.956	113.75
425.178	91.75
425.401	100.75
425.623	110.75
425.846	89.75
426.068	81.75
426.291	86.75
426.513	94.75
426.735	84.75
426.958	75.75
427.18	89.75
427.402	136.75
427.625	159.75
427.847	132.75
428.069	114.75
428.292	73.75
428.514	81.75
428.736	87.75
428.958	77.75
429.181	82.75
429.403	97.75
429.625	66.75
429.847	87.75
430.069	95.75
430.292	96.75
430.514	84.75
430.736	91.75
430.958	94.75
431.18	76.75
431.402	71.75
431.624	84.75
431.846	80.75
432.068	89.75
432.29	70.75
432.512	75.75
432.734	90.75
432.956	96.75
433.178	95.75
433.4	102.75
433.622	87.75
433.844	81.75
434.066	92.75
434.287	68.75
434.509	93.75
434.731	97.75
434.953	79.75
435.175	91.75
435.397	75.75
435.618	84.75
435.84	78.75
436.062	112.75
436.284	127.75
436.505	91.75
436.727	81.75
436.949	80.75
437.17	77.75
437.392	81.75
437.614	78.75
437.835	100.75
438.057	100.75
438.278	108.75
438.5	112.75
438.721	122.75
438.943	92.75
439.165	94.75
439.386	78.75
439.608	98.75
439.829	90.75
440.05	110.75
440.272	137.75
440.493	107.75
440.715	85.75
440.936	79.75
441.158	77.75
441.379	77.75
441.6	97.75
441.822	73.75
442.043	91.75
442.264	103.75
442.486	108.75
442.707	91.75
442.928	92.75
443.149	118.75
443.371	126.75
443.592	101.75
443.813	99.75
444.034	98.75
444.255	78.75
444.476	89.75
444.698	91.75
444.919	80.75
445.14	120.75
445.361	112.75
445.582	107.75
445.803	125.75
446.024	125.75
446.245	114.75
446.466	104.75
446.687	89.75
446.908	102.75
447.129	86.75
447.35	86.75
447.571	96.75
447.792	101.75
448.013	108.75
448.234	103.75
448.455	91.75
448.675	88.75
448.896	125.75
449.117	96.75
449.338	107.75
449.559	127.75
449.779	115.75
450	100.75
450.221	75.75
450.442	90.75
450.662	89.75
450.883	111.75
451.104	107.75
451.324	93.75
451.545	76.75
451.766	83.75
451.986	91.75
452.207	97.75
452.428	98.75
452.648	87.75
452.869	96.75
453.089	104.75
453.31	104.75
453.53	91.75
453.751	91.75
453.971	99.75
454.192	101.75
454.412	86.75
454.633	86.75
454.853	95.75
455.073	77.75
455.294	79.75
455.514	108.75
455.734	87.75
455.955	86.75
456.175	81.75
456.395	89.75
456.616	88.75
456.836	83.75
457.056	96.75
457.276	89.75
457.497	90.75
457.717	91.75
457.937	70.75
458.157	82.75
458.377	82.75
458.598	103.75
458.818	139.75
459.038	151.75
459.258	87.75
459.478	79.75
459.698	83.75
459.918	82.75
460.138	85.75
460.358	83.75
460.578	86.75
460.798	81.75
461.018	93.75
461.238	88.75
461.458	80.75
461.678	93.75
461.898	81.75
462.118	80.75
462.338	78.75
462.558	74.75
462.777	84.75
462.997	77.75
463.217	93.75
463.437	78.75
463.657	71.75
463.876	94.75
464.096	88.75
464.316	92.75
464.536	83.75
464.755	78.75
464.975	94.75
465.195	155.75
465.414	149.75
465.634	94.75
465.854	88.75
466.073	83.75
466.293	81.75
466.512	85.75
466.732	75.75
466.951	93.75
467.171	104.75
467.391	98.75
467.61	94.75
467.829	106.75
468.049	117.75
468.268	126.75
468.488	81.75
468.707	88.75
468.927	84.75
469.146	66.75
469.365	86.75
469.585	87.75
469.804	90.75
470.023	85.75
470.243	88.75
470.462	102.75
470.681	101.75
470.901	89.75
471.12	78.75
471.339	83.75
471.558	70.75
471.777	92.75
471.997	85.75
472.216	136.75
472.435	226.75
472.654	117.75
472.873	100.75
473.092	72.75
473.311	92.75
473.53	93.75
473.749	89.75
473.968	92.75
474.187	94.75
474.406	93.75
474.625	82.75
474.844	97.75
475.063	77.75
475.282	88.75
475.501	83.75
475.72	93.75
475.939	81.75
476.158	83.75
476.377	100.75
476.596	76.75
476.814	96.75
477.033	89.75
477.252	78.75
477.471	88.75
477.69	93.75
477.908	87.75
478.127	79.75
478.346	76.75
478.564	87.75
478.783	86.75
479.002	101.75
479.22	77.75
479.439	90.75
479.658	99.75
479.876	101.75
480.095	75.75
480.313	80.75
480.532	88.75
480.751	99.75
480.969	139.75
481.188	327.75
481.406	223.75
481.624	99.75
481.843	84.75
482.061	82.75
482.28	77.75
482.498	97.75
482.717	91.75
482.935	83.75
483.153	78.75
483.372	79.75
483.59	96.75
483.808	71.75
484.027	85.75
484.245	93.75
484.463	103.75
484.681	88.75
484.9	87.75
485.118	95.75
485.336	81.75
485.554	94.75
485.772	96.75
485.99	95.75
486.209	94.75
486.427	98.75
486.645	102.75
486.863	106.75
487.081	99.75
487.299	81.75
487.517	81.75
487.735	86.75
487.953	97.75
488.171	82.75
488.389	85.75
488.607	87.75
488.825	93.75
489.043	85.75
489.261	85.75
489.479	76.75
489.696	82.75
489.914	84.75
490.132	81.75
490.35	83.75
490.568	81.75
490.786	83.75
491.003	84.75
491.221	83.75
491.439	98.75
491.657	91.75
491.874	89.75
492.092	81.75
492.31	78.75
492.527	82.75
492.745	72.75
492.963	83.75
493.18	81.75
493.398	75.75
493.615	84.75
493.833	92.75
494.05	80.75
494.268	87.75
494.485	86.75
494.703	91.75
494.92	96.75
495.138	84.75
495.355	79.75
495.573	73.75
495.79	82.75
496.008	89.75
496.225	74.75
496.442	82.75
496.66	91.75
496.877	79.75
497.094	97.75
497.312	86.75
497.529	85.75
497.746	85.75
497.963	78.75
498.181	85.75
498.398	89.75
498.615	103.75
498.832	88.75
499.049	83.75
499.267	85.75
499.484	92.75
499.701	88.75
499.918	92.75
500.135	96.75
500.352	92.75
500.569	88.75
500.786	91.75
501.003	87.75
501.22	87.75
501.437	76.75
501.654	80.75
501.871	121.75
502.088	98.75
502.305	92.75
502.522	75.75
502.739	92.75
502.956	91.75
503.172	85.75
503.389	77.75
503.606	100.75
503.823	89.75
504.04	82.75
504.256	93.75
504.473	73.75
504.69	96.75
504.907	99.75
505.123	83.75
505.34	99.75
505.557	90.75
505.773	95.75
505.99	93.75
506.207	88.75
506.423	82.75
506.64	83.75
506.856	84.75
507.073	80.75
507.289	89.75
507.506	84.75
507.722	107.75
507.939	112.75
508.155	85.75
508.372	95.75
508.588	87.75
508.805	91.75
509.021	84.75
509.238	88.75
509.454	94.75
509.67	103.75
509.887	104.75
510.103	137.75
510.319	197.75
510.536	727.75
510.752	2325.75
510.968	629.75
511.184	150.75
511.401	109.75
511.617	89.75
511.833	85.75
512.049	100.75
512.265	79.75
512.481	93.75
512.698	83.75
512.914	80.75
513.13	83.75
513.346	78.75
513.562	84.75
513.778	98.75
513.994	101.75
514.21	95.75
514.426	102.75
514.642	123.75
514.858	116.75
515.074	151.75
515.29	437.75
515.506	1416.75
515.721	510.75
515.937	152.75
516.153	101.75
516.369	102.75
516.585	83.75
516.801	92.75
