Data from Uncirc_1985_H10_HRD10591_00093.txt Node
Date: Wed Jan 03 12:18:36 EST 2024
User: Yrep
Spectrometer: HR+D1059
Trigger mode: 1
Integration Time (sec): 1.000000E-1
Scans to average: 1
Electric dark correction enabled: true
Nonlinearity correction enabled: false
Boxcar width: 0
XAxis mode: Wavelengths
Number of Pixels in Spectrum: 2048
>>>>>Begin Spectral Data<<<<<
223.165	-21.31
223.4	-21.31
223.635	-21.31
223.869	-30.31
224.104	-10.31
224.338	-16.31
224.573	-20.31
224.808	0.69
225.042	-6.31
225.277	-4.31
225.511	0.69
225.746	7.69
225.98	0.69
226.215	15.69
226.449	23.69
226.683	11.69
226.918	20.69
227.152	27.69
227.387	39.69
227.621	44.69
227.856	42.69
228.09	40.69
228.324	56.69
228.559	49.69
228.793	48.69
229.027	53.69
229.262	66.69
229.496	88.69
229.73	86.69
229.964	57.69
230.199	68.69
230.433	75.69
230.667	84.69
230.901	68.69
231.136	90.69
231.37	67.69
231.604	74.69
231.838	84.69
232.072	67.69
232.306	85.69
232.541	86.69
232.775	92.69
233.009	83.69
233.243	78.69
233.477	75.69
233.711	97.69
233.945	78.69
234.179	70.69
234.413	82.69
234.647	92.69
234.881	91.69
235.115	90.69
235.349	79.69
235.583	81.69
235.817	75.69
236.051	64.69
236.285	73.69
236.519	89.69
236.753	80.69
236.987	79.69
237.221	81.69
237.455	73.69
237.689	73.69
237.922	75.69
238.156	74.69
238.39	81.69
238.624	80.69
238.858	73.69
239.091	68.69
239.325	73.69
239.559	81.69
239.793	91.69
240.027	82.69
240.26	79.69
240.494	73.69
240.728	63.69
240.961	71.69
241.195	81.69
241.429	69.69
241.662	75.69
241.896	74.69
242.13	64.69
242.363	65.69
242.597	87.69
242.83	75.69
243.064	74.69
243.298	82.69
243.531	73.69
243.765	74.69
243.998	83.69
244.232	94.69
244.465	88.69
244.699	85.69
244.932	78.69
245.166	92.69
245.399	78.69
245.633	73.69
245.866	62.69
246.099	83.69
246.333	94.69
246.566	67.69
246.8	96.69
247.033	86.69
247.266	80.69
247.5	75.69
247.733	66.69
247.966	80.69
248.2	83.69
248.433	80.69
248.666	70.69
248.899	86.69
249.133	91.69
249.366	81.69
249.599	99.69
249.832	74.69
250.066	86.69
250.299	64.69
250.532	74.69
250.765	80.69
250.998	86.69
251.231	69.69
251.465	68.69
251.698	82.69
251.931	88.69
252.164	89.69
252.397	85.69
252.63	83.69
252.863	73.69
253.096	82.69
253.329	82.69
253.562	74.69
253.795	99.69
254.028	79.69
254.261	68.69
254.494	74.69
254.727	86.69
254.96	82.69
255.193	75.69
255.426	85.69
255.659	70.69
255.892	80.69
256.124	73.69
256.357	83.69
256.59	92.69
256.823	85.69
257.056	87.69
257.289	73.69
257.521	94.69
257.754	84.69
257.987	95.69
258.22	75.69
258.452	90.69
258.685	80.69
258.918	105.69
259.151	88.69
259.383	90.69
259.616	82.69
259.849	63.69
260.081	82.69
260.314	82.69
260.547	79.69
260.779	68.69
261.012	83.69
261.244	75.69
261.477	82.69
261.71	73.69
261.942	119.69
262.175	107.69
262.407	90.69
262.64	67.69
262.872	74.69
263.105	92.69
263.337	87.69
263.57	87.69
263.802	99.69
264.035	89.69
264.267	79.69
264.499	94.69
264.732	98.69
264.964	84.69
265.197	78.69
265.429	89.69
265.661	81.69
265.894	89.69
266.126	96.69
266.358	76.69
266.591	81.69
266.823	84.69
267.055	59.69
267.287	86.69
267.52	85.69
267.752	87.69
267.984	101.69
268.216	99.69
268.448	80.69
268.681	81.69
268.913	84.69
269.145	86.69
269.377	91.69
269.609	69.69
269.841	82.69
270.073	83.69
270.306	94.69
270.538	93.69
270.77	92.69
271.002	94.69
271.234	84.69
271.466	89.69
271.698	91.69
271.93	79.69
272.162	99.69
272.394	88.69
272.626	93.69
272.858	81.69
273.09	85.69
273.322	76.69
273.553	81.69
273.785	88.69
274.017	95.69
274.249	88.69
274.481	80.69
274.713	101.69
274.945	78.69
275.176	97.69
275.408	80.69
275.64	85.69
275.872	80.69
276.104	100.69
276.335	100.69
276.567	105.69
276.799	114.69
277.031	100.69
277.262	97.69
277.494	104.69
277.726	91.69
277.957	82.69
278.189	81.69
278.421	71.69
278.652	90.69
278.884	75.69
279.115	93.69
279.347	103.69
279.579	81.69
279.81	103.69
280.042	81.69
280.273	93.69
280.505	91.69
280.736	96.69
280.968	86.69
281.199	81.69
281.431	79.69
281.662	95.69
281.894	101.69
282.125	96.69
282.356	119.69
282.588	142.69
282.819	111.69
283.051	77.69
283.282	91.69
283.513	89.69
283.745	90.69
283.976	96.69
284.207	80.69
284.439	86.69
284.67	94.69
284.901	75.69
285.132	91.69
285.364	77.69
285.595	86.69
285.826	80.69
286.057	89.69
286.288	86.69
286.52	104.69
286.751	85.69
286.982	100.69
287.213	90.69
287.444	94.69
287.675	94.69
287.906	83.69
288.138	87.69
288.369	97.69
288.6	80.69
288.831	92.69
289.062	87.69
289.293	87.69
289.524	76.69
289.755	72.69
289.986	101.69
290.217	91.69
290.448	88.69
290.679	87.69
290.91	86.69
291.141	90.69
291.371	82.69
291.602	82.69
291.833	95.69
292.064	90.69
292.295	78.69
292.526	78.69
292.757	84.69
292.987	89.69
293.218	82.69
293.449	89.69
293.68	90.69
293.91	76.69
294.141	73.69
294.372	91.69
294.603	86.69
294.833	87.69
295.064	82.69
295.295	88.69
295.525	95.69
295.756	91.69
295.987	106.69
296.217	136.69
296.448	132.69
296.679	95.69
296.909	102.69
297.14	91.69
297.37	67.69
297.601	90.69
297.831	91.69
298.062	91.69
298.292	95.69
298.523	78.69
298.753	84.69
298.984	83.69
299.214	87.69
299.445	86.69
299.675	98.69
299.905	92.69
300.136	99.69
300.366	99.69
300.597	82.69
300.827	80.69
301.057	87.69
301.288	100.69
301.518	90.69
301.748	89.69
301.979	112.69
302.209	84.69
302.439	88.69
302.669	93.69
302.9	94.69
303.13	88.69
303.36	88.69
303.59	106.69
303.82	114.69
304.051	97.69
304.281	100.69
304.511	100.69
304.741	92.69
304.971	97.69
305.201	74.69
305.431	80.69
305.661	68.69
305.891	89.69
306.121	89.69
306.352	109.69
306.582	107.69
306.812	86.69
307.042	92.69
307.272	112.69
307.502	106.69
307.731	96.69
307.961	74.69
308.191	79.69
308.421	101.69
308.651	87.69
308.881	95.69
309.111	102.69
309.341	100.69
309.571	115.69
309.8	92.69
310.03	90.69
310.26	107.69
310.49	91.69
310.72	104.69
310.949	101.69
311.179	99.69
311.409	100.69
311.639	102.69
311.868	90.69
312.098	102.69
312.328	108.69
312.557	111.69
312.787	100.69
313.017	103.69
313.246	98.69
313.476	103.69
313.706	88.69
313.935	106.69
314.165	97.69
314.394	97.69
314.624	90.69
314.853	84.69
315.083	96.69
315.312	106.69
315.542	73.69
315.771	80.69
316.001	89.69
316.23	108.69
316.46	97.69
316.689	96.69
316.919	92.69
317.148	89.69
317.377	90.69
317.607	105.69
317.836	92.69
318.065	96.69
318.295	101.69
318.524	93.69
318.753	102.69
318.983	94.69
319.212	97.69
319.441	119.69
319.67	111.69
319.9	104.69
320.129	94.69
320.358	88.69
320.587	101.69
320.816	104.69
321.046	105.69
321.275	98.69
321.504	73.69
321.733	91.69
321.962	89.69
322.191	94.69
322.42	120.69
322.649	106.69
322.878	102.69
323.108	123.69
323.337	132.69
323.566	124.69
323.795	164.69
324.024	214.69
324.253	430.69
324.482	926.69
324.71	1940.69
324.939	2524.69
325.168	901.69
325.397	257.69
325.626	162.69
325.855	119.69
326.084	125.69
326.313	144.69
326.542	181.69
326.77	234.69
326.999	510.69
327.228	1073.69
327.457	1961.69
327.686	1536.69
327.914	395.69
328.143	214.69
328.372	182.69
328.6	116.69
328.829	123.69
329.058	128.69
329.287	118.69
329.515	114.69
329.744	102.69
329.972	109.69
330.201	155.69
330.43	162.69
330.658	153.69
330.887	137.69
331.115	120.69
331.344	117.69
331.572	102.69
331.801	105.69
332.03	113.69
332.258	92.69
332.486	83.69
332.715	105.69
332.943	94.69
333.172	98.69
333.4	95.69
333.629	94.69
333.857	104.69
334.085	113.69
334.314	135.69
334.542	188.69
334.771	192.69
334.999	107.69
335.227	114.69
335.455	73.69
335.684	94.69
335.912	100.69
336.14	102.69
336.369	102.69
336.597	91.69
336.825	90.69
337.053	90.69
337.281	94.69
337.51	83.69
337.738	84.69
337.966	98.69
338.194	83.69
338.422	87.69
338.65	98.69
338.878	97.69
339.106	96.69
339.334	102.69
339.562	88.69
339.79	89.69
340.018	91.69
340.246	90.69
340.474	91.69
340.702	86.69
340.93	89.69
341.158	80.69
341.386	97.69
341.614	91.69
341.842	104.69
342.07	98.69
342.298	97.69
342.526	82.69
342.754	83.69
342.981	87.69
343.209	86.69
343.437	98.69
343.665	92.69
343.893	87.69
344.12	94.69
344.348	89.69
344.576	105.69
344.804	92.69
345.031	106.69
345.259	93.69
345.487	82.69
345.714	95.69
345.942	94.69
346.17	93.69
346.397	81.69
346.625	92.69
346.853	86.69
347.08	92.69
347.308	103.69
347.535	98.69
347.763	114.69
347.99	108.69
348.218	98.69
348.445	108.69
348.673	91.69
348.9	102.69
349.128	82.69
349.355	99.69
349.583	105.69
349.81	96.69
350.037	103.69
350.265	97.69
350.492	93.69
350.72	95.69
350.947	90.69
351.174	104.69
351.402	104.69
351.629	96.69
351.856	98.69
352.083	92.69
352.311	94.69
352.538	104.69
352.765	106.69
352.992	121.69
353.22	105.69
353.447	105.69
353.674	104.69
353.901	98.69
354.128	92.69
354.355	113.69
354.583	90.69
354.81	91.69
355.037	95.69
355.264	97.69
355.491	107.69
355.718	91.69
355.945	94.69
356.172	84.69
356.399	92.69
356.626	91.69
356.853	89.69
357.08	84.69
357.307	95.69
357.534	97.69
357.761	95.69
357.988	91.69
358.215	99.69
358.441	95.69
358.668	74.69
358.895	91.69
359.122	73.69
359.349	85.69
359.576	98.69
359.802	92.69
360.029	104.69
360.256	107.69
360.483	80.69
360.709	86.69
360.936	90.69
361.163	100.69
361.39	96.69
361.616	99.69
361.843	83.69
362.07	91.69
362.296	92.69
362.523	95.69
362.749	91.69
362.976	83.69
363.203	69.69
363.429	92.69
363.656	100.69
363.882	95.69
364.109	88.69
364.335	103.69
364.562	94.69
364.788	86.69
365.015	80.69
365.241	101.69
365.468	109.69
365.694	118.69
365.92	92.69
366.147	96.69
366.373	95.69
366.599	93.69
366.826	89.69
367.052	98.69
367.278	96.69
367.505	90.69
367.731	107.69
367.957	72.69
368.184	108.69
368.41	89.69
368.636	122.69
368.862	114.69
369.089	101.69
369.315	96.69
369.541	88.69
369.767	89.69
369.993	82.69
370.219	102.69
370.445	81.69
370.672	83.69
370.898	97.69
371.124	93.69
371.35	95.69
371.576	99.69
371.802	92.69
372.028	90.69
372.254	100.69
372.48	99.69
372.706	88.69
372.932	107.69
373.158	87.69
373.384	94.69
373.61	92.69
373.835	82.69
374.061	100.69
374.287	84.69
374.513	84.69
374.739	88.69
374.965	87.69
375.191	80.69
375.416	98.69
375.642	72.69
375.868	92.69
376.094	90.69
376.319	92.69
376.545	83.69
376.771	85.69
376.997	86.69
377.222	86.69
377.448	102.69
377.674	118.69
377.899	86.69
378.125	87.69
378.35	86.69
378.576	98.69
378.802	93.69
379.027	90.69
379.253	94.69
379.478	90.69
379.704	96.69
379.929	90.69
380.155	90.69
380.38	86.69
380.606	90.69
380.831	107.69
381.057	92.69
381.282	115.69
381.507	96.69
381.733	100.69
381.958	101.69
382.184	96.69
382.409	95.69
382.634	102.69
382.86	86.69
383.085	94.69
383.31	102.69
383.535	100.69
383.761	88.69
383.986	102.69
384.211	95.69
384.436	96.69
384.662	101.69
384.887	96.69
385.112	98.69
385.337	104.69
385.562	96.69
385.787	99.69
386.013	97.69
386.238	111.69
386.463	106.69
386.688	102.69
386.913	103.69
387.138	99.69
387.363	104.69
387.588	107.69
387.813	99.69
388.038	107.69
388.263	105.69
388.488	104.69
388.713	85.69
388.938	88.69
389.163	101.69
389.387	75.69
389.612	94.69
389.837	93.69
390.062	100.69
390.287	98.69
390.512	73.69
390.736	93.69
390.961	103.69
391.186	100.69
391.411	91.69
391.636	91.69
391.86	80.69
392.085	97.69
392.31	71.69
392.534	102.69
392.759	96.69
392.984	78.69
393.208	90.69
393.433	80.69
393.658	87.69
393.882	85.69
394.107	85.69
394.331	89.69
394.556	75.69
394.78	97.69
395.005	82.69
395.229	96.69
395.454	89.69
395.678	101.69
395.903	67.69
396.127	87.69
396.352	93.69
396.576	81.69
396.801	84.69
397.025	93.69
397.249	82.69
397.474	87.69
397.698	83.69
397.922	90.69
398.147	106.69
398.371	75.69
398.595	95.69
398.82	81.69
399.044	93.69
399.268	86.69
399.492	67.69
399.717	91.69
399.941	81.69
400.165	100.69
400.389	78.69
400.613	88.69
400.837	96.69
401.062	105.69
401.286	86.69
401.51	75.69
401.734	96.69
401.958	104.69
402.182	136.69
402.406	162.69
402.63	112.69
402.854	90.69
403.078	104.69
403.302	84.69
403.526	79.69
403.75	97.69
403.974	95.69
404.198	83.69
404.422	103.69
404.645	78.69
404.869	82.69
405.093	103.69
405.317	100.69
405.541	114.69
405.765	103.69
405.988	115.69
406.212	171.69
406.436	231.69
406.66	155.69
406.883	114.69
407.107	86.69
407.331	101.69
407.555	94.69
407.778	111.69
408.002	84.69
408.226	92.69
408.449	79.69
408.673	73.69
408.896	90.69
409.12	104.69
409.344	79.69
409.567	102.69
409.791	83.69
410.014	85.69
410.238	85.69
410.461	91.69
410.685	87.69
410.908	89.69
411.132	103.69
411.355	92.69
411.578	82.69
411.802	100.69
412.025	101.69
412.249	84.69
412.472	97.69
412.695	106.69
412.919	83.69
413.142	82.69
413.365	89.69
413.589	81.69
413.812	83.69
414.035	90.69
414.258	97.69
414.482	88.69
414.705	81.69
414.928	95.69
415.151	98.69
415.374	83.69
415.597	88.69
415.821	98.69
416.044	87.69
416.267	83.69
416.49	88.69
416.713	93.69
416.936	89.69
417.159	86.69
417.382	89.69
417.605	80.69
417.828	96.69
418.051	78.69
418.274	92.69
418.497	82.69
418.72	91.69
418.943	84.69
419.166	102.69
419.389	83.69
419.611	94.69
419.834	102.69
420.057	92.69
420.28	95.69
420.503	85.69
420.726	97.69
420.948	83.69
421.171	94.69
421.394	87.69
421.617	80.69
421.839	92.69
422.062	87.69
422.285	91.69
422.507	83.69
422.73	105.69
422.953	94.69
423.175	82.69
423.398	89.69
423.621	91.69
423.843	63.69
424.066	75.69
424.288	88.69
424.511	102.69
424.733	95.69
424.956	98.69
425.178	97.69
425.401	95.69
425.623	91.69
425.846	94.69
426.068	92.69
426.291	102.69
426.513	88.69
426.735	86.69
426.958	94.69
427.18	104.69
427.402	135.69
427.625	161.69
427.847	143.69
428.069	129.69
428.292	100.69
428.514	75.69
428.736	69.69
428.958	97.69
429.181	78.69
429.403	83.69
429.625	81.69
429.847	91.69
430.069	93.69
430.292	91.69
430.514	83.69
430.736	95.69
430.958	95.69
431.18	72.69
431.402	83.69
431.624	81.69
431.846	85.69
432.068	88.69
432.29	82.69
432.512	95.69
432.734	89.69
432.956	97.69
433.178	106.69
433.4	104.69
433.622	86.69
433.844	84.69
434.066	92.69
434.287	82.69
434.509	93.69
434.731	90.69
434.953	91.69
435.175	85.69
435.397	98.69
435.618	86.69
435.84	99.69
436.062	118.69
436.284	118.69
436.505	87.69
436.727	100.69
436.949	90.69
437.17	88.69
437.392	83.69
437.614	104.69
437.835	115.69
438.057	116.69
438.278	118.69
438.5	104.69
438.721	98.69
438.943	111.69
439.165	86.69
439.386	67.69
439.608	90.69
439.829	98.69
440.05	120.69
440.272	141.69
440.493	96.69
440.715	95.69
440.936	81.69
441.158	76.69
441.379	98.69
441.6	86.69
441.822	95.69
442.043	86.69
442.264	97.69
442.486	106.69
442.707	89.69
442.928	105.69
443.149	126.69
443.371	140.69
443.592	91.69
443.813	107.69
444.034	118.69
444.255	87.69
444.476	94.69
444.698	91.69
444.919	90.69
445.14	158.69
445.361	117.69
445.582	113.69
445.803	135.69
446.024	137.69
446.245	139.69
446.466	113.69
446.687	84.69
446.908	89.69
447.129	89.69
447.35	86.69
447.571	92.69
447.792	90.69
448.013	98.69
448.234	116.69
448.455	93.69
448.675	121.69
448.896	115.69
449.117	99.69
449.338	101.69
449.559	136.69
449.779	135.69
450	103.69
450.221	76.69
450.442	86.69
450.662	98.69
450.883	91.69
451.104	113.69
451.324	66.69
451.545	81.69
451.766	83.69
451.986	93.69
452.207	90.69
452.428	92.69
452.648	82.69
452.869	114.69
453.089	105.69
453.31	125.69
453.53	94.69
453.751	82.69
453.971	108.69
454.192	103.69
454.412	79.69
454.633	97.69
454.853	90.69
455.073	93.69
455.294	95.69
455.514	99.69
455.734	94.69
455.955	86.69
456.175	77.69
456.395	88.69
456.616	81.69
456.836	70.69
457.056	64.69
457.276	65.69
457.497	90.69
457.717	92.69
457.937	87.69
458.157	80.69
458.377	89.69
458.598	102.69
458.818	160.69
459.038	161.69
459.258	114.69
459.478	87.69
459.698	88.69
459.918	88.69
460.138	76.69
460.358	82.69
460.578	71.69
460.798	78.69
461.018	83.69
461.238	90.69
461.458	84.69
461.678	84.69
461.898	94.69
462.118	75.69
462.338	80.69
462.558	80.69
462.777	76.69
462.997	78.69
463.217	73.69
463.437	79.69
463.657	86.69
463.876	86.69
464.096	85.69
464.316	86.69
464.536	98.69
464.755	92.69
464.975	106.69
465.195	154.69
465.414	148.69
465.634	95.69
465.854	89.69
466.073	80.69
466.293	73.69
466.512	80.69
466.732	78.69
466.951	88.69
467.171	89.69
467.391	95.69
467.61	125.69
467.829	95.69
468.049	120.69
468.268	122.69
468.488	98.69
468.707	73.69
468.927	68.69
469.146	92.69
469.365	82.69
469.585	87.69
469.804	92.69
470.023	81.69
470.243	89.69
470.462	96.69
470.681	122.69
470.901	89.69
471.12	75.69
471.339	90.69
471.558	91.69
471.777	94.69
471.997	102.69
472.216	158.69
472.435	219.69
472.654	105.69
472.873	87.69
473.092	81.69
473.311	66.69
473.53	88.69
473.749	95.69
473.968	92.69
474.187	105.69
474.406	87.69
474.625	79.69
474.844	85.69
475.063	88.69
475.282	76.69
475.501	95.69
475.72	91.69
475.939	66.69
476.158	98.69
476.377	76.69
476.596	66.69
476.814	86.69
477.033	85.69
477.252	90.69
477.471	92.69
477.69	81.69
477.908	99.69
478.127	98.69
478.346	92.69
478.564	91.69
478.783	92.69
479.002	94.69
479.22	88.69
479.439	90.69
479.658	91.69
479.876	100.69
480.095	101.69
480.313	99.69
480.532	82.69
480.751	108.69
480.969	149.69
481.188	337.69
481.406	221.69
481.624	92.69
481.843	93.69
482.061	99.69
482.28	83.69
482.498	94.69
482.717	74.69
482.935	99.69
483.153	88.69
483.372	84.69
483.59	65.69
483.808	95.69
484.027	89.69
484.245	81.69
484.463	90.69
484.681	99.69
484.9	97.69
485.118	96.69
485.336	103.69
485.554	99.69
485.772	94.69
485.99	103.69
486.209	99.69
486.427	102.69
486.645	88.69
486.863	103.69
487.081	86.69
487.299	88.69
487.517	100.69
487.735	88.69
487.953	97.69
488.171	88.69
488.389	95.69
488.607	91.69
488.825	107.69
489.043	81.69
489.261	81.69
489.479	88.69
489.696	91.69
489.914	79.69
490.132	74.69
490.35	97.69
490.568	92.69
490.786	94.69
491.003	80.69
491.221	87.69
491.439	83.69
491.657	94.69
491.874	90.69
492.092	79.69
492.31	83.69
492.527	68.69
492.745	90.69
492.963	88.69
493.18	98.69
493.398	74.69
493.615	87.69
493.833	86.69
494.05	89.69
494.268	95.69
494.485	76.69
494.703	74.69
494.92	80.69
495.138	70.69
495.355	90.69
495.573	93.69
495.79	87.69
496.008	90.69
496.225	86.69
496.442	89.69
496.66	85.69
496.877	94.69
497.094	97.69
497.312	90.69
497.529	97.69
497.746	78.69
497.963	98.69
498.181	98.69
498.398	104.69
498.615	105.69
498.832	98.69
499.049	92.69
499.267	87.69
499.484	88.69
499.701	87.69
499.918	77.69
500.135	91.69
500.352	82.69
500.569	92.69
500.786	104.69
501.003	86.69
501.22	88.69
501.437	81.69
501.654	101.69
501.871	118.69
502.088	74.69
502.305	88.69
502.522	86.69
502.739	94.69
502.956	62.69
503.172	93.69
503.389	92.69
503.606	95.69
503.823	101.69
504.04	90.69
504.256	81.69
504.473	102.69
504.69	105.69
504.907	99.69
505.123	82.69
505.34	93.69
505.557	82.69
505.773	90.69
505.99	80.69
506.207	97.69
506.423	92.69
506.64	85.69
506.856	81.69
507.073	78.69
507.289	88.69
507.506	99.69
507.722	113.69
507.939	112.69
508.155	98.69
508.372	92.69
508.588	88.69
508.805	92.69
509.021	102.69
509.238	99.69
509.454	109.69
509.67	96.69
509.887	109.69
510.103	130.69
510.319	214.69
510.536	855.69
510.752	2704.69
510.968	710.69
511.184	154.69
511.401	113.69
511.617	98.69
511.833	95.69
512.049	88.69
512.265	88.69
512.481	91.69
512.698	82.69
512.914	82.69
513.13	89.69
513.346	97.69
513.562	101.69
513.778	94.69
513.994	97.69
514.21	96.69
514.426	112.69
514.642	131.69
514.858	121.69
515.074	170.69
515.29	480.69
515.506	1594.69
515.721	570.69
