Data from Uncirc_1985_H10_HRD10591_00080.txt Node
Date: Wed Jan 03 12:18:33 EST 2024
User: Yrep
Spectrometer: HR+D1059
Trigger mode: 1
Integration Time (sec): 1.000000E-1
Scans to average: 1
Electric dark correction enabled: true
Nonlinearity correction enabled: false
Boxcar width: 0
XAxis mode: Wavelengths
Number of Pixels in Spectrum: 2048
>>>>>Begin Spectral Data<<<<<
223.165	-21.38
223.4	-21.38
223.635	-21.38
223.869	-13.38
224.104	-16.38
224.338	-12.38
224.573	-22.38
224.808	-26.38
225.042	0.62
225.277	-3.38
225.511	2.62
225.746	7.62
225.98	1.62
226.215	23.62
226.449	8.62
226.683	24.62
226.918	24.62
227.152	21.62
227.387	34.62
227.621	35.62
227.856	43.62
228.09	44.62
228.324	53.62
228.559	50.62
228.793	160.62
229.027	428.62
229.262	494.62
229.496	576.62
229.73	767.62
229.964	745.62
230.199	502.62
230.433	470.62
230.667	435.62
230.901	458.62
231.136	467.62
231.37	454.62
231.604	444.62
231.838	453.62
232.072	453.62
232.306	479.62
232.541	483.62
232.775	481.62
233.009	498.62
233.243	490.62
233.477	480.62
233.711	500.62
233.945	509.62
234.179	527.62
234.413	506.62
234.647	524.62
234.881	529.62
235.115	506.62
235.349	542.62
235.583	556.62
235.817	581.62
236.051	602.62
236.285	606.62
236.519	597.62
236.753	686.62
236.987	879.62
237.221	1279.62
237.455	1375.62
237.689	863.62
237.922	734.62
238.156	716.62
238.39	681.62
238.624	668.62
238.858	643.62
239.091	657.62
239.325	666.62
239.559	670.62
239.793	715.62
240.027	728.62
240.26	859.62
240.494	902.62
240.728	896.62
240.961	915.62
241.195	814.62
241.429	798.62
241.662	775.62
241.896	780.62
242.13	782.62
242.363	811.62
242.597	837.62
242.83	827.62
243.064	824.62
243.298	828.62
243.531	844.62
243.765	856.62
243.998	889.62
244.232	867.62
244.465	920.62
244.699	927.62
244.932	943.62
245.166	923.62
245.399	926.62
245.633	922.62
245.866	948.62
246.099	933.62
246.333	970.62
246.566	992.62
246.8	1012.62
247.033	1008.62
247.266	1095.62
247.5	1121.62
247.733	1166.62
247.966	1161.62
248.2	1174.62
248.433	1191.62
248.666	1222.62
248.899	1333.62
249.133	1433.62
249.366	1424.62
249.599	1346.62
249.832	1260.62
250.066	1278.62
250.299	1328.62
250.532	1496.62
250.765	1615.62
250.998	1743.62
251.231	1680.62
251.465	1513.62
251.698	1464.62
251.931	1436.62
252.164	1423.62
252.397	1448.62
252.63	1492.62
252.863	1595.62
253.096	1649.62
253.329	1706.62
253.562	1638.62
253.795	1599.62
254.028	1571.62
254.261	1606.62
254.494	1753.62
254.727	2021.62
254.96	2109.62
255.193	1992.62
255.426	1804.62
255.659	1750.62
255.892	1859.62
256.124	1993.62
256.357	1949.62
256.59	1795.62
256.823	1678.62
257.056	1638.62
257.289	1614.62
257.521	1653.62
257.754	1635.62
257.987	1593.62
258.22	1551.62
258.452	1598.62
258.685	1585.62
258.918	1624.62
259.151	1667.62
259.383	1705.62
259.616	1715.62
259.849	1775.62
260.081	1896.62
260.314	2063.62
260.547	2002.62
260.779	1817.62
261.012	1818.62
261.244	1804.62
261.477	1713.62
261.71	1757.62
261.942	1772.62
262.175	1815.62
262.407	1769.62
262.64	1649.62
262.872	1676.62
263.105	1713.62
263.337	1669.62
263.57	1672.62
263.802	1696.62
264.035	1687.62
264.267	1735.62
264.499	1733.62
264.732	1705.62
264.964	1697.62
265.197	1717.62
265.429	1793.62
265.661	1713.62
265.894	1757.62
266.126	1802.62
266.358	1778.62
266.591	1812.62
266.823	1886.62
267.055	1918.62
267.287	1891.62
267.52	1885.62
267.752	1889.62
267.984	1847.62
268.216	1937.62
268.448	1989.62
268.681	1998.62
268.913	2113.62
269.145	2260.62
269.377	2356.62
269.609	2300.62
269.841	2286.62
270.073	2282.62
270.306	2565.62
270.538	2720.62
270.77	2599.62
271.002	2503.62
271.234	2458.62
271.466	2528.62
271.698	2632.62
271.93	2663.62
272.162	2662.62
272.394	2622.62
272.626	2510.62
272.858	2343.62
273.09	2309.62
273.322	2308.62
273.553	2284.62
273.785	2256.62
274.017	2232.62
274.249	2292.62
274.481	2273.62
274.713	2283.62
274.945	2346.62
275.176	2280.62
275.408	2275.62
275.64	2295.62
275.872	2324.62
276.104	2332.62
276.335	2334.62
276.567	2384.62
276.799	2576.62
277.031	2691.62
277.262	2830.62
277.494	2766.62
277.726	2602.62
277.957	2509.62
278.189	2481.62
278.421	2424.62
278.652	2396.62
278.884	2410.62
279.115	2360.62
279.347	2405.62
279.579	2390.62
279.81	2424.62
280.042	2416.62
280.273	2404.62
280.505	2424.62
280.736	2388.62
280.968	2456.62
281.199	2480.62
281.431	2492.62
281.662	2512.62
281.894	2472.62
282.125	2544.62
282.356	2713.62
282.588	2774.62
282.819	2685.62
283.051	2611.62
283.282	2502.62
283.513	2580.62
283.745	2614.62
283.976	2686.62
284.207	2644.62
284.439	2645.62
284.67	2641.62
284.901	2630.62
285.132	2679.62
285.364	2602.62
285.595	2643.62
285.826	2652.62
286.057	2729.62
286.288	2630.62
286.52	2691.62
286.751	2690.62
286.982	2733.62
287.213	2704.62
287.444	2780.62
287.675	2887.62
287.906	2881.62
288.138	2927.62
288.369	2931.62
288.6	2899.62
288.831	2890.62
289.062	2833.62
289.293	2840.62
289.524	2831.62
289.755	2833.62
289.986	2807.62
290.217	2881.62
290.448	2854.62
290.679	2841.62
290.91	2793.62
291.141	2831.62
291.371	2846.62
291.602	2864.62
291.833	2812.62
292.064	2857.62
292.295	2878.62
292.526	2861.62
292.757	2830.62
292.987	2865.62
293.218	2815.62
293.449	2901.62
293.68	2876.62
293.91	2860.62
294.141	2824.62
294.372	2872.62
294.603	2868.62
294.833	2966.62
295.064	2943.62
295.295	2937.62
295.525	2872.62
295.756	2986.62
295.987	3014.62
296.217	3225.62
296.448	3154.62
296.679	2984.62
296.909	2957.62
297.14	2967.62
297.37	3026.62
297.601	3121.62
297.831	3040.62
298.062	3026.62
298.292	3087.62
298.523	3146.62
298.753	3126.62
298.984	3080.62
299.214	3106.62
299.445	3141.62
299.675	3120.62
299.905	3140.62
300.136	3118.62
300.366	3161.62
300.597	3162.62
300.827	3271.62
301.057	3299.62
301.288	3335.62
301.518	3340.62
301.748	3332.62
301.979	3377.62
302.209	3414.62
302.439	3339.62
302.669	3314.62
302.9	3326.62
303.13	3293.62
303.36	3382.62
303.59	3382.62
303.82	3432.62
304.051	3288.62
304.281	3329.62
304.511	3296.62
304.741	3282.62
304.971	3311.62
305.201	3283.62
305.431	3274.62
305.661	3287.62
305.891	3279.62
306.121	3288.62
306.352	3351.62
306.582	3305.62
306.812	3288.62
307.042	3272.62
307.272	3296.62
307.502	3308.62
307.731	3320.62
307.961	3262.62
308.191	3263.62
308.421	3301.62
308.651	3269.62
308.881	3340.62
309.111	3331.62
309.341	3280.62
309.571	3434.62
309.8	3411.62
310.03	3521.62
310.26	3532.62
310.49	3558.62
310.72	3630.62
310.949	3673.62
311.179	3674.62
311.409	3589.62
311.639	3599.62
311.868	3632.62
312.098	3640.62
312.328	3727.62
312.557	3844.62
312.787	3848.62
313.017	3767.62
313.246	3768.62
313.476	3681.62
313.706	3783.62
313.935	3796.62
314.165	3857.62
314.394	3864.62
314.624	3844.62
314.853	3794.62
315.083	3783.62
315.312	3746.62
315.542	3663.62
315.771	3645.62
316.001	3610.62
316.23	3640.62
316.46	3650.62
316.689	3688.62
316.919	3717.62
317.148	3715.62
317.377	3713.62
317.607	3649.62
317.836	3675.62
318.065	3666.62
318.295	3648.62
318.524	3686.62
318.753	3639.62
318.983	3744.62
319.212	3644.62
319.441	3670.62
319.67	3718.62
319.9	3666.62
320.129	3689.62
320.358	3681.62
320.587	3736.62
320.816	3828.62
321.046	3797.62
321.275	3785.62
321.504	3795.62
321.733	3825.62
321.962	3890.62
322.191	3936.62
322.42	4010.62
322.649	4044.62
322.878	4186.62
323.108	4224.62
323.337	4369.62
323.566	4520.62
323.795	4731.62
324.024	5224.62
324.253	6492.62
324.482	9574.62
324.71	14081.62
324.939	15626.62
325.168	10726.62
325.397	6171.62
325.626	5066.62
325.855	4719.62
326.084	4671.62
326.313	4614.62
326.542	4773.62
326.77	5206.62
326.999	6505.62
327.228	9223.62
327.457	13109.62
327.686	12294.62
327.914	6965.62
328.143	5681.62
328.372	5412.62
328.6	5154.62
328.829	5071.62
329.058	5233.62
329.287	5120.62
329.515	5006.62
329.744	4887.62
329.972	5033.62
330.201	5287.62
330.43	5626.62
330.658	5584.62
330.887	5537.62
331.115	5182.62
331.344	4937.62
331.572	4768.62
331.801	4955.62
332.03	4944.62
332.258	4924.62
332.486	4946.62
332.715	5164.62
332.943	5208.62
333.172	5439.62
333.4	5526.62
333.629	5698.62
333.857	5868.62
334.085	5936.62
334.314	6205.62
334.542	6516.62
334.771	6284.62
334.999	5627.62
335.227	5378.62
335.455	5283.62
335.684	5123.62
335.912	5056.62
336.14	4952.62
336.369	4892.62
336.597	4979.62
336.825	4929.62
337.053	4892.62
337.281	4793.62
337.51	4742.62
337.738	4744.62
337.966	4656.62
338.194	4617.62
338.422	4617.62
338.65	4520.62
338.878	4508.62
339.106	4501.62
339.334	4561.62
339.562	4440.62
339.79	4306.62
340.018	4339.62
340.246	4342.62
340.474	4368.62
340.702	4398.62
340.93	4382.62
341.158	4376.62
341.386	4379.62
341.614	4308.62
341.842	4284.62
342.07	4326.62
342.298	4282.62
342.526	4264.62
342.754	4308.62
342.981	4256.62
343.209	4423.62
343.437	4615.62
343.665	4896.62
343.893	5182.62
344.12	5151.62
344.348	4837.62
344.576	4746.62
344.804	4705.62
345.031	4552.62
345.259	4462.62
345.487	4404.62
345.714	4337.62
345.942	4245.62
346.17	4213.62
346.397	4150.62
346.625	4187.62
346.853	4115.62
347.08	4139.62
347.308	4145.62
347.535	4280.62
347.763	4251.62
347.99	4177.62
348.218	4194.62
348.445	4212.62
348.673	4139.62
348.9	4151.62
349.128	4082.62
349.355	3986.62
349.583	4089.62
349.81	4099.62
350.037	3963.62
350.265	4009.62
350.492	4010.62
350.72	4030.62
350.947	4062.62
351.174	4075.62
351.402	4196.62
351.629	4080.62
351.856	4100.62
352.083	4116.62
352.311	4132.62
352.538	4173.62
352.765	4152.62
352.992	4020.62
353.22	4096.62
353.447	4028.62
353.674	3962.62
353.901	3933.62
354.128	3957.62
354.355	3969.62
354.583	3986.62
354.81	3940.62
355.037	3993.62
355.264	3940.62
355.491	3890.62
355.718	3886.62
355.945	3952.62
356.172	3942.62
356.399	3991.62
356.626	3925.62
356.853	3969.62
357.08	3921.62
357.307	3928.62
357.534	3920.62
357.761	3985.62
357.988	3989.62
358.215	4003.62
358.441	3991.62
358.668	3971.62
358.895	4019.62
359.122	4034.62
359.349	4106.62
359.576	4148.62
359.802	4332.62
360.029	4478.62
360.256	4354.62
360.483	4334.62
360.709	4159.62
360.936	4099.62
361.163	4161.62
361.39	4138.62
361.616	4135.62
361.843	4105.62
362.07	4114.62
362.296	4085.62
362.523	4120.62
362.749	4094.62
362.976	4079.62
363.203	4052.62
363.429	3990.62
363.656	4017.62
363.882	4034.62
364.109	3990.62
364.335	3992.62
364.562	3973.62
364.788	3985.62
365.015	4016.62
365.241	4048.62
365.468	4051.62
365.694	4108.62
365.92	4036.62
366.147	3980.62
366.373	4097.62
366.599	4020.62
366.826	4017.62
367.052	4031.62
367.278	4019.62
367.505	4052.62
367.731	4106.62
367.957	4072.62
368.184	4061.62
368.41	4154.62
368.636	4194.62
368.862	4233.62
369.089	4177.62
369.315	4084.62
369.541	4132.62
369.767	4135.62
369.993	4166.62
370.219	4162.62
370.445	4179.62
370.672	4176.62
370.898	4213.62
371.124	4234.62
371.35	4337.62
371.576	4298.62
371.802	4263.62
372.028	4273.62
372.254	4281.62
372.48	4378.62
372.706	4418.62
372.932	4462.62
373.158	4384.62
373.384	4358.62
373.61	4293.62
373.835	4344.62
374.061	4385.62
374.287	4394.62
374.513	4541.62
374.739	4610.62
374.965	4701.62
375.191	4727.62
375.416	4621.62
375.642	4478.62
375.868	4494.62
376.094	4432.62
376.319	4289.62
376.545	4316.62
376.771	4341.62
376.997	4293.62
377.222	4374.62
377.448	4275.62
377.674	4269.62
377.899	4248.62
378.125	4284.62
378.35	4260.62
378.576	4254.62
378.802	4215.62
379.027	4276.62
379.253	4315.62
379.478	4225.62
379.704	4286.62
379.929	4310.62
380.155	4267.62
380.38	4264.62
380.606	4274.62
380.831	4315.62
381.057	4345.62
381.282	4292.62
381.507	4350.62
381.733	4412.62
381.958	4402.62
382.184	4389.62
382.409	4499.62
382.634	4549.62
382.86	4498.62
383.085	4640.62
383.31	4624.62
383.535	4753.62
383.761	4850.62
383.986	4900.62
384.211	4912.62
384.436	5056.62
384.662	5113.62
384.887	5133.62
385.112	5132.62
385.337	5209.62
385.562	5239.62
385.787	5283.62
386.013	5231.62
386.238	5290.62
386.463	5282.62
386.688	5250.62
386.913	5113.62
387.138	5141.62
387.363	5204.62
387.588	5095.62
387.813	5065.62
388.038	5084.62
388.263	5148.62
388.488	5206.62
388.713	5165.62
388.938	5128.62
389.163	5071.62
389.387	5115.62
389.612	5025.62
389.837	5088.62
390.062	5032.62
390.287	5097.62
390.512	5108.62
390.736	5214.62
390.961	5203.62
391.186	5299.62
391.411	5418.62
391.636	5567.62
391.86	5742.62
392.085	5785.62
392.31	5628.62
392.534	5601.62
392.759	5467.62
392.984	5377.62
393.208	5432.62
393.433	5388.62
393.658	5314.62
393.882	5328.62
394.107	5413.62
394.331	5422.62
394.556	5403.62
394.78	5446.62
395.005	5468.62
395.229	5608.62
395.454	5709.62
395.678	5793.62
395.903	5743.62
396.127	5846.62
396.352	5606.62
396.576	5505.62
396.801	5429.62
397.025	5511.62
397.249	5674.62
397.474	5807.62
397.698	5802.62
397.922	5905.62
398.147	6038.62
398.371	6043.62
398.595	6197.62
398.82	6548.62
399.044	7059.62
399.268	7872.62
399.492	8924.62
399.717	9675.62
399.941	9347.62
400.165	8732.62
400.389	7968.62
400.613	7191.62
400.837	6798.62
401.062	6633.62
401.286	6589.62
401.51	6445.62
401.734	6456.62
401.958	6608.62
402.182	6752.62
402.406	6832.62
402.63	6877.62
402.854	7041.62
403.078	7068.62
403.302	7149.62
403.526	7272.62
403.75	7316.62
403.974	7417.62
404.198	7451.62
404.422	7540.62
404.645	7481.62
404.869	7462.62
405.093	7847.62
405.317	8016.62
405.541	8041.62
405.765	7453.62
405.988	7351.62
406.212	7414.62
406.436	7589.62
406.66	7778.62
406.883	7795.62
407.107	8278.62
407.331	8688.62
407.555	9286.62
407.778	8920.62
408.002	8242.62
408.226	7824.62
408.449	7770.62
408.673	7616.62
408.896	7713.62
409.12	7838.62
409.344	7462.62
409.567	7152.62
409.791	7136.62
410.014	7022.62
410.238	6977.62
410.461	6995.62
410.685	6995.62
410.908	7099.62
411.132	7289.62
411.355	7308.62
411.578	7043.62
411.802	6774.62
412.025	6876.62
412.249	7144.62
412.472	7249.62
412.695	7515.62
412.919	7049.62
413.142	6766.62
413.365	6681.62
413.589	6525.62
413.812	6385.62
414.035	6324.62
414.258	6456.62
414.482	6553.62
414.705	6544.62
414.928	6498.62
415.151	6478.62
415.374	6450.62
415.597	6391.62
415.821	6240.62
416.044	6277.62
416.267	6199.62
416.49	6216.62
416.713	6204.62
416.936	6288.62
417.159	6273.62
417.382	6320.62
417.605	6384.62
417.828	6466.62
418.051	6567.62
418.274	6498.62
418.497	6482.62
418.72	6533.62
418.943	6481.62
419.166	6870.62
419.389	7384.62
419.611	7207.62
419.834	7005.62
420.057	6894.62
420.28	6812.62
420.503	6672.62
420.726	6590.62
420.948	6709.62
421.171	7092.62
421.394	6983.62
421.617	6553.62
421.839	6585.62
422.062	6590.62
422.285	6728.62
422.507	7408.62
422.73	7845.62
422.953	7393.62
423.175	7005.62
423.398	7029.62
423.621	7038.62
423.843	7230.62
424.066	7208.62
424.288	7045.62
424.511	7194.62
424.733	7704.62
424.956	8053.62
425.178	7629.62
425.401	7688.62
425.623	7578.62
425.846	6770.62
426.068	6568.62
426.291	6505.62
426.513	6471.62
426.735	6541.62
426.958	7017.62
427.18	7680.62
427.402	8656.62
427.625	8780.62
427.847	7632.62
428.069	7004.62
428.292	6513.62
428.514	6143.62
428.736	6007.62
428.958	6002.62
429.181	5855.62
429.403	5778.62
429.625	5988.62
429.847	6224.62
430.069	6759.62
430.292	6247.62
430.514	5814.62
430.736	5815.62
430.958	5704.62
431.18	5662.62
431.402	5572.62
431.624	5627.62
431.846	5734.62
432.068	5694.62
432.29	5718.62
432.512	5745.62
432.734	5869.62
432.956	5746.62
433.178	5860.62
433.4	5717.62
433.622	5685.62
433.844	5759.62
434.066	5753.62
434.287	5837.62
434.509	6175.62
434.731	6320.62
434.953	6403.62
435.175	6645.62
435.397	6714.62
435.618	6548.62
435.84	6970.62
436.062	7530.62
436.284	7526.62
436.505	6381.62
436.727	6181.62
436.949	5971.62
437.17	5803.62
437.392	5785.62
437.614	5902.62
437.835	6168.62
438.057	7090.62
438.278	7734.62
438.5	7538.62
438.721	8333.62
438.943	7399.62
439.165	6329.62
439.386	6093.62
439.608	6243.62
439.829	6250.62
440.05	6430.62
440.272	6715.62
440.493	6247.62
440.715	6076.62
440.936	6058.62
441.158	6067.62
441.379	6242.62
441.6	6574.62
441.822	6753.62
442.043	7111.62
442.264	7825.62
442.486	7545.62
442.707	6808.62
442.928	6625.62
443.149	6805.62
443.371	6990.62
443.592	7556.62
443.813	8411.62
444.034	8339.62
444.255	7335.62
444.476	7279.62
444.698	7512.62
444.919	7557.62
445.14	7359.62
445.361	7135.62
445.582	7209.62
445.803	7600.62
446.024	8120.62
446.245	7879.62
446.466	7141.62
446.687	6384.62
446.908	6097.62
447.129	5807.62
447.35	5656.62
447.571	5602.62
447.792	5510.62
448.013	5612.62
448.234	5706.62
448.455	6327.62
448.675	7442.62
448.896	7791.62
449.117	6562.62
449.338	6716.62
449.559	7984.62
449.779	8085.62
450	6327.62
450.221	5736.62
450.442	5537.62
450.662	5312.62
450.883	5456.62
451.104	5550.62
451.324	5322.62
451.545	5308.62
451.766	5202.62
451.986	5038.62
452.207	5090.62
452.428	5043.62
452.648	5049.62
452.869	5058.62
453.089	5073.62
453.31	5251.62
453.53	5021.62
453.751	4988.62
453.971	4999.62
454.192	5064.62
454.412	4915.62
454.633	4911.62
454.853	4903.62
455.073	4901.62
455.294	5243.62
455.514	5767.62
455.734	5277.62
455.955	4808.62
456.175	4696.62
456.395	4672.62
456.616	4658.62
456.836	4714.62
457.056	4624.62
457.276	4577.62
457.497	4739.62
457.717	4630.62
457.937	4807.62
458.157	4914.62
458.377	4947.62
458.598	5236.62
458.818	5835.62
459.038	6504.62
459.258	6474.62
459.478	5865.62
459.698	5657.62
459.918	5881.62
460.138	6030.62
460.358	6320.62
460.578	6337.62
460.798	6363.62
461.018	6378.62
461.238	6245.62
461.458	6248.62
461.678	6260.62
461.898	6309.62
462.118	6407.62
462.338	6725.62
462.558	6934.62
462.777	7113.62
462.997	7793.62
463.217	8154.62
463.437	7915.62
463.657	7320.62
463.876	7143.62
464.096	7186.62
464.316	7137.62
464.536	7209.62
464.755	6979.62
464.975	6876.62
465.195	6850.62
465.414	6793.62
465.634	6084.62
465.854	5861.62
466.073	5609.62
466.293	5474.62
466.512	5344.62
466.732	5231.62
466.951	5239.62
467.171	5203.62
467.391	5272.62
467.61	5342.62
467.829	5359.62
468.049	5302.62
468.268	5197.62
468.488	5072.62
468.707	5005.62
468.927	4992.62
469.146	4960.62
469.365	5069.62
469.585	5125.62
469.804	5246.62
470.023	5441.62
470.243	5376.62
470.462	5438.62
470.681	5559.62
470.901	5476.62
471.12	5337.62
471.339	5373.62
471.558	5285.62
471.777	5206.62
471.997	5145.62
472.216	5378.62
472.435	5710.62
472.654	5319.62
472.873	5066.62
473.092	4982.62
473.311	5030.62
473.53	5064.62
473.749	5183.62
473.968	5556.62
474.187	6498.62
474.406	6003.62
474.625	5338.62
474.844	5077.62
475.063	5023.62
475.282	4988.62
475.501	5098.62
475.72	5170.62
475.939	5160.62
476.158	5176.62
476.377	5289.62
476.596	5250.62
476.814	5425.62
477.033	5357.62
477.252	5413.62
477.471	5534.62
477.69	5627.62
477.908	5720.62
478.127	5938.62
478.346	6014.62
478.564	6075.62
478.783	6204.62
479.002	6348.62
479.22	6357.62
479.439	6406.62
479.658	6483.62
479.876	6529.62
480.095	6687.62
480.313	7185.62
480.532	7119.62
480.751	6953.62
480.969	7149.62
481.188	7897.62
481.406	7457.62
481.624	6637.62
481.843	6354.62
482.061	6162.62
482.28	6009.62
482.498	5975.62
482.717	5986.62
482.935	6015.62
483.153	5921.62
483.372	5861.62
483.59	5931.62
483.808	5898.62
484.027	5914.62
484.245	5976.62
484.463	6007.62
484.681	6098.62
484.9	6126.62
485.118	6156.62
485.336	6193.62
485.554	6288.62
485.772	6292.62
485.99	6263.62
486.209	6356.62
486.427	6344.62
486.645	6382.62
486.863	6389.62
487.081	6370.62
487.299	6333.62
487.517	6313.62
487.735	6290.62
487.953	6327.62
