Data from Uncirc_1985_H10_HRD10591_00059.txt Node
Date: Wed Jan 03 12:18:29 EST 2024
User: Yrep
Spectrometer: HR+D1059
Trigger mode: 1
Integration Time (sec): 1.000000E-1
Scans to average: 1
Electric dark correction enabled: true
Nonlinearity correction enabled: false
Boxcar width: 0
XAxis mode: Wavelengths
Number of Pixels in Spectrum: 2048
>>>>>Begin Spectral Data<<<<<
223.165	-23.44
223.4	-23.44
223.635	-23.44
223.869	-27.44
224.104	-25.44
224.338	-13.44
224.573	-23.44
224.808	-5.44
225.042	9.56
225.277	8.56
225.511	-4.44
225.746	1.56
225.98	3.56
226.215	4.56
226.449	19.56
226.683	22.56
226.918	16.56
227.152	36.56
227.387	43.56
227.621	43.56
227.856	51.56
228.09	40.56
228.324	42.56
228.559	56.56
228.793	65.56
229.027	85.56
229.262	71.56
229.496	66.56
229.73	75.56
229.964	84.56
230.199	84.56
230.433	69.56
230.667	72.56
230.901	83.56
231.136	76.56
231.37	85.56
231.604	75.56
231.838	77.56
232.072	91.56
232.306	83.56
232.541	74.56
232.775	88.56
233.009	79.56
233.243	65.56
233.477	76.56
233.711	86.56
233.945	83.56
234.179	86.56
234.413	88.56
234.647	82.56
234.881	76.56
235.115	93.56
235.349	80.56
235.583	80.56
235.817	79.56
236.051	80.56
236.285	85.56
236.519	82.56
236.753	71.56
236.987	85.56
237.221	90.56
237.455	81.56
237.689	90.56
237.922	90.56
238.156	46.56
238.39	62.56
238.624	84.56
238.858	76.56
239.091	81.56
239.325	77.56
239.559	61.56
239.793	76.56
240.027	84.56
240.26	80.56
240.494	82.56
240.728	76.56
240.961	75.56
241.195	85.56
241.429	78.56
241.662	80.56
241.896	64.56
242.13	74.56
242.363	67.56
242.597	70.56
242.83	87.56
243.064	75.56
243.298	85.56
243.531	75.56
243.765	76.56
243.998	73.56
244.232	83.56
244.465	74.56
244.699	81.56
244.932	79.56
245.166	89.56
245.399	82.56
245.633	87.56
245.866	84.56
246.099	75.56
246.333	78.56
246.566	78.56
246.8	81.56
247.033	68.56
247.266	76.56
247.5	73.56
247.733	70.56
247.966	73.56
248.2	75.56
248.433	82.56
248.666	65.56
248.899	86.56
249.133	97.56
249.366	101.56
249.599	99.56
249.832	70.56
250.066	83.56
250.299	81.56
250.532	89.56
250.765	83.56
250.998	65.56
251.231	74.56
251.465	70.56
251.698	79.56
251.931	92.56
252.164	82.56
252.397	70.56
252.63	70.56
252.863	64.56
253.096	74.56
253.329	82.56
253.562	85.56
253.795	80.56
254.028	94.56
254.261	85.56
254.494	76.56
254.727	83.56
254.96	93.56
255.193	76.56
255.426	95.56
255.659	89.56
255.892	81.56
256.124	78.56
256.357	83.56
256.59	82.56
256.823	86.56
257.056	76.56
257.289	83.56
257.521	72.56
257.754	70.56
257.987	76.56
258.22	86.56
258.452	92.56
258.685	96.56
258.918	85.56
259.151	79.56
259.383	68.56
259.616	79.56
259.849	99.56
260.081	90.56
260.314	92.56
260.547	89.56
260.779	84.56
261.012	92.56
261.244	67.56
261.477	85.56
261.71	95.56
261.942	103.56
262.175	112.56
262.407	101.56
262.64	89.56
262.872	81.56
263.105	82.56
263.337	82.56
263.57	82.56
263.802	84.56
264.035	73.56
264.267	69.56
264.499	89.56
264.732	81.56
264.964	72.56
265.197	82.56
265.429	69.56
265.661	78.56
265.894	73.56
266.126	91.56
266.358	75.56
266.591	87.56
266.823	82.56
267.055	76.56
267.287	82.56
267.52	89.56
267.752	98.56
267.984	87.56
268.216	75.56
268.448	75.56
268.681	66.56
268.913	95.56
269.145	85.56
269.377	76.56
269.609	83.56
269.841	83.56
270.073	96.56
270.306	101.56
270.538	82.56
270.77	95.56
271.002	85.56
271.234	89.56
271.466	88.56
271.698	83.56
271.93	83.56
272.162	75.56
272.394	91.56
272.626	91.56
272.858	74.56
273.09	88.56
273.322	65.56
273.553	79.56
273.785	66.56
274.017	82.56
274.249	81.56
274.481	90.56
274.713	96.56
274.945	84.56
275.176	81.56
275.408	92.56
275.64	79.56
275.872	86.56
276.104	81.56
276.335	70.56
276.567	93.56
276.799	106.56
277.031	107.56
277.262	91.56
277.494	88.56
277.726	81.56
277.957	85.56
278.189	87.56
278.421	91.56
278.652	95.56
278.884	88.56
279.115	87.56
279.347	93.56
279.579	75.56
279.81	90.56
280.042	95.56
280.273	84.56
280.505	78.56
280.736	86.56
280.968	95.56
281.199	89.56
281.431	91.56
281.662	103.56
281.894	87.56
282.125	90.56
282.356	103.56
282.588	121.56
282.819	99.56
283.051	79.56
283.282	91.56
283.513	84.56
283.745	88.56
283.976	86.56
284.207	90.56
284.439	83.56
284.67	86.56
284.901	85.56
285.132	69.56
285.364	76.56
285.595	82.56
285.826	101.56
286.057	81.56
286.288	76.56
286.52	95.56
286.751	89.56
286.982	84.56
287.213	84.56
287.444	89.56
287.675	99.56
287.906	82.56
288.138	98.56
288.369	80.56
288.6	82.56
288.831	90.56
289.062	99.56
289.293	85.56
289.524	83.56
289.755	87.56
289.986	79.56
290.217	75.56
290.448	77.56
290.679	97.56
290.91	96.56
291.141	82.56
291.371	100.56
291.602	81.56
291.833	86.56
292.064	88.56
292.295	83.56
292.526	88.56
292.757	104.56
292.987	88.56
293.218	91.56
293.449	81.56
293.68	90.56
293.91	82.56
294.141	96.56
294.372	85.56
294.603	83.56
294.833	76.56
295.064	75.56
295.295	87.56
295.525	93.56
295.756	93.56
295.987	104.56
296.217	113.56
296.448	108.56
296.679	76.56
296.909	97.56
297.14	85.56
297.37	97.56
297.601	90.56
297.831	81.56
298.062	83.56
298.292	91.56
298.523	84.56
298.753	72.56
298.984	72.56
299.214	92.56
299.445	85.56
299.675	100.56
299.905	90.56
300.136	90.56
300.366	98.56
300.597	98.56
300.827	91.56
301.057	91.56
301.288	102.56
301.518	101.56
301.748	100.56
301.979	113.56
302.209	83.56
302.439	81.56
302.669	90.56
302.9	88.56
303.13	90.56
303.36	103.56
303.59	91.56
303.82	99.56
304.051	81.56
304.281	83.56
304.511	84.56
304.741	84.56
304.971	91.56
305.201	87.56
305.431	96.56
305.661	89.56
305.891	97.56
306.121	86.56
306.352	101.56
306.582	99.56
306.812	109.56
307.042	98.56
307.272	107.56
307.502	81.56
307.731	85.56
307.961	90.56
308.191	75.56
308.421	76.56
308.651	84.56
308.881	87.56
309.111	111.56
309.341	81.56
309.571	100.56
309.8	75.56
310.03	86.56
310.26	95.56
310.49	104.56
310.72	82.56
310.949	96.56
311.179	108.56
311.409	100.56
311.639	73.56
311.868	100.56
312.098	98.56
312.328	94.56
312.557	107.56
312.787	99.56
313.017	103.56
313.246	91.56
313.476	84.56
313.706	83.56
313.935	85.56
314.165	93.56
314.394	91.56
314.624	87.56
314.853	102.56
315.083	81.56
315.312	104.56
315.542	89.56
315.771	105.56
316.001	87.56
316.23	98.56
316.46	99.56
316.689	87.56
316.919	99.56
317.148	99.56
317.377	88.56
317.607	84.56
317.836	88.56
318.065	97.56
318.295	84.56
318.524	73.56
318.753	90.56
318.983	91.56
319.212	109.56
319.441	99.56
319.67	111.56
319.9	109.56
320.129	90.56
320.358	90.56
320.587	96.56
320.816	90.56
321.046	91.56
321.275	111.56
321.504	89.56
321.733	92.56
321.962	99.56
322.191	97.56
322.42	113.56
322.649	101.56
322.878	119.56
323.108	121.56
323.337	127.56
323.566	115.56
323.795	127.56
324.024	176.56
324.253	365.56
324.482	736.56
324.71	1497.56
324.939	1966.56
325.168	720.56
325.397	224.56
325.626	147.56
325.855	112.56
326.084	124.56
326.313	133.56
326.542	145.56
326.77	225.56
326.999	419.56
327.228	868.56
327.457	1549.56
327.686	1205.56
327.914	341.56
328.143	199.56
328.372	154.56
328.6	138.56
328.829	112.56
329.058	110.56
329.287	112.56
329.515	113.56
329.744	91.56
329.972	95.56
330.201	108.56
330.43	132.56
330.658	127.56
330.887	132.56
331.115	113.56
331.344	105.56
331.572	106.56
331.801	104.56
332.03	84.56
332.258	91.56
332.486	114.56
332.715	84.56
332.943	100.56
333.172	93.56
333.4	92.56
333.629	102.56
333.857	118.56
334.085	120.56
334.314	110.56
334.542	140.56
334.771	127.56
334.999	102.56
335.227	83.56
335.455	94.56
335.684	91.56
335.912	99.56
336.14	84.56
336.369	96.56
336.597	80.56
336.825	92.56
337.053	82.56
337.281	97.56
337.51	104.56
337.738	85.56
337.966	69.56
338.194	88.56
338.422	102.56
338.65	105.56
338.878	88.56
339.106	95.56
339.334	104.56
339.562	82.56
339.79	97.56
340.018	89.56
340.246	103.56
340.474	91.56
340.702	99.56
340.93	99.56
341.158	105.56
341.386	96.56
341.614	85.56
341.842	92.56
342.07	77.56
342.298	89.56
342.526	98.56
342.754	108.56
342.981	100.56
343.209	77.56
343.437	115.56
343.665	83.56
343.893	93.56
344.12	99.56
344.348	87.56
344.576	97.56
344.804	91.56
345.031	83.56
345.259	93.56
345.487	91.56
345.714	85.56
345.942	71.56
346.17	93.56
346.397	87.56
346.625	94.56
346.853	97.56
347.08	93.56
347.308	82.56
347.535	99.56
347.763	105.56
347.99	98.56
348.218	106.56
348.445	100.56
348.673	103.56
348.9	97.56
349.128	90.56
349.355	95.56
349.583	110.56
349.81	106.56
350.037	101.56
350.265	103.56
350.492	86.56
350.72	97.56
350.947	97.56
351.174	108.56
351.402	89.56
351.629	96.56
351.856	103.56
352.083	95.56
352.311	92.56
352.538	107.56
352.765	102.56
352.992	99.56
353.22	96.56
353.447	96.56
353.674	100.56
353.901	97.56
354.128	85.56
354.355	95.56
354.583	101.56
354.81	97.56
355.037	81.56
355.264	101.56
355.491	83.56
355.718	81.56
355.945	99.56
356.172	95.56
356.399	88.56
356.626	87.56
356.853	88.56
357.08	81.56
357.307	91.56
357.534	101.56
357.761	79.56
357.988	95.56
358.215	103.56
358.441	85.56
358.668	93.56
358.895	89.56
359.122	88.56
359.349	90.56
359.576	72.56
359.802	81.56
360.029	103.56
360.256	94.56
360.483	83.56
360.709	91.56
360.936	97.56
361.163	87.56
361.39	108.56
361.616	82.56
361.843	75.56
362.07	85.56
362.296	96.56
362.523	90.56
362.749	81.56
362.976	95.56
363.203	94.56
363.429	77.56
363.656	103.56
363.882	96.56
364.109	90.56
364.335	100.56
364.562	88.56
364.788	91.56
365.015	104.56
365.241	101.56
365.468	103.56
365.694	97.56
365.92	93.56
366.147	81.56
366.373	104.56
366.599	92.56
366.826	101.56
367.052	89.56
367.278	102.56
367.505	102.56
367.731	89.56
367.957	80.56
368.184	95.56
368.41	89.56
368.636	111.56
368.862	118.56
369.089	98.56
369.315	80.56
369.541	94.56
369.767	103.56
369.993	92.56
370.219	76.56
370.445	88.56
370.672	78.56
370.898	100.56
371.124	84.56
371.35	79.56
371.576	84.56
371.802	91.56
372.028	87.56
372.254	84.56
372.48	93.56
372.706	88.56
372.932	98.56
373.158	88.56
373.384	97.56
373.61	94.56
373.835	67.56
374.061	81.56
374.287	104.56
374.513	87.56
374.739	84.56
374.965	80.56
375.191	92.56
375.416	99.56
375.642	101.56
375.868	89.56
376.094	72.56
376.319	88.56
376.545	93.56
376.771	101.56
376.997	84.56
377.222	96.56
377.448	72.56
377.674	81.56
377.899	95.56
378.125	83.56
378.35	90.56
378.576	88.56
378.802	88.56
379.027	72.56
379.253	83.56
379.478	92.56
379.704	92.56
379.929	95.56
380.155	93.56
380.38	91.56
380.606	101.56
380.831	86.56
381.057	97.56
381.282	97.56
381.507	103.56
381.733	93.56
381.958	90.56
382.184	90.56
382.409	95.56
382.634	86.56
382.86	96.56
383.085	105.56
383.31	98.56
383.535	115.56
383.761	93.56
383.986	97.56
384.211	110.56
384.436	97.56
384.662	80.56
384.887	101.56
385.112	103.56
385.337	88.56
385.562	104.56
385.787	92.56
386.013	107.56
386.238	118.56
386.463	96.56
386.688	116.56
386.913	108.56
387.138	89.56
387.363	97.56
387.588	87.56
387.813	96.56
388.038	97.56
388.263	105.56
388.488	106.56
388.713	103.56
388.938	88.56
389.163	103.56
389.387	105.56
389.612	92.56
389.837	81.56
390.062	83.56
390.287	104.56
390.512	98.56
390.736	100.56
390.961	97.56
391.186	82.56
391.411	93.56
391.636	93.56
391.86	107.56
392.085	85.56
392.31	91.56
392.534	87.56
392.759	97.56
392.984	100.56
393.208	86.56
393.433	87.56
393.658	99.56
393.882	71.56
394.107	85.56
394.331	87.56
394.556	91.56
394.78	103.56
395.005	91.56
395.229	91.56
395.454	96.56
395.678	88.56
395.903	107.56
396.127	83.56
396.352	105.56
396.576	87.56
396.801	85.56
397.025	93.56
397.249	84.56
397.474	83.56
397.698	85.56
397.922	70.56
398.147	98.56
398.371	100.56
398.595	95.56
398.82	80.56
399.044	90.56
399.268	92.56
399.492	77.56
399.717	100.56
399.941	98.56
400.165	91.56
400.389	92.56
400.613	81.56
400.837	83.56
401.062	100.56
401.286	92.56
401.51	75.56
401.734	91.56
401.958	91.56
402.182	148.56
402.406	134.56
402.63	120.56
402.854	98.56
403.078	88.56
403.302	89.56
403.526	94.56
403.75	91.56
403.974	95.56
404.198	82.56
404.422	93.56
404.645	83.56
404.869	87.56
405.093	104.56
405.317	97.56
405.541	107.56
405.765	100.56
405.988	104.56
406.212	158.56
406.436	209.56
406.66	145.56
406.883	115.56
407.107	101.56
407.331	100.56
407.555	81.56
407.778	107.56
408.002	94.56
408.226	85.56
408.449	91.56
408.673	90.56
408.896	80.56
409.12	98.56
409.344	90.56
409.567	109.56
409.791	101.56
410.014	100.56
410.238	99.56
410.461	93.56
410.685	85.56
410.908	104.56
411.132	103.56
411.355	99.56
411.578	81.56
411.802	101.56
412.025	84.56
412.249	100.56
412.472	90.56
412.695	113.56
412.919	80.56
413.142	87.56
413.365	84.56
413.589	94.56
413.812	90.56
414.035	103.56
414.258	74.56
414.482	88.56
414.705	80.56
414.928	93.56
415.151	104.56
415.374	104.56
415.597	87.56
415.821	91.56
416.044	90.56
416.267	88.56
416.49	89.56
416.713	98.56
416.936	93.56
417.159	89.56
417.382	96.56
417.605	79.56
417.828	86.56
418.051	98.56
418.274	95.56
418.497	89.56
418.72	85.56
418.943	97.56
419.166	87.56
419.389	87.56
419.611	96.56
419.834	95.56
420.057	93.56
420.28	76.56
420.503	89.56
420.726	87.56
420.948	85.56
421.171	88.56
421.394	90.56
421.617	98.56
421.839	89.56
422.062	83.56
422.285	84.56
422.507	85.56
422.73	103.56
422.953	99.56
423.175	89.56
423.398	97.56
423.621	89.56
423.843	86.56
424.066	92.56
424.288	98.56
424.511	92.56
424.733	96.56
424.956	102.56
425.178	106.56
425.401	100.56
425.623	84.56
425.846	98.56
426.068	89.56
426.291	85.56
426.513	98.56
426.735	83.56
426.958	91.56
427.18	102.56
427.402	117.56
427.625	150.56
427.847	115.56
428.069	104.56
428.292	96.56
428.514	97.56
428.736	89.56
428.958	85.56
429.181	93.56
429.403	75.56
429.625	76.56
429.847	90.56
430.069	95.56
430.292	91.56
430.514	92.56
430.736	83.56
430.958	83.56
431.18	82.56
431.402	95.56
431.624	90.56
431.846	100.56
432.068	89.56
432.29	88.56
432.512	83.56
432.734	91.56
432.956	107.56
433.178	98.56
433.4	104.56
433.622	77.56
433.844	86.56
434.066	89.56
434.287	94.56
434.509	83.56
434.731	96.56
434.953	83.56
435.175	90.56
435.397	100.56
435.618	91.56
435.84	111.56
436.062	100.56
436.284	123.56
436.505	102.56
436.727	105.56
436.949	93.56
437.17	73.56
437.392	81.56
437.614	97.56
437.835	105.56
438.057	117.56
438.278	120.56
438.5	89.56
438.721	116.56
438.943	103.56
439.165	79.56
439.386	85.56
439.608	82.56
439.829	96.56
440.05	114.56
440.272	131.56
440.493	105.56
440.715	99.56
440.936	98.56
441.158	87.56
441.379	100.56
441.6	87.56
441.822	91.56
442.043	87.56
442.264	104.56
442.486	111.56
442.707	89.56
442.928	113.56
443.149	126.56
443.371	132.56
443.592	93.56
443.813	108.56
444.034	91.56
444.255	88.56
444.476	96.56
444.698	85.56
444.919	85.56
445.14	126.56
445.361	111.56
445.582	108.56
445.803	114.56
446.024	113.56
446.245	136.56
446.466	111.56
446.687	101.56
446.908	101.56
447.129	93.56
447.35	97.56
447.571	103.56
447.792	95.56
448.013	96.56
448.234	100.56
448.455	95.56
448.675	98.56
448.896	107.56
449.117	100.56
449.338	99.56
449.559	126.56
449.779	129.56
450	91.56
450.221	83.56
450.442	78.56
450.662	80.56
450.883	109.56
451.104	95.56
451.324	98.56
451.545	89.56
451.766	98.56
451.986	82.56
452.207	82.56
452.428	92.56
452.648	106.56
452.869	91.56
453.089	101.56
453.31	116.56
453.53	101.56
453.751	93.56
453.971	102.56
454.192	99.56
454.412	107.56
454.633	87.56
454.853	88.56
455.073	79.56
455.294	96.56
455.514	85.56
455.734	79.56
455.955	97.56
456.175	97.56
456.395	95.56
456.616	94.56
456.836	73.56
457.056	95.56
457.276	82.56
457.497	86.56
457.717	93.56
457.937	79.56
458.157	86.56
458.377	92.56
458.598	83.56
458.818	133.56
459.038	147.56
459.258	110.56
459.478	84.56
459.698	94.56
459.918	85.56
460.138	89.56
460.358	91.56
460.578	87.56
460.798	92.56
461.018	84.56
461.238	96.56
461.458	95.56
461.678	93.56
461.898	95.56
462.118	81.56
462.338	77.56
462.558	89.56
462.777	77.56
462.997	93.56
463.217	68.56
463.437	81.56
463.657	92.56
463.876	68.56
464.096	87.56
464.316	99.56
464.536	80.56
464.755	104.56
464.975	100.56
465.195	139.56
465.414	129.56
465.634	95.56
465.854	88.56
466.073	86.56
466.293	93.56
466.512	91.56
466.732	100.56
466.951	88.56
467.171	105.56
467.391	85.56
467.61	106.56
467.829	97.56
468.049	95.56
468.268	113.56
468.488	90.56
468.707	81.56
468.927	89.56
469.146	95.56
469.365	88.56
469.585	76.56
469.804	98.56
470.023	74.56
470.243	94.56
470.462	87.56
470.681	116.56
470.901	101.56
471.12	80.56
471.339	95.56
471.558	104.56
471.777	90.56
471.997	99.56
472.216	118.56
472.435	148.56
472.654	96.56
472.873	90.56
473.092	104.56
473.311	92.56
473.53	84.56
473.749	87.56
473.968	101.56
474.187	104.56
474.406	100.56
474.625	91.56
474.844	83.56
475.063	76.56
475.282	89.56
475.501	86.56
475.72	75.56
475.939	87.56
476.158	85.56
476.377	80.56
476.596	77.56
476.814	79.56
477.033	88.56
477.252	103.56
477.471	84.56
477.69	97.56
477.908	90.56
478.127	97.56
478.346	94.56
478.564	96.56
478.783	84.56
479.002	92.56
479.22	105.56
479.439	96.56
479.658	100.56
479.876	72.56
480.095	97.56
480.313	91.56
480.532	93.56
480.751	70.56
480.969	112.56
481.188	200.56
481.406	164.56
481.624	108.56
481.843	90.56
482.061	96.56
482.28	91.56
482.498	83.56
482.717	80.56
482.935	89.56
483.153	91.56
483.372	81.56
483.59	89.56
483.808	93.56
484.027	93.56
484.245	99.56
484.463	86.56
484.681	108.56
484.9	97.56
485.118	89.56
485.336	90.56
485.554	93.56
485.772	88.56
485.99	100.56
486.209	86.56
486.427	96.56
486.645	101.56
486.863	123.56
487.081	98.56
487.299	92.56
487.517	94.56
487.735	92.56
487.953	97.56
488.171	103.56
488.389	101.56
488.607	103.56
488.825	89.56
489.043	98.56
489.261	103.56
489.479	76.56
489.696	87.56
489.914	90.56
490.132	96.56
490.35	103.56
490.568	93.56
490.786	95.56
491.003	77.56
491.221	95.56
491.439	89.56
491.657	84.56
491.874	87.56
492.092	92.56
492.31	99.56
492.527	97.56
492.745	95.56
492.963	88.56
493.18	92.56
493.398	96.56
493.615	92.56
493.833	105.56
494.05	103.56
494.268	84.56
494.485	97.56
494.703	90.56
494.92	67.56
495.138	92.56
495.355	92.56
495.573	102.56
495.79	94.56
496.008	76.56
496.225	96.56
496.442	103.56
496.66	77.56
496.877	87.56
497.094	81.56
497.312	89.56
497.529	88.56
497.746	96.56
497.963	90.56
498.181	95.56
498.398	82.56
498.615	103.56
498.832	95.56
499.049	101.56
499.267	92.56
499.484	85.56
499.701	79.56
499.918	97.56
500.135	77.56
500.352	80.56
500.569	90.56
500.786	90.56
501.003	94.56
501.22	85.56
501.437	87.56
501.654	91.56
501.871	103.56
502.088	88.56
502.305	96.56
502.522	95.56
502.739	104.56
502.956	81.56
503.172	97.56
503.389	96.56
503.606	105.56
503.823	100.56
504.04	102.56
504.256	93.56
504.473	87.56
504.69	81.56
504.907	82.56
505.123	84.56
505.34	97.56
505.557	88.56
505.773	94.56
505.99	89.56
506.207	95.56
506.423	85.56
506.64	101.56
506.856	74.56
507.073	86.56
507.289	87.56
507.506	96.56
507.722	109.56
507.939	103.56
508.155	101.56
508.372	106.56
508.588	80.56
508.805	98.56
509.021	90.56
509.238	87.56
509.454	100.56
509.67	99.56
509.887	95.56
510.103	127.56
510.319	204.56
510.536	660.56
510.752	2095.56
510.968	584.56
511.184	140.56
511.401	115.56
511.617	106.56
511.833	92.56
512.049	91.56
512.265	97.56
512.481	84.56
512.698	85.56
512.914	95.56
513.13	96.56
513.346	88.56
513.562	74.56
513.778	95.56
513.994	96.56
514.21	88.56
514.426	106.56
514.642	124.56
514.858	119.56
515.074	155.56
515.29	384.56
515.506	1214.56
515.721	463.56
