Data from Uncirc_1985_H10_HRD10591_00087.txt Node
Date: Wed Jan 03 12:18:34 EST 2024
User: Yrep
Spectrometer: HR+D1059
Trigger mode: 1
Integration Time (sec): 1.000000E-1
Scans to average: 1
Electric dark correction enabled: true
Nonlinearity correction enabled: false
Boxcar width: 0
XAxis mode: Wavelengths
Number of Pixels in Spectrum: 2048
>>>>>Begin Spectral Data<<<<<
223.165	-15
223.4	-15
223.635	-15
223.869	-24
224.104	-28
224.338	-5
224.573	-21
224.808	-14
225.042	-11
225.277	0
225.511	0
225.746	13
225.98	-4
226.215	14
226.449	16
226.683	24
226.918	29
227.152	26
227.387	34
227.621	29
227.856	38
228.09	36
228.324	53
228.559	53
228.793	54
229.027	52
229.262	56
229.496	70
229.73	92
229.964	89
230.199	70
230.433	78
230.667	81
230.901	89
231.136	65
231.37	80
231.604	75
231.838	71
232.072	73
232.306	74
232.541	75
232.775	74
233.009	84
233.243	80
233.477	84
233.711	70
233.945	79
234.179	75
234.413	85
234.647	73
234.881	83
235.115	79
235.349	71
235.583	72
235.817	69
236.051	83
236.285	88
236.519	81
236.753	74
236.987	82
237.221	80
237.455	73
237.689	69
237.922	84
238.156	73
238.39	78
238.624	64
238.858	70
239.091	76
239.325	80
239.559	73
239.793	74
240.027	73
240.26	66
240.494	76
240.728	90
240.961	85
241.195	71
241.429	82
241.662	61
241.896	80
242.13	66
242.363	82
242.597	73
242.83	58
243.064	77
243.298	86
243.531	77
243.765	65
243.998	73
244.232	70
244.465	85
244.699	89
244.932	89
245.166	72
245.399	82
245.633	78
245.866	65
246.099	73
246.333	76
246.566	72
246.8	78
247.033	84
247.266	65
247.5	76
247.733	76
247.966	73
248.2	68
248.433	73
248.666	79
248.899	64
249.133	83
249.366	98
249.599	102
249.832	80
250.066	91
250.299	78
250.532	87
250.765	78
250.998	73
251.231	73
251.465	79
251.698	80
251.931	75
252.164	76
252.397	71
252.63	95
252.863	82
253.096	73
253.329	84
253.562	86
253.795	73
254.028	89
254.261	80
254.494	76
254.727	68
254.96	72
255.193	76
255.426	89
255.659	66
255.892	76
256.124	74
256.357	78
256.59	83
256.823	64
257.056	70
257.289	88
257.521	84
257.754	76
257.987	79
258.22	84
258.452	81
258.685	94
258.918	88
259.151	95
259.383	83
259.616	81
259.849	60
260.081	85
260.314	82
260.547	78
260.779	84
261.012	86
261.244	78
261.477	83
261.71	99
261.942	87
262.175	110
262.407	84
262.64	88
262.872	78
263.105	71
263.337	77
263.57	83
263.802	71
264.035	80
264.267	90
264.499	72
264.732	76
264.964	85
265.197	81
265.429	74
265.661	83
265.894	79
266.126	78
266.358	72
266.591	92
266.823	100
267.055	82
267.287	69
267.52	84
267.752	88
267.984	84
268.216	82
268.448	88
268.681	80
268.913	82
269.145	88
269.377	73
269.609	66
269.841	87
270.073	73
270.306	76
270.538	77
270.77	78
271.002	81
271.234	89
271.466	83
271.698	78
271.93	82
272.162	83
272.394	84
272.626	74
272.858	96
273.09	78
273.322	81
273.553	79
273.785	66
274.017	78
274.249	86
274.481	80
274.713	82
274.945	92
275.176	94
275.408	88
275.64	80
275.872	90
276.104	88
276.335	85
276.567	89
276.799	98
277.031	100
277.262	85
277.494	82
277.726	79
277.957	98
278.189	97
278.421	79
278.652	73
278.884	85
279.115	77
279.347	92
279.579	94
279.81	71
280.042	84
280.273	84
280.505	87
280.736	89
280.968	85
281.199	68
281.431	85
281.662	92
281.894	91
282.125	96
282.356	111
282.588	106
282.819	112
283.051	84
283.282	93
283.513	103
283.745	92
283.976	79
284.207	83
284.439	82
284.67	87
284.901	83
285.132	89
285.364	86
285.595	82
285.826	88
286.057	102
286.288	74
286.52	76
286.751	73
286.982	94
287.213	72
287.444	82
287.675	78
287.906	101
288.138	96
288.369	91
288.6	117
288.831	74
289.062	98
289.293	80
289.524	84
289.755	77
289.986	90
290.217	87
290.448	94
290.679	86
290.91	86
291.141	89
291.371	76
291.602	82
291.833	79
292.064	79
292.295	85
292.526	85
292.757	87
292.987	76
293.218	84
293.449	81
293.68	89
293.91	82
294.141	79
294.372	86
294.603	89
294.833	74
295.064	75
295.295	84
295.525	75
295.756	91
295.987	117
296.217	119
296.448	103
296.679	80
296.909	93
297.14	82
297.37	84
297.601	88
297.831	83
298.062	82
298.292	85
298.523	71
298.753	82
298.984	86
299.214	91
299.445	82
299.675	101
299.905	110
300.136	83
300.366	82
300.597	80
300.827	86
301.057	80
301.288	95
301.518	93
301.748	70
301.979	96
302.209	80
302.439	78
302.669	91
302.9	98
303.13	100
303.36	79
303.59	97
303.82	88
304.051	94
304.281	85
304.511	90
304.741	83
304.971	73
305.201	86
305.431	74
305.661	91
305.891	79
306.121	97
306.352	100
306.582	95
306.812	104
307.042	82
307.272	89
307.502	90
307.731	94
307.961	81
308.191	80
308.421	94
308.651	67
308.881	84
309.111	83
309.341	82
309.571	87
309.8	93
310.03	92
310.26	88
310.49	89
310.72	89
310.949	105
311.179	86
311.409	99
311.639	82
311.868	97
312.098	97
312.328	90
312.557	95
312.787	96
313.017	99
313.246	92
313.476	83
313.706	98
313.935	103
314.165	97
314.394	89
314.624	100
314.853	89
315.083	92
315.312	96
315.542	90
315.771	82
316.001	96
316.23	78
316.46	86
316.689	82
316.919	99
317.148	103
317.377	70
317.607	87
317.836	89
318.065	84
318.295	79
318.524	85
318.753	78
318.983	99
319.212	99
319.441	87
319.67	88
319.9	96
320.129	101
320.358	96
320.587	82
320.816	106
321.046	97
321.275	99
321.504	89
321.733	102
321.962	84
322.191	88
322.42	100
322.649	113
322.878	103
323.108	112
323.337	110
323.566	116
323.795	135
324.024	193
324.253	351
324.482	724
324.71	1401
324.939	1852
325.168	687
325.397	212
325.626	139
325.855	127
326.084	115
326.313	126
326.542	142
326.77	204
326.999	382
327.228	780
327.457	1476
327.686	1130
327.914	314
328.143	194
328.372	160
328.6	119
328.829	101
329.058	124
329.287	105
329.515	90
329.744	101
329.972	117
330.201	119
330.43	161
330.658	119
330.887	112
331.115	111
331.344	91
331.572	95
331.801	89
332.03	102
332.258	105
332.486	82
332.715	85
332.943	98
333.172	93
333.4	88
333.629	103
333.857	106
334.085	135
334.314	131
334.542	173
334.771	154
334.999	90
335.227	86
335.455	88
335.684	88
335.912	96
336.14	92
336.369	91
336.597	115
336.825	94
337.053	83
337.281	89
337.51	82
337.738	86
337.966	97
338.194	102
338.422	99
338.65	92
338.878	93
339.106	89
339.334	90
339.562	92
339.79	84
340.018	88
340.246	88
340.474	69
340.702	96
340.93	91
341.158	85
341.386	88
341.614	91
341.842	92
342.07	81
342.298	94
342.526	72
342.754	101
342.981	93
343.209	85
343.437	95
343.665	86
343.893	89
344.12	87
344.348	75
344.576	95
344.804	94
345.031	90
345.259	79
345.487	92
345.714	80
345.942	88
346.17	106
346.397	87
346.625	89
346.853	78
347.08	98
347.308	86
347.535	98
347.763	76
347.99	81
348.218	94
348.445	99
348.673	105
348.9	95
349.128	97
349.355	93
349.583	93
349.81	99
350.037	92
350.265	88
350.492	83
350.72	93
350.947	98
351.174	103
351.402	98
351.629	82
351.856	91
352.083	98
352.311	90
352.538	97
352.765	112
352.992	105
353.22	104
353.447	85
353.674	101
353.901	97
354.128	83
354.355	80
354.583	95
354.81	100
355.037	101
355.264	86
355.491	92
355.718	92
355.945	97
356.172	100
356.399	81
356.626	98
356.853	86
357.08	97
357.307	93
357.534	100
357.761	93
357.988	83
358.215	97
358.441	94
358.668	97
358.895	72
359.122	89
359.349	89
359.576	78
359.802	88
360.029	104
360.256	96
360.483	85
360.709	96
360.936	94
361.163	98
361.39	88
361.616	93
361.843	82
362.07	103
362.296	96
362.523	82
362.749	91
362.976	88
363.203	103
363.429	85
363.656	98
363.882	94
364.109	87
364.335	88
364.562	85
364.788	81
365.015	71
365.241	81
365.468	86
365.694	112
365.92	83
366.147	86
366.373	96
366.599	88
366.826	83
367.052	84
367.278	86
367.505	98
367.731	92
367.957	86
368.184	93
368.41	85
368.636	95
368.862	113
369.089	98
369.315	77
369.541	92
369.767	87
369.993	84
370.219	96
370.445	75
370.672	90
370.898	76
371.124	94
371.35	82
371.576	96
371.802	79
372.028	76
372.254	83
372.48	79
372.706	85
372.932	88
373.158	88
373.384	91
373.61	77
373.835	68
374.061	90
374.287	85
374.513	85
374.739	89
374.965	85
375.191	102
375.416	85
375.642	86
375.868	87
376.094	88
376.319	85
376.545	85
376.771	87
376.997	77
377.222	88
377.448	98
377.674	73
377.899	97
378.125	80
378.35	82
378.576	85
378.802	86
379.027	84
379.253	93
379.478	88
379.704	86
379.929	86
380.155	81
380.38	96
380.606	91
380.831	81
381.057	95
381.282	105
381.507	84
381.733	94
381.958	84
382.184	97
382.409	89
382.634	89
382.86	87
383.085	88
383.31	104
383.535	92
383.761	92
383.986	77
384.211	106
384.436	103
384.662	98
384.887	92
385.112	76
385.337	100
385.562	93
385.787	85
386.013	89
386.238	96
386.463	99
386.688	109
386.913	107
387.138	86
387.363	82
387.588	102
387.813	80
388.038	87
388.263	85
388.488	92
388.713	93
388.938	105
389.163	76
389.387	84
389.612	100
389.837	100
390.062	88
390.287	100
390.512	90
390.736	96
390.961	79
391.186	91
391.411	93
391.636	85
391.86	99
392.085	85
392.31	76
392.534	76
392.759	86
392.984	79
393.208	92
393.433	94
393.658	84
393.882	93
394.107	94
394.331	87
394.556	76
394.78	77
395.005	75
395.229	91
395.454	85
395.678	89
395.903	80
396.127	77
396.352	84
396.576	80
396.801	85
397.025	88
397.249	78
397.474	84
397.698	100
397.922	81
398.147	79
398.371	82
398.595	83
398.82	82
399.044	101
399.268	84
399.492	71
399.717	97
399.941	82
400.165	94
400.389	86
400.613	84
400.837	86
401.062	72
401.286	78
401.51	79
401.734	101
401.958	95
402.182	118
402.406	136
402.63	91
402.854	89
403.078	88
403.302	79
403.526	82
403.75	90
403.974	89
404.198	73
404.422	88
404.645	72
404.869	84
405.093	97
405.317	90
405.541	104
405.765	93
405.988	104
406.212	155
406.436	197
406.66	121
406.883	91
407.107	97
407.331	90
407.555	88
407.778	91
408.002	92
408.226	87
408.449	86
408.673	90
408.896	88
409.12	97
409.344	87
409.567	83
409.791	82
410.014	89
410.238	81
410.461	84
410.685	80
410.908	87
411.132	89
411.355	96
411.578	86
411.802	89
412.025	86
412.249	70
412.472	96
412.695	102
412.919	82
413.142	82
413.365	84
413.589	89
413.812	93
414.035	89
414.258	81
414.482	86
414.705	91
414.928	87
415.151	92
415.374	79
415.597	89
415.821	78
416.044	93
416.267	87
416.49	78
416.713	90
416.936	100
417.159	78
417.382	80
417.605	77
417.828	79
418.051	87
418.274	93
418.497	84
418.72	93
418.943	82
419.166	84
419.389	78
419.611	96
419.834	85
420.057	87
420.28	91
420.503	71
420.726	81
420.948	83
421.171	105
421.394	90
421.617	93
421.839	84
422.062	79
422.285	72
422.507	90
422.73	92
422.953	84
423.175	85
423.398	84
423.621	96
423.843	108
424.066	87
424.288	76
424.511	87
424.733	98
424.956	103
425.178	84
425.401	100
425.623	92
425.846	87
426.068	73
426.291	88
426.513	91
426.735	89
426.958	89
427.18	96
427.402	121
427.625	136
427.847	124
428.069	106
428.292	88
428.514	79
428.736	82
428.958	83
429.181	79
429.403	87
429.625	81
429.847	91
430.069	97
430.292	97
430.514	70
430.736	77
430.958	89
431.18	80
431.402	73
431.624	82
431.846	83
432.068	98
432.29	81
432.512	89
432.734	74
432.956	85
433.178	88
433.4	86
433.622	88
433.844	96
434.066	68
434.287	79
434.509	80
434.731	78
434.953	104
435.175	98
435.397	86
435.618	86
435.84	87
436.062	122
436.284	103
436.505	100
436.727	97
436.949	90
437.17	103
437.392	93
437.614	93
437.835	96
438.057	109
438.278	101
438.5	90
438.721	103
438.943	90
439.165	74
439.386	83
439.608	91
439.829	96
440.05	102
440.272	122
440.493	93
440.715	88
440.936	83
441.158	81
441.379	88
441.6	91
441.822	106
442.043	73
442.264	89
442.486	90
442.707	92
442.928	102
443.149	99
443.371	117
443.592	103
443.813	106
444.034	104
444.255	90
444.476	77
444.698	87
444.919	98
445.14	128
445.361	118
445.582	120
445.803	114
446.024	124
446.245	129
446.466	95
446.687	98
446.908	99
447.129	90
447.35	70
447.571	80
447.792	93
448.013	85
448.234	101
448.455	91
448.675	102
448.896	94
449.117	85
449.338	99
449.559	115
449.779	117
450	101
450.221	80
450.442	94
450.662	89
450.883	89
451.104	100
451.324	87
451.545	82
451.766	85
451.986	82
452.207	82
452.428	91
452.648	100
452.869	95
453.089	109
453.31	97
453.53	93
453.751	87
453.971	88
454.192	80
454.412	96
454.633	76
454.853	81
455.073	59
455.294	75
455.514	90
455.734	85
455.955	88
456.175	84
456.395	87
456.616	80
456.836	81
457.056	86
457.276	84
457.497	80
457.717	86
457.937	82
458.157	85
458.377	88
458.598	92
458.818	143
459.038	129
459.258	107
459.478	88
459.698	78
459.918	92
460.138	77
460.358	78
460.578	101
460.798	76
461.018	80
461.238	82
461.458	90
461.678	89
461.898	92
462.118	88
462.338	74
462.558	68
462.777	87
462.997	100
463.217	89
463.437	87
463.657	72
463.876	78
464.096	92
464.316	81
464.536	85
464.755	68
464.975	96
465.195	152
465.414	144
465.634	94
465.854	107
466.073	82
466.293	89
466.512	82
466.732	88
466.951	86
467.171	79
467.391	92
467.61	79
467.829	102
468.049	109
468.268	136
468.488	88
468.707	89
468.927	77
469.146	90
469.365	76
469.585	77
469.804	83
470.023	96
470.243	80
470.462	101
470.681	106
470.901	84
471.12	89
471.339	77
471.558	81
471.777	89
471.997	91
472.216	135
472.435	195
472.654	100
472.873	84
473.092	81
473.311	89
473.53	88
473.749	89
473.968	83
474.187	105
474.406	80
474.625	83
474.844	76
475.063	92
475.282	76
475.501	89
475.72	88
475.939	98
476.158	88
476.377	81
476.596	107
476.814	94
477.033	78
477.252	84
477.471	100
477.69	91
477.908	86
478.127	83
478.346	85
478.564	81
478.783	88
479.002	74
479.22	88
479.439	107
479.658	87
479.876	74
480.095	102
480.313	86
480.532	90
480.751	96
480.969	129
481.188	309
481.406	199
481.624	101
481.843	92
482.061	86
482.28	75
482.498	82
482.717	87
482.935	82
483.153	84
483.372	82
483.59	93
483.808	90
484.027	98
484.245	95
484.463	93
484.681	93
484.9	71
485.118	100
485.336	97
485.554	90
485.772	100
485.99	85
486.209	93
486.427	85
486.645	97
486.863	104
487.081	101
487.299	96
487.517	96
487.735	85
487.953	88
488.171	71
488.389	87
488.607	85
488.825	98
489.043	87
489.261	91
489.479	84
489.696	100
489.914	79
490.132	94
490.35	93
490.568	85
490.786	86
491.003	81
491.221	74
491.439	80
491.657	84
491.874	84
492.092	91
492.31	91
492.527	80
492.745	88
492.963	76
493.18	93
493.398	72
493.615	93
493.833	94
494.05	90
494.268	87
494.485	82
494.703	98
494.92	95
495.138	89
495.355	91
495.573	95
495.79	89
496.008	84
496.225	94
496.442	85
496.66	88
496.877	93
497.094	95
497.312	90
497.529	82
497.746	83
497.963	90
498.181	88
498.398	90
498.615	89
498.832	100
499.049	76
499.267	88
499.484	86
499.701	102
499.918	101
500.135	99
500.352	80
500.569	83
500.786	102
501.003	92
501.22	86
501.437	98
501.654	94
501.871	110
502.088	89
502.305	87
502.522	95
502.739	85
502.956	90
503.172	89
503.389	82
503.606	101
503.823	90
504.04	81
504.256	85
504.473	80
504.69	96
504.907	92
505.123	83
505.34	97
505.557	92
505.773	97
505.99	96
506.207	87
506.423	97
506.64	103
506.856	80
507.073	99
507.289	80
507.506	89
507.722	106
507.939	105
508.155	87
508.372	97
508.588	105
508.805	85
509.021	87
509.238	100
509.454	104
509.67	92
509.887	94
510.103	114
510.319	200
510.536	655
510.752	2074
510.968	588
511.184	139
511.401	108
511.617	87
511.833	82
512.049	92
512.265	99
512.481	91
512.698	89
512.914	78
513.13	84
513.346	86
513.562	86
513.778	96
513.994	105
514.21	97
514.426	97
514.642	122
514.858	121
515.074	153
515.29	380
515.506	1208
515.721	454
515.937	137
516.153	108
516.369	88
516.585	97
516.801	94
517.016	83
517.232	83
517.448	85
517.664	102
517.879	85
518.095	78
518.311	94
518.527	88
518.742	85
518.958	89
519.173	84
519.389	86
519.605	93
519.82	86
520.036	99
520.251	112
520.467	90
520.682	90
520.898	105
521.113	127
521.329	130
521.544	183
521.76	482
521.975	2043
522.19	1220
522.406	261
522.621	119
522.836	99
523.052	94
523.267	92
523.482	92
523.698	101
523.913	105
524.128	83
524.343	81
524.559	100
524.774	89
524.989	90
525.204	81
525.419	98
525.634	94
525.849	100
526.064	94
526.28	89
526.495	93
526.71	94
526.925	97
527.14	83
527.355	79
527.57	88
527.785	97
527.999	73
528.214	86
528.429	88
528.644	95
528.859	87
529.074	90
529.289	104
529.503	174
529.718	95
529.933	92
530.148	105
530.363	88
530.577	95
530.792	95
531.007	86
531.221	80
531.436	76
531.651	85
531.865	86
532.08	87
532.295	81
532.509	90
532.724	89
532.938	97
533.153	105
533.367	77
533.582	75
533.796	102
534.011	97
534.225	92
534.44	88
534.654	83
534.868	92
535.083	83
535.297	100
535.511	96
535.726	101
535.94	91
536.154	84
536.369	81
536.583	81
536.797	95
537.011	78
537.225	81
537.44	89
537.654	92
537.868	77
538.082	88
538.296	103
538.51	94
538.724	93
538.938	79
539.153	104
539.367	112
539.581	83
539.795	96
540.009	91
540.222	81
540.436	81
540.65	77
540.864	82
541.078	90
541.292	100
541.506	86
541.72	97
541.934	89
542.147	76
542.361	82
542.575	78
542.789	73
543.002	88
543.216	74
543.43	80
543.644	88
543.857	99
544.071	88
544.285	88
544.498	82
544.712	84
544.925	100
545.139	89
545.352	88
545.566	81
545.779	100
545.993	80
546.206	82
546.42	69
546.633	80
546.847	84
547.06	83
547.274	93
547.487	91
547.7	79
547.914	87
548.127	84
548.34	89
548.554	86
548.767	87
548.98	90
549.193	91
549.407	87
549.62	76
549.833	84
550.046	76
550.259	74
550.473	76
550.686	94
550.899	86
551.112	86
551.325	87
551.538	82
551.751	93
551.964	98
552.177	94
552.39	90
552.603	73
552.816	81
553.029	84
553.242	92
553.455	106
553.667	96
553.88	81
554.093	104
554.306	83
554.519	86
554.732	80
554.944	89
555.157	71
555.37	85
555.583	90
555.795	99
556.008	88
556.221	87
556.433	93
556.646	90
556.859	78
557.071	92
557.284	82
557.496	80
557.709	93
557.921	74
558.134	98
558.346	82
558.559	88
558.771	88
558.984	81
559.196	94
559.409	88
559.621	93
559.833	86
560.046	95
560.258	77
560.47	80
560.683	83
560.895	78
561.107	82
561.32	78
561.532	97
561.744	95
561.956	86
562.168	86
562.381	92
562.593	92
562.805	84
563.017	96
563.229	95
563.441	94
563.653	94
563.865	81
564.077	82
564.289	88
564.501	87
564.713	86
564.925	77
565.137	105
565.349	103
565.561	93
565.773	92
565.985	90
566.197	101
566.408	79
566.62	88
566.832	92
567.044	82
567.255	80
567.467	84
567.679	93
567.891	91
568.102	89
568.314	93
568.526	81
568.737	84
568.949	70
569.161	84
569.372	84
569.584	93
569.795	93
570.007	112
570.218	220
570.43	121
570.641	102
570.853	105
571.064	82
571.276	80
571.487	90
571.698	97
571.91	80
572.121	80
572.333	88
572.544	73
572.755	83
572.966	71
573.178	77
573.389	96
573.6	87
573.811	79
574.023	74
574.234	82
574.445	92
574.656	80
574.867	104
575.078	92
575.289	79
575.501	85
575.712	74
575.923	73
576.134	100
576.345	102
576.556	76
576.767	94
576.978	86
577.188	88
577.399	107
577.61	89
577.821	99
578.032	121
578.243	253
578.454	624
578.665	172
578.875	97
579.086	83
579.297	77
579.508	97
579.718	94
579.929	86
580.14	81
580.35	79
580.561	78
580.772	86
580.982	98
581.193	86
581.403	73
581.614	82
581.825	98
582.035	90
582.246	74
582.456	87
582.667	85
582.877	81
583.087	76
583.298	82
583.508	93
583.719	69
583.929	84
584.139	94
584.35	74
584.56	86
584.77	76
584.981	72
585.191	80
585.401	83
585.611	97
585.821	86
586.032	90
586.242	92
