Data from Uncirc_1985_H10_HRD10591_00013.txt Node
Date: Wed Jan 03 12:18:20 EST 2024
User: Yrep
Spectrometer: HR+D1059
Trigger mode: 1
Integration Time (sec): 1.000000E-1
Scans to average: 1
Electric dark correction enabled: true
Nonlinearity correction enabled: false
Boxcar width: 0
XAxis mode: Wavelengths
Number of Pixels in Spectrum: 2048
>>>>>Begin Spectral Data<<<<<
223.165	-15
223.4	-15
223.635	-15
223.869	-23
224.104	-13
224.338	-8
224.573	-14
224.808	-19
225.042	-8
225.277	-7
225.511	-3
225.746	-1
225.98	9
226.215	20
226.449	21
226.683	1
226.918	41
227.152	19
227.387	39
227.621	49
227.856	45
228.09	56
228.324	50
228.559	45
228.793	66
229.027	66
229.262	60
229.496	84
229.73	81
229.964	76
230.199	65
230.433	71
230.667	80
230.901	95
231.136	84
231.37	76
231.604	81
231.838	82
232.072	86
232.306	74
232.541	87
232.775	91
233.009	91
233.243	82
233.477	93
233.711	84
233.945	82
234.179	90
234.413	84
234.647	81
234.881	78
235.115	71
235.349	78
235.583	85
235.817	74
236.051	92
236.285	84
236.519	63
236.753	89
236.987	82
237.221	66
237.455	89
237.689	78
237.922	65
238.156	79
238.39	80
238.624	98
238.858	82
239.091	81
239.325	89
239.559	77
239.793	74
240.027	85
240.26	70
240.494	63
240.728	85
240.961	78
241.195	74
241.429	70
241.662	76
241.896	66
242.13	79
242.363	69
242.597	80
242.83	74
243.064	84
243.298	84
243.531	69
243.765	76
243.998	83
244.232	77
244.465	82
244.699	93
244.932	80
245.166	83
245.399	75
245.633	96
245.866	96
246.099	80
246.333	79
246.566	98
246.8	92
247.033	88
247.266	85
247.5	77
247.733	84
247.966	68
248.2	83
248.433	63
248.666	76
248.899	104
249.133	97
249.366	93
249.599	98
249.832	86
250.066	79
250.299	81
250.532	85
250.765	83
250.998	85
251.231	97
251.465	81
251.698	86
251.931	81
252.164	70
252.397	79
252.63	85
252.863	73
253.096	90
253.329	69
253.562	67
253.795	83
254.028	85
254.261	74
254.494	89
254.727	85
254.96	82
255.193	83
255.426	82
255.659	96
255.892	99
256.124	71
256.357	68
256.59	97
256.823	88
257.056	76
257.289	77
257.521	76
257.754	82
257.987	79
258.22	94
258.452	52
258.685	81
258.918	56
259.151	85
259.383	86
259.616	74
259.849	77
260.081	85
260.314	83
260.547	92
260.779	77
261.012	84
261.244	76
261.477	87
261.71	96
261.942	106
262.175	105
262.407	88
262.64	91
262.872	83
263.105	82
263.337	69
263.57	88
263.802	87
264.035	83
264.267	79
264.499	88
264.732	96
264.964	91
265.197	85
265.429	87
265.661	74
265.894	92
266.126	77
266.358	81
266.591	86
266.823	79
267.055	81
267.287	85
267.52	76
267.752	83
267.984	91
268.216	77
268.448	96
268.681	92
268.913	83
269.145	85
269.377	83
269.609	87
269.841	81
270.073	96
270.306	89
270.538	87
270.77	92
271.002	82
271.234	86
271.466	79
271.698	108
271.93	82
272.162	97
272.394	81
272.626	66
272.858	76
273.09	90
273.322	95
273.553	79
273.785	87
274.017	89
274.249	85
274.481	91
274.713	70
274.945	81
275.176	81
275.408	80
275.64	82
275.872	85
276.104	88
276.335	98
276.567	106
276.799	94
277.031	86
277.262	90
277.494	99
277.726	80
277.957	87
278.189	87
278.421	88
278.652	85
278.884	87
279.115	88
279.347	81
279.579	83
279.81	88
280.042	92
280.273	92
280.505	91
280.736	91
280.968	79
281.199	97
281.431	81
281.662	96
281.894	94
282.125	107
282.356	108
282.588	137
282.819	111
283.051	89
283.282	75
283.513	86
283.745	86
283.976	70
284.207	75
284.439	77
284.67	88
284.901	76
285.132	69
285.364	73
285.595	81
285.826	96
286.057	85
286.288	96
286.52	92
286.751	81
286.982	85
287.213	99
287.444	88
287.675	85
287.906	103
288.138	97
288.369	92
288.6	93
288.831	101
289.062	90
289.293	90
289.524	81
289.755	97
289.986	82
290.217	89
290.448	79
290.679	86
290.91	94
291.141	80
291.371	90
291.602	102
291.833	96
292.064	81
292.295	88
292.526	83
292.757	91
292.987	95
293.218	82
293.449	77
293.68	84
293.91	96
294.141	87
294.372	103
294.603	96
294.833	98
295.064	104
295.295	86
295.525	85
295.756	102
295.987	118
296.217	122
296.448	123
296.679	92
296.909	103
297.14	94
297.37	92
297.601	91
297.831	96
298.062	81
298.292	81
298.523	86
298.753	92
298.984	81
299.214	82
299.445	87
299.675	79
299.905	95
300.136	95
300.366	87
300.597	88
300.827	102
301.057	100
301.288	101
301.518	107
301.748	104
301.979	99
302.209	103
302.439	106
302.669	95
302.9	99
303.13	92
303.36	100
303.59	100
303.82	98
304.051	99
304.281	106
304.511	100
304.741	82
304.971	91
305.201	95
305.431	69
305.661	89
305.891	87
306.121	88
306.352	91
306.582	99
306.812	91
307.042	92
307.272	87
307.502	89
307.731	98
307.961	101
308.191	84
308.421	97
308.651	103
308.881	89
309.111	102
309.341	101
309.571	95
309.8	106
310.03	91
310.26	111
310.49	100
310.72	96
310.949	96
311.179	102
311.409	90
311.639	105
311.868	93
312.098	81
312.328	104
312.557	100
312.787	93
313.017	97
313.246	107
313.476	91
313.706	92
313.935	91
314.165	96
314.394	95
314.624	93
314.853	103
315.083	98
315.312	78
315.542	93
315.771	100
316.001	99
316.23	90
316.46	74
316.689	97
316.919	88
317.148	95
317.377	93
317.607	107
317.836	86
318.065	106
318.295	99
318.524	81
318.753	94
318.983	91
319.212	104
319.441	104
319.67	98
319.9	81
320.129	92
320.358	99
320.587	92
320.816	97
321.046	111
321.275	89
321.504	87
321.733	93
321.962	95
322.191	95
322.42	109
322.649	102
322.878	97
323.108	113
323.337	124
323.566	133
323.795	134
324.024	203
324.253	379
324.482	817
324.71	1629
324.939	2182
325.168	777
325.397	240
325.626	145
325.855	115
326.084	110
326.313	120
326.542	152
326.77	223
326.999	447
327.228	950
327.457	1743
327.686	1334
327.914	347
328.143	182
328.372	135
328.6	130
328.829	116
329.058	131
329.287	134
329.515	115
329.744	101
329.972	110
330.201	106
330.43	124
330.658	133
330.887	147
331.115	100
331.344	106
331.572	102
331.801	99
332.03	102
332.258	100
332.486	96
332.715	95
332.943	109
333.172	91
333.4	100
333.629	98
333.857	106
334.085	97
334.314	97
334.542	104
334.771	103
334.999	108
335.227	96
335.455	95
335.684	97
335.912	102
336.14	94
336.369	96
336.597	89
336.825	77
337.053	103
337.281	87
337.51	96
337.738	114
337.966	103
338.194	92
338.422	84
338.65	83
338.878	87
339.106	93
339.334	102
339.562	92
339.79	94
340.018	96
340.246	90
340.474	81
340.702	83
340.93	99
341.158	84
341.386	91
341.614	86
341.842	92
342.07	92
342.298	88
342.526	88
342.754	98
342.981	94
343.209	100
343.437	114
343.665	91
343.893	91
344.12	81
344.348	91
344.576	97
344.804	91
345.031	88
345.259	98
345.487	85
345.714	89
345.942	88
346.17	87
346.397	102
346.625	106
346.853	92
347.08	91
347.308	111
347.535	97
347.763	90
347.99	104
348.218	91
348.445	92
348.673	96
348.9	112
349.128	106
349.355	101
349.583	92
349.81	81
350.037	82
350.265	99
350.492	98
350.72	89
350.947	112
351.174	102
351.402	104
351.629	83
351.856	95
352.083	90
352.311	103
352.538	107
352.765	103
352.992	109
353.22	115
353.447	98
353.674	91
353.901	105
354.128	104
354.355	90
354.583	106
354.81	98
355.037	102
355.264	108
355.491	93
355.718	96
355.945	100
356.172	106
356.399	91
356.626	92
356.853	84
357.08	101
357.307	99
357.534	89
357.761	90
357.988	81
358.215	94
358.441	93
358.668	93
358.895	100
359.122	98
359.349	91
359.576	93
359.802	93
360.029	101
360.256	99
360.483	83
360.709	86
360.936	86
361.163	101
361.39	95
361.616	98
361.843	92
362.07	80
362.296	98
362.523	90
362.749	87
362.976	101
363.203	100
363.429	99
363.656	98
363.882	103
364.109	81
364.335	103
364.562	91
364.788	91
365.015	98
365.241	107
365.468	109
365.694	83
365.92	88
366.147	88
366.373	91
366.599	92
366.826	98
367.052	104
367.278	96
367.505	97
367.731	91
367.957	91
368.184	103
368.41	97
368.636	111
368.862	110
369.089	109
369.315	106
369.541	104
369.767	101
369.993	83
370.219	93
370.445	79
370.672	90
370.898	86
371.124	88
371.35	77
371.576	81
371.802	80
372.028	86
372.254	95
372.48	103
372.706	90
372.932	97
373.158	91
373.384	89
373.61	104
373.835	76
374.061	96
374.287	83
374.513	81
374.739	84
374.965	111
375.191	84
375.416	92
375.642	91
375.868	94
376.094	88
376.319	90
376.545	87
376.771	83
376.997	89
377.222	85
377.448	76
377.674	85
377.899	91
378.125	92
378.35	90
378.576	94
378.802	73
379.027	95
379.253	98
379.478	99
379.704	92
379.929	111
380.155	104
380.38	86
380.606	87
380.831	102
381.057	97
381.282	101
381.507	90
381.733	91
381.958	88
382.184	102
382.409	95
382.634	112
382.86	97
383.085	108
383.31	104
383.535	85
383.761	84
383.986	91
384.211	97
384.436	104
384.662	99
384.887	109
385.112	104
385.337	114
385.562	106
385.787	82
386.013	111
386.238	111
386.463	122
386.688	113
386.913	108
387.138	93
387.363	96
387.588	115
387.813	115
388.038	93
388.263	100
388.488	118
388.713	73
388.938	95
389.163	95
389.387	82
389.612	87
389.837	97
390.062	92
390.287	81
390.512	90
390.736	87
390.961	101
391.186	92
391.411	95
391.636	82
391.86	93
392.085	76
392.31	83
392.534	96
392.759	85
392.984	87
393.208	104
393.433	109
393.658	103
393.882	89
394.107	74
394.331	83
394.556	74
394.78	101
395.005	76
395.229	91
395.454	77
395.678	89
395.903	83
396.127	84
396.352	83
396.576	99
396.801	104
397.025	95
397.249	91
397.474	104
397.698	87
397.922	86
398.147	88
398.371	83
398.595	83
398.82	97
399.044	97
399.268	77
399.492	100
399.717	94
399.941	103
400.165	71
400.389	82
400.613	81
400.837	95
401.062	109
401.286	83
401.51	83
401.734	77
401.958	105
402.182	116
402.406	137
402.63	99
402.854	95
403.078	77
403.302	79
403.526	85
403.75	93
403.974	97
404.198	77
404.422	85
404.645	87
404.869	99
405.093	83
405.317	102
405.541	98
405.765	103
405.988	115
406.212	155
406.436	220
406.66	121
406.883	103
407.107	97
407.331	92
407.555	113
407.778	97
408.002	97
408.226	98
408.449	97
408.673	95
408.896	89
409.12	90
409.344	90
409.567	105
409.791	91
410.014	111
410.238	95
410.461	95
410.685	90
410.908	95
411.132	95
411.355	109
411.578	93
411.802	90
412.025	88
412.249	109
412.472	102
412.695	86
412.919	109
413.142	82
413.365	90
413.589	93
413.812	88
414.035	85
414.258	86
414.482	97
414.705	75
414.928	106
415.151	102
415.374	97
415.597	72
415.821	81
416.044	105
416.267	76
416.49	91
416.713	97
416.936	92
417.159	86
417.382	87
417.605	86
417.828	90
418.051	84
418.274	85
418.497	83
418.72	78
418.943	97
419.166	82
419.389	87
419.611	76
419.834	83
420.057	88
420.28	101
420.503	94
420.726	75
420.948	97
421.171	90
421.394	92
421.617	92
421.839	88
422.062	93
422.285	108
422.507	95
422.73	102
422.953	92
423.175	89
423.398	85
423.621	77
423.843	90
424.066	65
424.288	101
424.511	98
424.733	91
424.956	99
425.178	113
425.401	108
425.623	82
425.846	88
426.068	84
426.291	103
426.513	92
426.735	104
426.958	93
427.18	97
427.402	124
427.625	160
427.847	118
428.069	111
428.292	90
428.514	75
428.736	76
428.958	89
429.181	84
429.403	82
429.625	97
429.847	108
430.069	98
430.292	90
430.514	74
430.736	99
430.958	86
431.18	87
431.402	81
431.624	89
431.846	105
432.068	99
432.29	81
432.512	93
432.734	90
432.956	83
433.178	93
433.4	103
433.622	75
433.844	84
434.066	97
434.287	92
434.509	78
434.731	95
434.953	64
435.175	90
435.397	97
435.618	96
435.84	118
436.062	113
436.284	109
436.505	92
436.727	99
436.949	95
437.17	75
437.392	94
437.614	107
437.835	97
438.057	113
438.278	107
438.5	92
438.721	115
438.943	94
439.165	91
439.386	97
439.608	99
439.829	103
440.05	108
440.272	121
440.493	91
440.715	84
440.936	84
441.158	92
441.379	98
441.6	89
441.822	96
442.043	103
442.264	106
442.486	98
442.707	86
442.928	108
443.149	117
443.371	122
443.592	104
443.813	85
444.034	113
444.255	89
444.476	90
444.698	85
444.919	63
445.14	136
445.361	121
445.582	108
445.803	118
446.024	133
446.245	128
446.466	101
446.687	93
446.908	75
447.129	78
447.35	90
447.571	92
447.792	100
448.013	112
448.234	83
448.455	101
448.675	103
448.896	102
449.117	89
449.338	100
449.559	122
449.779	123
450	81
450.221	93
450.442	75
450.662	87
450.883	102
451.104	102
451.324	90
451.545	89
451.766	87
451.986	75
452.207	96
452.428	92
452.648	92
452.869	104
453.089	105
453.31	100
453.53	91
453.751	92
453.971	91
454.192	108
454.412	93
454.633	92
454.853	88
455.073	98
455.294	95
455.514	92
455.734	82
455.955	85
456.175	94
456.395	83
456.616	87
456.836	95
457.056	100
457.276	90
457.497	82
457.717	84
457.937	70
458.157	81
458.377	87
458.598	113
458.818	131
459.038	149
459.258	99
459.478	99
459.698	96
459.918	89
460.138	88
460.358	88
460.578	91
460.798	80
461.018	80
461.238	87
461.458	92
461.678	85
461.898	86
462.118	87
462.338	84
462.558	91
462.777	67
462.997	75
463.217	75
463.437	87
463.657	90
463.876	86
464.096	81
464.316	98
464.536	109
464.755	100
464.975	109
465.195	148
465.414	163
465.634	104
465.854	96
466.073	83
466.293	97
466.512	93
466.732	81
466.951	86
467.171	96
467.391	100
467.61	104
467.829	99
468.049	104
468.268	97
468.488	81
468.707	77
468.927	90
469.146	92
469.365	93
469.585	89
469.804	91
470.023	106
470.243	81
470.462	93
470.681	110
470.901	87
471.12	90
471.339	99
471.558	82
471.777	100
471.997	93
472.216	96
472.435	101
472.654	99
472.873	82
473.092	77
473.311	76
473.53	87
473.749	91
473.968	107
474.187	99
474.406	103
474.625	84
474.844	81
475.063	100
475.282	86
475.501	99
475.72	88
475.939	87
476.158	86
476.377	81
476.596	80
476.814	100
477.033	85
477.252	92
477.471	83
477.69	97
477.908	83
478.127	89
478.346	93
478.564	97
478.783	103
479.002	92
479.22	82
479.439	106
479.658	93
479.876	86
480.095	91
480.313	80
480.532	87
480.751	91
480.969	120
481.188	143
481.406	118
481.624	84
481.843	95
482.061	92
482.28	76
482.498	79
482.717	92
482.935	97
483.153	93
483.372	83
483.59	95
483.808	86
484.027	98
484.245	98
484.463	85
484.681	98
484.9	87
485.118	92
485.336	89
485.554	92
485.772	120
485.99	96
486.209	92
486.427	113
486.645	114
486.863	105
487.081	102
487.299	103
487.517	99
487.735	100
487.953	94
488.171	88
488.389	90
488.607	100
488.825	95
489.043	91
489.261	97
489.479	74
489.696	92
489.914	91
490.132	83
490.35	87
490.568	101
490.786	87
491.003	83
491.221	84
491.439	91
491.657	81
491.874	89
492.092	90
492.31	104
492.527	111
492.745	87
492.963	92
493.18	87
493.398	100
493.615	90
493.833	102
494.05	92
494.268	98
494.485	81
494.703	91
494.92	97
495.138	87
495.355	94
495.573	96
495.79	92
496.008	94
496.225	92
496.442	90
496.66	102
496.877	91
497.094	92
497.312	103
497.529	85
497.746	89
497.963	100
498.181	102
498.398	93
498.615	106
498.832	90
499.049	90
499.267	84
499.484	104
499.701	100
499.918	90
500.135	93
500.352	96
500.569	95
500.786	89
501.003	106
501.22	95
501.437	89
501.654	89
501.871	93
502.088	88
502.305	101
502.522	79
502.739	91
502.956	92
503.172	88
503.389	105
503.606	111
503.823	113
504.04	108
504.256	94
504.473	98
504.69	84
504.907	98
505.123	81
505.34	93
505.557	93
505.773	103
505.99	88
506.207	95
506.423	96
506.64	86
506.856	98
507.073	84
507.289	96
507.506	88
507.722	104
507.939	99
508.155	105
508.372	87
508.588	82
508.805	94
509.021	104
509.238	91
509.454	111
509.67	103
509.887	94
510.103	139
510.319	221
510.536	796
510.752	2371
510.968	625
511.184	167
511.401	109
511.617	114
511.833	95
512.049	98
512.265	89
512.481	101
512.698	71
512.914	89
513.13	102
513.346	82
513.562	99
513.778	87
513.994	90
514.21	112
514.426	112
514.642	137
514.858	123
515.074	162
515.29	449
515.506	1398
515.721	503
515.937	136
516.153	101
516.369	100
516.585	99
516.801	94
517.016	84
517.232	83
517.448	100
517.664	92
517.879	97
518.095	95
518.311	101
518.527	91
518.742	96
518.958	83
519.173	107
519.389	111
519.605	84
519.82	98
520.036	100
520.251	132
520.467	115
520.682	109
520.898	109
521.113	110
521.329	121
521.544	194
521.76	557
521.975	2323
522.19	1340
522.406	285
522.621	116
522.836	90
523.052	100
523.267	95
523.482	91
523.698	95
523.913	117
524.128	107
524.343	89
524.559	100
524.774	82
524.989	97
525.204	100
525.419	103
525.634	95
525.849	94
526.064	98
526.28	103
526.495	89
526.71	98
526.925	90
527.14	100
527.355	90
527.57	87
527.785	93
527.999	83
528.214	84
528.429	87
528.644	107
528.859	87
529.074	87
529.289	118
529.503	159
529.718	105
529.933	92
530.148	85
530.363	84
530.577	87
530.792	87
531.007	83
531.221	106
531.436	77
531.651	101
531.865	90
532.08	107
532.295	97
532.509	99
532.724	86
532.938	84
533.153	88
533.367	102
533.582	94
533.796	83
534.011	85
534.225	104
534.44	89
534.654	99
534.868	87
535.083	90
535.297	99
535.511	104
535.726	99
535.94	92
536.154	95
536.369	85
536.583	82
536.797	87
537.011	82
537.225	98
537.44	100
537.654	92
537.868	104
538.082	98
538.296	92
538.51	90
538.724	90
538.938	93
539.153	104
539.367	100
539.581	99
539.795	104
540.009	81
540.222	100
540.436	83
540.65	81
540.864	94
541.078	97
541.292	108
541.506	99
541.72	96
541.934	91
542.147	89
542.361	95
542.575	81
542.789	97
543.002	92
543.216	101
543.43	90
543.644	92
543.857	90
544.071	93
544.285	82
544.498	91
544.712	85
544.925	76
545.139	96
545.352	97
545.566	91
545.779	87
545.993	89
546.206	84
546.42	96
546.633	87
546.847	86
547.06	88
547.274	106
547.487	101
547.7	105
547.914	85
548.127	89
548.34	85
548.554	74
548.767	87
548.98	99
549.193	104
549.407	76
549.62	87
549.833	83
550.046	82
550.259	83
550.473	76
550.686	95
550.899	92
551.112	93
551.325	88
551.538	89
551.751	88
551.964	94
552.177	85
552.39	85
552.603	105
552.816	79
553.029	89
553.242	92
553.455	96
553.667	115
553.88	93
554.093	91
554.306	79
554.519	99
554.732	94
554.944	93
555.157	84
555.37	88
555.583	85
555.795	108
556.008	94
556.221	83
556.433	87
556.646	88
556.859	99
557.071	89
557.284	104
557.496	89
557.709	91
557.921	83
558.134	96
558.346	86
558.559	89
558.771	93
558.984	88
559.196	95
559.409	99
559.621	101
559.833	89
560.046	96
560.258	84
560.47	89
560.683	89
560.895	104
561.107	99
561.32	85
561.532	100
561.744	91
561.956	92
562.168	82
562.381	97
562.593	97
562.805	86
563.017	100
563.229	76
563.441	88
563.653	89
563.865	91
564.077	83
564.289	97
564.501	105
564.713	81
564.925	97
565.137	94
565.349	94
565.561	84
565.773	71
565.985	84
566.197	90
566.408	79
566.62	63
566.832	81
567.044	72
567.255	81
567.467	88
567.679	101
567.891	91
568.102	88
568.314	85
568.526	88
568.737	81
568.949	81
569.161	89
569.372	95
569.584	95
569.795	101
570.007	115
570.218	232
570.43	131
570.641	98
570.853	84
571.064	75
571.276	90
571.487	95
571.698	88
571.91	83
572.121	70
572.333	83
572.544	73
572.755	104
572.966	81
573.178	87
573.389	83
573.6	83
573.811	98
574.023	98
574.234	98
574.445	90
574.656	84
574.867	83
575.078	71
575.289	94
575.501	99
575.712	86
575.923	96
576.134	89
576.345	76
576.556	103
576.767	83
576.978	83
577.188	92
577.399	95
577.61	105
577.821	101
578.032	124
578.243	287
578.454	811
578.665	227
578.875	116
579.086	94
579.297	91
579.508	98
579.718	101
579.929	93
580.14	85
580.35	96
580.561	104
580.772	93
580.982	95
581.193	94
581.403	89
581.614	92
581.825	82
582.035	100
582.246	94
582.456	101
582.667	88
582.877	75
583.087	81
583.298	87
583.508	79
583.719	97
