Data from Uncirc_1985_H10_HRD10591_00050.txt Node
Date: Wed Jan 03 12:18:27 EST 2024
User: Yrep
Spectrometer: HR+D1059
Trigger mode: 1
Integration Time (sec): 1.000000E-1
Scans to average: 1
Electric dark correction enabled: true
Nonlinearity correction enabled: false
Boxcar width: 0
XAxis mode: Wavelengths
Number of Pixels in Spectrum: 2048
>>>>>Begin Spectral Data<<<<<
223.165	-26.94
223.4	-26.94
223.635	-26.94
223.869	-31.94
224.104	-17.94
224.338	-10.94
224.573	-21.94
224.808	-11.94
225.042	-1.94
225.277	1.06
225.511	0.06
225.746	-6.94
225.98	8.06
226.215	25.06
226.449	14.06
226.683	21.06
226.918	20.06
227.152	41.06
227.387	26.06
227.621	48.06
227.856	46.06
228.09	46.06
228.324	54.06
228.559	53.06
228.793	53.06
229.027	67.06
229.262	62.06
229.496	86.06
229.73	94.06
229.964	75.06
230.199	80.06
230.433	60.06
230.667	66.06
230.901	69.06
231.136	69.06
231.37	79.06
231.604	74.06
231.838	78.06
232.072	85.06
232.306	72.06
232.541	90.06
232.775	81.06
233.009	82.06
233.243	76.06
233.477	80.06
233.711	86.06
233.945	82.06
234.179	77.06
234.413	78.06
234.647	76.06
234.881	87.06
235.115	78.06
235.349	77.06
235.583	76.06
235.817	82.06
236.051	69.06
236.285	73.06
236.519	86.06
236.753	75.06
236.987	84.06
237.221	80.06
237.455	94.06
237.689	86.06
237.922	78.06
238.156	49.06
238.39	74.06
238.624	65.06
238.858	85.06
239.091	87.06
239.325	84.06
239.559	88.06
239.793	80.06
240.027	81.06
240.26	80.06
240.494	85.06
240.728	74.06
240.961	80.06
241.195	70.06
241.429	71.06
241.662	76.06
241.896	81.06
242.13	96.06
242.363	75.06
242.597	69.06
242.83	85.06
243.064	66.06
243.298	86.06
243.531	77.06
243.765	75.06
243.998	82.06
244.232	86.06
244.465	89.06
244.699	86.06
244.932	77.06
245.166	65.06
245.399	87.06
245.633	84.06
245.866	94.06
246.099	87.06
246.333	84.06
246.566	65.06
246.8	75.06
247.033	64.06
247.266	77.06
247.5	84.06
247.733	82.06
247.966	68.06
248.2	90.06
248.433	78.06
248.666	73.06
248.899	72.06
249.133	83.06
249.366	90.06
249.599	102.06
249.832	87.06
250.066	91.06
250.299	75.06
250.532	66.06
250.765	77.06
250.998	81.06
251.231	80.06
251.465	86.06
251.698	78.06
251.931	78.06
252.164	89.06
252.397	77.06
252.63	87.06
252.863	74.06
253.096	77.06
253.329	75.06
253.562	72.06
253.795	71.06
254.028	94.06
254.261	82.06
254.494	87.06
254.727	94.06
254.96	85.06
255.193	83.06
255.426	82.06
255.659	98.06
255.892	74.06
256.124	85.06
256.357	90.06
256.59	91.06
256.823	80.06
257.056	90.06
257.289	74.06
257.521	86.06
257.754	80.06
257.987	78.06
258.22	78.06
258.452	74.06
258.685	78.06
258.918	83.06
259.151	70.06
259.383	81.06
259.616	73.06
259.849	88.06
260.081	80.06
260.314	101.06
260.547	90.06
260.779	84.06
261.012	85.06
261.244	76.06
261.477	81.06
261.71	99.06
261.942	92.06
262.175	116.06
262.407	82.06
262.64	77.06
262.872	72.06
263.105	96.06
263.337	72.06
263.57	87.06
263.802	106.06
264.035	91.06
264.267	85.06
264.499	83.06
264.732	92.06
264.964	83.06
265.197	80.06
265.429	91.06
265.661	80.06
265.894	93.06
266.126	103.06
266.358	77.06
266.591	86.06
266.823	96.06
267.055	76.06
267.287	80.06
267.52	75.06
267.752	70.06
267.984	82.06
268.216	86.06
268.448	100.06
268.681	90.06
268.913	88.06
269.145	61.06
269.377	85.06
269.609	90.06
269.841	84.06
270.073	71.06
270.306	84.06
270.538	78.06
270.77	77.06
271.002	86.06
271.234	76.06
271.466	90.06
271.698	104.06
271.93	93.06
272.162	85.06
272.394	85.06
272.626	92.06
272.858	82.06
273.09	84.06
273.322	77.06
273.553	82.06
273.785	90.06
274.017	81.06
274.249	96.06
274.481	100.06
274.713	84.06
274.945	96.06
275.176	86.06
275.408	86.06
275.64	88.06
275.872	96.06
276.104	95.06
276.335	81.06
276.567	86.06
276.799	94.06
277.031	92.06
277.262	85.06
277.494	101.06
277.726	94.06
277.957	97.06
278.189	98.06
278.421	87.06
278.652	93.06
278.884	95.06
279.115	86.06
279.347	83.06
279.579	81.06
279.81	76.06
280.042	88.06
280.273	78.06
280.505	84.06
280.736	89.06
280.968	85.06
281.199	80.06
281.431	76.06
281.662	80.06
281.894	92.06
282.125	98.06
282.356	115.06
282.588	128.06
282.819	116.06
283.051	91.06
283.282	72.06
283.513	87.06
283.745	75.06
283.976	88.06
284.207	99.06
284.439	91.06
284.67	74.06
284.901	88.06
285.132	92.06
285.364	86.06
285.595	74.06
285.826	75.06
286.057	89.06
286.288	96.06
286.52	74.06
286.751	92.06
286.982	78.06
287.213	83.06
287.444	90.06
287.675	102.06
287.906	103.06
288.138	93.06
288.369	103.06
288.6	108.06
288.831	83.06
289.062	97.06
289.293	89.06
289.524	72.06
289.755	72.06
289.986	78.06
290.217	86.06
290.448	86.06
290.679	88.06
290.91	92.06
291.141	86.06
291.371	90.06
291.602	85.06
291.833	90.06
292.064	101.06
292.295	86.06
292.526	82.06
292.757	104.06
292.987	87.06
293.218	95.06
293.449	86.06
293.68	79.06
293.91	97.06
294.141	95.06
294.372	102.06
294.603	98.06
294.833	85.06
295.064	86.06
295.295	80.06
295.525	90.06
295.756	90.06
295.987	104.06
296.217	118.06
296.448	120.06
296.679	101.06
296.909	84.06
297.14	96.06
297.37	105.06
297.601	91.06
297.831	80.06
298.062	90.06
298.292	104.06
298.523	86.06
298.753	83.06
298.984	94.06
299.214	101.06
299.445	92.06
299.675	88.06
299.905	73.06
300.136	88.06
300.366	100.06
300.597	101.06
300.827	89.06
301.057	92.06
301.288	98.06
301.518	96.06
301.748	95.06
301.979	100.06
302.209	101.06
302.439	85.06
302.669	96.06
302.9	101.06
303.13	100.06
303.36	84.06
303.59	85.06
303.82	114.06
304.051	104.06
304.281	96.06
304.511	97.06
304.741	84.06
304.971	80.06
305.201	89.06
305.431	84.06
305.661	87.06
305.891	93.06
306.121	98.06
306.352	107.06
306.582	110.06
306.812	102.06
307.042	98.06
307.272	104.06
307.502	104.06
307.731	90.06
307.961	98.06
308.191	94.06
308.421	90.06
308.651	93.06
308.881	99.06
309.111	100.06
309.341	82.06
309.571	88.06
309.8	100.06
310.03	118.06
310.26	97.06
310.49	90.06
310.72	84.06
310.949	89.06
311.179	95.06
311.409	108.06
311.639	98.06
311.868	98.06
312.098	96.06
312.328	100.06
312.557	92.06
312.787	108.06
313.017	109.06
313.246	82.06
313.476	92.06
313.706	92.06
313.935	90.06
314.165	95.06
314.394	102.06
314.624	91.06
314.853	97.06
315.083	99.06
315.312	93.06
315.542	81.06
315.771	92.06
316.001	80.06
316.23	93.06
316.46	96.06
316.689	91.06
316.919	82.06
317.148	114.06
317.377	98.06
317.607	90.06
317.836	99.06
318.065	100.06
318.295	87.06
318.524	94.06
318.753	98.06
318.983	87.06
319.212	107.06
319.441	97.06
319.67	111.06
319.9	90.06
320.129	90.06
320.358	91.06
320.587	86.06
320.816	100.06
321.046	94.06
321.275	96.06
321.504	104.06
321.733	96.06
321.962	87.06
322.191	95.06
322.42	96.06
322.649	99.06
322.878	107.06
323.108	106.06
323.337	109.06
323.566	121.06
323.795	127.06
324.024	192.06
324.253	373.06
324.482	742.06
324.71	1523.06
324.939	1984.06
325.168	726.06
325.397	225.06
325.626	134.06
325.855	112.06
326.084	112.06
326.313	134.06
326.542	147.06
326.77	220.06
326.999	423.06
327.228	859.06
327.457	1547.06
327.686	1258.06
327.914	338.06
328.143	186.06
328.372	143.06
328.6	130.06
328.829	120.06
329.058	110.06
329.287	121.06
329.515	109.06
329.744	111.06
329.972	108.06
330.201	124.06
330.43	117.06
330.658	118.06
330.887	136.06
331.115	113.06
331.344	108.06
331.572	86.06
331.801	106.06
332.03	105.06
332.258	97.06
332.486	88.06
332.715	93.06
332.943	109.06
333.172	100.06
333.4	76.06
333.629	107.06
333.857	101.06
334.085	121.06
334.314	105.06
334.542	133.06
334.771	126.06
334.999	101.06
335.227	93.06
335.455	91.06
335.684	94.06
335.912	113.06
336.14	80.06
336.369	70.06
336.597	89.06
336.825	86.06
337.053	85.06
337.281	77.06
337.51	88.06
337.738	83.06
337.966	106.06
338.194	98.06
338.422	91.06
338.65	90.06
338.878	98.06
339.106	95.06
339.334	103.06
339.562	85.06
339.79	84.06
340.018	88.06
340.246	84.06
340.474	86.06
340.702	91.06
340.93	95.06
341.158	107.06
341.386	105.06
341.614	90.06
341.842	98.06
342.07	103.06
342.298	105.06
342.526	85.06
342.754	98.06
342.981	86.06
343.209	93.06
343.437	107.06
343.665	101.06
343.893	91.06
344.12	105.06
344.348	82.06
344.576	107.06
344.804	97.06
345.031	101.06
345.259	90.06
345.487	84.06
345.714	87.06
345.942	85.06
346.17	95.06
346.397	86.06
346.625	103.06
346.853	99.06
347.08	86.06
347.308	96.06
347.535	104.06
347.763	100.06
347.99	100.06
348.218	100.06
348.445	104.06
348.673	88.06
348.9	93.06
349.128	111.06
349.355	85.06
349.583	106.06
349.81	98.06
350.037	84.06
350.265	89.06
350.492	96.06
350.72	98.06
350.947	112.06
351.174	106.06
351.402	118.06
351.629	103.06
351.856	83.06
352.083	110.06
352.311	106.06
352.538	98.06
352.765	103.06
352.992	104.06
353.22	113.06
353.447	109.06
353.674	101.06
353.901	97.06
354.128	97.06
354.355	97.06
354.583	101.06
354.81	103.06
355.037	96.06
355.264	101.06
355.491	87.06
355.718	90.06
355.945	92.06
356.172	106.06
356.399	92.06
356.626	102.06
356.853	93.06
357.08	94.06
357.307	92.06
357.534	94.06
357.761	90.06
357.988	109.06
358.215	94.06
358.441	96.06
358.668	80.06
358.895	83.06
359.122	99.06
359.349	94.06
359.576	103.06
359.802	91.06
360.029	105.06
360.256	110.06
360.483	99.06
360.709	93.06
360.936	92.06
361.163	91.06
361.39	91.06
361.616	98.06
361.843	94.06
362.07	89.06
362.296	90.06
362.523	80.06
362.749	89.06
362.976	101.06
363.203	92.06
363.429	94.06
363.656	91.06
363.882	93.06
364.109	90.06
364.335	90.06
364.562	88.06
364.788	83.06
365.015	96.06
365.241	93.06
365.468	109.06
365.694	99.06
365.92	91.06
366.147	89.06
366.373	76.06
366.599	97.06
366.826	97.06
367.052	91.06
367.278	90.06
367.505	102.06
367.731	88.06
367.957	101.06
368.184	86.06
368.41	87.06
368.636	116.06
368.862	126.06
369.089	113.06
369.315	92.06
369.541	87.06
369.767	92.06
369.993	100.06
370.219	97.06
370.445	89.06
370.672	89.06
370.898	93.06
371.124	92.06
371.35	93.06
371.576	84.06
371.802	90.06
372.028	91.06
372.254	84.06
372.48	88.06
372.706	86.06
372.932	105.06
373.158	81.06
373.384	85.06
373.61	101.06
373.835	101.06
374.061	82.06
374.287	87.06
374.513	81.06
374.739	81.06
374.965	90.06
375.191	94.06
375.416	85.06
375.642	97.06
375.868	90.06
376.094	81.06
376.319	76.06
376.545	90.06
376.771	96.06
376.997	77.06
377.222	102.06
377.448	93.06
377.674	96.06
377.899	88.06
378.125	78.06
378.35	93.06
378.576	94.06
378.802	91.06
379.027	80.06
379.253	78.06
379.478	96.06
379.704	88.06
379.929	100.06
380.155	74.06
380.38	89.06
380.606	102.06
380.831	93.06
381.057	109.06
381.282	92.06
381.507	88.06
381.733	106.06
381.958	94.06
382.184	99.06
382.409	84.06
382.634	98.06
382.86	103.06
383.085	88.06
383.31	97.06
383.535	95.06
383.761	100.06
383.986	85.06
384.211	90.06
384.436	89.06
384.662	104.06
384.887	90.06
385.112	102.06
385.337	105.06
385.562	112.06
385.787	106.06
386.013	115.06
386.238	105.06
386.463	102.06
386.688	115.06
386.913	99.06
387.138	99.06
387.363	105.06
387.588	98.06
387.813	106.06
388.038	108.06
388.263	98.06
388.488	89.06
388.713	90.06
388.938	101.06
389.163	86.06
389.387	107.06
389.612	92.06
389.837	78.06
390.062	104.06
390.287	87.06
390.512	83.06
390.736	105.06
390.961	89.06
391.186	103.06
391.411	92.06
391.636	90.06
391.86	88.06
392.085	91.06
392.31	102.06
392.534	91.06
392.759	85.06
392.984	80.06
393.208	76.06
393.433	84.06
393.658	85.06
393.882	87.06
394.107	75.06
394.331	80.06
394.556	74.06
394.78	111.06
395.005	86.06
395.229	82.06
395.454	75.06
395.678	84.06
395.903	87.06
396.127	82.06
396.352	105.06
396.576	84.06
396.801	90.06
397.025	90.06
397.249	90.06
397.474	96.06
397.698	80.06
397.922	93.06
398.147	97.06
398.371	77.06
398.595	89.06
398.82	94.06
399.044	89.06
399.268	75.06
399.492	87.06
399.717	100.06
399.941	92.06
400.165	104.06
400.389	101.06
400.613	93.06
400.837	82.06
401.062	95.06
401.286	78.06
401.51	92.06
401.734	83.06
401.958	93.06
402.182	126.06
402.406	140.06
402.63	116.06
402.854	82.06
403.078	107.06
403.302	94.06
403.526	98.06
403.75	83.06
403.974	89.06
404.198	78.06
404.422	75.06
404.645	94.06
404.869	88.06
405.093	103.06
405.317	116.06
405.541	100.06
405.765	97.06
405.988	108.06
406.212	153.06
406.436	197.06
406.66	115.06
406.883	92.06
407.107	86.06
407.331	93.06
407.555	100.06
407.778	104.06
408.002	90.06
408.226	86.06
408.449	81.06
408.673	85.06
408.896	83.06
409.12	92.06
409.344	78.06
409.567	103.06
409.791	97.06
410.014	89.06
410.238	89.06
410.461	97.06
410.685	100.06
410.908	107.06
411.132	108.06
411.355	108.06
411.578	82.06
411.802	83.06
412.025	82.06
412.249	110.06
412.472	99.06
412.695	104.06
412.919	90.06
413.142	101.06
413.365	90.06
413.589	80.06
413.812	90.06
414.035	85.06
414.258	85.06
414.482	81.06
414.705	86.06
414.928	92.06
415.151	95.06
415.374	97.06
415.597	80.06
415.821	98.06
416.044	83.06
416.267	90.06
416.49	91.06
416.713	86.06
416.936	88.06
417.159	79.06
417.382	89.06
417.605	96.06
417.828	108.06
418.051	100.06
418.274	96.06
418.497	100.06
418.72	86.06
418.943	100.06
419.166	89.06
419.389	86.06
419.611	82.06
419.834	85.06
420.057	91.06
420.28	98.06
420.503	100.06
420.726	108.06
420.948	87.06
421.171	91.06
421.394	93.06
421.617	80.06
421.839	91.06
422.062	105.06
422.285	91.06
422.507	103.06
422.73	104.06
422.953	102.06
423.175	98.06
423.398	91.06
423.621	91.06
423.843	90.06
424.066	93.06
424.288	87.06
424.511	89.06
424.733	92.06
424.956	95.06
425.178	107.06
425.401	116.06
425.623	96.06
425.846	95.06
426.068	96.06
426.291	86.06
426.513	80.06
426.735	101.06
426.958	117.06
427.18	121.06
427.402	116.06
427.625	141.06
427.847	123.06
428.069	109.06
428.292	92.06
428.514	84.06
428.736	86.06
428.958	83.06
429.181	93.06
429.403	77.06
429.625	61.06
429.847	83.06
430.069	99.06
430.292	96.06
430.514	86.06
430.736	93.06
430.958	86.06
431.18	94.06
431.402	91.06
431.624	93.06
431.846	80.06
432.068	90.06
432.29	77.06
432.512	111.06
432.734	104.06
432.956	87.06
433.178	93.06
433.4	106.06
433.622	85.06
433.844	99.06
434.066	92.06
434.287	96.06
434.509	98.06
434.731	94.06
434.953	94.06
435.175	75.06
435.397	82.06
435.618	99.06
435.84	91.06
436.062	124.06
436.284	94.06
436.505	96.06
436.727	103.06
436.949	81.06
437.17	86.06
437.392	102.06
437.614	86.06
437.835	92.06
438.057	114.06
438.278	97.06
438.5	86.06
438.721	112.06
438.943	105.06
439.165	85.06
439.386	103.06
439.608	86.06
439.829	98.06
440.05	121.06
440.272	121.06
440.493	88.06
440.715	88.06
440.936	93.06
441.158	82.06
441.379	74.06
441.6	87.06
441.822	100.06
442.043	86.06
442.264	109.06
442.486	97.06
442.707	104.06
442.928	106.06
443.149	121.06
443.371	126.06
443.592	101.06
443.813	108.06
444.034	122.06
444.255	87.06
444.476	91.06
444.698	101.06
444.919	92.06
445.14	145.06
445.361	120.06
445.582	111.06
445.803	120.06
446.024	144.06
446.245	133.06
446.466	105.06
446.687	89.06
446.908	86.06
447.129	80.06
447.35	91.06
447.571	95.06
447.792	93.06
448.013	110.06
448.234	115.06
448.455	94.06
448.675	112.06
448.896	115.06
449.117	88.06
449.338	95.06
449.559	125.06
449.779	125.06
450	102.06
450.221	94.06
450.442	96.06
450.662	100.06
450.883	109.06
451.104	106.06
451.324	103.06
451.545	100.06
451.766	82.06
451.986	84.06
452.207	101.06
452.428	87.06
452.648	98.06
452.869	94.06
453.089	99.06
453.31	116.06
453.53	107.06
453.751	79.06
453.971	102.06
454.192	103.06
454.412	82.06
454.633	84.06
454.853	90.06
455.073	94.06
455.294	89.06
455.514	94.06
455.734	82.06
455.955	95.06
456.175	89.06
456.395	107.06
456.616	72.06
456.836	85.06
457.056	82.06
457.276	87.06
457.497	92.06
457.717	94.06
457.937	88.06
458.157	101.06
458.377	84.06
458.598	110.06
458.818	134.06
459.038	143.06
459.258	108.06
459.478	92.06
459.698	99.06
459.918	91.06
460.138	84.06
460.358	76.06
460.578	80.06
460.798	98.06
461.018	90.06
461.238	88.06
461.458	81.06
461.678	99.06
461.898	96.06
462.118	83.06
462.338	88.06
462.558	83.06
462.777	73.06
462.997	96.06
463.217	83.06
463.437	75.06
463.657	92.06
463.876	96.06
464.096	88.06
464.316	96.06
464.536	94.06
464.755	91.06
464.975	97.06
465.195	140.06
465.414	132.06
465.634	104.06
465.854	85.06
466.073	89.06
466.293	95.06
466.512	72.06
466.732	80.06
466.951	93.06
467.171	89.06
467.391	88.06
467.61	103.06
467.829	104.06
468.049	98.06
468.268	93.06
468.488	89.06
468.707	78.06
468.927	87.06
469.146	87.06
469.365	83.06
469.585	93.06
469.804	99.06
470.023	99.06
470.243	92.06
470.462	96.06
470.681	102.06
470.901	98.06
471.12	80.06
471.339	88.06
471.558	89.06
471.777	86.06
471.997	90.06
472.216	125.06
472.435	136.06
472.654	90.06
472.873	84.06
473.092	86.06
473.311	84.06
473.53	86.06
473.749	98.06
473.968	104.06
474.187	91.06
474.406	87.06
474.625	96.06
474.844	86.06
475.063	77.06
475.282	92.06
475.501	94.06
475.72	92.06
475.939	94.06
476.158	91.06
476.377	93.06
476.596	94.06
476.814	95.06
477.033	83.06
477.252	96.06
477.471	98.06
477.69	97.06
477.908	80.06
478.127	102.06
478.346	95.06
478.564	100.06
478.783	91.06
479.002	81.06
479.22	94.06
479.439	101.06
479.658	109.06
479.876	89.06
480.095	96.06
480.313	93.06
480.532	90.06
480.751	110.06
480.969	113.06
481.188	197.06
481.406	161.06
481.624	93.06
481.843	91.06
482.061	100.06
482.28	82.06
482.498	91.06
482.717	92.06
482.935	83.06
483.153	88.06
483.372	94.06
483.59	80.06
483.808	81.06
484.027	88.06
484.245	96.06
484.463	91.06
484.681	89.06
484.9	81.06
485.118	104.06
485.336	94.06
485.554	103.06
485.772	93.06
485.99	110.06
486.209	107.06
486.427	108.06
486.645	109.06
486.863	102.06
487.081	97.06
487.299	102.06
487.517	109.06
487.735	85.06
487.953	86.06
488.171	98.06
488.389	106.06
488.607	102.06
488.825	87.06
489.043	93.06
489.261	93.06
489.479	104.06
489.696	77.06
489.914	73.06
490.132	80.06
490.35	97.06
490.568	85.06
490.786	92.06
491.003	105.06
491.221	100.06
491.439	99.06
491.657	83.06
491.874	92.06
492.092	80.06
492.31	94.06
492.527	100.06
492.745	84.06
492.963	88.06
493.18	97.06
493.398	99.06
493.615	96.06
493.833	101.06
494.05	93.06
494.268	81.06
494.485	106.06
494.703	98.06
494.92	88.06
495.138	86.06
495.355	83.06
495.573	86.06
495.79	103.06
496.008	77.06
496.225	93.06
496.442	77.06
496.66	96.06
496.877	95.06
497.094	93.06
497.312	88.06
497.529	95.06
497.746	98.06
497.963	105.06
498.181	86.06
498.398	112.06
498.615	102.06
498.832	99.06
499.049	87.06
499.267	94.06
499.484	80.06
499.701	85.06
499.918	92.06
500.135	93.06
500.352	86.06
500.569	94.06
500.786	91.06
501.003	97.06
501.22	103.06
501.437	97.06
501.654	98.06
501.871	112.06
502.088	98.06
502.305	93.06
502.522	98.06
502.739	92.06
502.956	107.06
503.172	77.06
503.389	94.06
503.606	100.06
503.823	99.06
504.04	98.06
504.256	101.06
504.473	99.06
504.69	88.06
504.907	90.06
505.123	102.06
505.34	101.06
505.557	102.06
505.773	100.06
505.99	101.06
506.207	91.06
506.423	84.06
506.64	106.06
506.856	93.06
507.073	97.06
507.289	112.06
507.506	101.06
507.722	104.06
507.939	114.06
508.155	94.06
508.372	89.06
508.588	100.06
508.805	84.06
509.021	81.06
509.238	100.06
509.454	93.06
509.67	96.06
509.887	106.06
510.103	128.06
510.319	195.06
510.536	686.06
510.752	2002.06
510.968	571.06
511.184	135.06
511.401	109.06
511.617	95.06
511.833	98.06
512.049	93.06
512.265	91.06
512.481	88.06
512.698	88.06
512.914	94.06
513.13	83.06
513.346	90.06
513.562	104.06
513.778	96.06
513.994	87.06
514.21	105.06
514.426	97.06
514.642	124.06
514.858	100.06
515.074	159.06
