Data from Uncirc_1985_H10_HRD10591_00096.txt Node
Date: Wed Jan 03 12:18:36 EST 2024
User: Yrep
Spectrometer: HR+D1059
Trigger mode: 1
Integration Time (sec): 1.000000E-1
Scans to average: 1
Electric dark correction enabled: true
Nonlinearity correction enabled: false
Boxcar width: 0
XAxis mode: Wavelengths
Number of Pixels in Spectrum: 2048
>>>>>Begin Spectral Data<<<<<
223.165	-13.69
223.4	-13.69
223.635	-13.69
223.869	-4.69
224.104	-32.69
224.338	-15.69
224.573	-11.69
224.808	-19.69
225.042	-12.69
225.277	-15.69
225.511	4.31
225.746	7.31
225.98	2.31
226.215	16.31
226.449	15.31
226.683	17.31
226.918	27.31
227.152	36.31
227.387	26.31
227.621	32.31
227.856	48.31
228.09	57.31
228.324	50.31
228.559	48.31
228.793	49.31
229.027	65.31
229.262	71.31
229.496	71.31
229.73	85.31
229.964	86.31
230.199	68.31
230.433	81.31
230.667	75.31
230.901	68.31
231.136	72.31
231.37	87.31
231.604	95.31
231.838	99.31
232.072	86.31
232.306	81.31
232.541	86.31
232.775	72.31
233.009	82.31
233.243	78.31
233.477	82.31
233.711	68.31
233.945	65.31
234.179	75.31
234.413	81.31
234.647	85.31
234.881	76.31
235.115	84.31
235.349	75.31
235.583	67.31
235.817	79.31
236.051	86.31
236.285	71.31
236.519	80.31
236.753	74.31
236.987	83.31
237.221	97.31
237.455	80.31
237.689	81.31
237.922	60.31
238.156	57.31
238.39	74.31
238.624	63.31
238.858	78.31
239.091	97.31
239.325	82.31
239.559	92.31
239.793	99.31
240.027	83.31
240.26	76.31
240.494	74.31
240.728	55.31
240.961	76.31
241.195	72.31
241.429	78.31
241.662	71.31
241.896	78.31
242.13	78.31
242.363	86.31
242.597	69.31
242.83	99.31
243.064	71.31
243.298	90.31
243.531	81.31
243.765	99.31
243.998	75.31
244.232	80.31
244.465	87.31
244.699	98.31
244.932	82.31
245.166	83.31
245.399	83.31
245.633	87.31
245.866	92.31
246.099	72.31
246.333	82.31
246.566	87.31
246.8	74.31
247.033	91.31
247.266	70.31
247.5	72.31
247.733	81.31
247.966	76.31
248.2	84.31
248.433	104.31
248.666	78.31
248.899	84.31
249.133	100.31
249.366	108.31
249.599	103.31
249.832	103.31
250.066	83.31
250.299	82.31
250.532	77.31
250.765	69.31
250.998	74.31
251.231	76.31
251.465	86.31
251.698	88.31
251.931	62.31
252.164	83.31
252.397	90.31
252.63	87.31
252.863	80.31
253.096	63.31
253.329	82.31
253.562	87.31
253.795	84.31
254.028	87.31
254.261	73.31
254.494	73.31
254.727	95.31
254.96	83.31
255.193	71.31
255.426	69.31
255.659	69.31
255.892	90.31
256.124	75.31
256.357	82.31
256.59	72.31
256.823	88.31
257.056	85.31
257.289	78.31
257.521	74.31
257.754	83.31
257.987	75.31
258.22	80.31
258.452	95.31
258.685	82.31
258.918	75.31
259.151	77.31
259.383	71.31
259.616	79.31
259.849	83.31
260.081	90.31
260.314	73.31
260.547	83.31
260.779	74.31
261.012	84.31
261.244	80.31
261.477	82.31
261.71	94.31
261.942	106.31
262.175	118.31
262.407	94.31
262.64	91.31
262.872	80.31
263.105	76.31
263.337	70.31
263.57	103.31
263.802	79.31
264.035	68.31
264.267	93.31
264.499	82.31
264.732	97.31
264.964	106.31
265.197	88.31
265.429	81.31
265.661	82.31
265.894	82.31
266.126	76.31
266.358	91.31
266.591	86.31
266.823	101.31
267.055	85.31
267.287	83.31
267.52	74.31
267.752	86.31
267.984	79.31
268.216	90.31
268.448	86.31
268.681	82.31
268.913	89.31
269.145	92.31
269.377	88.31
269.609	71.31
269.841	97.31
270.073	89.31
270.306	75.31
270.538	82.31
270.77	74.31
271.002	73.31
271.234	88.31
271.466	84.31
271.698	83.31
271.93	88.31
272.162	104.31
272.394	95.31
272.626	99.31
272.858	72.31
273.09	93.31
273.322	93.31
273.553	86.31
273.785	96.31
274.017	94.31
274.249	88.31
274.481	87.31
274.713	76.31
274.945	74.31
275.176	102.31
275.408	81.31
275.64	80.31
275.872	98.31
276.104	94.31
276.335	84.31
276.567	108.31
276.799	104.31
277.031	114.31
277.262	104.31
277.494	94.31
277.726	83.31
277.957	96.31
278.189	92.31
278.421	88.31
278.652	84.31
278.884	98.31
279.115	73.31
279.347	80.31
279.579	81.31
279.81	92.31
280.042	75.31
280.273	98.31
280.505	91.31
280.736	107.31
280.968	91.31
281.199	92.31
281.431	74.31
281.662	91.31
281.894	93.31
282.125	96.31
282.356	108.31
282.588	149.31
282.819	114.31
283.051	94.31
283.282	76.31
283.513	82.31
283.745	94.31
283.976	95.31
284.207	88.31
284.439	93.31
284.67	96.31
284.901	83.31
285.132	88.31
285.364	86.31
285.595	75.31
285.826	97.31
286.057	85.31
286.288	80.31
286.52	101.31
286.751	90.31
286.982	72.31
287.213	87.31
287.444	81.31
287.675	103.31
287.906	95.31
288.138	82.31
288.369	90.31
288.6	92.31
288.831	95.31
289.062	90.31
289.293	87.31
289.524	89.31
289.755	93.31
289.986	91.31
290.217	86.31
290.448	76.31
290.679	95.31
290.91	95.31
291.141	81.31
291.371	79.31
291.602	85.31
291.833	95.31
292.064	83.31
292.295	81.31
292.526	84.31
292.757	95.31
292.987	86.31
293.218	86.31
293.449	96.31
293.68	88.31
293.91	87.31
294.141	91.31
294.372	84.31
294.603	85.31
294.833	86.31
295.064	91.31
295.295	88.31
295.525	82.31
295.756	101.31
295.987	119.31
296.217	137.31
296.448	117.31
296.679	88.31
296.909	80.31
297.14	93.31
297.37	98.31
297.601	107.31
297.831	97.31
298.062	82.31
298.292	87.31
298.523	90.31
298.753	84.31
298.984	90.31
299.214	93.31
299.445	84.31
299.675	96.31
299.905	106.31
300.136	97.31
300.366	84.31
300.597	98.31
300.827	105.31
301.057	95.31
301.288	98.31
301.518	100.31
301.748	92.31
301.979	97.31
302.209	92.31
302.439	97.31
302.669	90.31
302.9	76.31
303.13	100.31
303.36	97.31
303.59	111.31
303.82	95.31
304.051	98.31
304.281	97.31
304.511	92.31
304.741	111.31
304.971	86.31
305.201	103.31
305.431	96.31
305.661	85.31
305.891	82.31
306.121	100.31
306.352	107.31
306.582	96.31
306.812	90.31
307.042	99.31
307.272	103.31
307.502	112.31
307.731	107.31
307.961	82.31
308.191	84.31
308.421	85.31
308.651	82.31
308.881	93.31
309.111	98.31
309.341	101.31
309.571	96.31
309.8	89.31
310.03	95.31
310.26	105.31
310.49	103.31
310.72	99.31
310.949	100.31
311.179	103.31
311.409	99.31
311.639	94.31
311.868	106.31
312.098	82.31
312.328	93.31
312.557	101.31
312.787	99.31
313.017	106.31
313.246	103.31
313.476	90.31
313.706	104.31
313.935	97.31
314.165	94.31
314.394	109.31
314.624	98.31
314.853	106.31
315.083	86.31
315.312	106.31
315.542	95.31
315.771	88.31
316.001	86.31
316.23	94.31
316.46	98.31
316.689	84.31
316.919	100.31
317.148	103.31
317.377	86.31
317.607	95.31
317.836	87.31
318.065	82.31
318.295	92.31
318.524	86.31
318.753	95.31
318.983	86.31
319.212	97.31
319.441	105.31
319.67	116.31
319.9	98.31
320.129	97.31
320.358	97.31
320.587	94.31
320.816	104.31
321.046	99.31
321.275	105.31
321.504	97.31
321.733	109.31
321.962	84.31
322.191	103.31
322.42	108.31
322.649	111.31
322.878	106.31
323.108	113.31
323.337	135.31
323.566	118.31
323.795	154.31
324.024	212.31
324.253	407.31
324.482	881.31
324.71	1857.31
324.939	2467.31
325.168	922.31
325.397	254.31
325.626	131.31
325.855	125.31
326.084	107.31
326.313	130.31
326.542	155.31
326.77	234.31
326.999	510.31
327.228	1001.31
327.457	1852.31
327.686	1494.31
327.914	392.31
328.143	198.31
328.372	173.31
328.6	134.31
328.829	110.31
329.058	121.31
329.287	145.31
329.515	114.31
329.744	119.31
329.972	118.31
330.201	145.31
330.43	178.31
330.658	146.31
330.887	156.31
331.115	145.31
331.344	114.31
331.572	99.31
331.801	89.31
332.03	106.31
332.258	104.31
332.486	103.31
332.715	98.31
332.943	96.31
333.172	109.31
333.4	91.31
333.629	107.31
333.857	127.31
334.085	129.31
334.314	150.31
334.542	194.31
334.771	184.31
334.999	113.31
335.227	90.31
335.455	99.31
335.684	91.31
335.912	80.31
336.14	104.31
336.369	89.31
336.597	105.31
336.825	98.31
337.053	95.31
337.281	100.31
337.51	88.31
337.738	96.31
337.966	83.31
338.194	111.31
338.422	94.31
338.65	92.31
338.878	84.31
339.106	87.31
339.334	89.31
339.562	102.31
339.79	89.31
340.018	95.31
340.246	97.31
340.474	96.31
340.702	94.31
340.93	85.31
341.158	94.31
341.386	97.31
341.614	97.31
341.842	92.31
342.07	87.31
342.298	86.31
342.526	89.31
342.754	93.31
342.981	96.31
343.209	71.31
343.437	106.31
343.665	96.31
343.893	97.31
344.12	83.31
344.348	98.31
344.576	98.31
344.804	95.31
345.031	93.31
345.259	86.31
345.487	84.31
345.714	98.31
345.942	89.31
346.17	82.31
346.397	109.31
346.625	105.31
346.853	102.31
347.08	94.31
347.308	96.31
347.535	107.31
347.763	112.31
347.99	99.31
348.218	97.31
348.445	90.31
348.673	113.31
348.9	106.31
349.128	84.31
349.355	88.31
349.583	96.31
349.81	94.31
350.037	99.31
350.265	87.31
350.492	98.31
350.72	92.31
350.947	88.31
351.174	94.31
351.402	117.31
351.629	101.31
351.856	91.31
352.083	103.31
352.311	108.31
352.538	108.31
352.765	110.31
352.992	114.31
353.22	120.31
353.447	94.31
353.674	104.31
353.901	96.31
354.128	75.31
354.355	98.31
354.583	98.31
354.81	102.31
355.037	97.31
355.264	94.31
355.491	90.31
355.718	90.31
355.945	79.31
356.172	97.31
356.399	87.31
356.626	84.31
356.853	86.31
357.08	100.31
357.307	96.31
357.534	96.31
357.761	86.31
357.988	89.31
358.215	99.31
358.441	71.31
358.668	81.31
358.895	87.31
359.122	97.31
359.349	96.31
359.576	97.31
359.802	88.31
360.029	111.31
360.256	96.31
360.483	103.31
360.709	82.31
360.936	102.31
361.163	98.31
361.39	94.31
361.616	101.31
361.843	92.31
362.07	96.31
362.296	92.31
362.523	98.31
362.749	80.31
362.976	100.31
363.203	98.31
363.429	86.31
363.656	90.31
363.882	80.31
364.109	91.31
364.335	99.31
364.562	95.31
364.788	97.31
365.015	86.31
365.241	99.31
365.468	114.31
365.694	102.31
365.92	99.31
366.147	88.31
366.373	88.31
366.599	91.31
366.826	82.31
367.052	74.31
367.278	92.31
367.505	81.31
367.731	92.31
367.957	105.31
368.184	95.31
368.41	98.31
368.636	105.31
368.862	119.31
369.089	98.31
369.315	90.31
369.541	99.31
369.767	84.31
369.993	76.31
370.219	74.31
370.445	89.31
370.672	92.31
370.898	102.31
371.124	94.31
371.35	91.31
371.576	93.31
371.802	89.31
372.028	98.31
372.254	95.31
372.48	89.31
372.706	99.31
372.932	94.31
373.158	86.31
373.384	100.31
373.61	84.31
373.835	92.31
374.061	109.31
374.287	80.31
374.513	93.31
374.739	86.31
374.965	81.31
375.191	83.31
375.416	78.31
375.642	79.31
375.868	111.31
376.094	83.31
376.319	90.31
376.545	82.31
376.771	98.31
376.997	97.31
377.222	92.31
377.448	99.31
377.674	88.31
377.899	88.31
378.125	101.31
378.35	108.31
378.576	95.31
378.802	84.31
379.027	90.31
379.253	93.31
379.478	100.31
379.704	101.31
379.929	89.31
380.155	89.31
380.38	73.31
380.606	86.31
380.831	88.31
381.057	90.31
381.282	100.31
381.507	98.31
381.733	97.31
381.958	88.31
382.184	92.31
382.409	93.31
382.634	90.31
382.86	103.31
383.085	101.31
383.31	100.31
383.535	93.31
383.761	97.31
383.986	100.31
384.211	108.31
384.436	99.31
384.662	96.31
384.887	98.31
385.112	103.31
385.337	95.31
385.562	111.31
385.787	85.31
386.013	99.31
386.238	113.31
386.463	110.31
386.688	97.31
386.913	112.31
387.138	98.31
387.363	115.31
387.588	90.31
387.813	82.31
388.038	90.31
388.263	105.31
388.488	98.31
388.713	104.31
388.938	97.31
389.163	101.31
389.387	91.31
389.612	80.31
389.837	110.31
390.062	95.31
390.287	89.31
390.512	100.31
390.736	86.31
390.961	89.31
391.186	103.31
391.411	91.31
391.636	88.31
391.86	80.31
392.085	81.31
392.31	77.31
392.534	83.31
392.759	86.31
392.984	90.31
393.208	94.31
393.433	74.31
393.658	89.31
393.882	90.31
394.107	83.31
394.331	94.31
394.556	82.31
394.78	86.31
395.005	81.31
395.229	85.31
395.454	88.31
395.678	82.31
395.903	75.31
396.127	80.31
396.352	77.31
396.576	75.31
396.801	90.31
397.025	97.31
397.249	80.31
397.474	86.31
397.698	92.31
397.922	82.31
398.147	75.31
398.371	85.31
398.595	95.31
398.82	101.31
399.044	79.31
399.268	95.31
399.492	75.31
399.717	88.31
399.941	96.31
400.165	85.31
400.389	85.31
400.613	79.31
400.837	93.31
401.062	97.31
401.286	93.31
401.51	82.31
401.734	96.31
401.958	107.31
402.182	125.31
402.406	156.31
402.63	121.31
402.854	94.31
403.078	76.31
403.302	87.31
403.526	80.31
403.75	75.31
403.974	92.31
404.198	101.31
404.422	88.31
404.645	95.31
404.869	97.31
405.093	80.31
405.317	105.31
405.541	105.31
405.765	94.31
405.988	115.31
406.212	190.31
406.436	238.31
406.66	152.31
406.883	99.31
407.107	89.31
407.331	98.31
407.555	93.31
407.778	96.31
408.002	89.31
408.226	96.31
408.449	88.31
408.673	95.31
408.896	102.31
409.12	95.31
409.344	82.31
409.567	80.31
409.791	91.31
410.014	91.31
410.238	96.31
410.461	104.31
410.685	91.31
410.908	111.31
411.132	110.31
411.355	102.31
411.578	97.31
411.802	89.31
412.025	72.31
412.249	88.31
412.472	85.31
412.695	105.31
412.919	89.31
413.142	86.31
413.365	89.31
413.589	92.31
413.812	81.31
414.035	98.31
414.258	84.31
414.482	77.31
414.705	89.31
414.928	83.31
415.151	91.31
415.374	79.31
415.597	93.31
415.821	92.31
416.044	84.31
416.267	73.31
416.49	88.31
416.713	84.31
416.936	82.31
417.159	99.31
417.382	80.31
417.605	79.31
417.828	82.31
418.051	99.31
418.274	87.31
418.497	82.31
418.72	83.31
418.943	97.31
419.166	93.31
419.389	80.31
419.611	99.31
419.834	86.31
420.057	82.31
420.28	71.31
420.503	87.31
420.726	80.31
420.948	78.31
421.171	85.31
421.394	90.31
421.617	80.31
421.839	94.31
422.062	71.31
422.285	78.31
422.507	96.31
422.73	105.31
422.953	90.31
423.175	87.31
423.398	75.31
423.621	87.31
423.843	88.31
424.066	91.31
424.288	99.31
424.511	96.31
424.733	90.31
424.956	98.31
425.178	88.31
425.401	106.31
425.623	108.31
425.846	79.31
426.068	98.31
426.291	103.31
426.513	87.31
426.735	90.31
426.958	86.31
427.18	106.31
427.402	128.31
427.625	161.31
427.847	158.31
428.069	118.31
428.292	84.31
428.514	105.31
428.736	88.31
428.958	88.31
429.181	79.31
429.403	87.31
429.625	88.31
429.847	86.31
430.069	104.31
430.292	90.31
430.514	86.31
430.736	85.31
430.958	93.31
431.18	84.31
431.402	80.31
431.624	80.31
431.846	91.31
432.068	82.31
432.29	88.31
432.512	86.31
432.734	74.31
432.956	84.31
433.178	91.31
433.4	104.31
433.622	104.31
433.844	99.31
434.066	88.31
434.287	82.31
434.509	82.31
434.731	88.31
434.953	87.31
435.175	106.31
435.397	86.31
435.618	94.31
435.84	98.31
436.062	114.31
436.284	123.31
436.505	91.31
436.727	94.31
436.949	85.31
437.17	86.31
437.392	103.31
437.614	103.31
437.835	116.31
438.057	108.31
438.278	109.31
438.5	117.31
438.721	126.31
438.943	86.31
439.165	98.31
439.386	88.31
439.608	95.31
439.829	88.31
440.05	118.31
440.272	144.31
440.493	99.31
440.715	91.31
440.936	75.31
441.158	96.31
441.379	92.31
441.6	90.31
441.822	86.31
442.043	100.31
442.264	95.31
442.486	99.31
442.707	98.31
442.928	112.31
443.149	132.31
443.371	138.31
443.592	108.31
443.813	108.31
444.034	106.31
444.255	83.31
444.476	89.31
444.698	89.31
444.919	88.31
445.14	148.31
445.361	128.31
445.582	96.31
445.803	143.31
446.024	137.31
446.245	139.31
446.466	101.31
446.687	95.31
446.908	86.31
447.129	84.31
447.35	84.31
447.571	85.31
447.792	99.31
448.013	92.31
448.234	115.31
448.455	91.31
448.675	108.31
448.896	114.31
449.117	116.31
449.338	103.31
449.559	125.31
449.779	122.31
450	91.31
450.221	87.31
450.442	92.31
450.662	77.31
450.883	101.31
451.104	106.31
451.324	90.31
451.545	88.31
451.766	80.31
451.986	93.31
452.207	101.31
452.428	87.31
452.648	99.31
452.869	101.31
453.089	122.31
453.31	110.31
453.53	90.31
453.751	86.31
453.971	95.31
454.192	100.31
454.412	90.31
454.633	75.31
454.853	78.31
455.073	84.31
455.294	80.31
455.514	94.31
455.734	86.31
455.955	83.31
456.175	67.31
456.395	82.31
456.616	91.31
456.836	88.31
457.056	84.31
457.276	71.31
457.497	83.31
457.717	89.31
457.937	101.31
458.157	83.31
458.377	87.31
458.598	108.31
458.818	157.31
459.038	157.31
459.258	134.31
459.478	103.31
459.698	82.31
459.918	101.31
460.138	80.31
460.358	74.31
460.578	83.31
460.798	98.31
461.018	88.31
461.238	83.31
461.458	87.31
461.678	81.31
461.898	97.31
462.118	84.31
462.338	81.31
462.558	80.31
462.777	76.31
462.997	91.31
463.217	98.31
463.437	85.31
463.657	84.31
463.876	86.31
464.096	75.31
464.316	91.31
464.536	92.31
464.755	94.31
464.975	107.31
465.195	173.31
465.414	178.31
465.634	108.31
465.854	85.31
466.073	81.31
466.293	82.31
466.512	87.31
466.732	84.31
466.951	79.31
467.171	77.31
467.391	100.31
467.61	116.31
467.829	103.31
468.049	120.31
468.268	126.31
468.488	89.31
468.707	84.31
468.927	78.31
469.146	86.31
469.365	76.31
469.585	78.31
469.804	102.31
470.023	86.31
470.243	89.31
470.462	95.31
470.681	116.31
470.901	94.31
471.12	83.31
471.339	100.31
471.558	88.31
471.777	88.31
471.997	109.31
472.216	168.31
472.435	240.31
472.654	112.31
472.873	101.31
473.092	84.31
473.311	86.31
473.53	91.31
473.749	78.31
473.968	100.31
474.187	104.31
474.406	92.31
474.625	88.31
474.844	73.31
475.063	89.31
475.282	79.31
475.501	96.31
475.72	84.31
475.939	87.31
476.158	94.31
476.377	79.31
476.596	87.31
476.814	83.31
477.033	74.31
477.252	87.31
477.471	74.31
477.69	82.31
477.908	89.31
478.127	85.31
478.346	97.31
478.564	100.31
478.783	88.31
479.002	98.31
479.22	97.31
479.439	90.31
479.658	101.31
479.876	101.31
480.095	89.31
480.313	95.31
480.532	83.31
480.751	96.31
480.969	164.31
481.188	382.31
481.406	242.31
481.624	108.31
481.843	97.31
482.061	85.31
482.28	86.31
482.498	83.31
482.717	93.31
482.935	91.31
483.153	95.31
483.372	93.31
483.59	89.31
483.808	86.31
484.027	82.31
484.245	87.31
484.463	87.31
484.681	93.31
484.9	87.31
485.118	101.31
485.336	94.31
485.554	89.31
485.772	86.31
485.99	103.31
486.209	70.31
486.427	107.31
486.645	115.31
486.863	107.31
487.081	97.31
487.299	101.31
487.517	90.31
487.735	98.31
487.953	94.31
488.171	90.31
488.389	93.31
488.607	98.31
488.825	105.31
489.043	91.31
489.261	104.31
489.479	96.31
489.696	86.31
489.914	86.31
490.132	92.31
490.35	91.31
490.568	95.31
490.786	93.31
491.003	83.31
491.221	88.31
491.439	81.31
491.657	83.31
491.874	89.31
492.092	96.31
492.31	95.31
492.527	83.31
492.745	93.31
492.963	81.31
493.18	98.31
493.398	87.31
493.615	101.31
493.833	115.31
494.05	96.31
494.268	84.31
494.485	85.31
494.703	93.31
494.92	91.31
495.138	91.31
495.355	81.31
495.573	90.31
495.79	94.31
496.008	82.31
496.225	100.31
496.442	97.31
496.66	82.31
496.877	92.31
497.094	89.31
497.312	91.31
497.529	89.31
497.746	91.31
497.963	96.31
498.181	84.31
498.398	103.31
498.615	108.31
498.832	104.31
499.049	97.31
499.267	82.31
499.484	87.31
499.701	85.31
499.918	87.31
500.135	88.31
500.352	94.31
500.569	82.31
500.786	106.31
501.003	89.31
501.22	97.31
501.437	81.31
501.654	97.31
501.871	118.31
502.088	94.31
502.305	84.31
502.522	89.31
502.739	87.31
502.956	91.31
503.172	88.31
503.389	85.31
503.606	112.31
503.823	101.31
504.04	96.31
504.256	97.31
504.473	89.31
504.69	87.31
504.907	101.31
505.123	90.31
505.34	99.31
505.557	87.31
505.773	92.31
505.99	84.31
506.207	98.31
506.423	92.31
506.64	90.31
506.856	101.31
507.073	106.31
507.289	89.31
507.506	98.31
507.722	105.31
507.939	115.31
508.155	94.31
508.372	90.31
508.588	104.31
508.805	82.31
509.021	108.31
509.238	88.31
509.454	98.31
509.67	94.31
509.887	109.31
510.103	146.31
510.319	231.31
510.536	848.31
510.752	2724.31
510.968	726.31
511.184	171.31
511.401	116.31
511.617	88.31
511.833	91.31
512.049	103.31
512.265	88.31
512.481	75.31
512.698	92.31
512.914	98.31
513.13	94.31
513.346	95.31
513.562	91.31
513.778	85.31
513.994	106.31
514.21	105.31
514.426	102.31
514.642	128.31
514.858	125.31
515.074	169.31
515.29	518.31
515.506	1714.31
