Data from Uncirc_1985_H10_HRD10591_00029.txt Node
Date: Wed Jan 03 12:18:23 EST 2024
User: Yrep
Spectrometer: HR+D1059
Trigger mode: 1
Integration Time (sec): 1.000000E-1
Scans to average: 1
Electric dark correction enabled: true
Nonlinearity correction enabled: false
Boxcar width: 0
XAxis mode: Wavelengths
Number of Pixels in Spectrum: 2048
>>>>>Begin Spectral Data<<<<<
223.165	-9.62
223.4	-9.62
223.635	-9.62
223.869	-13.62
224.104	-16.62
224.338	-24.62
224.573	-12.62
224.808	-24.62
225.042	6.38
225.277	-7.62
225.511	-4.62
225.746	-4.62
225.98	10.38
226.215	12.38
226.449	15.38
226.683	18.38
226.918	25.38
227.152	30.38
227.387	31.38
227.621	36.38
227.856	45.38
228.09	48.38
228.324	31.38
228.559	49.38
228.793	167.38
229.027	449.38
229.262	516.38
229.496	579.38
229.73	756.38
229.964	755.38
230.199	552.38
230.433	472.38
230.667	464.38
230.901	476.38
231.136	477.38
231.37	464.38
231.604	454.38
231.838	451.38
232.072	452.38
232.306	483.38
232.541	488.38
232.775	484.38
233.009	475.38
233.243	493.38
233.477	518.38
233.711	489.38
233.945	511.38
234.179	508.38
234.413	512.38
234.647	542.38
234.881	534.38
235.115	530.38
235.349	554.38
235.583	566.38
235.817	598.38
236.051	624.38
236.285	637.38
236.519	627.38
236.753	694.38
236.987	884.38
237.221	1304.38
237.455	1434.38
237.689	908.38
237.922	770.38
238.156	722.38
238.39	699.38
238.624	665.38
238.858	642.38
239.091	670.38
239.325	677.38
239.559	734.38
239.793	718.38
240.027	784.38
240.26	894.38
240.494	946.38
240.728	962.38
240.961	940.38
241.195	828.38
241.429	807.38
241.662	806.38
241.896	790.38
242.13	785.38
242.363	814.38
242.597	817.38
242.83	861.38
243.064	869.38
243.298	834.38
243.531	866.38
243.765	856.38
243.998	883.38
244.232	888.38
244.465	932.38
244.699	962.38
244.932	895.38
245.166	937.38
245.399	947.38
245.633	935.38
245.866	940.38
246.099	945.38
246.333	974.38
246.566	991.38
246.8	1023.38
247.033	1038.38
247.266	1062.38
247.5	1131.38
247.733	1176.38
247.966	1158.38
248.2	1171.38
248.433	1171.38
248.666	1230.38
248.899	1353.38
249.133	1454.38
249.366	1457.38
249.599	1331.38
249.832	1234.38
250.066	1266.38
250.299	1302.38
250.532	1382.38
250.765	1536.38
250.998	1679.38
251.231	1675.38
251.465	1536.38
251.698	1468.38
251.931	1427.38
252.164	1440.38
252.397	1466.38
252.63	1484.38
252.863	1598.38
253.096	1686.38
253.329	1790.38
253.562	1681.38
253.795	1602.38
254.028	1601.38
254.261	1651.38
254.494	1795.38
254.727	2089.38
254.96	2200.38
255.193	1979.38
255.426	1790.38
255.659	1714.38
255.892	1700.38
256.124	1704.38
256.357	1630.38
256.59	1626.38
256.823	1576.38
257.056	1561.38
257.289	1578.38
257.521	1583.38
257.754	1632.38
257.987	1600.38
258.22	1565.38
258.452	1598.38
258.685	1631.38
258.918	1637.38
259.151	1639.38
259.383	1750.38
259.616	1758.38
259.849	1815.38
260.081	1880.38
260.314	2090.38
260.547	2027.38
260.779	1879.38
261.012	1817.38
261.244	1776.38
261.477	1739.38
261.71	1762.38
261.942	1775.38
262.175	1820.38
262.407	1780.38
262.64	1684.38
262.872	1682.38
263.105	1653.38
263.337	1706.38
263.57	1708.38
263.802	1699.38
264.035	1720.38
264.267	1727.38
264.499	1703.38
264.732	1723.38
264.964	1744.38
265.197	1724.38
265.429	1754.38
265.661	1772.38
265.894	1813.38
266.126	1787.38
266.358	1818.38
266.591	1822.38
266.823	1908.38
267.055	1910.38
267.287	1907.38
267.52	1915.38
267.752	1881.38
267.984	1900.38
268.216	1958.38
268.448	1964.38
268.681	2070.38
268.913	2132.38
269.145	2322.38
269.377	2346.38
269.609	2344.38
269.841	2292.38
270.073	2359.38
270.306	2614.38
270.538	2777.38
270.77	2608.38
271.002	2511.38
271.234	2495.38
271.466	2610.38
271.698	2719.38
271.93	2724.38
272.162	2752.38
272.394	2652.38
272.626	2550.38
272.858	2379.38
273.09	2287.38
273.322	2307.38
273.553	2271.38
273.785	2265.38
274.017	2267.38
274.249	2277.38
274.481	2301.38
274.713	2331.38
274.945	2307.38
275.176	2330.38
275.408	2295.38
275.64	2290.38
275.872	2293.38
276.104	2347.38
276.335	2340.38
276.567	2441.38
276.799	2549.38
277.031	2724.38
277.262	2870.38
277.494	2776.38
277.726	2642.38
277.957	2540.38
278.189	2453.38
278.421	2419.38
278.652	2388.38
278.884	2454.38
279.115	2404.38
279.347	2438.38
279.579	2462.38
279.81	2462.38
280.042	2461.38
280.273	2438.38
280.505	2472.38
280.736	2452.38
280.968	2452.38
281.199	2522.38
281.431	2539.38
281.662	2511.38
281.894	2547.38
282.125	2591.38
282.356	2750.38
282.588	2903.38
282.819	2692.38
283.051	2606.38
283.282	2594.38
283.513	2582.38
283.745	2703.38
283.976	2705.38
284.207	2665.38
284.439	2646.38
284.67	2675.38
284.901	2694.38
285.132	2698.38
285.364	2690.38
285.595	2726.38
285.826	2671.38
286.057	2665.38
286.288	2750.38
286.52	2720.38
286.751	2698.38
286.982	2770.38
287.213	2768.38
287.444	2811.38
287.675	2866.38
287.906	2940.38
288.138	2954.38
288.369	2929.38
288.6	2982.38
288.831	2936.38
289.062	2838.38
289.293	2886.38
289.524	2885.38
289.755	2896.38
289.986	2805.38
290.217	2862.38
290.448	2878.38
290.679	2888.38
290.91	2830.38
291.141	2840.38
291.371	2850.38
291.602	2878.38
291.833	2831.38
292.064	2850.38
292.295	2890.38
292.526	2853.38
292.757	2875.38
292.987	2890.38
293.218	2856.38
293.449	2914.38
293.68	2914.38
293.91	2875.38
294.141	2880.38
294.372	2890.38
294.603	2949.38
294.833	2959.38
295.064	2987.38
295.295	2960.38
295.525	2953.38
295.756	3026.38
295.987	3090.38
296.217	3150.38
296.448	3192.38
296.679	3043.38
296.909	3025.38
297.14	3067.38
297.37	3102.38
297.601	3152.38
297.831	3093.38
298.062	3099.38
298.292	3162.38
298.523	3188.38
298.753	3174.38
298.984	3190.38
299.214	3184.38
299.445	3124.38
299.675	3228.38
299.905	3219.38
300.136	3150.38
300.366	3226.38
300.597	3220.38
300.827	3390.38
301.057	3450.38
301.288	3404.38
301.518	3355.38
301.748	3384.38
301.979	3467.38
302.209	3440.38
302.439	3453.38
302.669	3371.38
302.9	3390.38
303.13	3248.38
303.36	3435.38
303.59	3436.38
303.82	3474.38
304.051	3400.38
304.281	3360.38
304.511	3243.38
304.741	3379.38
304.971	3364.38
305.201	3334.38
305.431	3362.38
305.661	3336.38
305.891	3357.38
306.121	3372.38
306.352	3396.38
306.582	3352.38
306.812	3285.38
307.042	3344.38
307.272	3335.38
307.502	3296.38
307.731	3427.38
307.961	3286.38
308.191	3305.38
308.421	3353.38
308.651	3369.38
308.881	3290.38
309.111	3390.38
309.341	3386.38
309.571	3474.38
309.8	3498.38
310.03	3543.38
310.26	3644.38
310.49	3610.38
310.72	3633.38
310.949	3708.38
311.179	3682.38
311.409	3611.38
311.639	3641.38
311.868	3650.38
312.098	3716.38
312.328	3720.38
312.557	3898.38
312.787	3914.38
313.017	3849.38
313.246	3800.38
313.476	3694.38
313.706	3792.38
313.935	3816.38
314.165	3945.38
314.394	3902.38
314.624	3898.38
314.853	3864.38
315.083	3769.38
315.312	3807.38
315.542	3742.38
315.771	3732.38
316.001	3685.38
316.23	3736.38
316.46	3736.38
316.689	3749.38
316.919	3755.38
317.148	3839.38
317.377	3778.38
317.607	3671.38
317.836	3740.38
318.065	3688.38
318.295	3732.38
318.524	3704.38
318.753	3736.38
318.983	3706.38
319.212	3674.38
319.441	3831.38
319.67	3770.38
319.9	3689.38
320.129	3688.38
320.358	3733.38
320.587	3720.38
320.816	3828.38
321.046	3855.38
321.275	3818.38
321.504	3833.38
321.733	3863.38
321.962	3928.38
322.191	4058.38
322.42	4047.38
322.649	4147.38
322.878	4204.38
323.108	4230.38
323.337	4441.38
323.566	4595.38
323.795	4806.38
324.024	5321.38
324.253	6859.38
324.482	10029.38
324.71	14629.38
324.939	15628.38
325.168	11459.38
325.397	6279.38
325.626	5144.38
325.855	4852.38
326.084	4694.38
326.313	4675.38
326.542	4803.38
326.77	5371.38
326.999	6654.38
327.228	9571.38
327.457	13690.38
327.686	12729.38
327.914	6914.38
328.143	5628.38
328.372	5312.38
328.6	5095.38
328.829	5024.38
329.058	5200.38
329.287	5120.38
329.515	4879.38
329.744	4757.38
329.972	4788.38
330.201	4887.38
330.43	5154.38
330.658	5280.38
330.887	5504.38
331.115	5188.38
331.344	4929.38
331.572	4816.38
331.801	4926.38
332.03	4963.38
332.258	4926.38
332.486	4946.38
332.715	5050.38
332.943	5208.38
333.172	5380.38
333.4	5499.38
333.629	5590.38
333.857	5730.38
334.085	5638.38
334.314	5634.38
334.542	5647.38
334.771	5624.38
334.999	5288.38
335.227	5222.38
335.455	5198.38
335.684	5050.38
335.912	5064.38
336.14	4981.38
336.369	4933.38
336.597	4992.38
336.825	4982.38
337.053	4911.38
337.281	4780.38
337.51	4722.38
337.738	4810.38
337.966	4603.38
338.194	4737.38
338.422	4647.38
338.65	4621.38
338.878	4530.38
339.106	4485.38
339.334	4535.38
339.562	4531.38
339.79	4429.38
340.018	4426.38
340.246	4402.38
340.474	4413.38
340.702	4406.38
340.93	4372.38
341.158	4489.38
341.386	4426.38
341.614	4421.38
341.842	4349.38
342.07	4290.38
342.298	4316.38
342.526	4323.38
342.754	4317.38
342.981	4305.38
343.209	4444.38
343.437	4628.38
343.665	4916.38
343.893	5211.38
344.12	5207.38
344.348	5067.38
344.576	4832.38
344.804	4702.38
345.031	4617.38
345.259	4618.38
345.487	4450.38
345.714	4376.38
345.942	4276.38
346.17	4215.38
346.397	4149.38
346.625	4209.38
346.853	4198.38
347.08	4158.38
347.308	4217.38
347.535	4310.38
347.763	4318.38
347.99	4292.38
348.218	4299.38
348.445	4294.38
348.673	4202.38
348.9	4168.38
349.128	4096.38
349.355	4135.38
349.583	4114.38
349.81	4099.38
350.037	4020.38
350.265	4024.38
350.492	4014.38
350.72	4111.38
350.947	4092.38
351.174	4150.38
351.402	4209.38
351.629	4146.38
351.856	4164.38
352.083	4190.38
352.311	4227.38
352.538	4236.38
352.765	4196.38
352.992	4122.38
353.22	4117.38
353.447	4030.38
353.674	3987.38
353.901	4007.38
354.128	3979.38
354.355	3988.38
354.583	4028.38
354.81	3957.38
355.037	3991.38
355.264	4008.38
355.491	4039.38
355.718	3974.38
355.945	3913.38
356.172	3999.38
356.399	3978.38
356.626	3987.38
356.853	3996.38
357.08	3972.38
357.307	4041.38
357.534	4004.38
357.761	4061.38
357.988	4064.38
358.215	3972.38
358.441	3957.38
358.668	3993.38
358.895	4095.38
359.122	4058.38
359.349	4194.38
359.576	4252.38
359.802	4434.38
360.029	4507.38
360.256	4470.38
360.483	4315.38
360.709	4241.38
360.936	4227.38
361.163	4211.38
361.39	4185.38
361.616	4278.38
361.843	4155.38
362.07	4187.38
362.296	4183.38
362.523	4186.38
362.749	4208.38
362.976	4116.38
363.203	4087.38
363.429	4034.38
363.656	4102.38
363.882	4078.38
364.109	4036.38
364.335	3995.38
364.562	4071.38
364.788	4049.38
365.015	4068.38
365.241	4089.38
365.468	4058.38
365.694	4083.38
365.92	4133.38
366.147	3986.38
366.373	4044.38
366.599	4049.38
366.826	4020.38
367.052	4031.38
367.278	4089.38
367.505	4092.38
367.731	4122.38
367.957	4093.38
368.184	4118.38
368.41	4249.38
368.636	4241.38
368.862	4302.38
369.089	4183.38
369.315	4228.38
369.541	4202.38
369.767	4194.38
369.993	4218.38
370.219	4131.38
370.445	4202.38
370.672	4286.38
370.898	4266.38
371.124	4293.38
371.35	4343.38
371.576	4274.38
371.802	4321.38
372.028	4322.38
372.254	4315.38
372.48	4398.38
372.706	4491.38
372.932	4481.38
373.158	4471.38
373.384	4422.38
373.61	4377.38
373.835	4452.38
374.061	4458.38
374.287	4521.38
374.513	4590.38
374.739	4659.38
374.965	4738.38
375.191	4806.38
375.416	4729.38
375.642	4612.38
375.868	4532.38
376.094	4444.38
376.319	4411.38
376.545	4449.38
376.771	4442.38
376.997	4378.38
377.222	4387.38
377.448	4372.38
377.674	4375.38
377.899	4361.38
378.125	4305.38
378.35	4330.38
378.576	4360.38
378.802	4367.38
379.027	4291.38
379.253	4346.38
379.478	4295.38
379.704	4332.38
379.929	4387.38
380.155	4370.38
380.38	4350.38
380.606	4340.38
380.831	4357.38
381.057	4378.38
381.282	4353.38
381.507	4334.38
381.733	4461.38
381.958	4460.38
382.184	4513.38
382.409	4586.38
382.634	4574.38
382.86	4583.38
383.085	4672.38
383.31	4732.38
383.535	4828.38
383.761	4840.38
383.986	5010.38
384.211	4976.38
384.436	5075.38
384.662	5158.38
384.887	5154.38
385.112	5190.38
385.337	5300.38
385.562	5318.38
385.787	5266.38
386.013	5442.38
386.238	5406.38
386.463	5329.38
386.688	5322.38
386.913	5146.38
387.138	5195.38
387.363	5247.38
387.588	5202.38
387.813	5224.38
388.038	5182.38
388.263	5258.38
388.488	5202.38
388.713	5202.38
388.938	5147.38
389.163	5145.38
389.387	5194.38
389.612	5120.38
389.837	5160.38
390.062	5079.38
390.287	5170.38
390.512	5217.38
390.736	5306.38
390.961	5304.38
391.186	5315.38
391.411	5532.38
391.636	5646.38
391.86	5838.38
392.085	5895.38
392.31	5738.38
392.534	5681.38
392.759	5591.38
392.984	5484.38
393.208	5451.38
393.433	5420.38
393.658	5374.38
393.882	5430.38
394.107	5468.38
394.331	5540.38
394.556	5471.38
394.78	5575.38
395.005	5646.38
395.229	5710.38
395.454	5819.38
395.678	5904.38
395.903	5920.38
396.127	5927.38
396.352	5771.38
396.576	5609.38
396.801	5489.38
397.025	5604.38
397.249	5724.38
397.474	5896.38
397.698	5945.38
397.922	5999.38
398.147	6131.38
398.371	6224.38
398.595	6359.38
398.82	6681.38
399.044	7236.38
399.268	7982.38
399.492	9064.38
399.717	9703.38
399.941	9466.38
400.165	8905.38
400.389	8160.38
400.613	7340.38
400.837	6828.38
401.062	6780.38
401.286	6691.38
401.51	6583.38
401.734	6600.38
401.958	6681.38
402.182	6793.38
402.406	6836.38
402.63	6959.38
402.854	7063.38
403.078	7126.38
403.302	7337.38
403.526	7416.38
403.75	7521.38
403.974	7534.38
404.198	7482.38
404.422	7584.38
404.645	7506.38
404.869	7472.38
405.093	7652.38
405.317	7798.38
405.541	7758.38
405.765	7381.38
405.988	7270.38
406.212	7456.38
406.436	7650.38
406.66	7746.38
406.883	7772.38
407.107	8391.38
407.331	8891.38
407.555	9525.38
407.778	9080.38
408.002	8358.38
408.226	8014.38
408.449	7798.38
408.673	7675.38
408.896	7913.38
409.12	7912.38
409.344	7623.38
409.567	7226.38
409.791	7234.38
410.014	7103.38
410.238	7086.38
410.461	7185.38
410.685	7064.38
410.908	7175.38
411.132	7401.38
411.355	7396.38
411.578	7049.38
411.802	6864.38
412.025	6904.38
412.249	7005.38
412.472	6960.38
412.695	7080.38
412.919	6787.38
413.142	6597.38
413.365	6544.38
413.589	6549.38
413.812	6561.38
414.035	6359.38
414.258	6504.38
414.482	6447.38
414.705	6559.38
414.928	6500.38
415.151	6486.38
415.374	6467.38
415.597	6391.38
415.821	6342.38
416.044	6427.38
416.267	6352.38
416.49	6352.38
416.713	6275.38
416.936	6370.38
417.159	6393.38
417.382	6445.38
417.605	6458.38
417.828	6581.38
418.051	6758.38
418.274	6632.38
418.497	6568.38
418.72	6610.38
418.943	6486.38
419.166	7000.38
419.389	7313.38
419.611	7253.38
419.834	7038.38
420.057	6936.38
420.28	6686.38
420.503	6483.38
420.726	6499.38
420.948	6676.38
421.171	7059.38
421.394	7110.38
421.617	6653.38
421.839	6604.38
422.062	6639.38
422.285	6894.38
422.507	7477.38
422.73	8054.38
422.953	7454.38
423.175	7059.38
423.398	7048.38
423.621	7092.38
423.843	7313.38
424.066	7351.38
424.288	7152.38
424.511	7336.38
424.733	7881.38
424.956	8258.38
425.178	7696.38
425.401	7984.38
425.623	7799.38
425.846	6858.38
426.068	6728.38
426.291	6681.38
426.513	6606.38
426.735	6698.38
426.958	7180.38
427.18	7808.38
427.402	8939.38
427.625	8893.38
427.847	7522.38
428.069	6946.38
428.292	6552.38
428.514	6262.38
428.736	5983.38
428.958	6141.38
429.181	5846.38
429.403	5853.38
429.625	6032.38
429.847	6330.38
430.069	6853.38
430.292	6399.38
430.514	5957.38
430.736	5899.38
430.958	5744.38
431.18	5767.38
431.402	5801.38
431.624	5683.38
431.846	5715.38
432.068	5738.38
432.29	5919.38
432.512	5794.38
432.734	5955.38
432.956	5801.38
433.178	5938.38
433.4	5942.38
433.622	5833.38
433.844	5793.38
434.066	5800.38
434.287	5958.38
434.509	6189.38
434.731	6412.38
434.953	6566.38
435.175	6661.38
435.397	6799.38
435.618	6618.38
435.84	7005.38
436.062	7792.38
436.284	7738.38
436.505	6583.38
436.727	6310.38
436.949	6034.38
437.17	5948.38
437.392	5853.38
437.614	6009.38
437.835	6354.38
438.057	7214.38
438.278	7808.38
438.5	7842.38
438.721	8652.38
438.943	7634.38
439.165	6397.38
439.386	6314.38
439.608	6237.38
439.829	6334.38
440.05	6673.38
440.272	6996.38
440.493	6467.38
440.715	6247.38
440.936	6176.38
441.158	6286.38
441.379	6341.38
441.6	6633.38
441.822	6935.38
442.043	7338.38
442.264	7974.38
442.486	7748.38
442.707	6909.38
442.928	6778.38
443.149	6946.38
443.371	7158.38
443.592	7762.38
443.813	8658.38
444.034	8620.38
444.255	7527.38
444.476	7456.38
444.698	7674.38
444.919	7752.38
445.14	7468.38
445.361	7292.38
445.582	7394.38
445.803	7832.38
446.024	8450.38
446.245	8082.38
446.466	7362.38
446.687	6473.38
446.908	6202.38
447.129	5881.38
447.35	5728.38
447.571	5737.38
447.792	5608.38
448.013	5704.38
448.234	5840.38
448.455	6518.38
448.675	7658.38
448.896	8105.38
449.117	6723.38
449.338	6924.38
449.559	8174.38
449.779	8366.38
450	6442.38
450.221	5848.38
450.442	5589.38
450.662	5500.38
450.883	5550.38
451.104	5616.38
451.324	5493.38
451.545	5389.38
451.766	5265.38
451.986	5117.38
452.207	5133.38
452.428	5083.38
452.648	5126.38
452.869	5161.38
453.089	5209.38
453.31	5305.38
453.53	5112.38
453.751	5028.38
453.971	5070.38
454.192	5193.38
454.412	5000.38
454.633	5008.38
454.853	4958.38
455.073	4969.38
455.294	5322.38
455.514	5808.38
455.734	5332.38
455.955	4894.38
456.175	4841.38
456.395	4697.38
456.616	4692.38
456.836	4699.38
457.056	4635.38
457.276	4688.38
457.497	4766.38
457.717	4806.38
457.937	4878.38
458.157	4873.38
458.377	4974.38
458.598	5320.38
458.818	5915.38
459.038	6672.38
459.258	6530.38
459.478	6036.38
459.698	5899.38
459.918	6028.38
460.138	6086.38
460.358	6378.38
460.578	6391.38
460.798	6470.38
461.018	6467.38
461.238	6273.38
461.458	6285.38
461.678	6262.38
461.898	6531.38
462.118	6456.38
462.338	6834.38
462.558	6941.38
462.777	7286.38
462.997	7910.38
463.217	8293.38
463.437	8054.38
463.657	7417.38
463.876	7272.38
464.096	7282.38
464.316	7236.38
464.536	7277.38
464.755	7065.38
464.975	6885.38
465.195	6980.38
465.414	6889.38
465.634	6167.38
465.854	5885.38
466.073	5715.38
466.293	5531.38
466.512	5326.38
466.732	5271.38
466.951	5278.38
467.171	5299.38
467.391	5397.38
467.61	5426.38
467.829	5333.38
468.049	5282.38
468.268	5098.38
468.488	5106.38
468.707	5011.38
468.927	5097.38
469.146	5029.38
469.365	5151.38
469.585	5153.38
469.804	5318.38
470.023	5434.38
470.243	5448.38
470.462	5553.38
470.681	5632.38
470.901	5506.38
471.12	5445.38
471.339	5383.38
471.558	5339.38
471.777	5245.38
471.997	5138.38
472.216	5135.38
472.435	5202.38
472.654	5082.38
472.873	4971.38
473.092	5026.38
473.311	4946.38
473.53	5032.38
473.749	5230.38
473.968	5663.38
474.187	6696.38
474.406	6169.38
474.625	5432.38
474.844	5130.38
475.063	5064.38
475.282	5024.38
475.501	5165.38
475.72	5176.38
475.939	5186.38
476.158	5237.38
476.377	5294.38
476.596	5241.38
476.814	5356.38
477.033	5436.38
477.252	5540.38
477.471	5579.38
477.69	5727.38
477.908	5842.38
478.127	6002.38
478.346	6066.38
478.564	6189.38
478.783	6268.38
479.002	6472.38
479.22	6429.38
479.439	6480.38
479.658	6678.38
479.876	6607.38
480.095	6921.38
480.313	7201.38
480.532	7111.38
480.751	6944.38
480.969	6784.38
481.188	6965.38
481.406	6754.38
481.624	6413.38
481.843	6232.38
482.061	6102.38
482.28	6039.38
482.498	5966.38
482.717	5932.38
482.935	5997.38
483.153	5914.38
483.372	5935.38
483.59	5914.38
483.808	5964.38
484.027	6014.38
484.245	5966.38
484.463	5951.38
484.681	6095.38
484.9	6203.38
485.118	6215.38
485.336	6206.38
485.554	6274.38
485.772	6286.38
485.99	6325.38
486.209	6306.38
486.427	6384.38
486.645	6438.38
486.863	6412.38
487.081	6399.38
487.299	6368.38
487.517	6339.38
487.735	6369.38
487.953	6395.38
