Data from ZeroMicroDelayPb_HRD10591_00002.txt Node
Date: Mon Nov 24 14:23:32 EST 2025
User: Yrep
Spectrometer: HR+D1059
Trigger mode: 0
Integration Time (sec): 1.000000E-1
Scans to average: 5
Electric dark correction enabled: true
Nonlinearity correction enabled: false
Boxcar width: 0
XAxis mode: Wavelengths
Number of Pixels in Spectrum: 2048
>>>>>Begin Spectral Data<<<<<
223.165	-20.61
223.4	-20.61
223.635	-20.61
223.869	-13.81
224.104	-23.21
224.338	-12.81
224.573	-13.61
224.808	-14.41
225.042	-6.01
225.277	-2.01
225.511	-5.01
225.746	0.99
225.98	3.79
226.215	9.79
226.449	17.19
226.683	25.59
226.918	23.39
227.152	30.79
227.387	32.79
227.621	35.19
227.856	42.99
228.09	43.39
228.324	52.99
228.559	55.59
228.793	54.79
229.027	63.19
229.262	66.79
229.496	68.59
229.73	74.59
229.964	76.39
230.199	77.19
230.433	69.99
230.667	79.39
230.901	73.79
231.136	84.99
231.37	81.19
231.604	81.39
231.838	76.99
232.072	78.59
232.306	77.59
232.541	75.19
232.775	80.59
233.009	83.39
233.243	86.39
233.477	83.39
233.711	80.59
233.945	80.19
234.179	78.99
234.413	80.39
234.647	83.99
234.881	81.79
235.115	82.59
235.349	83.79
235.583	82.99
235.817	77.19
236.051	71.19
236.285	78.19
236.519	80.19
236.753	78.39
236.987	76.99
237.221	81.19
237.455	76.79
237.689	80.39
237.922	72.79
238.156	73.99
238.39	72.99
238.624	69.79
238.858	72.79
239.091	81.99
239.325	77.59
239.559	83.99
239.793	83.59
240.027	85.79
240.26	77.39
240.494	83.39
240.728	75.79
240.961	78.79
241.195	80.59
241.429	78.39
241.662	74.19
241.896	77.59
242.13	83.79
242.363	77.99
242.597	79.19
242.83	82.19
243.064	83.59
243.298	75.99
243.531	79.19
243.765	78.39
243.998	78.59
244.232	77.19
244.465	78.59
244.699	80.39
244.932	84.19
245.166	80.99
245.399	85.59
245.633	81.59
245.866	73.59
246.099	77.39
246.333	80.59
246.566	75.99
246.8	71.39
247.033	83.19
247.266	81.39
247.5	79.59
247.733	81.79
247.966	84.19
248.2	85.79
248.433	79.99
248.666	82.79
248.899	81.79
249.133	82.19
249.366	84.39
249.599	87.19
249.832	85.19
250.066	83.39
250.299	78.79
250.532	84.19
250.765	81.79
250.998	86.59
251.231	79.19
251.465	82.59
251.698	86.59
251.931	80.99
252.164	80.19
252.397	84.99
252.63	88.39
252.863	91.19
253.096	85.99
253.329	90.39
253.562	86.59
253.795	83.59
254.028	89.59
254.261	91.99
254.494	85.39
254.727	95.19
254.96	85.59
255.193	87.99
255.426	86.99
255.659	83.39
255.892	92.99
256.124	90.59
256.357	89.59
256.59	85.79
256.823	88.39
257.056	86.99
257.289	87.59
257.521	87.99
257.754	98.79
257.987	95.19
258.22	91.39
258.452	93.99
258.685	92.99
258.918	95.39
259.151	91.99
259.383	92.19
259.616	89.99
259.849	97.59
260.081	89.19
260.314	95.79
260.547	94.79
260.779	93.39
261.012	100.39
261.244	103.39
261.477	114.39
261.71	120.59
261.942	96.39
262.175	93.19
262.407	93.39
262.64	91.39
262.872	94.39
263.105	91.79
263.337	97.19
263.57	96.39
263.802	93.39
264.035	93.59
264.267	92.59
264.499	96.19
264.732	91.59
264.964	99.39
265.197	93.79
265.429	95.59
265.661	94.39
265.894	94.79
266.126	92.39
266.358	98.99
266.591	108.99
266.823	97.19
267.055	92.59
267.287	94.59
267.52	91.19
267.752	96.59
267.984	97.19
268.216	88.99
268.448	92.99
268.681	91.79
268.913	90.59
269.145	91.59
269.377	92.39
269.609	91.39
269.841	89.59
270.073	90.59
270.306	96.59
270.538	93.19
270.77	93.59
271.002	84.19
271.234	88.39
271.466	95.59
271.698	95.39
271.93	88.79
272.162	86.79
272.394	95.59
272.626	87.99
272.858	96.39
273.09	90.59
273.322	87.39
273.553	90.19
273.785	88.99
274.017	94.59
274.249	90.59
274.481	89.19
274.713	90.59
274.945	97.39
275.176	92.39
275.408	91.59
275.64	88.19
275.872	85.79
276.104	91.99
276.335	95.99
276.567	90.39
276.799	91.79
277.031	95.79
277.262	93.19
277.494	92.19
277.726	91.99
277.957	95.59
278.189	95.99
278.421	94.59
278.652	98.39
278.884	99.19
279.115	107.39
279.347	105.79
279.579	107.99
279.81	127.99
280.042	132.39
280.273	139.99
280.505	134.39
280.736	117.79
280.968	112.19
281.199	110.79
281.431	105.59
281.662	103.39
281.894	99.99
282.125	106.99
282.356	107.19
282.588	113.59
282.819	107.79
283.051	112.19
283.282	123.59
283.513	128.39
283.745	113.99
283.976	103.39
284.207	100.79
284.439	104.79
284.67	98.59
284.901	94.59
285.132	93.59
285.364	97.79
285.595	99.19
285.826	99.19
286.057	93.79
286.288	96.79
286.52	103.79
286.751	96.79
286.982	103.79
287.213	102.79
287.444	122.99
287.675	111.59
287.906	98.59
288.138	97.79
288.369	90.79
288.6	101.39
288.831	94.79
289.062	102.99
289.293	98.79
289.524	92.19
289.755	92.79
289.986	90.19
290.217	98.99
290.448	93.19
290.679	102.99
290.91	94.59
291.141	94.19
291.371	92.59
291.602	98.19
291.833	100.59
292.064	102.99
292.295	92.99
292.526	95.39
292.757	94.19
292.987	100.39
293.218	93.99
293.449	95.39
293.68	94.99
293.91	97.59
294.141	100.19
294.372	94.19
294.603	96.39
294.833	94.99
295.064	99.19
295.295	104.99
295.525	97.39
295.756	100.79
295.987	95.99
296.217	94.99
296.448	92.59
296.679	95.79
296.909	97.79
297.14	98.39
297.37	104.59
297.601	92.79
297.831	99.99
298.062	99.59
298.292	94.59
298.523	104.59
298.753	97.19
298.984	99.79
299.214	92.99
299.445	97.79
299.675	96.59
299.905	99.59
300.136	97.59
300.366	99.59
300.597	92.79
300.827	94.59
301.057	98.39
301.288	95.19
301.518	92.99
301.748	87.99
301.979	110.39
302.209	97.39
302.439	95.39
302.669	94.39
302.9	92.79
303.13	99.99
303.36	99.19
303.59	98.39
303.82	99.79
304.051	102.79
304.281	97.59
304.511	100.99
304.741	102.79
304.971	100.99
305.201	101.39
305.431	101.39
305.661	106.99
305.891	99.19
306.121	102.99
306.352	103.59
306.582	93.19
306.812	100.19
307.042	100.39
307.272	97.99
307.502	94.99
307.731	101.79
307.961	94.19
308.191	94.59
308.421	90.59
308.651	92.79
308.881	94.99
309.111	98.39
309.341	100.79
309.571	101.99
309.8	99.19
310.03	91.79
310.26	95.19
310.49	98.99
310.72	94.99
310.949	96.99
311.179	93.99
311.409	95.79
311.639	94.39
311.868	100.39
312.098	102.99
312.328	106.19
312.557	98.79
312.787	97.99
313.017	99.99
313.246	104.59
313.476	101.99
313.706	100.39
313.935	108.59
314.165	106.39
314.394	109.99
314.624	98.99
314.853	106.59
315.083	107.19
315.312	106.99
315.542	102.79
315.771	103.79
316.001	104.19
316.23	95.59
316.46	98.99
316.689	99.59
316.919	100.99
317.148	101.99
317.377	102.19
317.607	111.79
317.836	104.59
318.065	101.59
318.295	101.39
318.524	94.99
318.753	97.19
318.983	102.59
319.212	101.79
319.441	92.79
319.67	103.19
319.9	98.39
320.129	100.99
320.358	101.19
320.587	96.99
320.816	99.19
321.046	99.39
321.275	101.59
321.504	99.39
321.733	100.19
321.962	98.39
322.191	100.99
322.42	91.19
322.649	107.59
322.878	99.39
323.108	97.79
323.337	101.19
323.566	101.79
323.795	94.19
324.024	102.39
324.253	99.39
324.482	96.39
324.71	101.19
324.939	102.59
325.168	94.99
325.397	98.39
325.626	102.59
325.855	104.59
326.084	101.39
326.313	99.19
326.542	98.59
326.77	97.59
326.999	99.39
327.228	91.59
327.457	96.19
327.686	105.79
327.914	103.59
328.143	107.79
328.372	97.79
328.6	99.39
328.829	100.99
329.058	101.79
329.287	97.19
329.515	102.59
329.744	100.79
329.972	104.19
330.201	99.99
330.43	101.19
330.658	95.79
330.887	99.79
331.115	97.19
331.344	99.39
331.572	101.39
331.801	100.59
332.03	100.39
332.258	101.39
332.486	97.79
332.715	103.39
332.943	97.39
333.172	97.79
333.4	100.99
333.629	99.99
333.857	99.39
334.085	99.39
334.314	99.39
334.542	97.19
334.771	97.79
334.999	99.59
335.227	98.79
335.455	101.99
335.684	103.79
335.912	102.99
336.14	106.59
336.369	101.39
336.597	97.19
336.825	93.19
337.053	103.59
337.281	101.59
337.51	95.79
337.738	97.39
337.966	91.79
338.194	95.79
338.422	100.99
338.65	98.19
338.878	105.59
339.106	105.39
339.334	99.19
339.562	99.59
339.79	100.99
340.018	98.19
340.246	98.19
340.474	101.79
340.702	100.39
340.93	100.59
341.158	101.59
341.386	106.19
341.614	98.99
341.842	106.99
342.07	93.79
342.298	105.59
342.526	97.19
342.754	103.19
342.981	99.79
343.209	96.79
343.437	104.39
343.665	106.19
343.893	106.79
344.12	108.99
344.348	99.19
344.576	99.99
344.804	101.19
345.031	93.39
345.259	94.39
345.487	97.39
345.714	95.59
345.942	102.59
346.17	104.79
346.397	97.99
346.625	100.19
346.853	102.19
347.08	97.19
347.308	100.99
347.535	96.99
347.763	103.79
347.99	95.79
348.218	103.59
348.445	95.59
348.673	97.19
348.9	102.79
349.128	99.79
349.355	90.79
349.583	97.39
349.81	99.99
350.037	103.19
350.265	105.39
350.492	94.59
350.72	98.79
350.947	98.39
351.174	100.79
351.402	97.39
351.629	98.79
351.856	96.59
352.083	97.79
352.311	103.39
352.538	99.99
352.765	95.19
352.992	103.19
353.22	103.79
353.447	97.59
353.674	105.19
353.901	100.39
354.128	101.39
354.355	99.79
354.583	101.19
354.81	97.99
355.037	104.59
355.264	99.79
355.491	103.99
355.718	91.19
355.945	103.79
356.172	104.99
356.399	109.19
356.626	112.99
356.853	117.39
357.08	135.59
357.307	148.39
357.534	155.79
357.761	132.99
357.988	118.39
358.215	115.39
358.441	115.39
358.668	108.79
358.895	101.19
359.122	105.79
359.349	105.79
359.576	116.99
359.802	104.79
360.029	106.59
360.256	101.19
360.483	101.19
360.709	102.19
360.936	111.39
361.163	108.19
361.39	99.19
361.616	95.99
361.843	106.59
362.07	99.79
362.296	101.59
362.523	103.79
362.749	106.79
362.976	99.39
363.203	115.19
363.429	114.39
363.656	135.99
363.882	162.39
364.109	173.39
364.335	154.59
364.562	121.19
364.788	114.79
365.015	110.59
365.241	109.99
365.468	108.99
365.694	93.79
365.92	106.59
366.147	105.79
366.373	103.99
366.599	107.19
366.826	111.79
367.052	119.39
367.278	130.99
367.505	120.19
367.731	123.99
367.957	145.99
368.184	169.39
368.41	201.99
368.636	188.39
368.862	144.59
369.089	126.19
369.315	125.39
369.541	116.19
369.767	108.19
369.993	103.59
370.219	107.79
370.445	103.79
370.672	105.39
370.898	100.99
371.124	105.19
371.35	99.79
371.576	104.99
371.802	101.99
372.028	102.79
372.254	103.99
372.48	99.59
372.706	110.59
372.932	104.99
373.158	104.79
373.384	112.19
373.61	119.99
373.835	135.19
374.061	160.39
374.287	152.99
374.513	128.99
374.739	115.99
374.965	114.39
375.191	103.59
375.416	112.39
375.642	112.59
375.868	114.99
376.094	106.79
376.319	106.19
376.545	101.79
376.771	96.19
376.997	101.99
377.222	102.99
377.448	99.99
377.674	101.59
377.899	99.59
378.125	101.99
378.35	105.39
378.576	107.39
378.802	100.39
379.027	102.39
379.253	100.39
379.478	104.59
379.704	99.79
379.929	101.19
380.155	100.39
380.38	94.99
380.606	104.19
380.831	99.79
381.057	114.39
381.282	103.99
381.507	110.39
381.733	102.59
381.958	104.59
382.184	105.79
382.409	105.59
382.634	102.79
382.86	103.39
383.085	101.39
383.31	100.79
383.535	102.59
383.761	96.59
383.986	108.59
384.211	104.19
384.436	105.19
384.662	101.59
384.887	91.99
385.112	102.59
385.337	101.79
385.562	97.99
385.787	103.99
386.013	101.39
386.238	98.59
386.463	97.19
386.688	108.19
386.913	101.39
387.138	98.99
387.363	101.99
387.588	99.59
387.813	104.39
388.038	103.99
388.263	102.99
388.488	101.59
388.713	99.19
388.938	101.99
389.163	89.59
389.387	99.59
389.612	93.19
389.837	97.19
390.062	105.19
390.287	107.79
390.512	103.59
390.736	100.39
390.961	97.59
391.186	97.99
391.411	95.79
391.636	100.99
391.86	94.59
392.085	103.99
392.31	102.19
392.534	101.79
392.759	107.59
392.984	105.59
393.208	105.59
393.433	106.59
393.658	104.99
393.882	94.99
394.107	95.79
394.331	108.79
394.556	95.39
394.78	105.19
395.005	99.79
395.229	104.19
395.454	103.99
395.678	99.39
395.903	108.39
396.127	106.99
396.352	107.79
396.576	99.59
396.801	104.19
397.025	100.79
397.249	108.19
397.474	106.19
397.698	110.39
397.922	94.99
398.147	99.99
398.371	101.39
398.595	101.39
398.82	106.79
399.044	102.79
399.268	111.99
399.492	107.59
399.717	106.39
399.941	106.99
400.165	118.19
400.389	103.99
400.613	103.79
400.837	107.79
401.062	107.79
401.286	112.99
401.51	111.19
401.734	110.39
401.958	110.59
402.182	110.19
402.406	114.39
402.63	114.19
402.854	109.39
403.078	106.39
403.302	96.79
403.526	109.59
403.75	116.59
403.974	109.19
404.198	111.19
404.422	111.99
404.645	115.19
404.869	122.59
405.093	131.59
405.317	147.39
405.541	188.19
405.765	256.59
405.988	279.19
406.212	217.99
406.436	175.39
406.66	150.19
406.883	142.79
407.107	127.79
407.331	127.39
407.555	123.79
407.778	116.19
408.002	111.79
408.226	112.19
408.449	110.99
408.673	103.19
408.896	109.79
409.12	106.59
409.344	111.19
409.567	112.39
409.791	110.59
410.014	114.59
410.238	112.19
410.461	110.99
410.685	108.19
410.908	109.59
411.132	110.39
411.355	101.99
411.578	110.59
411.802	107.99
412.025	103.59
412.249	105.39
412.472	114.99
412.695	110.79
412.919	103.19
413.142	101.79
413.365	102.39
413.589	106.99
413.812	108.19
414.035	112.39
414.258	112.59
414.482	99.39
414.705	106.19
414.928	103.79
415.151	104.19
415.374	102.39
415.597	107.99
415.821	104.39
416.044	105.39
416.267	109.79
416.49	109.59
416.713	108.59
416.936	110.79
417.159	113.39
417.382	111.19
417.605	109.39
417.828	110.59
418.051	108.99
418.274	106.59
418.497	104.39
418.72	106.79
418.943	108.79
419.166	111.59
419.389	106.59
419.611	107.19
419.834	111.99
420.057	111.99
420.28	118.59
420.503	111.19
420.726	113.79
420.948	106.39
421.171	110.99
421.394	106.59
421.617	113.79
421.839	107.99
422.062	113.99
422.285	112.59
422.507	117.99
422.73	106.59
422.953	112.99
423.175	123.39
423.398	117.59
423.621	123.59
423.843	120.59
424.066	131.19
424.288	140.79
424.511	154.79
424.733	164.79
424.956	158.99
425.178	151.59
425.401	137.19
425.623	134.79
425.846	125.19
426.068	126.79
426.291	125.79
426.513	119.19
426.735	120.59
426.958	125.39
427.18	117.79
427.402	113.79
427.625	112.39
427.847	113.79
428.069	112.39
428.292	108.79
428.514	110.19
428.736	112.19
428.958	107.99
429.181	108.19
429.403	113.59
429.625	115.39
429.847	109.19
430.069	108.59
430.292	109.59
430.514	109.39
430.736	108.19
430.958	111.39
431.18	111.19
431.402	103.99
431.624	102.79
431.846	106.79
432.068	104.79
432.29	100.59
432.512	110.99
432.734	104.59
432.956	107.19
433.178	112.99
433.4	114.19
433.622	112.59
433.844	116.39
434.066	113.19
434.287	115.79
434.509	104.99
434.731	114.19
434.953	109.19
435.175	109.99
435.397	112.79
435.618	108.79
435.84	114.39
436.062	114.59
436.284	106.79
436.505	107.59
436.727	110.19
436.949	119.99
437.17	111.19
437.392	117.59
437.614	124.39
437.835	121.59
438.057	121.39
438.278	128.19
438.5	137.39
438.721	155.59
438.943	165.59
439.165	151.59
439.386	144.19
439.608	137.99
439.829	136.79
440.05	137.79
440.272	128.39
440.493	129.79
440.715	134.99
440.936	139.79
441.158	133.59
441.379	130.19
441.6	125.79
441.822	124.79
442.043	122.59
442.264	117.79
442.486	116.99
442.707	111.39
442.928	116.79
443.149	121.19
443.371	121.59
443.592	115.79
443.813	116.19
444.034	121.79
444.255	115.99
444.476	121.79
444.698	113.99
444.919	122.19
445.14	188.39
445.361	151.79
445.582	112.99
445.803	115.19
446.024	116.79
446.245	115.59
446.466	115.79
446.687	111.59
446.908	117.59
447.129	110.59
447.35	113.99
447.571	106.59
447.792	108.99
448.013	111.59
448.234	113.59
448.455	113.79
448.675	109.19
448.896	111.99
449.117	105.39
449.338	108.79
449.559	114.19
449.779	114.99
450	110.59
450.221	109.99
450.442	110.39
450.662	106.99
450.883	109.19
451.104	112.19
451.324	103.59
451.545	108.79
451.766	106.59
451.986	106.39
452.207	102.79
452.428	110.19
452.648	109.99
452.869	108.39
453.089	102.99
453.31	104.19
453.53	107.19
453.751	101.99
453.971	104.99
454.192	101.39
454.412	101.59
454.633	97.39
454.853	108.59
455.073	102.39
455.294	102.39
455.514	111.39
455.734	101.79
455.955	104.79
456.175	105.79
456.395	105.59
456.616	104.39
456.836	110.19
457.056	108.39
457.276	99.99
457.497	104.59
457.717	106.19
457.937	98.39
458.157	100.39
458.377	100.59
458.598	98.79
458.818	104.99
459.038	102.19
459.258	103.59
459.478	109.19
459.698	107.79
459.918	104.99
460.138	104.19
460.358	112.99
460.578	109.19
460.798	105.99
461.018	106.79
461.238	111.39
461.458	104.59
461.678	108.19
461.898	105.99
462.118	108.39
462.338	108.59
462.558	110.79
462.777	111.79
462.997	109.59
463.217	112.19
463.437	111.59
463.657	105.39
463.876	110.19
464.096	112.99
464.316	105.39
464.536	106.59
464.755	104.99
464.975	102.39
465.195	105.79
465.414	108.39
465.634	110.19
465.854	105.19
466.073	101.19
466.293	108.99
466.512	107.19
466.732	113.59
466.951	110.39
467.171	105.79
467.391	102.19
467.61	104.99
467.829	110.19
468.049	110.59
468.268	97.79
468.488	105.79
468.707	106.19
468.927	100.59
469.146	105.19
469.365	107.39
469.585	108.79
469.804	108.59
470.023	109.19
470.243	108.19
470.462	105.39
470.681	103.99
470.901	108.39
471.12	106.99
471.339	107.99
471.558	114.19
471.777	108.39
471.997	112.79
472.216	109.59
472.435	101.79
472.654	101.59
472.873	107.79
473.092	109.59
473.311	104.19
473.53	111.99
473.749	107.79
473.968	111.79
474.187	106.59
474.406	102.19
474.625	111.19
474.844	111.99
475.063	103.79
475.282	107.79
475.501	106.39
475.72	109.79
475.939	109.19
476.158	97.39
476.377	104.79
476.596	106.39
476.814	107.99
477.033	109.39
477.252	112.79
477.471	102.79
477.69	104.19
477.908	113.59
478.127	118.99
478.346	112.79
478.564	114.19
478.783	114.99
479.002	113.79
479.22	114.19
479.439	111.39
479.658	107.39
479.876	99.99
480.095	106.19
480.313	108.19
480.532	113.79
480.751	113.39
480.969	110.99
481.188	108.39
481.406	108.79
481.624	107.39
481.843	103.99
482.061	104.79
482.28	111.99
482.498	117.79
482.717	113.99
482.935	113.59
483.153	111.39
483.372	109.19
483.59	112.19
483.808	110.19
484.027	116.39
484.245	122.19
484.463	111.79
484.681	117.59
484.9	112.99
485.118	111.99
485.336	111.59
485.554	110.19
485.772	111.79
485.99	107.59
486.209	107.99
486.427	110.39
486.645	109.99
486.863	117.79
487.081	116.79
487.299	114.39
487.517	120.59
487.735	114.79
487.953	115.79
488.171	115.59
488.389	114.59
488.607	115.59
488.825	109.19
489.043	111.19
489.261	118.39
489.479	117.59
489.696	116.39
489.914	118.39
490.132	110.19
490.35	112.79
490.568	111.19
490.786	117.39
491.003	114.19
491.221	118.99
491.439	120.99
491.657	111.39
491.874	119.79
492.092	124.59
492.31	118.99
492.527	121.99
492.745	121.39
492.963	121.79
493.18	121.39
493.398	120.59
493.615	113.79
493.833	115.19
494.05	117.39
494.268	111.79
494.485	122.19
494.703	118.59
494.92	117.19
495.138	114.79
495.355	125.19
495.573	115.99
495.79	116.39
496.008	117.19
496.225	117.99
496.442	129.99
496.66	129.19
496.877	118.79
497.094	123.59
497.312	117.39
497.529	121.59
497.746	122.79
497.963	113.39
498.181	119.19
498.398	119.39
498.615	118.39
498.832	115.59
499.049	127.39
499.267	121.79
499.484	120.19
499.701	127.79
499.918	135.79
500.135	132.59
500.352	134.19
500.569	148.39
500.786	158.99
501.003	143.39
501.22	139.59
501.437	132.99
501.654	127.39
501.871	118.79
502.088	123.19
502.305	127.99
502.522	126.99
502.739	123.99
502.956	125.99
503.172	124.59
503.389	119.79
503.606	121.39
503.823	122.79
504.04	131.19
504.256	125.99
504.473	131.79
504.69	125.99
504.907	134.59
505.123	133.19
505.34	129.19
505.557	121.99
505.773	121.99
505.99	121.79
506.207	119.79
506.423	121.79
506.64	124.79
506.856	117.39
507.073	114.59
507.289	116.39
507.506	115.79
507.722	120.19
507.939	116.19
508.155	124.19
508.372	119.59
508.588	113.59
