Data from ZeroMicroDelayPb_HRD10591_00001.txt Node
Date: Mon Nov 24 14:23:31 EST 2025
User: Yrep
Spectrometer: HR+D1059
Trigger mode: 0
Integration Time (sec): 1.000000E-1
Scans to average: 5
Electric dark correction enabled: true
Nonlinearity correction enabled: false
Boxcar width: 0
XAxis mode: Wavelengths
Number of Pixels in Spectrum: 2048
>>>>>Begin Spectral Data<<<<<
223.165	-16.75
223.4	-16.75
223.635	-16.75
223.869	-18.75
224.104	-20.55
224.338	-21.75
224.573	-15.95
224.808	-8.75
225.042	-4.55
225.277	-5.15
225.511	-4.35
225.746	1.05
225.98	2.05
226.215	14.05
226.449	21.85
226.683	18.85
226.918	22.65
227.152	36.05
227.387	39.05
227.621	36.45
227.856	41.65
228.09	48.05
228.324	56.05
228.559	59.85
228.793	54.85
229.027	62.45
229.262	60.45
229.496	67.45
229.73	65.25
229.964	68.85
230.199	71.45
230.433	76.25
230.667	72.45
230.901	73.05
231.136	76.25
231.37	76.65
231.604	74.25
231.838	82.25
232.072	87.45
232.306	86.65
232.541	80.05
232.775	86.05
233.009	79.05
233.243	77.85
233.477	88.65
233.711	85.85
233.945	81.45
234.179	74.05
234.413	80.85
234.647	75.85
234.881	80.25
235.115	83.85
235.349	80.85
235.583	88.25
235.817	78.65
236.051	82.45
236.285	84.05
236.519	79.05
236.753	76.85
236.987	82.25
237.221	77.65
237.455	79.65
237.689	75.25
237.922	86.65
238.156	76.05
238.39	77.65
238.624	79.45
238.858	81.25
239.091	80.85
239.325	81.25
239.559	79.45
239.793	86.85
240.027	90.65
240.26	81.85
240.494	76.05
240.728	82.05
240.961	79.45
241.195	82.65
241.429	83.85
241.662	80.45
241.896	77.25
242.13	81.85
242.363	77.05
242.597	81.85
242.83	81.05
243.064	76.45
243.298	79.65
243.531	76.65
243.765	82.25
243.998	80.85
244.232	76.25
244.465	77.25
244.699	73.25
244.932	81.45
245.166	80.45
245.399	80.45
245.633	76.45
245.866	80.25
246.099	77.65
246.333	80.45
246.566	81.85
246.8	80.45
247.033	77.25
247.266	81.05
247.5	81.25
247.733	81.25
247.966	85.65
248.2	81.65
248.433	89.85
248.666	77.85
248.899	86.85
249.133	87.65
249.366	92.85
249.599	84.85
249.832	85.85
250.066	87.65
250.299	83.25
250.532	81.65
250.765	78.05
250.998	84.85
251.231	85.85
251.465	86.25
251.698	78.65
251.931	78.05
252.164	80.25
252.397	81.05
252.63	87.85
252.863	88.45
253.096	85.25
253.329	95.65
253.562	87.25
253.795	86.25
254.028	91.85
254.261	89.85
254.494	93.65
254.727	93.65
254.96	81.45
255.193	91.65
255.426	85.05
255.659	86.85
255.892	95.05
256.124	87.25
256.357	85.65
256.59	90.25
256.823	86.85
257.056	89.05
257.289	90.25
257.521	97.25
257.754	96.65
257.987	93.25
258.22	93.25
258.452	90.25
258.685	89.05
258.918	88.05
259.151	87.45
259.383	89.25
259.616	92.85
259.849	92.05
260.081	93.45
260.314	91.65
260.547	93.05
260.779	91.25
261.012	99.45
261.244	105.85
261.477	116.05
261.71	115.05
261.942	99.45
262.175	94.85
262.407	99.45
262.64	88.65
262.872	92.65
263.105	93.05
263.337	91.85
263.57	90.05
263.802	92.85
264.035	96.05
264.267	90.25
264.499	96.25
264.732	97.65
264.964	101.05
265.197	99.05
265.429	100.85
265.661	100.05
265.894	96.05
266.126	98.45
266.358	99.65
266.591	110.05
266.823	99.65
267.055	89.85
267.287	97.05
267.52	93.25
267.752	87.05
267.984	89.65
268.216	88.85
268.448	93.65
268.681	92.85
268.913	95.65
269.145	87.85
269.377	92.25
269.609	94.05
269.841	92.45
270.073	98.45
270.306	90.45
270.538	88.25
270.77	91.85
271.002	93.05
271.234	83.45
271.466	93.45
271.698	96.45
271.93	91.05
272.162	88.65
272.394	92.25
272.626	84.05
272.858	95.05
273.09	99.25
273.322	94.25
273.553	94.05
273.785	88.05
274.017	93.65
274.249	91.65
274.481	95.05
274.713	92.25
274.945	97.45
275.176	93.85
275.408	87.05
275.64	95.85
275.872	93.85
276.104	96.45
276.335	100.05
276.567	91.65
276.799	90.05
277.031	88.65
277.262	90.65
277.494	92.05
277.726	94.85
277.957	88.85
278.189	89.65
278.421	97.25
278.652	106.25
278.884	103.45
279.115	101.65
279.347	103.05
279.579	113.65
279.81	121.05
280.042	131.65
280.273	146.05
280.505	130.45
280.736	120.25
280.968	104.85
281.199	106.65
281.431	107.25
281.662	102.85
281.894	104.65
282.125	107.05
282.356	106.05
282.588	111.05
282.819	109.45
283.051	112.85
283.282	126.45
283.513	128.85
283.745	119.65
283.976	110.05
284.207	103.25
284.439	104.85
284.67	98.65
284.901	106.45
285.132	94.45
285.364	97.85
285.595	98.85
285.826	100.45
286.057	100.05
286.288	92.45
286.52	102.25
286.751	94.05
286.982	105.85
287.213	118.45
287.444	120.85
287.675	111.45
287.906	105.85
288.138	95.85
288.369	93.25
288.6	102.45
288.831	103.45
289.062	100.45
289.293	96.85
289.524	95.85
289.755	97.25
289.986	96.85
290.217	96.25
290.448	98.85
290.679	93.85
290.91	97.25
291.141	97.45
291.371	100.45
291.602	101.45
291.833	90.65
292.064	96.85
292.295	89.25
292.526	98.25
292.757	90.85
292.987	98.05
293.218	96.45
293.449	99.65
293.68	96.45
293.91	93.45
294.141	99.45
294.372	88.85
294.603	90.05
294.833	97.85
295.064	95.25
295.295	99.85
295.525	96.65
295.756	101.65
295.987	96.25
296.217	95.65
296.448	106.45
296.679	102.85
296.909	97.05
297.14	96.25
297.37	100.25
297.601	97.05
297.831	91.05
298.062	98.25
298.292	90.05
298.523	92.85
298.753	93.85
298.984	100.45
299.214	99.85
299.445	105.45
299.675	100.05
299.905	95.05
300.136	92.85
300.366	93.85
300.597	95.65
300.827	103.85
301.057	92.65
301.288	95.25
301.518	101.05
301.748	103.25
301.979	111.05
302.209	94.45
302.439	94.25
302.669	96.05
302.9	99.45
303.13	94.05
303.36	97.65
303.59	103.05
303.82	101.05
304.051	90.85
304.281	103.85
304.511	96.85
304.741	99.05
304.971	99.25
305.201	102.45
305.431	101.45
305.661	99.05
305.891	98.45
306.121	96.45
306.352	103.65
306.582	97.85
306.812	97.85
307.042	94.85
307.272	93.45
307.502	91.65
307.731	105.85
307.961	94.05
308.191	103.25
308.421	103.45
308.651	99.65
308.881	96.25
309.111	97.85
309.341	93.25
309.571	97.85
309.8	99.05
310.03	100.45
310.26	90.65
310.49	100.45
310.72	93.65
310.949	95.25
311.179	101.05
311.409	102.25
311.639	110.65
311.868	98.45
312.098	104.05
312.328	99.25
312.557	99.65
312.787	102.05
313.017	99.05
313.246	104.45
313.476	92.65
313.706	102.65
313.935	102.05
314.165	108.05
314.394	105.45
314.624	94.45
314.853	104.65
315.083	101.05
315.312	102.05
315.542	95.85
315.771	93.25
316.001	100.45
316.23	100.65
316.46	100.05
316.689	94.25
316.919	106.05
317.148	99.25
317.377	106.45
317.607	98.45
317.836	105.25
318.065	97.05
318.295	99.65
318.524	100.45
318.753	99.25
318.983	100.65
319.212	103.25
319.441	96.65
319.67	101.25
319.9	94.25
320.129	97.65
320.358	100.05
320.587	98.65
320.816	95.85
321.046	94.25
321.275	96.25
321.504	102.45
321.733	97.45
321.962	103.45
322.191	105.85
322.42	96.25
322.649	96.25
322.878	99.85
323.108	97.25
323.337	92.45
323.566	101.45
323.795	105.65
324.024	104.25
324.253	101.65
324.482	94.25
324.71	98.45
324.939	96.05
325.168	103.85
325.397	96.65
325.626	96.65
325.855	98.85
326.084	99.45
326.313	106.45
326.542	100.65
326.77	102.45
326.999	95.85
327.228	96.25
327.457	103.25
327.686	109.45
327.914	107.25
328.143	99.25
328.372	105.25
328.6	103.85
328.829	95.25
329.058	95.45
329.287	102.25
329.515	95.65
329.744	108.65
329.972	106.25
330.201	103.25
330.43	93.25
330.658	106.45
330.887	95.25
331.115	106.65
331.344	106.85
331.572	102.45
331.801	103.45
332.03	99.25
332.258	108.45
332.486	100.05
332.715	94.25
332.943	96.65
333.172	103.05
333.4	97.45
333.629	98.65
333.857	95.85
334.085	97.25
334.314	96.65
334.542	99.45
334.771	97.45
334.999	96.05
335.227	102.65
335.455	100.45
335.684	101.25
335.912	101.85
336.14	102.25
336.369	102.65
336.597	98.65
336.825	99.65
337.053	93.65
337.281	98.05
337.51	98.45
337.738	93.85
337.966	96.45
338.194	94.85
338.422	99.65
338.65	102.45
338.878	99.05
339.106	104.25
339.334	97.05
339.562	96.25
339.79	95.05
340.018	96.05
340.246	97.65
340.474	96.05
340.702	100.85
340.93	101.85
341.158	99.85
341.386	102.65
341.614	99.25
341.842	97.05
342.07	103.45
342.298	99.65
342.526	101.65
342.754	99.25
342.981	104.05
343.209	98.05
343.437	107.85
343.665	103.25
343.893	99.45
344.12	102.65
344.348	106.25
344.576	101.05
344.804	95.85
345.031	105.65
345.259	99.85
345.487	97.25
345.714	102.85
345.942	99.25
346.17	100.25
346.397	100.65
346.625	102.85
346.853	100.45
347.08	95.65
347.308	100.05
347.535	93.85
347.763	100.85
347.99	99.25
348.218	104.65
348.445	95.65
348.673	102.65
348.9	94.05
349.128	102.05
349.355	97.25
349.583	96.25
349.81	96.85
350.037	95.65
350.265	97.65
350.492	95.65
350.72	99.65
350.947	99.25
351.174	101.85
351.402	100.45
351.629	100.45
351.856	95.85
352.083	100.65
352.311	95.25
352.538	99.85
352.765	96.65
352.992	103.85
353.22	97.25
353.447	100.85
353.674	103.25
353.901	105.65
354.128	100.05
354.355	100.45
354.583	98.45
354.81	96.25
355.037	95.45
355.264	93.85
355.491	101.65
355.718	92.85
355.945	107.85
356.172	105.65
356.399	104.45
356.626	97.65
356.853	111.05
357.08	132.65
357.307	149.85
357.534	158.25
357.761	135.25
357.988	133.25
358.215	117.25
358.441	104.05
358.668	108.65
358.895	109.45
359.122	99.85
359.349	104.05
359.576	99.85
359.802	101.65
360.029	102.45
360.256	107.45
360.483	104.65
360.709	104.05
360.936	107.85
361.163	105.25
361.39	105.45
361.616	98.65
361.843	102.85
362.07	103.05
362.296	107.65
362.523	92.85
362.749	111.05
362.976	109.85
363.203	110.05
363.429	116.65
363.656	134.45
363.882	162.05
364.109	174.85
364.335	154.05
364.562	124.45
364.788	111.65
365.015	112.05
365.241	107.05
365.468	109.85
365.694	105.65
365.92	106.05
366.147	106.05
366.373	110.25
366.599	107.25
366.826	108.45
367.052	116.45
367.278	127.85
367.505	122.45
367.731	132.05
367.957	138.05
368.184	168.85
368.41	202.65
368.636	185.45
368.862	150.85
369.089	128.65
369.315	115.65
369.541	118.85
369.767	117.25
369.993	110.85
370.219	109.05
370.445	105.45
370.672	108.45
370.898	97.85
371.124	106.85
371.35	102.45
371.576	98.45
371.802	108.65
372.028	110.85
372.254	108.85
372.48	101.25
372.706	98.45
372.932	99.85
373.158	99.45
373.384	108.65
373.61	123.45
373.835	143.05
374.061	159.45
374.287	153.85
374.513	129.25
374.739	115.25
374.965	120.05
375.191	110.25
375.416	101.25
375.642	108.85
375.868	109.05
376.094	103.25
376.319	102.05
376.545	100.65
376.771	104.05
376.997	95.45
377.222	97.85
377.448	100.45
377.674	99.05
377.899	98.85
378.125	97.85
378.35	102.45
378.576	104.05
378.802	106.85
379.027	106.25
379.253	107.85
379.478	99.65
379.704	93.85
379.929	96.85
380.155	106.65
380.38	98.05
380.606	101.25
380.831	95.45
381.057	99.45
381.282	100.65
381.507	105.85
381.733	99.45
381.958	108.85
382.184	103.05
382.409	101.85
382.634	103.85
382.86	103.65
383.085	103.25
383.31	100.85
383.535	101.45
383.761	107.65
383.986	97.85
384.211	103.05
384.436	100.25
384.662	101.45
384.887	101.25
385.112	102.65
385.337	96.45
385.562	96.85
385.787	103.85
386.013	106.05
386.238	109.05
386.463	102.05
386.688	115.65
386.913	105.05
387.138	95.05
387.363	96.45
387.588	103.65
387.813	103.65
388.038	102.45
388.263	107.45
388.488	99.25
388.713	106.05
388.938	100.25
389.163	102.85
389.387	91.85
389.612	102.25
389.837	95.85
390.062	105.25
390.287	101.85
390.512	104.85
390.736	102.25
390.961	104.85
391.186	106.45
391.411	99.25
391.636	104.65
391.86	105.05
392.085	96.65
392.31	103.65
392.534	103.05
392.759	103.05
392.984	108.45
393.208	102.65
393.433	103.85
393.658	112.25
393.882	103.45
394.107	104.45
394.331	99.65
394.556	109.25
394.78	111.45
395.005	105.05
395.229	104.45
395.454	105.65
395.678	110.05
395.903	102.05
396.127	108.25
396.352	106.45
396.576	105.45
396.801	103.05
397.025	104.85
397.249	102.65
397.474	101.85
397.698	101.85
397.922	112.65
398.147	101.45
398.371	102.65
398.595	102.05
398.82	107.65
399.044	108.65
399.268	102.85
399.492	105.85
399.717	109.45
399.941	103.25
400.165	109.25
400.389	111.05
400.613	103.25
400.837	101.85
401.062	105.85
401.286	116.45
401.51	107.25
401.734	115.05
401.958	114.05
402.182	119.45
402.406	106.85
402.63	108.45
402.854	108.05
403.078	108.45
403.302	116.45
403.526	107.45
403.75	124.65
403.974	118.25
404.198	115.65
404.422	120.05
404.645	119.45
404.869	125.45
405.093	135.45
405.317	150.65
405.541	187.85
405.765	253.25
405.988	273.45
406.212	221.65
406.436	168.25
406.66	149.85
406.883	135.05
407.107	134.25
407.331	132.05
407.555	127.05
407.778	121.05
408.002	126.05
408.226	119.05
408.449	116.65
408.673	110.65
408.896	111.85
409.12	112.45
409.344	115.25
409.567	111.25
409.791	115.05
410.014	113.85
410.238	113.25
410.461	109.25
410.685	114.65
410.908	109.45
411.132	116.45
411.355	110.65
411.578	112.05
411.802	105.85
412.025	111.05
412.249	109.45
412.472	115.65
412.695	109.65
412.919	111.45
413.142	115.45
413.365	112.05
413.589	107.05
413.812	112.05
414.035	112.65
414.258	111.05
414.482	107.25
414.705	106.45
414.928	110.45
415.151	108.25
415.374	111.05
415.597	109.05
415.821	110.45
416.044	114.65
416.267	107.05
416.49	108.85
416.713	112.45
416.936	100.45
417.159	106.25
417.382	111.65
417.605	106.65
417.828	107.45
418.051	106.25
418.274	113.85
418.497	114.45
418.72	112.65
418.943	107.65
419.166	105.85
419.389	107.25
419.611	106.05
419.834	110.65
420.057	115.65
420.28	115.45
420.503	105.25
420.726	109.85
420.948	103.45
421.171	108.25
421.394	112.65
421.617	114.45
421.839	116.05
422.062	113.65
422.285	109.25
422.507	115.65
422.73	113.45
422.953	109.05
423.175	120.45
423.398	122.25
423.621	121.05
423.843	131.65
424.066	137.25
424.288	148.05
424.511	161.25
424.733	173.25
424.956	157.45
425.178	150.05
425.401	143.25
425.623	134.85
425.846	131.85
426.068	128.25
426.291	126.65
426.513	124.05
426.735	122.85
426.958	117.65
427.18	112.65
427.402	116.65
427.625	117.65
427.847	118.25
428.069	122.65
428.292	115.65
428.514	115.25
428.736	108.25
428.958	112.85
429.181	116.65
429.403	112.05
429.625	106.45
429.847	111.45
430.069	111.25
430.292	108.45
430.514	106.25
430.736	110.25
430.958	113.25
431.18	117.45
431.402	111.05
431.624	107.45
431.846	107.25
432.068	110.25
432.29	108.65
432.512	113.45
432.734	109.25
432.956	112.65
433.178	115.85
433.4	113.85
433.622	113.85
433.844	114.25
434.066	114.65
434.287	115.25
434.509	114.05
434.731	107.85
434.953	113.05
435.175	110.45
435.397	114.45
435.618	104.05
435.84	117.85
436.062	114.45
436.284	115.85
436.505	113.05
436.727	106.25
436.949	116.45
437.17	113.05
437.392	124.25
437.614	119.05
437.835	116.05
438.057	121.25
438.278	127.85
438.5	145.25
438.721	159.65
438.943	163.85
439.165	154.65
439.386	142.85
439.608	143.65
439.829	134.85
440.05	135.65
440.272	132.65
440.493	127.65
440.715	136.85
440.936	142.25
441.158	145.85
441.379	134.65
441.6	128.45
441.822	123.25
442.043	121.85
442.264	118.85
442.486	113.65
442.707	125.85
442.928	120.85
443.149	121.05
443.371	125.65
443.592	119.85
443.813	118.85
444.034	113.45
444.255	121.05
444.476	116.45
444.698	119.45
444.919	112.85
445.14	187.25
445.361	150.05
445.582	120.05
445.803	107.45
446.024	111.05
446.245	113.45
446.466	116.45
446.687	114.85
446.908	115.85
447.129	114.25
447.35	110.65
447.571	110.25
447.792	113.85
448.013	108.65
448.234	111.45
448.455	108.85
448.675	113.45
448.896	113.05
449.117	110.65
449.338	108.85
449.559	119.05
449.779	111.85
450	108.05
450.221	109.85
450.442	110.25
450.662	108.65
450.883	109.65
451.104	111.85
451.324	109.25
451.545	113.85
451.766	104.65
451.986	107.85
452.207	109.65
452.428	102.25
452.648	111.85
452.869	107.45
453.089	104.85
453.31	106.65
453.53	109.45
453.751	108.85
453.971	112.25
454.192	103.85
454.412	102.45
454.633	108.25
454.853	112.25
455.073	106.25
455.294	101.25
455.514	111.25
455.734	102.85
455.955	108.25
456.175	103.05
456.395	100.65
456.616	102.25
456.836	110.65
457.056	99.85
457.276	100.65
457.497	105.85
457.717	109.45
457.937	102.85
458.157	107.05
458.377	103.65
458.598	105.85
458.818	105.25
459.038	97.45
459.258	99.85
459.478	98.85
459.698	106.85
459.918	103.05
460.138	105.85
460.358	105.05
460.578	105.85
460.798	113.05
461.018	105.45
461.238	108.45
461.458	112.25
461.678	105.05
461.898	110.25
462.118	108.65
462.338	112.45
462.558	107.45
462.777	108.65
462.997	110.25
463.217	110.65
463.437	114.05
463.657	110.25
463.876	109.45
464.096	108.45
464.316	110.05
464.536	109.45
464.755	111.05
464.975	110.25
465.195	108.25
465.414	101.45
465.634	109.65
465.854	105.45
466.073	109.05
466.293	103.85
466.512	104.85
466.732	101.45
466.951	109.65
467.171	107.05
467.391	112.25
467.61	110.45
467.829	100.85
468.049	110.05
468.268	104.25
468.488	101.45
468.707	109.65
468.927	114.25
469.146	104.85
469.365	111.45
469.585	110.05
469.804	106.05
470.023	106.45
470.243	107.85
470.462	104.85
470.681	106.45
470.901	108.45
471.12	107.45
471.339	109.45
471.558	99.05
471.777	108.05
471.997	105.65
472.216	107.85
472.435	100.25
472.654	102.05
472.873	106.05
473.092	103.25
473.311	107.25
473.53	107.05
473.749	104.85
473.968	105.45
474.187	105.25
474.406	110.25
474.625	113.85
474.844	110.85
475.063	107.85
475.282	110.65
475.501	110.45
475.72	112.65
475.939	105.25
476.158	112.85
476.377	109.45
476.596	112.25
476.814	103.05
477.033	104.45
477.252	107.85
477.471	115.25
477.69	108.25
477.908	108.05
478.127	116.85
478.346	110.65
478.564	114.85
478.783	113.05
479.002	109.25
479.22	109.85
479.439	118.65
479.658	113.05
479.876	111.05
480.095	112.25
480.313	111.65
480.532	118.05
480.751	111.85
480.969	116.25
481.188	115.05
481.406	111.25
481.624	114.05
481.843	112.65
482.061	108.45
482.28	108.25
482.498	114.25
482.717	109.25
482.935	113.45
483.153	114.45
483.372	108.45
483.59	117.65
483.808	109.45
484.027	115.05
484.245	107.65
484.463	112.85
484.681	121.25
484.9	110.45
485.118	113.45
485.336	116.45
485.554	116.45
485.772	111.25
485.99	104.05
486.209	117.45
486.427	108.85
486.645	114.45
486.863	106.65
487.081	109.25
487.299	113.05
487.517	106.45
487.735	116.45
487.953	120.45
488.171	112.45
488.389	117.85
488.607	116.45
488.825	113.65
489.043	119.05
489.261	123.25
489.479	123.85
489.696	119.85
489.914	121.65
490.132	121.85
490.35	122.45
490.568	122.85
490.786	119.85
491.003	112.45
491.221	112.85
491.439	124.25
491.657	119.25
491.874	118.45
492.092	111.05
492.31	125.65
492.527	126.85
492.745	115.05
492.963	121.65
493.18	118.85
493.398	121.05
493.615	114.65
493.833	119.65
494.05	117.65
494.268	113.85
494.485	119.45
494.703	120.65
494.92	114.65
495.138	124.85
495.355	119.05
495.573	128.05
495.79	122.05
496.008	122.85
496.225	120.05
496.442	122.85
496.66	125.65
496.877	120.65
497.094	120.05
497.312	116.25
497.529	120.65
497.746	118.25
497.963	115.85
498.181	111.45
498.398	123.25
498.615	121.85
498.832	124.85
499.049	128.05
499.267	129.25
499.484	133.85
499.701	128.05
499.918	132.05
500.135	134.85
500.352	137.65
500.569	145.25
500.786	159.05
501.003	149.85
501.22	143.45
501.437	129.85
501.654	124.25
501.871	129.85
502.088	126.85
502.305	125.45
502.522	124.85
502.739	125.25
502.956	128.45
503.172	128.25
503.389	121.85
503.606	125.65
503.823	118.05
504.04	127.85
504.256	127.05
504.473	128.45
504.69	129.45
504.907	133.65
505.123	124.85
505.34	120.45
505.557	123.45
505.773	127.85
505.99	120.65
506.207	124.25
506.423	124.85
506.64	115.25
506.856	123.65
507.073	111.25
507.289	116.45
507.506	118.45
507.722	117.85
507.939	116.45
508.155	110.65
508.372	121.65
