Data from ZeroMicroDelayPb_HRD10591_00007.txt Node
Date: Mon Nov 24 14:23:34 EST 2025
User: Yrep
Spectrometer: HR+D1059
Trigger mode: 0
Integration Time (sec): 1.000000E-1
Scans to average: 5
Electric dark correction enabled: true
Nonlinearity correction enabled: false
Boxcar width: 0
XAxis mode: Wavelengths
Number of Pixels in Spectrum: 2048
>>>>>Begin Spectral Data<<<<<
223.165	-16.87
223.4	-16.87
223.635	-16.87
223.869	-15.47
224.104	-22.07
224.338	-11.87
224.573	-15.47
224.808	-13.47
225.042	-14.27
225.277	0.33
225.511	-5.27
225.746	-1.67
225.98	6.13
226.215	12.53
226.449	15.73
226.683	24.13
226.918	27.33
227.152	30.33
227.387	36.33
227.621	41.93
227.856	42.53
228.09	45.53
228.324	47.13
228.559	58.33
228.793	54.53
229.027	65.73
229.262	70.73
229.496	68.33
229.73	72.33
229.964	77.53
230.199	75.93
230.433	82.53
230.667	78.33
230.901	79.73
231.136	81.33
231.37	88.33
231.604	89.13
231.838	85.93
232.072	86.53
232.306	87.93
232.541	87.53
232.775	84.73
233.009	88.93
233.243	84.93
233.477	85.73
233.711	87.13
233.945	87.33
234.179	90.13
234.413	83.53
234.647	88.53
234.881	83.93
235.115	88.73
235.349	85.73
235.583	77.73
235.817	81.13
236.051	83.13
236.285	80.93
236.519	81.13
236.753	89.53
236.987	77.93
237.221	77.73
237.455	81.73
237.689	81.33
237.922	78.53
238.156	82.73
238.39	84.13
238.624	80.73
238.858	83.93
239.091	81.33
239.325	81.53
239.559	82.13
239.793	89.13
240.027	87.33
240.26	85.93
240.494	81.13
240.728	83.93
240.961	83.93
241.195	82.53
241.429	86.33
241.662	85.33
241.896	80.73
242.13	83.13
242.363	75.73
242.597	80.33
242.83	84.73
243.064	85.73
243.298	77.93
243.531	85.73
243.765	86.13
243.998	80.73
244.232	90.33
244.465	89.33
244.699	82.93
244.932	84.13
245.166	85.53
245.399	76.93
245.633	81.33
245.866	81.93
246.099	81.93
246.333	86.33
246.566	85.53
246.8	82.53
247.033	81.93
247.266	79.73
247.5	80.13
247.733	86.53
247.966	90.33
248.2	89.33
248.433	90.33
248.666	83.73
248.899	90.33
249.133	78.13
249.366	85.33
249.599	85.93
249.832	88.53
250.066	90.13
250.299	80.73
250.532	85.53
250.765	81.13
250.998	84.73
251.231	80.73
251.465	88.73
251.698	83.13
251.931	78.53
252.164	86.33
252.397	89.53
252.63	86.93
252.863	95.13
253.096	92.33
253.329	89.13
253.562	81.73
253.795	88.93
254.028	91.53
254.261	93.13
254.494	87.13
254.727	91.33
254.96	90.73
255.193	85.53
255.426	91.33
255.659	94.73
255.892	84.53
256.124	87.73
256.357	92.13
256.59	86.53
256.823	93.73
257.056	88.13
257.289	91.33
257.521	91.93
257.754	94.53
257.987	93.33
258.22	95.53
258.452	98.13
258.685	96.53
258.918	93.93
259.151	100.33
259.383	94.53
259.616	87.33
259.849	96.33
260.081	95.93
260.314	94.93
260.547	95.33
260.779	95.13
261.012	103.33
261.244	103.73
261.477	117.93
261.71	117.93
261.942	105.33
262.175	102.93
262.407	92.73
262.64	95.33
262.872	96.13
263.105	93.13
263.337	93.13
263.57	92.13
263.802	91.53
264.035	92.33
264.267	94.73
264.499	96.33
264.732	100.73
264.964	97.73
265.197	98.93
265.429	102.93
265.661	91.33
265.894	96.73
266.126	97.73
266.358	108.93
266.591	108.13
266.823	109.93
267.055	95.53
267.287	98.93
267.52	97.93
267.752	98.73
267.984	88.53
268.216	91.53
268.448	93.53
268.681	96.73
268.913	91.93
269.145	95.33
269.377	96.53
269.609	94.53
269.841	84.93
270.073	98.33
270.306	91.33
270.538	95.93
270.77	96.33
271.002	98.33
271.234	91.13
271.466	88.53
271.698	86.93
271.93	95.13
272.162	90.53
272.394	94.33
272.626	93.33
272.858	96.13
273.09	101.33
273.322	93.33
273.553	95.13
273.785	96.13
274.017	85.53
274.249	93.53
274.481	95.93
274.713	93.33
274.945	95.73
275.176	87.53
275.408	89.93
275.64	93.93
275.872	90.13
276.104	96.53
276.335	102.13
276.567	95.53
276.799	99.13
277.031	92.13
277.262	94.13
277.494	97.73
277.726	94.13
277.957	93.53
278.189	102.93
278.421	101.13
278.652	95.13
278.884	104.73
279.115	109.73
279.347	106.33
279.579	112.53
279.81	119.33
280.042	130.53
280.273	139.93
280.505	133.53
280.736	115.73
280.968	111.33
281.199	107.93
281.431	109.33
281.662	101.53
281.894	110.53
282.125	107.13
282.356	118.93
282.588	117.93
282.819	108.13
283.051	111.33
283.282	125.33
283.513	135.13
283.745	118.73
283.976	110.53
284.207	104.73
284.439	99.93
284.67	99.53
284.901	107.73
285.132	104.53
285.364	95.13
285.595	99.33
285.826	100.53
286.057	96.13
286.288	99.13
286.52	95.53
286.751	108.53
286.982	109.73
287.213	114.93
287.444	129.53
287.675	113.13
287.906	106.53
288.138	103.13
288.369	97.13
288.6	95.73
288.831	95.13
289.062	95.13
289.293	105.13
289.524	101.53
289.755	102.33
289.986	96.13
290.217	93.53
290.448	100.13
290.679	92.33
290.91	96.53
291.141	95.73
291.371	98.33
291.602	97.93
291.833	101.93
292.064	97.73
292.295	99.33
292.526	97.93
292.757	93.73
292.987	100.33
293.218	94.53
293.449	100.93
293.68	103.13
293.91	96.33
294.141	98.53
294.372	103.53
294.603	92.33
294.833	102.53
295.064	102.53
295.295	98.33
295.525	97.33
295.756	96.33
295.987	101.33
296.217	101.13
296.448	103.53
296.679	102.13
296.909	95.13
297.14	95.33
297.37	102.33
297.601	93.73
297.831	99.93
298.062	100.33
298.292	102.73
298.523	105.13
298.753	99.13
298.984	96.93
299.214	98.33
299.445	98.33
299.675	97.33
299.905	104.53
300.136	101.33
300.366	97.13
300.597	99.93
300.827	104.53
301.057	101.33
301.288	102.53
301.518	99.53
301.748	99.13
301.979	108.13
302.209	98.73
302.439	92.33
302.669	98.33
302.9	106.13
303.13	102.13
303.36	98.93
303.59	97.93
303.82	98.33
304.051	103.13
304.281	100.93
304.511	98.73
304.741	99.73
304.971	100.33
305.201	101.73
305.431	100.93
305.661	101.13
305.891	97.13
306.121	102.33
306.352	101.93
306.582	96.73
306.812	97.93
307.042	98.13
307.272	97.73
307.502	98.33
307.731	101.53
307.961	95.33
308.191	101.73
308.421	93.73
308.651	101.73
308.881	98.33
309.111	99.73
309.341	101.73
309.571	103.73
309.8	104.93
310.03	101.53
310.26	106.93
310.49	90.13
310.72	97.53
310.949	97.93
311.179	101.53
311.409	99.73
311.639	99.13
311.868	102.93
312.098	98.53
312.328	101.73
312.557	96.93
312.787	94.53
313.017	108.33
313.246	105.33
313.476	103.53
313.706	103.13
313.935	106.13
314.165	111.33
314.394	109.93
314.624	107.33
314.853	108.33
315.083	104.93
315.312	106.73
315.542	104.33
315.771	107.73
316.001	103.33
316.23	108.73
316.46	96.73
316.689	100.93
316.919	106.33
317.148	104.13
317.377	109.13
317.607	101.73
317.836	105.73
318.065	106.53
318.295	106.13
318.524	98.73
318.753	107.13
318.983	98.73
319.212	107.53
319.441	92.53
319.67	103.53
319.9	106.33
320.129	102.73
320.358	98.73
320.587	99.53
320.816	112.53
321.046	101.53
321.275	98.93
321.504	100.53
321.733	109.73
321.962	100.73
322.191	105.73
322.42	98.53
322.649	103.33
322.878	105.73
323.108	98.33
323.337	101.53
323.566	96.93
323.795	98.73
324.024	101.53
324.253	102.93
324.482	101.53
324.71	103.53
324.939	95.53
325.168	98.33
325.397	103.13
325.626	101.33
325.855	104.93
326.084	105.33
326.313	106.93
326.542	99.53
326.77	104.53
326.999	99.93
327.228	103.73
327.457	105.73
327.686	105.53
327.914	100.93
328.143	103.93
328.372	107.33
328.6	103.93
328.829	103.13
329.058	105.93
329.287	101.13
329.515	100.93
329.744	102.33
329.972	108.53
330.201	102.13
330.43	96.13
330.658	105.53
330.887	107.33
331.115	104.13
331.344	103.73
331.572	98.33
331.801	102.33
332.03	99.93
332.258	99.53
332.486	108.13
332.715	103.13
332.943	102.13
333.172	98.73
333.4	103.73
333.629	106.73
333.857	104.13
334.085	101.73
334.314	101.33
334.542	102.33
334.771	99.93
334.999	97.33
335.227	97.53
335.455	101.73
335.684	105.53
335.912	100.33
336.14	103.13
336.369	110.13
336.597	102.53
336.825	104.53
337.053	99.93
337.281	103.53
337.51	96.53
337.738	102.73
337.966	98.93
338.194	102.73
338.422	107.33
338.65	104.33
338.878	104.93
339.106	102.93
339.334	106.33
339.562	97.33
339.79	96.53
340.018	97.13
340.246	99.53
340.474	99.93
340.702	100.13
340.93	103.93
341.158	96.93
341.386	100.13
341.614	103.13
341.842	98.73
342.07	98.93
342.298	113.93
342.526	103.53
342.754	101.33
342.981	104.73
343.209	98.73
343.437	111.13
343.665	100.73
343.893	103.73
344.12	108.93
344.348	113.53
344.576	103.13
344.804	107.33
345.031	98.93
345.259	101.53
345.487	106.73
345.714	100.53
345.942	98.53
346.17	103.13
346.397	102.13
346.625	96.93
346.853	105.73
347.08	94.33
347.308	103.93
347.535	100.73
347.763	100.93
347.99	102.13
348.218	105.73
348.445	104.33
348.673	99.33
348.9	104.33
349.128	101.93
349.355	96.53
349.583	102.33
349.81	99.73
350.037	105.33
350.265	100.33
350.492	103.53
350.72	97.13
350.947	102.33
351.174	101.93
351.402	96.13
351.629	103.73
351.856	107.33
352.083	101.73
352.311	95.93
352.538	98.33
352.765	99.13
352.992	106.93
353.22	101.13
353.447	104.33
353.674	99.13
353.901	103.73
354.128	107.33
354.355	105.13
354.583	103.93
354.81	112.33
355.037	103.13
355.264	98.93
355.491	99.33
355.718	102.73
355.945	97.73
356.172	103.93
356.399	107.53
356.626	111.33
356.853	118.73
357.08	136.73
357.307	155.93
357.534	160.13
357.761	134.73
357.988	127.93
358.215	117.73
358.441	109.53
358.668	114.53
358.895	109.13
359.122	107.73
359.349	110.13
359.576	106.13
359.802	105.93
360.029	100.33
360.256	106.53
360.483	104.73
360.709	104.13
360.936	104.13
361.163	100.53
361.39	99.73
361.616	98.33
361.843	109.53
362.07	107.93
362.296	104.73
362.523	109.13
362.749	105.73
362.976	106.93
363.203	110.93
363.429	114.93
363.656	128.73
363.882	163.93
364.109	188.53
364.335	150.53
364.562	127.53
364.788	115.13
365.015	108.53
365.241	118.93
365.468	107.13
365.694	94.93
365.92	114.93
366.147	106.33
366.373	114.73
366.599	114.13
366.826	121.53
367.052	125.13
367.278	131.53
367.505	119.13
367.731	130.33
367.957	139.73
368.184	171.53
368.41	204.73
368.636	189.33
368.862	149.53
369.089	138.33
369.315	119.53
369.541	114.13
369.767	116.53
369.993	105.73
370.219	104.13
370.445	109.73
370.672	110.53
370.898	109.53
371.124	111.73
371.35	107.93
371.576	107.33
371.802	99.93
372.028	107.33
372.254	111.53
372.48	102.73
372.706	104.53
372.932	112.33
373.158	108.33
373.384	108.13
373.61	127.73
373.835	140.13
374.061	163.73
374.287	159.73
374.513	135.33
374.739	119.53
374.965	111.53
375.191	104.53
375.416	104.13
375.642	108.13
375.868	111.53
376.094	107.73
376.319	118.13
376.545	100.53
376.771	103.93
376.997	112.53
377.222	102.93
377.448	102.33
377.674	103.33
377.899	108.33
378.125	106.33
378.35	105.73
378.576	104.73
378.802	102.73
379.027	101.93
379.253	106.93
379.478	104.33
379.704	103.93
379.929	104.93
380.155	106.33
380.38	103.73
380.606	102.33
380.831	103.73
381.057	106.53
381.282	102.73
381.507	109.93
381.733	104.93
381.958	101.53
382.184	100.33
382.409	100.93
382.634	105.93
382.86	105.13
383.085	105.53
383.31	108.53
383.535	105.53
383.761	104.13
383.986	108.53
384.211	102.33
384.436	102.93
384.662	108.33
384.887	105.13
385.112	102.33
385.337	106.73
385.562	100.13
385.787	101.13
386.013	106.53
386.238	107.53
386.463	104.93
386.688	108.33
386.913	99.53
387.138	98.73
387.363	104.33
387.588	104.53
387.813	103.13
388.038	107.13
388.263	100.93
388.488	104.33
388.713	103.53
388.938	103.93
389.163	100.53
389.387	103.53
389.612	102.93
389.837	106.53
390.062	106.93
390.287	106.53
390.512	108.13
390.736	101.13
390.961	109.13
391.186	108.13
391.411	104.73
391.636	105.73
391.86	99.53
392.085	104.33
392.31	108.13
392.534	106.13
392.759	107.33
392.984	107.33
393.208	108.33
393.433	100.33
393.658	107.53
393.882	103.93
394.107	100.53
394.331	102.33
394.556	107.73
394.78	104.73
395.005	106.93
395.229	107.53
395.454	109.13
395.678	102.73
395.903	113.13
396.127	110.13
396.352	114.33
396.576	112.93
396.801	101.73
397.025	108.93
397.249	110.73
397.474	112.13
397.698	101.33
397.922	107.13
398.147	108.93
398.371	105.33
398.595	109.53
398.82	111.53
399.044	106.53
399.268	110.33
399.492	111.53
399.717	113.53
399.941	114.93
400.165	113.73
400.389	106.33
400.613	113.33
400.837	112.93
401.062	107.13
401.286	111.53
401.51	112.33
401.734	110.73
401.958	115.13
402.182	118.33
402.406	115.73
402.63	118.13
402.854	115.33
403.078	118.73
403.302	109.73
403.526	115.53
403.75	119.53
403.974	117.73
404.198	120.13
404.422	117.33
404.645	124.93
404.869	115.33
405.093	130.93
405.317	148.93
405.541	188.73
405.765	259.33
405.988	280.13
406.212	226.13
406.436	180.73
406.66	150.53
406.883	144.73
407.107	124.93
407.331	126.53
407.555	128.13
407.778	127.33
408.002	120.33
408.226	118.53
408.449	119.93
408.673	118.53
408.896	118.33
409.12	111.13
409.344	108.53
409.567	112.73
409.791	117.33
410.014	110.33
410.238	112.93
410.461	110.93
410.685	111.93
410.908	111.73
411.132	114.73
411.355	112.93
411.578	115.33
411.802	110.33
412.025	113.53
412.249	112.93
412.472	114.93
412.695	110.53
412.919	114.73
413.142	110.73
413.365	108.53
413.589	115.73
413.812	115.53
414.035	114.53
414.258	113.33
414.482	112.73
414.705	109.93
414.928	113.13
415.151	106.93
415.374	112.53
415.597	109.33
415.821	107.13
416.044	106.53
416.267	107.73
416.49	109.93
416.713	117.73
416.936	119.53
417.159	107.53
417.382	109.13
417.605	111.93
417.828	115.73
418.051	111.13
418.274	110.73
418.497	113.73
418.72	107.53
418.943	104.13
419.166	112.53
419.389	118.73
419.611	113.93
419.834	112.33
420.057	113.33
420.28	109.93
420.503	111.73
420.726	105.13
420.948	118.53
421.171	112.33
421.394	113.53
421.617	105.33
421.839	118.73
422.062	118.53
422.285	116.53
422.507	112.73
422.73	115.73
422.953	117.33
423.175	116.73
423.398	117.93
423.621	123.93
423.843	132.93
424.066	140.93
424.288	151.73
424.511	166.13
424.733	180.53
424.956	162.33
425.178	150.33
425.401	139.73
425.623	131.93
425.846	130.13
426.068	135.73
426.291	128.93
426.513	117.13
426.735	129.13
426.958	121.73
427.18	123.13
427.402	114.33
427.625	122.33
427.847	117.73
428.069	115.93
428.292	121.13
428.514	115.53
428.736	115.93
428.958	116.53
429.181	112.13
429.403	108.93
429.625	114.53
429.847	116.53
430.069	113.53
430.292	117.13
430.514	115.13
430.736	115.33
430.958	117.13
431.18	104.53
431.402	109.33
431.624	112.53
431.846	111.73
432.068	112.13
432.29	115.93
432.512	113.13
432.734	113.53
432.956	117.93
433.178	120.73
433.4	113.53
433.622	115.93
433.844	120.73
434.066	117.53
434.287	113.73
434.509	116.73
434.731	116.53
434.953	113.13
435.175	112.93
435.397	115.73
435.618	111.13
435.84	112.73
436.062	112.93
436.284	115.33
436.505	114.33
436.727	114.73
436.949	112.53
437.17	113.93
437.392	117.93
437.614	118.53
437.835	122.73
438.057	128.93
438.278	133.73
438.5	143.73
438.721	158.93
438.943	161.33
439.165	152.73
439.386	147.13
439.608	151.33
439.829	139.33
440.05	142.73
440.272	131.93
440.493	137.13
440.715	140.33
440.936	148.93
441.158	136.53
441.379	130.73
441.6	131.33
441.822	129.53
442.043	132.93
442.264	127.53
442.486	125.53
442.707	122.53
442.928	108.73
443.149	116.73
443.371	121.93
443.592	116.93
443.813	117.13
444.034	118.53
444.255	125.73
444.476	117.13
444.698	124.73
444.919	119.73
445.14	184.53
445.361	151.73
445.582	124.53
445.803	113.33
446.024	117.13
446.245	121.73
446.466	118.93
446.687	112.73
446.908	115.53
447.129	113.33
447.35	113.13
447.571	118.73
447.792	115.53
448.013	119.13
448.234	108.33
448.455	112.93
448.675	114.73
448.896	113.93
449.117	111.33
449.338	115.53
449.559	115.93
449.779	112.33
450	112.73
450.221	110.53
450.442	108.13
450.662	114.13
450.883	112.33
451.104	111.93
451.324	111.33
451.545	110.53
451.766	118.33
451.986	112.73
452.207	111.93
452.428	107.33
452.648	106.13
452.869	105.73
453.089	100.73
453.31	107.53
453.53	111.73
453.751	106.93
453.971	111.73
454.192	108.93
454.412	109.33
454.633	114.13
454.853	110.53
455.073	107.93
455.294	113.53
455.514	98.93
455.734	104.53
455.955	110.13
456.175	112.93
456.395	107.53
456.616	106.93
456.836	108.93
457.056	106.93
457.276	108.73
457.497	103.53
457.717	106.73
457.937	109.93
458.157	104.53
458.377	104.13
458.598	108.13
458.818	106.53
459.038	100.73
459.258	106.53
459.478	107.13
459.698	107.53
459.918	112.73
460.138	107.13
460.358	111.53
460.578	107.93
460.798	111.13
461.018	110.33
461.238	115.73
461.458	109.13
461.678	110.33
461.898	118.53
462.118	114.53
462.338	113.53
462.558	117.93
462.777	116.73
462.997	107.73
463.217	114.33
463.437	113.93
463.657	110.33
463.876	119.93
464.096	107.73
464.316	107.33
464.536	104.53
464.755	109.33
464.975	110.13
465.195	104.73
465.414	114.93
465.634	108.53
465.854	114.13
466.073	112.73
466.293	107.93
466.512	109.73
466.732	128.13
466.951	114.93
467.171	110.53
467.391	110.73
467.61	118.13
467.829	110.73
468.049	111.33
468.268	110.73
468.488	102.33
468.707	110.33
468.927	109.73
469.146	110.93
469.365	106.33
469.585	118.13
469.804	109.13
470.023	111.93
470.243	107.73
470.462	113.13
470.681	106.73
470.901	105.53
471.12	107.73
471.339	112.53
471.558	112.53
471.777	115.33
471.997	105.53
472.216	112.13
472.435	107.13
472.654	103.73
472.873	104.13
473.092	111.73
473.311	112.53
473.53	111.53
473.749	109.13
473.968	112.53
474.187	98.53
474.406	106.13
474.625	106.13
474.844	110.73
475.063	118.13
475.282	108.53
475.501	112.13
475.72	114.93
475.939	108.93
476.158	104.93
476.377	111.33
476.596	103.13
476.814	104.53
477.033	110.53
477.252	111.53
477.471	116.33
477.69	113.33
477.908	111.33
478.127	120.93
478.346	118.33
478.564	114.13
478.783	111.33
479.002	116.13
479.22	117.93
479.439	125.73
479.658	113.53
479.876	111.13
480.095	108.73
480.313	121.93
480.532	113.53
480.751	120.73
480.969	115.93
481.188	108.13
481.406	113.13
481.624	114.13
481.843	113.53
482.061	108.93
482.28	113.33
482.498	116.93
482.717	118.53
482.935	107.73
483.153	116.13
483.372	119.13
483.59	116.93
483.808	115.13
484.027	117.53
484.245	117.13
484.463	110.13
484.681	122.53
484.9	112.73
485.118	113.73
485.336	107.93
485.554	114.53
485.772	112.73
485.99	110.33
486.209	109.13
486.427	112.53
486.645	119.13
486.863	127.73
487.081	114.13
487.299	115.73
487.517	116.13
487.735	116.33
487.953	119.73
488.171	115.13
488.389	119.13
488.607	116.13
488.825	117.13
489.043	110.93
489.261	120.13
489.479	117.93
489.696	111.13
489.914	110.73
490.132	113.73
490.35	120.13
490.568	121.13
490.786	117.33
491.003	122.33
491.221	121.13
491.439	124.93
491.657	121.53
491.874	123.33
492.092	128.33
492.31	127.33
492.527	119.33
492.745	124.33
492.963	124.73
493.18	127.53
493.398	123.13
493.615	115.93
493.833	124.33
494.05	118.93
494.268	123.33
494.485	122.33
494.703	124.33
494.92	118.93
495.138	126.33
495.355	129.33
495.573	125.13
495.79	123.53
496.008	126.93
496.225	122.33
496.442	122.93
496.66	129.53
496.877	117.33
497.094	121.93
497.312	115.73
497.529	124.73
497.746	119.33
497.963	120.13
498.181	120.53
498.398	123.73
498.615	125.73
498.832	128.13
499.049	125.33
499.267	132.33
499.484	134.53
499.701	128.33
499.918	131.33
500.135	141.93
500.352	142.33
500.569	159.93
500.786	168.53
501.003	146.73
501.22	137.93
501.437	135.73
501.654	131.13
501.871	135.73
502.088	125.13
502.305	125.93
502.522	132.93
502.739	129.13
502.956	130.53
503.172	130.93
503.389	126.33
503.606	133.53
503.823	125.13
504.04	126.73
504.256	123.33
504.473	132.93
504.69	132.13
504.907	129.73
505.123	125.53
505.34	131.73
505.557	122.53
505.773	126.13
505.99	125.93
506.207	122.13
506.423	116.93
506.64	126.33
506.856	118.93
507.073	127.33
