Data from ZeroMicroDelayPb_HRD10591_00004.txt Node
Date: Mon Nov 24 14:23:33 EST 2025
User: Yrep
Spectrometer: HR+D1059
Trigger mode: 0
Integration Time (sec): 1.000000E-1
Scans to average: 5
Electric dark correction enabled: true
Nonlinearity correction enabled: false
Boxcar width: 0
XAxis mode: Wavelengths
Number of Pixels in Spectrum: 2048
>>>>>Begin Spectral Data<<<<<
223.165	-12.89
223.4	-12.89
223.635	-12.89
223.869	-26.29
224.104	-16.69
224.338	-19.49
224.573	-13.89
224.808	-16.89
225.042	-11.49
225.277	-7.49
225.511	0.91
225.746	4.51
225.98	10.11
226.215	13.11
226.449	12.91
226.683	19.31
226.918	24.71
227.152	39.51
227.387	40.71
227.621	39.31
227.856	46.91
228.09	44.31
228.324	46.31
228.559	56.71
228.793	57.71
229.027	61.71
229.262	72.71
229.496	69.31
229.73	62.51
229.964	73.31
230.199	70.51
230.433	72.11
230.667	75.71
230.901	77.31
231.136	80.71
231.37	82.31
231.604	84.71
231.838	78.31
232.072	79.31
232.306	82.31
232.541	78.11
232.775	82.51
233.009	81.71
233.243	83.71
233.477	82.51
233.711	82.11
233.945	79.71
234.179	78.91
234.413	85.31
234.647	84.71
234.881	77.91
235.115	82.11
235.349	77.31
235.583	79.31
235.817	77.11
236.051	81.51
236.285	82.71
236.519	78.91
236.753	80.51
236.987	79.31
237.221	75.11
237.455	81.51
237.689	79.51
237.922	75.71
238.156	78.71
238.39	75.91
238.624	79.11
238.858	81.31
239.091	76.51
239.325	80.71
239.559	77.71
239.793	83.91
240.027	76.71
240.26	76.91
240.494	81.71
240.728	80.71
240.961	70.91
241.195	81.71
241.429	77.71
241.662	80.91
241.896	82.71
242.13	79.31
242.363	75.31
242.597	79.51
242.83	77.31
243.064	82.91
243.298	77.51
243.531	80.91
243.765	80.51
243.998	79.51
244.232	86.51
244.465	84.91
244.699	81.51
244.932	84.51
245.166	78.51
245.399	89.91
245.633	81.91
245.866	81.31
246.099	85.11
246.333	75.91
246.566	77.71
246.8	80.51
247.033	84.51
247.266	78.11
247.5	80.71
247.733	85.31
247.966	82.91
248.2	84.91
248.433	82.31
248.666	78.71
248.899	87.91
249.133	83.71
249.366	87.91
249.599	75.71
249.832	77.91
250.066	81.91
250.299	80.11
250.532	86.71
250.765	85.11
250.998	79.31
251.231	85.11
251.465	86.71
251.698	82.71
251.931	89.91
252.164	86.11
252.397	90.51
252.63	82.51
252.863	89.91
253.096	86.31
253.329	88.71
253.562	90.11
253.795	86.71
254.028	93.51
254.261	87.71
254.494	90.71
254.727	90.11
254.96	87.71
255.193	85.31
255.426	92.11
255.659	90.51
255.892	88.91
256.124	86.71
256.357	88.31
256.59	90.51
256.823	90.31
257.056	87.71
257.289	92.11
257.521	91.71
257.754	96.51
257.987	98.91
258.22	98.51
258.452	89.71
258.685	86.91
258.918	93.31
259.151	90.31
259.383	87.31
259.616	94.91
259.849	88.11
260.081	91.11
260.314	94.71
260.547	90.31
260.779	97.11
261.012	95.91
261.244	111.31
261.477	113.91
261.71	110.91
261.942	104.11
262.175	91.91
262.407	90.31
262.64	93.71
262.872	97.51
263.105	90.31
263.337	93.31
263.57	98.71
263.802	102.91
264.035	97.31
264.267	94.31
264.499	98.71
264.732	95.91
264.964	92.11
265.197	101.71
265.429	95.91
265.661	90.31
265.894	95.51
266.126	94.11
266.358	103.71
266.591	98.11
266.823	102.71
267.055	91.11
267.287	95.31
267.52	86.91
267.752	90.91
267.984	84.51
268.216	90.71
268.448	94.91
268.681	91.31
268.913	91.51
269.145	90.91
269.377	88.31
269.609	82.51
269.841	94.11
270.073	86.71
270.306	94.51
270.538	85.91
270.77	87.71
271.002	91.31
271.234	95.11
271.466	91.51
271.698	93.11
271.93	89.31
272.162	90.91
272.394	89.71
272.626	86.71
272.858	92.11
273.09	90.91
273.322	90.51
273.553	89.11
273.785	90.11
274.017	88.91
274.249	95.51
274.481	96.51
274.713	86.71
274.945	94.91
275.176	87.71
275.408	91.31
275.64	88.51
275.872	88.71
276.104	86.51
276.335	90.51
276.567	86.91
276.799	84.31
277.031	93.31
277.262	92.91
277.494	95.91
277.726	89.71
277.957	90.91
278.189	94.11
278.421	97.31
278.652	94.91
278.884	96.91
279.115	100.91
279.347	103.51
279.579	110.71
279.81	118.71
280.042	129.91
280.273	139.91
280.505	141.31
280.736	118.11
280.968	103.51
281.199	105.31
281.431	94.71
281.662	99.31
281.894	97.51
282.125	112.11
282.356	117.91
282.588	115.51
282.819	110.31
283.051	114.11
283.282	120.11
283.513	125.71
283.745	122.71
283.976	98.91
284.207	105.31
284.439	101.31
284.67	100.91
284.901	97.71
285.132	99.31
285.364	90.11
285.595	102.51
285.826	101.91
286.057	95.31
286.288	97.31
286.52	94.31
286.751	98.11
286.982	114.51
287.213	115.51
287.444	120.11
287.675	107.11
287.906	104.51
288.138	92.31
288.369	96.71
288.6	96.31
288.831	98.51
289.062	99.91
289.293	103.31
289.524	100.11
289.755	96.71
289.986	89.11
290.217	91.51
290.448	95.91
290.679	99.71
290.91	90.51
291.141	94.91
291.371	94.71
291.602	92.51
291.833	96.31
292.064	89.31
292.295	94.31
292.526	103.51
292.757	92.51
292.987	92.71
293.218	101.51
293.449	94.51
293.68	93.31
293.91	95.11
294.141	97.31
294.372	98.11
294.603	108.91
294.833	101.31
295.064	96.31
295.295	99.31
295.525	99.91
295.756	91.91
295.987	98.91
296.217	100.31
296.448	96.91
296.679	90.31
296.909	98.31
297.14	97.91
297.37	103.71
297.601	95.71
297.831	93.91
298.062	97.11
298.292	94.51
298.523	98.91
298.753	89.71
298.984	99.31
299.214	94.91
299.445	100.11
299.675	100.91
299.905	97.51
300.136	94.51
300.366	94.51
300.597	95.11
300.827	85.31
301.057	97.11
301.288	104.31
301.518	100.31
301.748	96.11
301.979	102.31
302.209	96.91
302.439	96.51
302.669	102.71
302.9	102.11
303.13	102.71
303.36	101.11
303.59	99.71
303.82	97.51
304.051	93.71
304.281	99.71
304.511	100.31
304.741	97.11
304.971	98.31
305.201	98.71
305.431	96.31
305.661	99.71
305.891	99.91
306.121	100.51
306.352	106.11
306.582	90.91
306.812	97.51
307.042	94.71
307.272	96.11
307.502	101.31
307.731	95.71
307.961	98.31
308.191	100.71
308.421	99.71
308.651	93.31
308.881	88.11
309.111	92.71
309.341	99.11
309.571	97.51
309.8	93.71
310.03	93.91
310.26	95.71
310.49	99.11
310.72	98.51
310.949	93.11
311.179	98.71
311.409	100.11
311.639	104.31
311.868	102.91
312.098	101.31
312.328	98.31
312.557	99.11
312.787	96.91
313.017	100.71
313.246	102.11
313.476	102.91
313.706	99.51
313.935	98.11
314.165	98.91
314.394	111.51
314.624	99.31
314.853	97.11
315.083	106.11
315.312	107.91
315.542	104.31
315.771	104.31
316.001	107.31
316.23	105.71
316.46	103.51
316.689	101.11
316.919	100.31
317.148	106.31
317.377	101.51
317.607	103.71
317.836	101.11
318.065	102.31
318.295	105.71
318.524	103.31
318.753	97.71
318.983	98.11
319.212	97.11
319.441	94.71
319.67	93.51
319.9	92.51
320.129	103.11
320.358	96.11
320.587	89.31
320.816	94.51
321.046	92.51
321.275	104.31
321.504	103.91
321.733	97.51
321.962	98.11
322.191	93.11
322.42	95.31
322.649	101.71
322.878	98.91
323.108	102.11
323.337	98.31
323.566	100.71
323.795	98.71
324.024	99.91
324.253	94.91
324.482	99.71
324.71	99.51
324.939	99.71
325.168	97.51
325.397	101.71
325.626	98.11
325.855	94.11
326.084	104.11
326.313	100.51
326.542	96.71
326.77	100.11
326.999	100.51
327.228	99.71
327.457	103.11
327.686	101.51
327.914	103.51
328.143	102.71
328.372	102.91
328.6	98.91
328.829	98.31
329.058	95.11
329.287	99.11
329.515	95.51
329.744	100.71
329.972	100.31
330.201	102.51
330.43	93.91
330.658	98.91
330.887	97.51
331.115	97.71
331.344	101.71
331.572	110.51
331.801	103.71
332.03	102.71
332.258	97.91
332.486	88.71
332.715	102.71
332.943	100.71
333.172	99.31
333.4	108.51
333.629	97.11
333.857	100.71
334.085	102.71
334.314	101.71
334.542	100.31
334.771	99.51
334.999	104.11
335.227	100.31
335.455	110.11
335.684	103.51
335.912	95.71
336.14	105.11
336.369	98.31
336.597	101.11
336.825	99.11
337.053	101.31
337.281	103.71
337.51	102.31
337.738	100.31
337.966	97.51
338.194	104.11
338.422	103.11
338.65	100.31
338.878	106.11
339.106	96.71
339.334	102.11
339.562	101.31
339.79	101.11
340.018	99.11
340.246	100.71
340.474	95.91
340.702	104.91
340.93	102.91
341.158	100.91
341.386	89.11
341.614	94.11
341.842	99.31
342.07	98.31
342.298	94.31
342.526	106.11
342.754	103.31
342.981	99.91
343.209	95.71
343.437	106.91
343.665	93.91
343.893	98.91
344.12	105.91
344.348	103.91
344.576	97.11
344.804	102.91
345.031	102.11
345.259	92.31
345.487	95.31
345.714	96.31
345.942	101.11
346.17	104.71
346.397	101.51
346.625	97.11
346.853	95.71
347.08	104.51
347.308	101.91
347.535	98.31
347.763	93.71
347.99	106.91
348.218	97.71
348.445	100.91
348.673	100.11
348.9	100.31
349.128	100.11
349.355	95.31
349.583	91.51
349.81	92.91
350.037	93.51
350.265	93.11
350.492	96.51
350.72	98.31
350.947	99.71
351.174	99.31
351.402	95.91
351.629	101.91
351.856	102.31
352.083	91.51
352.311	100.51
352.538	96.51
352.765	97.51
352.992	98.71
353.22	96.11
353.447	95.71
353.674	103.11
353.901	100.71
354.128	107.31
354.355	93.51
354.583	100.51
354.81	101.31
355.037	104.51
355.264	101.71
355.491	103.11
355.718	100.71
355.945	99.91
356.172	108.11
356.399	107.51
356.626	109.91
356.853	115.91
357.08	138.91
357.307	148.11
357.534	151.71
357.761	135.91
357.988	123.51
358.215	117.31
358.441	112.31
358.668	108.31
358.895	109.11
359.122	104.31
359.349	95.31
359.576	103.71
359.802	101.91
360.029	106.91
360.256	111.71
360.483	96.31
360.709	100.31
360.936	96.31
361.163	105.31
361.39	105.51
361.616	100.71
361.843	104.71
362.07	104.51
362.296	98.51
362.523	103.51
362.749	101.71
362.976	104.51
363.203	118.71
363.429	110.91
363.656	134.71
363.882	155.71
364.109	179.11
364.335	154.51
364.562	123.31
364.788	109.71
365.015	109.71
365.241	108.31
365.468	111.31
365.694	106.11
365.92	105.91
366.147	100.71
366.373	100.51
366.599	115.91
366.826	112.11
367.052	120.31
367.278	131.71
367.505	125.51
367.731	132.51
367.957	142.11
368.184	165.11
368.41	205.91
368.636	189.51
368.862	153.91
369.089	129.11
369.315	120.11
369.541	117.51
369.767	111.71
369.993	108.51
370.219	108.91
370.445	105.51
370.672	103.91
370.898	100.71
371.124	103.71
371.35	110.71
371.576	104.51
371.802	102.91
372.028	104.71
372.254	106.91
372.48	105.51
372.706	102.31
372.932	104.71
373.158	108.31
373.384	113.91
373.61	117.11
373.835	137.71
374.061	161.11
374.287	149.71
374.513	126.51
374.739	116.31
374.965	110.71
375.191	109.51
375.416	113.11
375.642	104.31
375.868	110.31
376.094	96.91
376.319	94.31
376.545	102.91
376.771	102.31
376.997	100.51
377.222	96.91
377.448	105.31
377.674	107.71
377.899	106.91
378.125	106.31
378.35	97.51
378.576	101.31
378.802	107.51
379.027	105.91
379.253	104.11
379.478	102.91
379.704	105.71
379.929	104.51
380.155	99.11
380.38	99.11
380.606	92.91
380.831	98.11
381.057	101.11
381.282	98.11
381.507	101.31
381.733	108.91
381.958	99.91
382.184	95.31
382.409	99.71
382.634	102.51
382.86	97.31
383.085	105.71
383.31	94.51
383.535	98.91
383.761	101.31
383.986	101.91
384.211	105.31
384.436	103.51
384.662	102.11
384.887	103.91
385.112	101.31
385.337	103.51
385.562	105.31
385.787	104.11
386.013	110.91
386.238	104.31
386.463	102.31
386.688	113.51
386.913	101.71
387.138	102.71
387.363	98.91
387.588	102.91
387.813	105.11
388.038	102.11
388.263	99.51
388.488	100.51
388.713	96.91
388.938	103.31
389.163	107.51
389.387	102.71
389.612	103.51
389.837	107.11
390.062	97.11
390.287	102.51
390.512	105.71
390.736	99.91
390.961	96.31
391.186	95.51
391.411	104.51
391.636	100.11
391.86	102.51
392.085	112.31
392.31	112.31
392.534	105.91
392.759	103.91
392.984	101.91
393.208	107.51
393.433	100.51
393.658	101.11
393.882	98.51
394.107	103.71
394.331	102.11
394.556	98.71
394.78	104.11
395.005	95.71
395.229	100.71
395.454	99.71
395.678	100.51
395.903	102.31
396.127	105.71
396.352	105.71
396.576	101.31
396.801	103.11
397.025	102.71
397.249	104.31
397.474	108.91
397.698	106.91
397.922	109.31
398.147	109.71
398.371	110.91
398.595	108.11
398.82	107.51
399.044	111.11
399.268	106.91
399.492	106.91
399.717	106.31
399.941	102.11
400.165	111.11
400.389	108.51
400.613	109.91
400.837	112.91
401.062	114.91
401.286	103.71
401.51	109.91
401.734	111.71
401.958	120.91
402.182	114.51
402.406	111.51
402.63	108.91
402.854	111.91
403.078	110.11
403.302	110.51
403.526	108.71
403.75	112.91
403.974	113.91
404.198	108.71
404.422	116.71
404.645	118.51
404.869	127.51
405.093	132.11
405.317	142.51
405.541	188.91
405.765	257.51
405.988	287.11
406.212	228.11
406.436	178.91
406.66	154.31
406.883	133.91
407.107	134.31
407.331	122.51
407.555	126.31
407.778	121.71
408.002	120.71
408.226	119.31
408.449	108.51
408.673	106.91
408.896	118.91
409.12	111.71
409.344	112.71
409.567	111.11
409.791	111.51
410.014	117.51
410.238	105.71
410.461	106.11
410.685	109.11
410.908	101.51
411.132	111.51
411.355	111.71
411.578	115.51
411.802	108.51
412.025	114.51
412.249	112.11
412.472	113.51
412.695	108.11
412.919	107.91
413.142	108.31
413.365	113.71
413.589	106.71
413.812	106.91
414.035	110.71
414.258	109.11
414.482	102.71
414.705	105.71
414.928	101.71
415.151	103.31
415.374	109.11
415.597	106.51
415.821	103.71
416.044	110.51
416.267	107.51
416.49	107.11
416.713	107.11
416.936	111.31
417.159	103.31
417.382	110.51
417.605	109.31
417.828	112.11
418.051	105.51
418.274	113.91
418.497	106.11
418.72	106.51
418.943	104.11
419.166	115.31
419.389	112.11
419.611	105.71
419.834	114.91
420.057	107.71
420.28	111.11
420.503	111.11
420.726	105.51
420.948	108.51
421.171	105.91
421.394	109.31
421.617	113.31
421.839	114.11
422.062	115.91
422.285	108.51
422.507	115.31
422.73	113.71
422.953	115.71
423.175	122.51
423.398	122.11
423.621	129.91
423.843	127.91
424.066	131.71
424.288	147.91
424.511	158.51
424.733	162.91
424.956	157.91
425.178	138.71
425.401	137.91
425.623	130.51
425.846	133.91
426.068	125.11
426.291	119.31
426.513	119.91
426.735	121.51
426.958	117.71
427.18	118.31
427.402	118.91
427.625	111.31
427.847	110.51
428.069	118.31
428.292	118.71
428.514	110.91
428.736	115.91
428.958	116.11
429.181	108.51
429.403	115.51
429.625	106.71
429.847	104.51
430.069	114.91
430.292	113.91
430.514	105.31
430.736	113.11
430.958	110.71
431.18	114.91
431.402	111.11
431.624	111.71
431.846	110.31
432.068	106.71
432.29	106.11
432.512	112.31
432.734	107.51
432.956	107.91
433.178	112.91
433.4	113.91
433.622	114.91
433.844	109.11
434.066	118.11
434.287	110.51
434.509	111.11
434.731	123.71
434.953	110.11
435.175	109.91
435.397	117.11
435.618	110.71
435.84	116.91
436.062	120.31
436.284	109.31
436.505	117.31
436.727	117.11
436.949	108.31
437.17	118.71
437.392	121.11
437.614	118.51
437.835	119.51
438.057	120.11
438.278	136.11
438.5	144.11
438.721	157.31
438.943	161.51
439.165	150.91
439.386	148.51
439.608	146.51
439.829	143.31
440.05	139.31
440.272	132.51
440.493	130.11
440.715	134.51
440.936	137.11
441.158	133.51
441.379	129.91
441.6	134.51
441.822	127.11
442.043	125.31
442.264	119.71
442.486	116.91
442.707	121.11
442.928	115.51
443.149	118.11
443.371	116.51
443.592	118.51
443.813	114.31
444.034	113.71
444.255	121.71
444.476	112.91
444.698	113.71
444.919	113.91
445.14	184.71
445.361	147.11
445.582	113.31
445.803	116.51
446.024	117.71
446.245	118.51
446.466	116.31
446.687	106.51
446.908	108.91
447.129	110.91
447.35	111.11
447.571	114.31
447.792	114.51
448.013	107.91
448.234	116.31
448.455	113.51
448.675	102.31
448.896	113.51
449.117	112.51
449.338	113.11
449.559	104.91
449.779	112.71
450	112.51
450.221	113.11
450.442	106.91
450.662	108.91
450.883	105.31
451.104	110.91
451.324	107.71
451.545	106.11
451.766	112.91
451.986	106.51
452.207	105.91
452.428	111.71
452.648	105.31
452.869	112.11
453.089	105.11
453.31	97.31
453.53	117.31
453.751	104.31
453.971	104.51
454.192	111.71
454.412	101.71
454.633	103.31
454.853	106.31
455.073	102.91
455.294	106.31
455.514	103.91
455.734	99.71
455.955	104.91
456.175	110.51
456.395	105.31
456.616	101.11
456.836	109.51
457.056	102.31
457.276	96.71
457.497	106.11
457.717	109.71
457.937	107.31
458.157	105.31
458.377	101.31
458.598	99.71
458.818	97.11
459.038	100.71
459.258	102.31
459.478	103.51
459.698	112.91
459.918	108.71
460.138	105.31
460.358	105.71
460.578	109.11
460.798	109.91
461.018	107.71
461.238	100.91
461.458	112.51
461.678	110.31
461.898	110.91
462.118	104.11
462.338	107.31
462.558	108.71
462.777	115.71
462.997	110.31
463.217	111.71
463.437	108.71
463.657	107.31
463.876	107.51
464.096	110.71
464.316	105.51
464.536	111.51
464.755	113.31
464.975	111.51
465.195	109.51
465.414	109.91
465.634	109.71
465.854	113.31
466.073	108.71
466.293	108.31
466.512	111.91
466.732	104.91
466.951	106.51
467.171	109.51
467.391	103.51
467.61	107.11
467.829	107.11
468.049	107.11
468.268	106.51
468.488	102.11
468.707	103.11
468.927	105.11
469.146	112.71
469.365	108.11
469.585	104.31
469.804	111.71
470.023	111.51
470.243	107.11
470.462	101.51
470.681	111.91
470.901	109.71
471.12	112.31
471.339	111.31
471.558	112.51
471.777	109.51
471.997	107.91
472.216	104.11
472.435	110.91
472.654	105.51
472.873	108.51
473.092	107.91
473.311	108.11
473.53	106.31
473.749	102.11
473.968	106.31
474.187	108.71
474.406	105.51
474.625	103.11
474.844	108.31
475.063	109.31
475.282	112.31
475.501	110.11
475.72	109.31
475.939	106.71
476.158	111.91
476.377	108.71
476.596	111.11
476.814	104.11
477.033	107.31
477.252	112.11
477.471	102.11
477.69	106.91
477.908	112.51
478.127	117.91
478.346	109.51
478.564	111.51
478.783	119.11
479.002	111.11
479.22	114.51
479.439	114.31
479.658	109.91
479.876	107.11
480.095	115.31
480.313	111.91
480.532	116.91
480.751	110.11
480.969	112.11
481.188	113.91
481.406	109.31
481.624	109.71
481.843	113.31
482.061	104.31
482.28	109.51
482.498	113.91
482.717	118.31
482.935	119.91
483.153	110.71
483.372	119.51
483.59	114.11
483.808	109.91
484.027	109.91
484.245	110.71
484.463	110.91
484.681	115.51
484.9	110.11
485.118	106.31
485.336	113.11
485.554	108.91
485.772	105.71
485.99	110.11
486.209	111.51
486.427	111.11
486.645	109.31
486.863	111.31
487.081	108.11
487.299	109.11
487.517	107.71
487.735	122.71
487.953	114.31
488.171	127.11
488.389	116.11
488.607	110.71
488.825	120.11
489.043	110.31
489.261	116.51
489.479	111.71
489.696	120.71
489.914	116.91
490.132	114.11
490.35	116.51
490.568	117.51
490.786	112.71
491.003	115.71
491.221	112.51
491.439	116.71
491.657	113.51
491.874	116.31
492.092	118.51
492.31	118.11
492.527	128.91
492.745	117.31
492.963	118.31
493.18	124.71
493.398	120.31
493.615	123.31
493.833	116.31
494.05	119.11
494.268	119.71
494.485	122.91
494.703	124.91
494.92	116.91
495.138	116.71
495.355	126.11
495.573	129.71
495.79	122.11
496.008	118.31
496.225	112.11
496.442	112.71
496.66	122.51
496.877	118.51
497.094	126.91
497.312	111.31
497.529	120.51
497.746	114.91
497.963	120.71
498.181	117.51
498.398	124.31
498.615	121.11
498.832	117.91
499.049	123.71
499.267	126.31
499.484	127.51
499.701	129.51
499.918	135.31
500.135	138.11
500.352	140.11
500.569	156.91
500.786	170.11
501.003	154.51
501.22	137.71
501.437	131.31
501.654	131.51
501.871	125.71
502.088	123.91
502.305	130.11
502.522	124.71
502.739	125.91
502.956	126.51
503.172	126.11
503.389	125.51
503.606	119.91
503.823	125.71
504.04	123.51
504.256	131.71
504.473	124.91
504.69	128.51
504.907	133.11
505.123	131.91
505.34	134.31
505.557	125.71
505.773	123.51
505.99	127.31
506.207	121.11
506.423	119.31
506.64	121.51
506.856	116.31
507.073	117.51
507.289	110.31
507.506	122.91
507.722	116.31
507.939	106.91
508.155	125.91
508.372	118.31
