Data from ZeroMicroDelayPb_HRD10591_00014.txt Node
Date: Mon Nov 24 14:23:38 EST 2025
User: Yrep
Spectrometer: HR+D1059
Trigger mode: 0
Integration Time (sec): 1.000000E-1
Scans to average: 5
Electric dark correction enabled: true
Nonlinearity correction enabled: false
Boxcar width: 0
XAxis mode: Wavelengths
Number of Pixels in Spectrum: 2048
>>>>>Begin Spectral Data<<<<<
223.165	-13.25
223.4	-13.25
223.635	-13.25
223.869	-19.45
224.104	-22.65
224.338	-14.65
224.573	-13.65
224.808	-17.45
225.042	-11.65
225.277	0.75
225.511	-8.85
225.746	8.35
225.98	8.95
226.215	11.75
226.449	13.75
226.683	19.15
226.918	25.55
227.152	33.35
227.387	41.35
227.621	34.95
227.856	44.75
228.09	36.75
228.324	48.55
228.559	60.15
228.793	63.75
229.027	68.35
229.262	66.75
229.496	66.55
229.73	70.15
229.964	73.15
230.199	79.75
230.433	81.75
230.667	82.35
230.901	74.55
231.136	84.95
231.37	82.55
231.604	81.35
231.838	90.95
232.072	82.75
232.306	80.15
232.541	82.95
232.775	92.95
233.009	82.15
233.243	81.15
233.477	87.35
233.711	78.95
233.945	85.15
234.179	76.95
234.413	86.15
234.647	79.75
234.881	82.55
235.115	84.35
235.349	78.55
235.583	87.35
235.817	79.15
236.051	83.35
236.285	79.95
236.519	84.55
236.753	84.95
236.987	78.15
237.221	82.35
237.455	80.35
237.689	72.75
237.922	77.95
238.156	74.15
238.39	80.35
238.624	77.55
238.858	82.35
239.091	80.35
239.325	75.95
239.559	83.35
239.793	76.15
240.027	89.75
240.26	78.95
240.494	82.35
240.728	78.55
240.961	80.75
241.195	85.55
241.429	83.55
241.662	81.55
241.896	76.55
242.13	79.95
242.363	86.15
242.597	81.75
242.83	78.15
243.064	81.35
243.298	84.55
243.531	82.15
243.765	81.35
243.998	84.35
244.232	85.75
244.465	80.15
244.699	80.15
244.932	90.75
245.166	85.75
245.399	88.15
245.633	87.75
245.866	83.95
246.099	84.35
246.333	82.75
246.566	81.15
246.8	83.15
247.033	83.15
247.266	79.95
247.5	88.95
247.733	83.55
247.966	82.95
248.2	87.35
248.433	84.55
248.666	86.55
248.899	90.95
249.133	84.15
249.366	89.55
249.599	92.75
249.832	85.15
250.066	92.95
250.299	84.35
250.532	91.55
250.765	76.75
250.998	85.75
251.231	80.55
251.465	91.95
251.698	88.15
251.931	90.15
252.164	79.75
252.397	87.35
252.63	93.55
252.863	82.95
253.096	94.15
253.329	88.55
253.562	89.95
253.795	90.35
254.028	92.35
254.261	93.35
254.494	89.75
254.727	93.55
254.96	89.15
255.193	90.95
255.426	88.55
255.659	88.35
255.892	92.95
256.124	88.35
256.357	87.55
256.59	92.35
256.823	95.35
257.056	87.95
257.289	94.75
257.521	86.95
257.754	92.55
257.987	97.75
258.22	95.15
258.452	93.15
258.685	88.75
258.918	89.55
259.151	91.55
259.383	94.75
259.616	93.35
259.849	96.35
260.081	95.55
260.314	100.35
260.547	93.75
260.779	96.35
261.012	101.35
261.244	106.55
261.477	116.55
261.71	117.75
261.942	108.55
262.175	101.75
262.407	97.15
262.64	92.35
262.872	93.15
263.105	94.35
263.337	98.15
263.57	95.75
263.802	90.95
264.035	97.35
264.267	95.75
264.499	100.15
264.732	96.75
264.964	99.15
265.197	99.35
265.429	95.55
265.661	92.75
265.894	97.75
266.126	103.35
266.358	99.15
266.591	97.35
266.823	103.15
267.055	93.15
267.287	94.95
267.52	96.15
267.752	92.35
267.984	88.95
268.216	93.15
268.448	93.35
268.681	95.35
268.913	88.35
269.145	86.15
269.377	91.55
269.609	88.95
269.841	104.95
270.073	95.15
270.306	92.75
270.538	95.35
270.77	92.15
271.002	90.75
271.234	83.95
271.466	98.95
271.698	87.95
271.93	96.15
272.162	96.75
272.394	91.75
272.626	83.75
272.858	101.75
273.09	91.95
273.322	91.15
273.553	91.15
273.785	97.95
274.017	88.55
274.249	95.95
274.481	96.75
274.713	89.55
274.945	92.75
275.176	91.95
275.408	89.35
275.64	88.15
275.872	93.95
276.104	98.35
276.335	97.95
276.567	90.55
276.799	95.55
277.031	95.75
277.262	91.15
277.494	95.35
277.726	95.75
277.957	92.15
278.189	92.35
278.421	103.55
278.652	100.35
278.884	99.55
279.115	105.15
279.347	107.35
279.579	111.35
279.81	120.95
280.042	143.95
280.273	141.35
280.505	134.35
280.736	118.55
280.968	110.55
281.199	108.95
281.431	101.95
281.662	103.55
281.894	111.75
282.125	111.35
282.356	107.15
282.588	110.95
282.819	111.95
283.051	108.95
283.282	120.55
283.513	135.15
283.745	120.95
283.976	114.15
284.207	106.35
284.439	101.95
284.67	106.35
284.901	98.55
285.132	92.55
285.364	96.95
285.595	99.35
285.826	92.95
286.057	101.35
286.288	101.55
286.52	92.95
286.751	104.15
286.982	102.95
287.213	111.55
287.444	116.75
287.675	117.35
287.906	104.55
288.138	100.95
288.369	99.15
288.6	93.75
288.831	99.75
289.062	106.75
289.293	97.15
289.524	96.55
289.755	94.55
289.986	95.95
290.217	97.35
290.448	98.15
290.679	94.55
290.91	98.15
291.141	98.15
291.371	95.95
291.602	91.95
291.833	97.75
292.064	94.75
292.295	104.15
292.526	94.35
292.757	96.35
292.987	94.55
293.218	98.15
293.449	96.35
293.68	102.95
293.91	104.35
294.141	97.55
294.372	97.95
294.603	99.15
294.833	99.15
295.064	95.35
295.295	98.15
295.525	99.35
295.756	98.15
295.987	97.55
296.217	103.35
296.448	102.55
296.679	97.75
296.909	100.55
297.14	98.75
297.37	102.95
297.601	94.55
297.831	100.55
298.062	102.55
298.292	97.35
298.523	97.55
298.753	105.15
298.984	101.95
299.214	89.95
299.445	106.75
299.675	103.95
299.905	94.35
300.136	95.55
300.366	100.95
300.597	99.95
300.827	98.75
301.057	99.35
301.288	97.75
301.518	91.55
301.748	97.35
301.979	106.55
302.209	95.95
302.439	97.75
302.669	103.95
302.9	95.95
303.13	96.35
303.36	107.95
303.59	99.75
303.82	93.75
304.051	99.55
304.281	101.55
304.511	98.55
304.741	102.55
304.971	100.35
305.201	100.55
305.431	95.75
305.661	97.75
305.891	99.75
306.121	98.55
306.352	102.95
306.582	94.55
306.812	98.75
307.042	95.55
307.272	97.75
307.502	99.15
307.731	97.75
307.961	99.15
308.191	97.15
308.421	96.15
308.651	95.15
308.881	100.55
309.111	99.75
309.341	96.35
309.571	97.75
309.8	100.55
310.03	106.55
310.26	94.55
310.49	102.15
310.72	93.15
310.949	101.15
311.179	99.95
311.409	99.75
311.639	97.15
311.868	102.75
312.098	94.75
312.328	98.75
312.557	98.35
312.787	104.95
313.017	104.15
313.246	98.95
313.476	97.35
313.706	105.75
313.935	106.75
314.165	105.55
314.394	110.55
314.624	108.15
314.853	106.95
315.083	110.95
315.312	110.95
315.542	103.95
315.771	102.95
316.001	106.35
316.23	105.35
316.46	98.75
316.689	106.95
316.919	104.55
317.148	109.15
317.377	105.75
317.607	105.95
317.836	103.75
318.065	98.55
318.295	106.15
318.524	104.95
318.753	107.75
318.983	101.35
319.212	109.75
319.441	101.15
319.67	98.15
319.9	98.75
320.129	98.15
320.358	103.75
320.587	104.75
320.816	96.95
321.046	97.95
321.275	94.75
321.504	98.55
321.733	105.35
321.962	104.35
322.191	101.95
322.42	103.35
322.649	107.15
322.878	98.15
323.108	98.55
323.337	97.95
323.566	102.35
323.795	100.95
324.024	101.95
324.253	99.95
324.482	96.95
324.71	102.35
324.939	98.95
325.168	102.35
325.397	102.95
325.626	106.35
325.855	102.35
326.084	102.75
326.313	110.35
326.542	104.55
326.77	98.35
326.999	104.55
327.228	101.75
327.457	98.15
327.686	102.95
327.914	107.95
328.143	108.35
328.372	105.55
328.6	97.35
328.829	99.95
329.058	96.15
329.287	103.35
329.515	101.35
329.744	106.35
329.972	101.75
330.201	97.15
330.43	99.75
330.658	97.95
330.887	100.55
331.115	105.75
331.344	101.55
331.572	101.55
331.801	99.55
332.03	104.75
332.258	101.15
332.486	91.95
332.715	102.55
332.943	94.15
333.172	104.75
333.4	100.35
333.629	104.75
333.857	103.55
334.085	104.95
334.314	94.75
334.542	102.15
334.771	106.15
334.999	96.75
335.227	101.55
335.455	100.95
335.684	100.55
335.912	99.15
336.14	107.75
336.369	104.35
336.597	92.75
336.825	98.95
337.053	99.95
337.281	102.75
337.51	103.95
337.738	104.35
337.966	103.75
338.194	99.95
338.422	110.15
338.65	100.75
338.878	105.55
339.106	102.35
339.334	100.35
339.562	100.75
339.79	106.35
340.018	103.15
340.246	101.15
340.474	103.35
340.702	98.75
340.93	97.75
341.158	90.15
341.386	100.95
341.614	102.35
341.842	96.35
342.07	101.35
342.298	106.95
342.526	104.95
342.754	100.75
342.981	102.35
343.209	99.55
343.437	113.95
343.665	110.15
343.893	101.15
344.12	110.15
344.348	104.35
344.576	101.95
344.804	102.55
345.031	103.95
345.259	101.15
345.487	108.35
345.714	103.55
345.942	101.35
346.17	106.15
346.397	98.95
346.625	101.15
346.853	101.15
347.08	95.15
347.308	102.15
347.535	96.55
347.763	99.55
347.99	100.55
348.218	97.75
348.445	96.95
348.673	100.55
348.9	105.15
349.128	103.55
349.355	104.15
349.583	99.35
349.81	99.55
350.037	102.95
350.265	92.95
350.492	94.15
350.72	103.35
350.947	99.95
351.174	105.75
351.402	102.15
351.629	102.35
351.856	103.95
352.083	103.35
352.311	102.75
352.538	90.95
352.765	98.55
352.992	107.95
353.22	98.15
353.447	103.75
353.674	104.75
353.901	105.95
354.128	98.55
354.355	102.35
354.583	100.35
354.81	106.75
355.037	104.35
355.264	101.35
355.491	105.95
355.718	104.95
355.945	104.55
356.172	109.55
356.399	106.15
356.626	109.55
356.853	121.35
357.08	139.35
357.307	156.75
357.534	151.75
357.761	133.55
357.988	128.55
358.215	112.55
358.441	110.15
358.668	108.55
358.895	111.95
359.122	103.15
359.349	107.75
359.576	101.95
359.802	106.35
360.029	105.15
360.256	107.75
360.483	100.15
360.709	102.95
360.936	111.55
361.163	103.55
361.39	109.35
361.616	105.55
361.843	96.95
362.07	106.55
362.296	104.35
362.523	101.15
362.749	100.15
362.976	102.55
363.203	111.75
363.429	119.75
363.656	139.75
363.882	161.55
364.109	177.75
364.335	152.15
364.562	126.35
364.788	118.15
365.015	105.75
365.241	104.55
365.468	108.35
365.694	109.55
365.92	107.95
366.147	105.75
366.373	111.95
366.599	109.35
366.826	105.35
367.052	117.15
367.278	127.35
367.505	129.15
367.731	132.35
367.957	144.95
368.184	175.95
368.41	205.95
368.636	183.75
368.862	139.55
369.089	132.55
369.315	115.55
369.541	112.35
369.767	113.75
369.993	114.95
370.219	113.95
370.445	106.35
370.672	104.55
370.898	108.55
371.124	107.55
371.35	110.55
371.576	114.95
371.802	107.95
372.028	108.35
372.254	97.75
372.48	108.35
372.706	101.75
372.932	102.35
373.158	111.95
373.384	113.55
373.61	122.55
373.835	137.75
374.061	158.75
374.287	156.75
374.513	133.55
374.739	117.55
374.965	114.35
375.191	110.55
375.416	104.35
375.642	108.95
375.868	108.75
376.094	104.55
376.319	106.55
376.545	111.55
376.771	94.15
376.997	101.95
377.222	107.55
377.448	106.55
377.674	105.75
377.899	103.35
378.125	104.35
378.35	104.15
378.576	103.35
378.802	104.15
379.027	106.95
379.253	111.15
379.478	102.95
379.704	105.35
379.929	107.35
380.155	100.75
380.38	101.15
380.606	90.95
380.831	107.95
381.057	104.35
381.282	103.55
381.507	98.95
381.733	104.15
381.958	108.35
382.184	105.75
382.409	102.35
382.634	101.35
382.86	108.15
383.085	104.15
383.31	106.15
383.535	100.75
383.761	100.55
383.986	107.55
384.211	102.15
384.436	108.15
384.662	104.75
384.887	104.55
385.112	107.55
385.337	105.35
385.562	107.95
385.787	109.95
386.013	105.35
386.238	98.95
386.463	101.95
386.688	115.95
386.913	105.55
387.138	103.95
387.363	107.15
387.588	111.35
387.813	106.35
388.038	99.35
388.263	104.55
388.488	106.15
388.713	97.95
388.938	106.75
389.163	102.15
389.387	105.55
389.612	106.15
389.837	99.35
390.062	106.55
390.287	105.35
390.512	109.15
390.736	104.55
390.961	108.15
391.186	102.15
391.411	104.95
391.636	92.55
391.86	98.55
392.085	108.95
392.31	102.15
392.534	108.95
392.759	97.95
392.984	104.15
393.208	101.15
393.433	103.35
393.658	103.15
393.882	105.95
394.107	110.15
394.331	107.15
394.556	97.55
394.78	108.55
395.005	108.75
395.229	104.35
395.454	106.15
395.678	106.95
395.903	102.15
396.127	105.55
396.352	103.55
396.576	103.35
396.801	100.35
397.025	101.55
397.249	108.15
397.474	102.95
397.698	104.55
397.922	101.75
398.147	106.15
398.371	116.15
398.595	104.35
398.82	113.95
399.044	98.35
399.268	103.15
399.492	113.55
399.717	113.35
399.941	105.15
400.165	111.15
400.389	109.35
400.613	105.55
400.837	105.95
401.062	109.95
401.286	108.55
401.51	115.75
401.734	119.75
401.958	113.15
402.182	114.95
402.406	111.15
402.63	109.35
402.854	110.75
403.078	110.95
403.302	103.35
403.526	116.55
403.75	115.15
403.974	105.55
404.198	118.95
404.422	116.75
404.645	114.15
404.869	127.55
405.093	128.15
405.317	146.95
405.541	192.35
405.765	256.15
405.988	281.75
406.212	218.35
406.436	177.95
406.66	152.35
406.883	138.35
407.107	129.15
407.331	118.75
407.555	118.35
407.778	120.75
408.002	124.15
408.226	118.75
408.449	118.95
408.673	115.35
408.896	111.95
409.12	113.35
409.344	107.75
409.567	116.15
409.791	115.55
410.014	107.55
410.238	108.35
410.461	113.55
410.685	110.15
410.908	113.55
411.132	122.15
411.355	113.35
411.578	110.95
411.802	114.75
412.025	111.15
412.249	112.55
412.472	105.15
412.695	112.75
412.919	108.95
413.142	107.75
413.365	110.15
413.589	105.75
413.812	108.75
414.035	114.95
414.258	110.55
414.482	106.75
414.705	106.95
414.928	107.95
415.151	107.95
415.374	112.95
415.597	107.55
415.821	108.15
416.044	111.95
416.267	112.95
416.49	109.15
416.713	112.55
416.936	107.55
417.159	115.75
417.382	100.75
417.605	107.55
417.828	115.95
418.051	110.35
418.274	111.55
418.497	109.95
418.72	111.55
418.943	111.15
419.166	111.75
419.389	111.95
419.611	110.35
419.834	113.15
420.057	112.95
420.28	103.75
420.503	110.75
420.726	115.75
420.948	115.95
421.171	120.95
421.394	117.35
421.617	102.35
421.839	110.35
422.062	116.75
422.285	114.15
422.507	121.15
422.73	118.75
422.953	123.55
423.175	126.95
423.398	119.15
423.621	126.35
423.843	131.75
424.066	135.15
424.288	150.35
424.511	162.75
424.733	173.15
424.956	164.15
425.178	149.15
425.401	134.15
425.623	135.75
425.846	135.55
426.068	135.35
426.291	127.35
426.513	127.15
426.735	121.75
426.958	125.55
427.18	122.95
427.402	118.55
427.625	119.35
427.847	117.35
428.069	112.55
428.292	115.35
428.514	113.55
428.736	115.95
428.958	110.15
429.181	116.15
429.403	114.55
429.625	113.55
429.847	111.75
430.069	113.75
430.292	114.95
430.514	117.35
430.736	112.35
430.958	107.75
431.18	109.95
431.402	107.75
431.624	114.75
431.846	107.15
432.068	114.55
432.29	109.95
432.512	114.35
432.734	107.95
432.956	114.55
433.178	124.15
433.4	112.35
433.622	116.15
433.844	113.75
434.066	116.35
434.287	116.95
434.509	109.95
434.731	112.35
434.953	117.15
435.175	115.15
435.397	116.35
435.618	121.55
435.84	110.15
436.062	116.55
436.284	112.55
436.505	115.95
436.727	117.15
436.949	119.55
437.17	122.55
437.392	125.55
437.614	117.55
437.835	120.95
438.057	126.35
438.278	136.35
438.5	141.15
438.721	167.35
438.943	167.95
439.165	155.35
439.386	145.15
439.608	138.75
439.829	128.95
440.05	130.75
440.272	132.35
440.493	128.95
440.715	134.75
440.936	137.15
441.158	137.15
441.379	140.55
441.6	134.35
441.822	127.55
442.043	126.55
442.264	124.35
442.486	114.35
442.707	118.55
442.928	124.55
443.149	120.35
443.371	123.75
443.592	117.75
443.813	118.95
444.034	114.95
444.255	113.75
444.476	113.95
444.698	115.95
444.919	118.35
445.14	192.35
445.361	150.15
445.582	118.35
445.803	111.75
446.024	117.15
446.245	115.35
446.466	111.35
446.687	118.35
446.908	115.55
447.129	113.55
447.35	116.35
447.571	115.15
447.792	110.95
448.013	108.15
448.234	114.55
448.455	113.35
448.675	111.95
448.896	106.35
449.117	108.75
449.338	112.75
449.559	111.55
449.779	109.15
450	121.15
450.221	113.55
450.442	110.75
450.662	108.95
450.883	108.55
451.104	111.55
451.324	110.35
451.545	106.75
451.766	102.75
451.986	113.75
452.207	108.75
452.428	109.95
452.648	108.35
452.869	114.75
453.089	102.95
453.31	102.55
453.53	112.15
453.751	110.95
453.971	107.15
454.192	99.55
454.412	112.15
454.633	103.55
454.853	110.95
455.073	98.55
455.294	112.95
455.514	114.55
455.734	104.35
455.955	102.15
456.175	105.95
456.395	102.35
456.616	101.15
456.836	104.15
457.056	105.15
457.276	102.35
457.497	100.95
457.717	101.95
457.937	106.55
458.157	113.35
458.377	100.55
458.598	104.95
458.818	104.15
459.038	98.55
459.258	98.35
459.478	100.95
459.698	108.35
459.918	110.15
460.138	108.35
460.358	116.75
460.578	106.95
460.798	118.55
461.018	103.75
461.238	109.15
461.458	111.75
461.678	106.75
461.898	103.15
462.118	112.15
462.338	113.95
462.558	116.15
462.777	108.15
462.997	109.55
463.217	107.75
463.437	109.35
463.657	109.15
463.876	107.95
464.096	116.95
464.316	115.55
464.536	116.35
464.755	109.35
464.975	108.35
465.195	99.55
465.414	111.95
465.634	107.75
465.854	105.75
466.073	111.75
466.293	106.15
466.512	106.95
466.732	107.55
466.951	109.15
467.171	110.55
467.391	108.55
467.61	109.15
467.829	111.75
468.049	113.15
468.268	109.55
468.488	99.95
468.707	107.15
468.927	116.75
469.146	105.35
469.365	115.15
469.585	109.95
469.804	107.75
470.023	114.95
470.243	111.35
470.462	105.55
470.681	105.75
470.901	111.95
471.12	106.75
471.339	111.55
471.558	113.55
471.777	109.35
471.997	113.75
472.216	110.15
472.435	107.75
472.654	102.55
472.873	107.35
473.092	106.35
473.311	108.15
473.53	104.75
473.749	105.15
473.968	110.95
474.187	97.75
474.406	112.55
474.625	105.75
474.844	106.15
475.063	111.35
475.282	111.35
475.501	109.95
475.72	117.95
475.939	108.35
476.158	109.95
476.377	108.95
476.596	113.55
476.814	104.95
477.033	110.15
477.252	110.15
477.471	108.15
477.69	112.95
477.908	113.35
478.127	115.15
478.346	117.75
478.564	119.35
478.783	107.95
479.002	116.95
479.22	113.75
479.439	114.75
479.658	112.35
479.876	112.15
480.095	111.15
480.313	116.15
480.532	119.75
480.751	107.95
480.969	107.95
481.188	112.55
481.406	113.15
481.624	104.55
481.843	111.75
482.061	115.95
482.28	112.15
482.498	112.15
482.717	103.15
482.935	110.35
483.153	115.75
483.372	118.15
483.59	113.35
483.808	111.95
484.027	114.15
484.245	112.35
484.463	115.55
484.681	123.95
484.9	120.15
485.118	109.95
485.336	109.95
485.554	110.15
485.772	113.55
485.99	112.15
486.209	109.15
486.427	113.15
486.645	112.15
486.863	107.75
487.081	114.95
487.299	117.55
487.517	110.15
487.735	121.35
487.953	129.35
488.171	121.55
488.389	115.55
488.607	118.35
488.825	121.15
489.043	107.55
489.261	117.15
489.479	119.75
489.696	119.55
489.914	114.35
490.132	119.75
490.35	117.75
490.568	118.55
490.786	113.95
491.003	108.15
491.221	116.75
491.439	113.55
491.657	118.75
491.874	115.35
492.092	126.55
492.31	130.35
492.527	125.95
492.745	120.95
492.963	115.55
493.18	115.95
493.398	116.35
493.615	120.15
493.833	120.35
494.05	117.95
494.268	115.15
494.485	123.15
494.703	120.35
494.92	121.35
495.138	115.55
495.355	123.15
495.573	115.15
495.79	118.55
496.008	119.15
496.225	125.35
496.442	120.55
496.66	122.95
496.877	113.15
497.094	117.35
497.312	119.35
497.529	116.35
497.746	125.75
497.963	117.55
498.181	120.15
498.398	124.35
498.615	117.55
498.832	121.95
499.049	124.95
499.267	126.75
499.484	125.75
499.701	135.35
499.918	130.15
500.135	132.75
500.352	144.75
500.569	149.95
500.786	154.55
501.003	149.35
501.22	137.75
501.437	136.15
501.654	133.95
501.871	136.15
502.088	127.15
502.305	126.75
502.522	125.35
502.739	127.75
502.956	125.15
503.172	124.55
503.389	125.75
503.606	124.35
503.823	125.55
504.04	132.15
504.256	132.95
504.473	134.95
504.69	132.35
504.907	139.55
505.123	127.95
505.34	130.35
505.557	121.95
505.773	120.75
505.99	121.55
506.207	117.95
506.423	114.55
506.64	116.75
506.856	116.75
507.073	115.95
507.289	118.15
507.506	124.55
