Data from ZeroMicroDelayPb_HRD10591_00008.txt Node
Date: Mon Nov 24 14:23:35 EST 2025
User: Yrep
Spectrometer: HR+D1059
Trigger mode: 0
Integration Time (sec): 1.000000E-1
Scans to average: 5
Electric dark correction enabled: true
Nonlinearity correction enabled: false
Boxcar width: 0
XAxis mode: Wavelengths
Number of Pixels in Spectrum: 2048
>>>>>Begin Spectral Data<<<<<
223.165	-18.45
223.4	-18.45
223.635	-18.45
223.869	-18.45
224.104	-10.45
224.338	-12.45
224.573	-12.65
224.808	-10.65
225.042	-13.45
225.277	-12.25
225.511	-3.65
225.746	-0.05
225.98	9.35
226.215	11.35
226.449	14.35
226.683	21.95
226.918	26.95
227.152	28.55
227.387	38.75
227.621	39.15
227.856	43.35
228.09	47.55
228.324	45.55
228.559	55.95
228.793	62.55
229.027	61.35
229.262	61.55
229.496	67.35
229.73	68.95
229.964	73.75
230.199	68.35
230.433	80.95
230.667	80.95
230.901	81.35
231.136	77.95
231.37	77.15
231.604	78.15
231.838	81.15
232.072	83.55
232.306	83.75
232.541	76.75
232.775	83.95
233.009	82.55
233.243	81.15
233.477	83.55
233.711	87.55
233.945	80.15
234.179	80.35
234.413	76.15
234.647	75.95
234.881	80.35
235.115	82.55
235.349	75.95
235.583	78.75
235.817	78.75
236.051	77.55
236.285	79.75
236.519	88.95
236.753	84.15
236.987	75.35
237.221	84.35
237.455	73.75
237.689	76.95
237.922	78.35
238.156	79.15
238.39	73.15
238.624	79.35
238.858	70.95
239.091	77.55
239.325	72.55
239.559	79.15
239.793	85.55
240.027	78.95
240.26	74.95
240.494	80.35
240.728	83.55
240.961	78.95
241.195	83.55
241.429	76.75
241.662	83.75
241.896	80.75
242.13	78.55
242.363	80.75
242.597	83.55
242.83	77.95
243.064	80.75
243.298	80.35
243.531	83.55
243.765	80.55
243.998	79.95
244.232	82.35
244.465	81.35
244.699	75.55
244.932	79.55
245.166	79.35
245.399	83.95
245.633	85.35
245.866	85.15
246.099	80.95
246.333	79.55
246.566	80.35
246.8	79.55
247.033	80.15
247.266	82.35
247.5	81.95
247.733	78.95
247.966	88.75
248.2	78.75
248.433	83.75
248.666	81.55
248.899	84.55
249.133	85.15
249.366	87.55
249.599	80.55
249.832	84.35
250.066	87.15
250.299	79.95
250.532	76.95
250.765	87.95
250.998	82.15
251.231	88.55
251.465	82.95
251.698	81.75
251.931	80.35
252.164	81.75
252.397	87.35
252.63	85.35
252.863	89.15
253.096	85.95
253.329	92.55
253.562	85.95
253.795	87.35
254.028	92.35
254.261	86.95
254.494	87.15
254.727	87.95
254.96	93.95
255.193	90.35
255.426	89.35
255.659	80.15
255.892	86.35
256.124	86.15
256.357	89.15
256.59	94.75
256.823	89.95
257.056	86.55
257.289	87.35
257.521	93.95
257.754	90.75
257.987	98.75
258.22	92.15
258.452	95.95
258.685	88.55
258.918	95.95
259.151	87.95
259.383	86.15
259.616	90.55
259.849	91.55
260.081	89.15
260.314	96.55
260.547	90.75
260.779	103.15
261.012	103.15
261.244	101.75
261.477	112.15
261.71	114.35
261.942	104.75
262.175	103.55
262.407	95.55
262.64	93.55
262.872	91.15
263.105	94.35
263.337	93.35
263.57	88.35
263.802	89.55
264.035	90.15
264.267	92.75
264.499	93.95
264.732	98.75
264.964	96.95
265.197	100.15
265.429	91.55
265.661	93.55
265.894	94.55
266.126	102.95
266.358	103.15
266.591	100.55
266.823	98.15
267.055	95.95
267.287	90.55
267.52	94.95
267.752	93.35
267.984	87.35
268.216	98.35
268.448	93.15
268.681	93.95
268.913	92.95
269.145	92.15
269.377	89.95
269.609	88.15
269.841	92.35
270.073	91.15
270.306	93.75
270.538	91.15
270.77	89.55
271.002	88.35
271.234	89.75
271.466	89.95
271.698	90.95
271.93	95.15
272.162	86.75
272.394	96.95
272.626	88.75
272.858	86.75
273.09	94.55
273.322	97.35
273.553	88.55
273.785	90.55
274.017	91.75
274.249	86.55
274.481	85.95
274.713	87.75
274.945	95.15
275.176	91.75
275.408	94.75
275.64	88.95
275.872	87.95
276.104	92.55
276.335	89.75
276.567	95.15
276.799	100.35
277.031	90.95
277.262	94.35
277.494	93.75
277.726	95.35
277.957	99.35
278.189	93.95
278.421	94.55
278.652	93.75
278.884	103.75
279.115	102.55
279.347	112.35
279.579	112.15
279.81	117.35
280.042	132.75
280.273	133.55
280.505	136.95
280.736	115.55
280.968	106.55
281.199	101.75
281.431	105.55
281.662	108.55
281.894	107.55
282.125	107.55
282.356	108.75
282.588	114.15
282.819	109.35
283.051	108.35
283.282	118.75
283.513	134.15
283.745	118.55
283.976	107.75
284.207	98.55
284.439	103.55
284.67	97.75
284.901	95.95
285.132	96.15
285.364	98.15
285.595	95.15
285.826	89.95
286.057	97.35
286.288	99.95
286.52	95.15
286.751	92.15
286.982	108.15
287.213	113.75
287.444	125.55
287.675	110.55
287.906	111.75
288.138	92.95
288.369	97.55
288.6	99.75
288.831	98.55
289.062	92.95
289.293	99.15
289.524	97.15
289.755	97.15
289.986	102.15
290.217	102.35
290.448	97.15
290.679	98.55
290.91	96.15
291.141	95.95
291.371	94.55
291.602	99.15
291.833	92.95
292.064	101.95
292.295	91.95
292.526	89.75
292.757	90.95
292.987	95.95
293.218	96.75
293.449	93.95
293.68	98.55
293.91	93.55
294.141	101.95
294.372	92.75
294.603	96.15
294.833	94.75
295.064	93.95
295.295	99.95
295.525	94.35
295.756	102.15
295.987	96.15
296.217	96.35
296.448	92.75
296.679	94.75
296.909	97.95
297.14	94.95
297.37	104.35
297.601	96.35
297.831	97.75
298.062	97.95
298.292	102.15
298.523	102.15
298.753	97.15
298.984	92.15
299.214	98.35
299.445	98.55
299.675	91.75
299.905	92.35
300.136	96.95
300.366	92.15
300.597	102.55
300.827	94.55
301.057	105.75
301.288	93.55
301.518	96.55
301.748	94.55
301.979	106.95
302.209	101.35
302.439	96.75
302.669	101.15
302.9	99.95
303.13	101.75
303.36	94.95
303.59	101.75
303.82	98.15
304.051	106.15
304.281	100.35
304.511	100.15
304.741	99.35
304.971	97.35
305.201	98.15
305.431	100.15
305.661	96.35
305.891	101.75
306.121	99.15
306.352	98.55
306.582	98.55
306.812	96.95
307.042	97.55
307.272	92.15
307.502	92.95
307.731	98.95
307.961	98.55
308.191	95.55
308.421	101.15
308.651	98.55
308.881	95.55
309.111	96.95
309.341	97.95
309.571	92.35
309.8	97.55
310.03	93.75
310.26	94.15
310.49	98.55
310.72	95.75
310.949	94.35
311.179	89.35
311.409	94.55
311.639	89.95
311.868	103.35
312.098	104.35
312.328	101.35
312.557	103.75
312.787	101.75
313.017	103.75
313.246	98.95
313.476	101.55
313.706	105.15
313.935	108.55
314.165	100.75
314.394	99.95
314.624	103.75
314.853	103.55
315.083	104.35
315.312	101.95
315.542	99.55
315.771	100.35
316.001	106.95
316.23	105.15
316.46	100.95
316.689	93.35
316.919	104.35
317.148	101.55
317.377	104.55
317.607	101.55
317.836	101.35
318.065	103.75
318.295	99.15
318.524	100.75
318.753	102.15
318.983	101.15
319.212	103.95
319.441	102.55
319.67	98.95
319.9	99.15
320.129	100.75
320.358	103.55
320.587	103.75
320.816	101.55
321.046	101.35
321.275	100.95
321.504	104.75
321.733	97.55
321.962	99.75
322.191	95.55
322.42	93.35
322.649	101.75
322.878	95.55
323.108	94.55
323.337	100.15
323.566	98.75
323.795	104.95
324.024	96.95
324.253	101.75
324.482	103.15
324.71	94.35
324.939	111.15
325.168	100.95
325.397	102.55
325.626	103.35
325.855	91.75
326.084	105.55
326.313	94.35
326.542	101.95
326.77	99.15
326.999	94.15
327.228	101.95
327.457	100.95
327.686	97.15
327.914	102.55
328.143	106.15
328.372	96.75
328.6	98.95
328.829	102.95
329.058	97.55
329.287	98.75
329.515	101.35
329.744	108.95
329.972	103.35
330.201	100.55
330.43	103.95
330.658	103.55
330.887	106.15
331.115	103.15
331.344	102.95
331.572	103.55
331.801	94.95
332.03	96.95
332.258	102.55
332.486	98.95
332.715	106.75
332.943	100.75
333.172	101.75
333.4	95.55
333.629	104.75
333.857	105.15
334.085	102.35
334.314	97.75
334.542	95.95
334.771	104.35
334.999	98.55
335.227	95.75
335.455	101.15
335.684	107.75
335.912	102.15
336.14	93.95
336.369	101.35
336.597	102.15
336.825	100.35
337.053	100.35
337.281	96.55
337.51	103.15
337.738	98.75
337.966	97.15
338.194	101.75
338.422	102.95
338.65	103.95
338.878	101.75
339.106	104.15
339.334	99.35
339.562	95.95
339.79	99.75
340.018	101.75
340.246	101.15
340.474	99.75
340.702	101.35
340.93	107.15
341.158	100.55
341.386	96.35
341.614	99.95
341.842	98.35
342.07	101.35
342.298	99.35
342.526	106.75
342.754	101.95
342.981	104.75
343.209	96.55
343.437	107.55
343.665	95.75
343.893	94.55
344.12	104.95
344.348	94.35
344.576	100.95
344.804	94.15
345.031	98.95
345.259	98.55
345.487	102.75
345.714	105.95
345.942	97.55
346.17	97.75
346.397	98.55
346.625	94.55
346.853	92.35
347.08	95.55
347.308	99.55
347.535	101.55
347.763	94.55
347.99	96.75
348.218	94.15
348.445	103.95
348.673	97.55
348.9	104.35
349.128	104.35
349.355	102.55
349.583	97.15
349.81	101.75
350.037	97.95
350.265	96.15
350.492	102.15
350.72	98.55
350.947	102.35
351.174	99.55
351.402	98.55
351.629	97.75
351.856	89.95
352.083	96.15
352.311	98.75
352.538	99.95
352.765	93.15
352.992	101.75
353.22	105.75
353.447	101.95
353.674	100.75
353.901	103.55
354.128	96.15
354.355	99.15
354.583	100.15
354.81	104.75
355.037	103.35
355.264	103.75
355.491	100.75
355.718	96.55
355.945	105.95
356.172	103.35
356.399	105.75
356.626	105.35
356.853	117.35
357.08	129.15
357.307	152.35
357.534	155.55
357.761	134.15
357.988	119.35
358.215	120.15
358.441	110.15
358.668	113.35
358.895	104.75
359.122	104.35
359.349	100.55
359.576	105.55
359.802	108.35
360.029	106.35
360.256	111.15
360.483	98.75
360.709	97.35
360.936	105.35
361.163	102.55
361.39	99.75
361.616	101.55
361.843	94.55
362.07	102.15
362.296	105.35
362.523	103.15
362.749	107.35
362.976	103.55
363.203	110.15
363.429	118.95
363.656	132.75
363.882	148.15
364.109	176.15
364.335	146.95
364.562	126.55
364.788	106.75
365.015	114.95
365.241	111.35
365.468	112.15
365.694	103.15
365.92	109.95
366.147	109.35
366.373	107.75
366.599	105.95
366.826	108.95
367.052	116.75
367.278	120.15
367.505	120.75
367.731	134.55
367.957	139.75
368.184	164.75
368.41	203.55
368.636	190.55
368.862	147.35
369.089	130.55
369.315	117.95
369.541	114.35
369.767	118.55
369.993	112.95
370.219	106.15
370.445	101.95
370.672	106.75
370.898	106.35
371.124	106.95
371.35	106.15
371.576	101.95
371.802	101.75
372.028	110.55
372.254	101.55
372.48	104.35
372.706	104.35
372.932	110.95
373.158	117.15
373.384	112.95
373.61	122.15
373.835	142.15
374.061	156.95
374.287	148.95
374.513	131.95
374.739	108.75
374.965	111.75
375.191	105.15
375.416	112.15
375.642	100.75
375.868	103.35
376.094	104.75
376.319	106.35
376.545	93.95
376.771	97.95
376.997	101.95
377.222	100.35
377.448	102.75
377.674	100.55
377.899	101.75
378.125	101.35
378.35	99.15
378.576	104.95
378.802	108.15
379.027	108.55
379.253	104.55
379.478	97.35
379.704	104.55
379.929	102.75
380.155	100.95
380.38	107.15
380.606	96.55
380.831	100.95
381.057	109.35
381.282	95.55
381.507	96.15
381.733	100.95
381.958	98.95
382.184	105.15
382.409	103.95
382.634	111.15
382.86	106.75
383.085	100.15
383.31	103.55
383.535	105.75
383.761	103.75
383.986	103.75
384.211	102.55
384.436	98.95
384.662	100.35
384.887	103.75
385.112	100.95
385.337	102.35
385.562	108.15
385.787	101.35
386.013	102.55
386.238	99.55
386.463	103.95
386.688	109.35
386.913	103.55
387.138	102.35
387.363	98.95
387.588	108.35
387.813	103.75
388.038	101.95
388.263	101.75
388.488	101.95
388.713	99.55
388.938	103.95
389.163	105.55
389.387	100.55
389.612	101.35
389.837	100.15
390.062	103.35
390.287	110.35
390.512	103.75
390.736	97.95
390.961	103.75
391.186	95.55
391.411	108.75
391.636	103.75
391.86	100.35
392.085	105.55
392.31	106.75
392.534	107.15
392.759	103.75
392.984	109.35
393.208	103.15
393.433	102.95
393.658	98.75
393.882	96.35
394.107	100.95
394.331	103.95
394.556	103.35
394.78	96.35
395.005	100.35
395.229	101.95
395.454	110.15
395.678	103.55
395.903	100.95
396.127	103.15
396.352	106.15
396.576	106.35
396.801	98.75
397.025	109.75
397.249	100.15
397.474	108.55
397.698	104.75
397.922	106.75
398.147	105.95
398.371	100.55
398.595	104.15
398.82	102.35
399.044	106.55
399.268	108.75
399.492	105.15
399.717	111.35
399.941	109.15
400.165	110.55
400.389	109.35
400.613	106.35
400.837	110.15
401.062	113.75
401.286	107.55
401.51	107.35
401.734	114.15
401.958	114.55
402.182	122.15
402.406	113.35
402.63	106.15
402.854	107.55
403.078	109.35
403.302	107.75
403.526	110.15
403.75	112.75
403.974	116.15
404.198	110.55
404.422	110.15
404.645	110.15
404.869	117.55
405.093	129.55
405.317	149.75
405.541	187.35
405.765	255.75
405.988	286.95
406.212	225.35
406.436	175.75
406.66	157.95
406.883	144.55
407.107	128.55
407.331	123.75
407.555	127.95
407.778	120.35
408.002	116.35
408.226	117.95
408.449	118.75
408.673	109.15
408.896	114.95
409.12	110.95
409.344	116.55
409.567	109.35
409.791	118.95
410.014	110.15
410.238	105.75
410.461	112.55
410.685	118.75
410.908	112.55
411.132	115.15
411.355	111.95
411.578	109.55
411.802	106.35
412.025	108.35
412.249	111.75
412.472	102.15
412.695	108.35
412.919	109.95
413.142	110.75
413.365	110.15
413.589	101.95
413.812	111.35
414.035	108.75
414.258	103.95
414.482	112.35
414.705	112.95
414.928	110.35
415.151	113.55
415.374	110.95
415.597	112.95
415.821	100.75
416.044	110.35
416.267	112.95
416.49	113.35
416.713	104.55
416.936	106.35
417.159	112.75
417.382	108.95
417.605	106.35
417.828	111.75
418.051	104.95
418.274	109.55
418.497	108.15
418.72	102.55
418.943	110.75
419.166	112.75
419.389	111.35
419.611	110.35
419.834	107.15
420.057	115.35
420.28	111.15
420.503	107.95
420.726	104.95
420.948	107.35
421.171	108.15
421.394	106.75
421.617	109.55
421.839	108.95
422.062	106.75
422.285	118.55
422.507	117.15
422.73	109.15
422.953	116.15
423.175	116.95
423.398	115.75
423.621	126.75
423.843	129.75
424.066	139.75
424.288	148.35
424.511	161.35
424.733	167.15
424.956	161.55
425.178	144.95
425.401	144.35
425.623	136.55
425.846	134.95
426.068	126.95
426.291	125.55
426.513	118.95
426.735	127.35
426.958	117.95
427.18	124.95
427.402	115.15
427.625	115.75
427.847	113.95
428.069	117.15
428.292	108.55
428.514	108.35
428.736	110.15
428.958	114.35
429.181	110.55
429.403	115.55
429.625	109.15
429.847	111.75
430.069	107.75
430.292	115.15
430.514	106.95
430.736	112.95
430.958	106.55
431.18	107.35
431.402	110.35
431.624	101.75
431.846	108.55
432.068	113.35
432.29	112.95
432.512	108.75
432.734	114.55
432.956	113.15
433.178	112.55
433.4	114.95
433.622	110.75
433.844	101.95
434.066	111.75
434.287	118.35
434.509	111.55
434.731	113.55
434.953	115.35
435.175	109.95
435.397	109.75
435.618	108.55
435.84	105.75
436.062	108.35
436.284	121.15
436.505	113.95
436.727	117.35
436.949	109.75
437.17	115.75
437.392	116.75
437.614	118.15
437.835	116.95
438.057	124.75
438.278	130.75
438.5	143.35
438.721	149.35
438.943	162.35
439.165	144.55
439.386	148.15
439.608	142.55
439.829	135.35
440.05	139.95
440.272	141.15
440.493	133.75
440.715	134.15
440.936	139.15
441.158	140.75
441.379	124.95
441.6	128.15
441.822	133.15
442.043	128.35
442.264	125.35
442.486	120.35
442.707	113.55
442.928	112.75
443.149	121.55
443.371	121.95
443.592	116.15
443.813	114.95
444.034	118.75
444.255	121.35
444.476	118.35
444.698	116.95
444.919	112.95
445.14	188.35
445.361	150.35
445.582	115.95
445.803	111.15
446.024	113.95
446.245	117.35
446.466	111.35
446.687	114.35
446.908	118.15
447.129	114.75
447.35	103.95
447.571	113.15
447.792	115.75
448.013	112.75
448.234	113.75
448.455	112.95
448.675	111.75
448.896	100.35
449.117	110.15
449.338	106.35
449.559	109.55
449.779	110.75
450	107.35
450.221	108.95
450.442	109.75
450.662	107.75
450.883	112.35
451.104	111.15
451.324	106.95
451.545	101.55
451.766	112.55
451.986	107.75
452.207	111.75
452.428	109.15
452.648	107.35
452.869	106.35
453.089	109.35
453.31	106.95
453.53	105.15
453.751	104.95
453.971	105.15
454.192	103.15
454.412	100.55
454.633	106.15
454.853	108.55
455.073	111.95
455.294	112.35
455.514	105.75
455.734	103.35
455.955	108.15
456.175	106.55
456.395	108.95
456.616	104.35
456.836	107.95
457.056	100.35
457.276	101.35
457.497	103.15
457.717	103.55
457.937	102.75
458.157	104.35
458.377	96.95
458.598	96.35
458.818	101.95
459.038	104.75
459.258	104.55
459.478	110.75
459.698	105.55
459.918	109.95
460.138	103.15
460.358	99.95
460.578	115.35
460.798	108.55
461.018	107.55
461.238	103.95
461.458	111.75
461.678	105.75
461.898	105.35
462.118	109.35
462.338	110.75
462.558	112.95
462.777	108.55
462.997	115.55
463.217	112.55
463.437	106.35
463.657	107.95
463.876	106.75
464.096	106.55
464.316	105.15
464.536	111.35
464.755	107.75
464.975	106.15
465.195	115.15
465.414	107.75
465.634	115.55
465.854	107.55
466.073	112.15
466.293	111.55
466.512	105.75
466.732	106.35
466.951	113.15
467.171	107.55
467.391	108.55
467.61	110.95
467.829	111.15
468.049	110.95
468.268	112.75
468.488	106.15
468.707	110.75
468.927	99.15
469.146	107.15
469.365	108.55
469.585	106.15
469.804	105.75
470.023	104.95
470.243	110.75
470.462	108.95
470.681	110.35
470.901	113.55
471.12	111.15
471.339	112.55
471.558	103.35
471.777	116.35
471.997	108.95
472.216	111.15
472.435	108.55
472.654	108.35
472.873	107.15
473.092	109.55
473.311	108.55
473.53	105.35
473.749	107.35
473.968	108.15
474.187	109.75
474.406	108.55
474.625	102.35
474.844	110.15
475.063	104.35
475.282	109.15
475.501	106.35
475.72	114.35
475.939	109.75
476.158	107.15
476.377	112.75
476.596	104.75
476.814	103.95
477.033	112.15
477.252	109.55
477.471	113.95
477.69	116.55
477.908	115.55
478.127	118.15
478.346	110.55
478.564	104.35
478.783	114.55
479.002	114.55
479.22	113.35
479.439	118.75
479.658	114.15
479.876	105.55
480.095	113.55
480.313	113.55
480.532	108.35
480.751	108.55
480.969	112.55
481.188	105.95
481.406	107.95
481.624	113.35
481.843	113.55
482.061	107.95
482.28	112.75
482.498	109.95
482.717	107.35
482.935	108.15
483.153	117.75
483.372	115.55
483.59	113.75
483.808	110.35
484.027	108.15
484.245	114.55
484.463	109.55
484.681	115.15
484.9	108.75
485.118	118.95
485.336	108.95
485.554	110.55
485.772	105.35
485.99	108.15
486.209	109.15
486.427	113.15
486.645	112.55
486.863	113.15
487.081	110.55
487.299	111.35
487.517	112.55
487.735	116.75
487.953	111.75
488.171	113.95
488.389	116.15
488.607	117.95
488.825	111.55
489.043	115.55
489.261	117.35
489.479	121.75
489.696	117.55
489.914	118.15
490.132	113.75
490.35	115.35
490.568	115.75
490.786	111.75
491.003	116.55
491.221	116.75
491.439	118.95
491.657	116.35
491.874	121.75
492.092	119.75
492.31	123.75
492.527	124.75
492.745	116.95
492.963	121.95
493.18	112.55
493.398	121.95
493.615	116.55
493.833	113.95
494.05	117.75
494.268	115.35
494.485	112.55
494.703	118.35
494.92	122.55
495.138	118.55
495.355	117.35
495.573	119.75
495.79	115.95
496.008	112.95
496.225	118.35
496.442	118.75
496.66	124.75
496.877	117.55
497.094	120.75
497.312	115.35
497.529	119.55
497.746	120.15
497.963	117.95
498.181	116.95
498.398	129.15
498.615	120.35
498.832	121.75
499.049	123.55
499.267	126.35
499.484	132.55
499.701	126.15
499.918	133.75
500.135	135.95
500.352	139.15
500.569	148.15
500.786	164.55
501.003	146.15
501.22	145.95
501.437	139.35
501.654	131.75
501.871	128.55
502.088	123.95
502.305	127.35
502.522	124.75
502.739	125.95
502.956	128.35
503.172	124.35
503.389	125.35
503.606	125.55
503.823	127.35
504.04	125.55
504.256	128.55
504.473	133.95
504.69	128.55
504.907	136.55
505.123	124.15
505.34	130.95
505.557	123.35
505.773	124.55
505.99	123.75
506.207	117.95
506.423	120.95
506.64	117.95
506.856	124.55
507.073	117.75
507.289	121.35
507.506	116.75
507.722	113.75
507.939	114.35
