Data from ZeroMicroDelayPb_HRD10591_00006.txt Node
Date: Mon Nov 24 14:23:34 EST 2025
User: Yrep
Spectrometer: HR+D1059
Trigger mode: 0
Integration Time (sec): 1.000000E-1
Scans to average: 5
Electric dark correction enabled: true
Nonlinearity correction enabled: false
Boxcar width: 0
XAxis mode: Wavelengths
Number of Pixels in Spectrum: 2048
>>>>>Begin Spectral Data<<<<<
223.165	-16.66
223.4	-16.66
223.635	-16.66
223.869	-15.66
224.104	-19.66
224.338	-18.86
224.573	-12.26
224.808	-14.06
225.042	-2.26
225.277	-7.06
225.511	-1.86
225.746	1.34
225.98	9.34
226.215	7.74
226.449	10.34
226.683	18.34
226.918	26.74
227.152	34.54
227.387	31.14
227.621	42.74
227.856	47.94
228.09	50.74
228.324	44.54
228.559	55.94
228.793	62.74
229.027	66.74
229.262	61.34
229.496	67.34
229.73	72.54
229.964	82.14
230.199	80.14
230.433	75.94
230.667	84.34
230.901	79.74
231.136	81.54
231.37	80.94
231.604	80.94
231.838	82.14
232.072	75.94
232.306	84.74
232.541	80.94
232.775	85.14
233.009	79.14
233.243	87.54
233.477	85.34
233.711	81.34
233.945	83.54
234.179	85.94
234.413	88.74
234.647	79.14
234.881	82.54
235.115	84.94
235.349	73.74
235.583	80.94
235.817	82.94
236.051	79.94
236.285	84.54
236.519	81.94
236.753	89.94
236.987	80.34
237.221	76.14
237.455	83.94
237.689	89.94
237.922	82.94
238.156	75.54
238.39	77.14
238.624	79.14
238.858	83.74
239.091	84.94
239.325	85.14
239.559	81.94
239.793	84.54
240.027	84.34
240.26	80.74
240.494	86.14
240.728	81.54
240.961	82.54
241.195	78.34
241.429	79.54
241.662	82.54
241.896	83.34
242.13	83.34
242.363	78.14
242.597	82.54
242.83	77.34
243.064	79.74
243.298	88.94
243.531	87.34
243.765	89.14
243.998	82.94
244.232	85.14
244.465	81.74
244.699	83.54
244.932	87.54
245.166	81.74
245.399	85.34
245.633	86.74
245.866	83.54
246.099	81.94
246.333	77.94
246.566	77.14
246.8	87.14
247.033	82.94
247.266	85.94
247.5	85.34
247.733	79.74
247.966	87.94
248.2	86.74
248.433	88.14
248.666	84.14
248.899	87.94
249.133	91.14
249.366	89.14
249.599	83.14
249.832	91.14
250.066	86.94
250.299	82.74
250.532	83.54
250.765	85.54
250.998	88.54
251.231	84.74
251.465	91.74
251.698	84.74
251.931	91.94
252.164	90.94
252.397	85.74
252.63	87.74
252.863	89.14
253.096	89.34
253.329	92.54
253.562	92.54
253.795	91.94
254.028	87.14
254.261	91.74
254.494	89.34
254.727	95.14
254.96	90.14
255.193	86.94
255.426	86.14
255.659	90.94
255.892	92.74
256.124	94.34
256.357	94.14
256.59	94.94
256.823	92.74
257.056	92.54
257.289	91.34
257.521	101.74
257.754	92.34
257.987	96.94
258.22	98.14
258.452	94.74
258.685	89.14
258.918	89.94
259.151	93.54
259.383	87.14
259.616	86.94
259.849	90.74
260.081	94.34
260.314	90.74
260.547	93.94
260.779	92.54
261.012	105.54
261.244	109.34
261.477	114.94
261.71	117.54
261.942	105.74
262.175	100.34
262.407	92.14
262.64	93.54
262.872	95.14
263.105	94.54
263.337	97.54
263.57	95.34
263.802	94.14
264.035	94.74
264.267	92.14
264.499	93.74
264.732	96.14
264.964	101.14
265.197	102.74
265.429	99.74
265.661	97.34
265.894	97.34
266.126	99.14
266.358	103.74
266.591	107.54
266.823	96.74
267.055	94.74
267.287	93.74
267.52	95.54
267.752	93.54
267.984	90.74
268.216	95.74
268.448	98.14
268.681	101.54
268.913	95.94
269.145	95.54
269.377	95.34
269.609	97.34
269.841	97.94
270.073	97.34
270.306	97.54
270.538	89.74
270.77	97.74
271.002	91.54
271.234	94.14
271.466	90.94
271.698	91.14
271.93	90.14
272.162	101.54
272.394	90.14
272.626	92.34
272.858	94.94
273.09	94.14
273.322	90.74
273.553	95.34
273.785	93.94
274.017	95.14
274.249	95.94
274.481	93.94
274.713	95.34
274.945	91.34
275.176	92.54
275.408	97.94
275.64	95.94
275.872	92.74
276.104	98.34
276.335	98.34
276.567	96.74
276.799	99.74
277.031	95.74
277.262	94.14
277.494	94.74
277.726	95.14
277.957	95.74
278.189	97.14
278.421	98.14
278.652	96.34
278.884	103.74
279.115	107.14
279.347	102.74
279.579	111.14
279.81	122.54
280.042	130.74
280.273	141.74
280.505	131.34
280.736	118.94
280.968	109.54
281.199	106.74
281.431	104.34
281.662	106.54
281.894	108.34
282.125	109.14
282.356	110.74
282.588	112.74
282.819	106.34
283.051	120.74
283.282	125.34
283.513	139.14
283.745	117.54
283.976	112.54
284.207	103.74
284.439	105.14
284.67	99.34
284.901	102.54
285.132	104.94
285.364	98.34
285.595	99.74
285.826	93.34
286.057	98.94
286.288	96.14
286.52	103.74
286.751	105.34
286.982	106.74
287.213	118.34
287.444	127.54
287.675	115.74
287.906	102.94
288.138	100.54
288.369	90.34
288.6	97.54
288.831	97.14
289.062	103.54
289.293	97.54
289.524	89.74
289.755	99.14
289.986	99.94
290.217	92.94
290.448	93.74
290.679	105.94
290.91	102.74
291.141	101.94
291.371	97.94
291.602	95.54
291.833	99.14
292.064	94.54
292.295	105.94
292.526	102.74
292.757	101.54
292.987	96.74
293.218	93.34
293.449	98.94
293.68	94.14
293.91	101.14
294.141	94.54
294.372	97.74
294.603	101.54
294.833	97.14
295.064	99.34
295.295	99.94
295.525	95.34
295.756	100.14
295.987	108.54
296.217	94.54
296.448	105.74
296.679	99.34
296.909	95.74
297.14	97.54
297.37	99.14
297.601	96.74
297.831	96.94
298.062	97.74
298.292	95.94
298.523	102.94
298.753	102.74
298.984	101.14
299.214	96.34
299.445	98.34
299.675	100.54
299.905	97.74
300.136	97.14
300.366	96.34
300.597	93.14
300.827	97.94
301.057	103.14
301.288	101.14
301.518	96.94
301.748	98.94
301.979	110.14
302.209	102.74
302.439	92.54
302.669	100.14
302.9	99.14
303.13	99.14
303.36	103.94
303.59	101.94
303.82	99.74
304.051	108.34
304.281	100.14
304.511	103.94
304.741	103.34
304.971	97.94
305.201	99.74
305.431	101.34
305.661	99.54
305.891	98.94
306.121	102.54
306.352	103.34
306.582	100.14
306.812	96.34
307.042	105.34
307.272	98.34
307.502	98.14
307.731	95.14
307.961	106.14
308.191	101.54
308.421	99.74
308.651	95.74
308.881	99.94
309.111	111.14
309.341	102.34
309.571	97.54
309.8	98.14
310.03	104.74
310.26	96.94
310.49	103.74
310.72	101.74
310.949	96.94
311.179	105.54
311.409	98.54
311.639	103.54
311.868	103.94
312.098	104.14
312.328	100.54
312.557	99.94
312.787	105.14
313.017	101.94
313.246	105.14
313.476	104.74
313.706	104.54
313.935	106.74
314.165	103.34
314.394	105.34
314.624	102.74
314.853	110.94
315.083	105.54
315.312	104.54
315.542	108.14
315.771	106.94
316.001	108.34
316.23	106.74
316.46	107.74
316.689	104.34
316.919	108.54
317.148	100.74
317.377	110.14
317.607	110.14
317.836	104.34
318.065	109.34
318.295	101.14
318.524	109.34
318.753	102.14
318.983	101.54
319.212	106.14
319.441	106.14
319.67	109.14
319.9	93.14
320.129	103.14
320.358	105.54
320.587	105.34
320.816	98.54
321.046	104.74
321.275	100.94
321.504	98.34
321.733	101.14
321.962	104.14
322.191	103.54
322.42	99.94
322.649	104.54
322.878	104.74
323.108	100.54
323.337	103.14
323.566	108.94
323.795	110.54
324.024	99.94
324.253	103.74
324.482	101.74
324.71	98.54
324.939	98.34
325.168	98.54
325.397	98.94
325.626	103.74
325.855	106.74
326.084	102.54
326.313	96.14
326.542	104.94
326.77	99.14
326.999	104.74
327.228	103.54
327.457	102.94
327.686	99.74
327.914	103.54
328.143	102.54
328.372	102.74
328.6	102.14
328.829	99.34
329.058	101.94
329.287	109.34
329.515	107.34
329.744	102.14
329.972	97.74
330.201	98.74
330.43	101.54
330.658	102.74
330.887	106.74
331.115	102.34
331.344	105.94
331.572	103.94
331.801	102.94
332.03	102.14
332.258	101.14
332.486	107.14
332.715	103.74
332.943	99.34
333.172	104.74
333.4	103.54
333.629	107.34
333.857	105.74
334.085	104.74
334.314	101.74
334.542	97.94
334.771	102.14
334.999	101.34
335.227	100.34
335.455	109.74
335.684	104.34
335.912	105.54
336.14	101.34
336.369	96.74
336.597	99.14
336.825	104.94
337.053	99.54
337.281	101.74
337.51	100.14
337.738	99.34
337.966	105.54
338.194	103.14
338.422	104.94
338.65	98.54
338.878	101.14
339.106	102.14
339.334	104.94
339.562	103.34
339.79	105.74
340.018	99.34
340.246	106.54
340.474	107.54
340.702	102.74
340.93	106.34
341.158	101.14
341.386	102.54
341.614	101.14
341.842	102.94
342.07	98.54
342.298	103.34
342.526	106.74
342.754	94.14
342.981	102.74
343.209	106.54
343.437	117.34
343.665	106.74
343.893	102.94
344.12	106.14
344.348	95.14
344.576	97.54
344.804	101.74
345.031	102.94
345.259	104.74
345.487	101.14
345.714	107.94
345.942	102.14
346.17	100.54
346.397	101.14
346.625	98.74
346.853	100.34
347.08	91.34
347.308	104.94
347.535	98.14
347.763	109.14
347.99	108.34
348.218	98.34
348.445	98.54
348.673	93.94
348.9	104.34
349.128	104.34
349.355	103.34
349.583	104.14
349.81	102.34
350.037	103.94
350.265	103.34
350.492	100.34
350.72	109.34
350.947	108.14
351.174	107.94
351.402	94.34
351.629	104.94
351.856	102.14
352.083	103.54
352.311	102.34
352.538	101.34
352.765	105.74
352.992	104.34
353.22	103.74
353.447	100.54
353.674	98.74
353.901	107.74
354.128	103.34
354.355	106.74
354.583	103.94
354.81	100.14
355.037	107.14
355.264	103.54
355.491	100.94
355.718	105.54
355.945	107.94
356.172	104.94
356.399	110.34
356.626	112.94
356.853	115.34
357.08	137.94
357.307	154.94
357.534	156.34
357.761	131.34
357.988	130.54
358.215	122.34
358.441	115.74
358.668	107.14
358.895	119.34
359.122	109.74
359.349	107.94
359.576	104.34
359.802	108.94
360.029	108.74
360.256	105.14
360.483	113.94
360.709	101.34
360.936	110.14
361.163	111.14
361.39	102.94
361.616	101.94
361.843	104.54
362.07	110.34
362.296	102.34
362.523	98.54
362.749	103.94
362.976	102.14
363.203	115.74
363.429	119.14
363.656	138.74
363.882	164.14
364.109	183.74
364.335	154.14
364.562	131.94
364.788	121.14
365.015	113.54
365.241	110.14
365.468	112.74
365.694	113.74
365.92	115.74
366.147	111.94
366.373	110.14
366.599	114.54
366.826	117.34
367.052	126.54
367.278	123.14
367.505	123.74
367.731	130.34
367.957	149.94
368.184	176.14
368.41	204.74
368.636	196.34
368.862	150.14
369.089	134.74
369.315	120.74
369.541	113.74
369.767	115.74
369.993	114.14
370.219	106.34
370.445	103.14
370.672	105.14
370.898	110.54
371.124	99.94
371.35	102.94
371.576	106.54
371.802	105.54
372.028	104.74
372.254	102.74
372.48	105.54
372.706	107.34
372.932	110.34
373.158	105.54
373.384	110.94
373.61	124.74
373.835	147.54
374.061	168.94
374.287	163.54
374.513	136.54
374.739	115.94
374.965	107.94
375.191	113.14
375.416	108.34
375.642	104.74
375.868	109.34
376.094	115.34
376.319	100.74
376.545	104.74
376.771	100.34
376.997	93.14
377.222	99.94
377.448	99.54
377.674	92.34
377.899	104.74
378.125	106.14
378.35	100.74
378.576	103.74
378.802	109.34
379.027	100.74
379.253	105.34
379.478	103.34
379.704	106.94
379.929	100.74
380.155	93.54
380.38	99.14
380.606	101.74
380.831	99.74
381.057	101.34
381.282	97.14
381.507	103.54
381.733	109.94
381.958	106.14
382.184	103.74
382.409	104.94
382.634	107.14
382.86	97.54
383.085	97.34
383.31	107.54
383.535	106.54
383.761	109.94
383.986	100.94
384.211	100.14
384.436	109.14
384.662	100.74
384.887	106.14
385.112	105.14
385.337	102.94
385.562	105.14
385.787	108.34
386.013	116.54
386.238	106.54
386.463	104.14
386.688	118.94
386.913	105.14
387.138	103.74
387.363	109.74
387.588	105.54
387.813	103.74
388.038	109.14
388.263	106.94
388.488	107.54
388.713	105.14
388.938	104.14
389.163	104.94
389.387	101.14
389.612	94.34
389.837	105.54
390.062	103.54
390.287	105.74
390.512	103.94
390.736	100.94
390.961	99.34
391.186	111.74
391.411	103.54
391.636	106.94
391.86	104.74
392.085	103.54
392.31	112.54
392.534	102.54
392.759	110.94
392.984	111.54
393.208	106.54
393.433	110.54
393.658	105.54
393.882	106.34
394.107	111.34
394.331	105.54
394.556	103.54
394.78	103.34
395.005	97.14
395.229	105.14
395.454	106.74
395.678	110.74
395.903	112.14
396.127	106.14
396.352	110.34
396.576	100.14
396.801	112.54
397.025	103.34
397.249	111.14
397.474	106.14
397.698	108.14
397.922	109.14
398.147	112.34
398.371	106.54
398.595	106.14
398.82	110.34
399.044	105.94
399.268	107.14
399.492	115.34
399.717	119.34
399.941	117.74
400.165	114.74
400.389	110.74
400.613	111.14
400.837	117.34
401.062	102.74
401.286	104.14
401.51	109.34
401.734	121.14
401.958	120.94
402.182	121.54
402.406	115.74
402.63	113.34
402.854	111.34
403.078	106.14
403.302	107.74
403.526	115.34
403.75	118.94
403.974	114.94
404.198	113.94
404.422	123.54
404.645	119.34
404.869	125.54
405.093	140.54
405.317	150.54
405.541	196.34
405.765	271.14
405.988	289.54
406.212	224.14
406.436	182.54
406.66	157.54
406.883	134.94
407.107	131.14
407.331	129.54
407.555	129.54
407.778	126.34
408.002	124.54
408.226	117.34
408.449	121.94
408.673	115.74
408.896	118.74
409.12	109.74
409.344	110.54
409.567	111.34
409.791	112.74
410.014	111.74
410.238	110.14
410.461	116.94
410.685	112.74
410.908	103.74
411.132	109.74
411.355	115.14
411.578	113.14
411.802	112.74
412.025	111.94
412.249	112.94
412.472	107.74
412.695	108.54
412.919	108.74
413.142	104.94
413.365	110.54
413.589	113.94
413.812	110.54
414.035	110.94
414.258	114.34
414.482	116.34
414.705	111.74
414.928	110.34
415.151	110.94
415.374	107.74
415.597	106.14
415.821	109.54
416.044	110.34
416.267	111.74
416.49	112.54
416.713	116.54
416.936	124.74
417.159	112.34
417.382	109.34
417.605	110.34
417.828	108.14
418.051	110.14
418.274	114.54
418.497	117.54
418.72	112.74
418.943	108.74
419.166	113.34
419.389	116.34
419.611	115.94
419.834	115.34
420.057	113.74
420.28	114.54
420.503	106.34
420.726	113.74
420.948	109.94
421.171	111.54
421.394	113.14
421.617	109.34
421.839	111.34
422.062	111.14
422.285	116.74
422.507	117.74
422.73	120.34
422.953	119.74
423.175	113.94
423.398	119.34
423.621	132.54
423.843	131.54
424.066	136.94
424.288	156.34
424.511	167.34
424.733	170.34
424.956	154.54
425.178	146.94
425.401	144.34
425.623	141.54
425.846	131.94
426.068	132.94
426.291	129.74
426.513	126.14
426.735	126.54
426.958	127.94
427.18	123.34
427.402	119.74
427.625	119.94
427.847	124.54
428.069	121.94
428.292	109.34
428.514	111.74
428.736	114.54
428.958	112.34
429.181	114.54
429.403	111.14
429.625	116.34
429.847	116.94
430.069	118.34
430.292	118.74
430.514	110.94
430.736	113.74
430.958	110.74
431.18	117.94
431.402	110.14
431.624	110.54
431.846	110.74
432.068	111.94
432.29	109.14
432.512	112.94
432.734	108.94
432.956	113.14
433.178	119.94
433.4	119.94
433.622	118.74
433.844	113.74
434.066	111.14
434.287	117.34
434.509	115.14
434.731	113.94
434.953	110.54
435.175	116.54
435.397	117.34
435.618	116.74
435.84	111.74
436.062	114.14
436.284	111.74
436.505	113.54
436.727	116.54
436.949	120.74
437.17	123.54
437.392	119.94
437.614	126.54
437.835	123.94
438.057	129.14
438.278	129.94
438.5	147.14
438.721	160.74
438.943	172.54
439.165	149.74
439.386	142.74
439.608	136.54
439.829	144.74
440.05	141.94
440.272	134.34
440.493	130.94
440.715	140.94
440.936	144.54
441.158	135.74
441.379	133.74
441.6	133.54
441.822	129.54
442.043	125.54
442.264	121.54
442.486	122.74
442.707	117.94
442.928	121.34
443.149	114.94
443.371	118.94
443.592	123.34
443.813	121.74
444.034	116.54
444.255	122.34
444.476	120.54
444.698	124.74
444.919	121.34
445.14	194.34
445.361	152.94
445.582	118.74
445.803	116.54
446.024	119.94
446.245	120.34
446.466	109.14
446.687	117.34
446.908	113.94
447.129	116.14
447.35	116.94
447.571	119.14
447.792	111.54
448.013	106.54
448.234	115.34
448.455	111.74
448.675	112.14
448.896	116.14
449.117	114.14
449.338	113.34
449.559	111.34
449.779	115.74
450	108.94
450.221	110.54
450.442	113.54
450.662	113.14
450.883	111.14
451.104	111.74
451.324	112.74
451.545	110.34
451.766	111.14
451.986	105.74
452.207	114.74
452.428	112.14
452.648	113.74
452.869	112.74
453.089	110.34
453.31	106.54
453.53	110.14
453.751	100.14
453.971	104.94
454.192	100.54
454.412	103.34
454.633	115.14
454.853	113.54
455.073	113.14
455.294	105.94
455.514	112.94
455.734	103.94
455.955	107.94
456.175	105.14
456.395	109.74
456.616	109.94
456.836	106.14
457.056	104.74
457.276	105.14
457.497	107.74
457.717	105.94
457.937	104.94
458.157	106.14
458.377	106.74
458.598	105.94
458.818	102.34
459.038	109.34
459.258	105.54
459.478	105.34
459.698	110.14
459.918	110.94
460.138	106.94
460.358	105.54
460.578	112.14
460.798	107.74
461.018	111.54
461.238	109.74
461.458	119.14
461.678	103.74
461.898	110.94
462.118	114.94
462.338	109.14
462.558	118.34
462.777	103.94
462.997	115.54
463.217	112.54
463.437	109.14
463.657	112.34
463.876	112.34
464.096	110.74
464.316	112.14
464.536	108.94
464.755	111.74
464.975	118.34
465.195	108.14
465.414	114.34
465.634	108.54
465.854	114.14
466.073	108.54
466.293	107.74
466.512	107.14
466.732	110.54
466.951	108.34
467.171	111.14
467.391	110.94
467.61	109.74
467.829	108.74
468.049	118.54
468.268	107.74
468.488	107.74
468.707	105.74
468.927	108.74
469.146	108.34
469.365	109.94
469.585	105.34
469.804	111.74
470.023	108.34
470.243	109.94
470.462	105.54
470.681	112.34
470.901	117.14
471.12	114.14
471.339	112.74
471.558	109.94
471.777	105.94
471.997	107.74
472.216	107.34
472.435	114.74
472.654	105.94
472.873	108.54
473.092	110.94
473.311	110.14
473.53	115.14
473.749	108.14
473.968	110.34
474.187	107.14
474.406	106.34
474.625	114.74
474.844	110.94
475.063	109.34
475.282	114.54
475.501	108.54
475.72	115.74
475.939	106.74
476.158	106.14
476.377	114.94
476.596	109.54
476.814	108.34
477.033	106.74
477.252	117.14
477.471	111.34
477.69	114.14
477.908	119.34
478.127	116.14
478.346	120.94
478.564	119.54
478.783	121.34
479.002	116.94
479.22	116.14
479.439	121.14
479.658	113.74
479.876	111.74
480.095	112.54
480.313	123.74
480.532	113.94
480.751	116.34
480.969	111.74
481.188	111.74
481.406	116.94
481.624	114.34
481.843	105.74
482.061	111.94
482.28	112.54
482.498	115.14
482.717	112.34
482.935	107.74
483.153	118.14
483.372	112.54
483.59	112.74
483.808	116.34
484.027	115.74
484.245	113.94
484.463	114.54
484.681	117.74
484.9	114.74
485.118	120.74
485.336	112.94
485.554	112.34
485.772	107.74
485.99	112.34
486.209	112.94
486.427	113.14
486.645	115.34
486.863	109.34
487.081	113.54
487.299	113.54
487.517	120.34
487.735	115.54
487.953	122.74
488.171	117.54
488.389	111.94
488.607	113.94
488.825	113.74
489.043	114.54
489.261	116.74
489.479	121.14
489.696	124.34
489.914	118.14
490.132	116.74
490.35	115.14
490.568	117.54
490.786	117.94
491.003	114.34
491.221	115.74
491.439	121.94
491.657	124.34
491.874	129.14
492.092	127.34
492.31	127.14
492.527	120.14
492.745	118.34
492.963	120.74
493.18	117.74
493.398	119.94
493.615	116.14
493.833	119.14
494.05	118.74
494.268	122.34
494.485	122.14
494.703	124.74
494.92	118.14
495.138	121.14
495.355	122.54
495.573	127.54
495.79	120.94
496.008	123.74
496.225	123.34
496.442	121.94
496.66	118.74
496.877	120.54
497.094	120.94
497.312	121.14
497.529	122.14
497.746	120.74
497.963	118.94
498.181	125.54
498.398	125.34
498.615	122.34
498.832	119.14
499.049	123.54
499.267	125.54
499.484	128.54
499.701	130.54
499.918	134.94
500.135	138.74
500.352	140.74
500.569	157.74
500.786	171.14
501.003	145.14
501.22	142.94
501.437	133.94
501.654	131.94
501.871	134.74
502.088	127.94
502.305	131.94
502.522	120.74
502.739	123.94
502.956	123.74
503.172	128.14
503.389	127.34
503.606	134.54
503.823	134.74
504.04	128.14
504.256	129.94
504.473	131.14
504.69	137.94
504.907	130.94
505.123	126.94
505.34	122.94
505.557	122.74
505.773	122.54
505.99	120.14
506.207	117.14
506.423	124.74
506.64	118.14
506.856	122.74
507.073	125.14
