Data from ZeroMicroDelayPb_HRD10591_00012.txt Node
Date: Mon Nov 24 14:23:37 EST 2025
User: Yrep
Spectrometer: HR+D1059
Trigger mode: 0
Integration Time (sec): 1.000000E-1
Scans to average: 5
Electric dark correction enabled: true
Nonlinearity correction enabled: false
Boxcar width: 0
XAxis mode: Wavelengths
Number of Pixels in Spectrum: 2048
>>>>>Begin Spectral Data<<<<<
223.165	-22.21
223.4	-22.21
223.635	-22.21
223.869	-13.81
224.104	-18.81
224.338	-15.61
224.573	-15.61
224.808	-14.41
225.042	-6.41
225.277	-3.81
225.511	-0.61
225.746	2.99
225.98	2.59
226.215	13.59
226.449	13.19
226.683	21.59
226.918	27.79
227.152	29.59
227.387	35.39
227.621	39.19
227.856	37.79
228.09	44.99
228.324	52.59
228.559	57.19
228.793	65.99
229.027	63.99
229.262	68.39
229.496	67.99
229.73	74.79
229.964	67.99
230.199	71.99
230.433	73.39
230.667	79.59
230.901	79.79
231.136	79.19
231.37	80.79
231.604	82.39
231.838	84.39
232.072	91.19
232.306	77.19
232.541	80.59
232.775	85.19
233.009	82.59
233.243	87.19
233.477	77.79
233.711	88.19
233.945	82.59
234.179	83.79
234.413	86.19
234.647	74.99
234.881	75.19
235.115	82.39
235.349	74.59
235.583	83.79
235.817	83.99
236.051	81.39
236.285	88.99
236.519	75.39
236.753	79.79
236.987	77.99
237.221	81.79
237.455	73.19
237.689	72.59
237.922	72.19
238.156	76.79
238.39	75.79
238.624	69.99
238.858	75.99
239.091	74.99
239.325	79.39
239.559	83.79
239.793	79.79
240.027	79.79
240.26	85.99
240.494	83.19
240.728	84.99
240.961	85.59
241.195	77.59
241.429	80.99
241.662	80.19
241.896	81.39
242.13	85.39
242.363	84.19
242.597	75.79
242.83	77.59
243.064	81.59
243.298	87.19
243.531	69.99
243.765	77.79
243.998	84.59
244.232	85.59
244.465	82.79
244.699	91.59
244.932	86.59
245.166	84.19
245.399	85.39
245.633	82.39
245.866	80.79
246.099	81.99
246.333	80.19
246.566	79.59
246.8	81.19
247.033	84.79
247.266	86.79
247.5	79.39
247.733	86.39
247.966	87.99
248.2	84.59
248.433	82.79
248.666	82.59
248.899	85.19
249.133	78.79
249.366	84.39
249.599	84.39
249.832	87.59
250.066	86.39
250.299	85.79
250.532	82.99
250.765	83.19
250.998	87.19
251.231	94.19
251.465	83.19
251.698	80.79
251.931	80.59
252.164	88.39
252.397	83.39
252.63	90.79
252.863	86.99
253.096	91.99
253.329	94.39
253.562	93.99
253.795	91.79
254.028	91.19
254.261	88.39
254.494	88.79
254.727	94.79
254.96	94.39
255.193	94.39
255.426	88.59
255.659	82.39
255.892	82.19
256.124	92.39
256.357	91.19
256.59	90.39
256.823	92.19
257.056	91.59
257.289	85.59
257.521	89.39
257.754	87.79
257.987	89.79
258.22	93.39
258.452	95.99
258.685	90.19
258.918	86.79
259.151	91.19
259.383	99.79
259.616	89.59
259.849	85.99
260.081	97.99
260.314	100.99
260.547	92.39
260.779	103.39
261.012	105.39
261.244	107.39
261.477	115.79
261.71	108.39
261.942	97.59
262.175	105.19
262.407	90.39
262.64	101.39
262.872	93.99
263.105	93.19
263.337	96.79
263.57	93.99
263.802	93.39
264.035	85.79
264.267	90.19
264.499	95.39
264.732	93.19
264.964	98.79
265.197	102.19
265.429	101.99
265.661	93.79
265.894	96.19
266.126	86.99
266.358	101.59
266.591	106.79
266.823	103.19
267.055	98.19
267.287	96.79
267.52	90.79
267.752	89.59
267.984	91.79
268.216	85.39
268.448	95.39
268.681	94.39
268.913	88.59
269.145	94.99
269.377	93.19
269.609	96.59
269.841	93.19
270.073	92.39
270.306	92.59
270.538	90.79
270.77	93.59
271.002	90.39
271.234	92.19
271.466	93.39
271.698	90.59
271.93	88.79
272.162	87.39
272.394	91.59
272.626	94.59
272.858	90.39
273.09	86.79
273.322	88.99
273.553	91.19
273.785	89.39
274.017	92.79
274.249	92.59
274.481	92.19
274.713	91.19
274.945	92.39
275.176	90.39
275.408	91.99
275.64	92.79
275.872	89.19
276.104	97.39
276.335	97.59
276.567	88.79
276.799	90.99
277.031	92.19
277.262	97.79
277.494	96.39
277.726	100.39
277.957	99.39
278.189	97.99
278.421	103.19
278.652	101.59
278.884	101.79
279.115	98.39
279.347	112.79
279.579	108.59
279.81	118.99
280.042	130.19
280.273	139.99
280.505	127.79
280.736	114.19
280.968	108.99
281.199	106.59
281.431	106.99
281.662	102.79
281.894	108.99
282.125	112.19
282.356	117.39
282.588	115.19
282.819	105.59
283.051	109.19
283.282	122.19
283.513	126.79
283.745	123.99
283.976	106.79
284.207	100.79
284.439	104.59
284.67	105.19
284.901	93.99
285.132	97.59
285.364	92.19
285.595	96.19
285.826	100.79
286.057	102.19
286.288	94.19
286.52	99.99
286.751	105.99
286.982	107.59
287.213	113.19
287.444	116.39
287.675	115.59
287.906	109.79
288.138	100.39
288.369	98.79
288.6	98.59
288.831	94.79
289.062	89.79
289.293	94.39
289.524	96.39
289.755	91.39
289.986	91.79
290.217	93.39
290.448	97.59
290.679	96.19
290.91	94.39
291.141	98.19
291.371	95.79
291.602	95.79
291.833	93.39
292.064	98.39
292.295	95.59
292.526	95.99
292.757	97.79
292.987	91.79
293.218	98.99
293.449	94.79
293.68	102.19
293.91	95.39
294.141	99.59
294.372	95.19
294.603	98.59
294.833	95.79
295.064	97.39
295.295	95.99
295.525	96.59
295.756	101.59
295.987	100.59
296.217	100.59
296.448	101.59
296.679	100.19
296.909	91.99
297.14	93.79
297.37	96.39
297.601	102.79
297.831	93.99
298.062	94.19
298.292	97.39
298.523	101.59
298.753	97.79
298.984	93.59
299.214	91.79
299.445	101.79
299.675	106.59
299.905	96.99
300.136	93.59
300.366	95.59
300.597	94.99
300.827	94.99
301.057	96.39
301.288	101.59
301.518	105.39
301.748	95.39
301.979	112.39
302.209	102.99
302.439	101.59
302.669	100.99
302.9	98.79
303.13	95.79
303.36	94.59
303.59	102.99
303.82	100.59
304.051	101.79
304.281	99.19
304.511	102.59
304.741	103.79
304.971	101.39
305.201	103.99
305.431	95.19
305.661	100.39
305.891	101.59
306.121	96.19
306.352	98.39
306.582	97.99
306.812	100.79
307.042	93.59
307.272	88.59
307.502	94.99
307.731	103.19
307.961	97.99
308.191	97.39
308.421	104.19
308.651	96.19
308.881	96.99
309.111	93.39
309.341	97.79
309.571	100.39
309.8	89.19
310.03	96.19
310.26	102.79
310.49	103.39
310.72	96.19
310.949	103.19
311.179	100.59
311.409	103.79
311.639	102.99
311.868	105.19
312.098	102.19
312.328	104.99
312.557	99.79
312.787	99.99
313.017	99.59
313.246	104.79
313.476	102.19
313.706	99.99
313.935	104.39
314.165	107.19
314.394	106.59
314.624	104.39
314.853	106.59
315.083	104.59
315.312	110.39
315.542	106.99
315.771	105.79
316.001	101.59
316.23	99.79
316.46	104.99
316.689	99.99
316.919	103.99
317.148	99.59
317.377	107.39
317.607	105.39
317.836	98.99
318.065	103.39
318.295	107.59
318.524	106.39
318.753	98.79
318.983	96.59
319.212	99.59
319.441	97.79
319.67	102.39
319.9	97.19
320.129	100.99
320.358	102.59
320.587	105.79
320.816	97.79
321.046	100.99
321.275	100.59
321.504	101.79
321.733	96.39
321.962	98.99
322.191	94.99
322.42	95.19
322.649	95.39
322.878	104.99
323.108	100.19
323.337	96.59
323.566	100.19
323.795	100.79
324.024	97.99
324.253	95.59
324.482	102.79
324.71	102.39
324.939	103.99
325.168	98.59
325.397	105.19
325.626	103.79
325.855	101.99
326.084	98.79
326.313	103.59
326.542	100.99
326.77	102.19
326.999	106.19
327.228	98.59
327.457	98.19
327.686	100.79
327.914	99.59
328.143	101.39
328.372	100.79
328.6	98.59
328.829	97.99
329.058	97.79
329.287	99.79
329.515	104.19
329.744	98.99
329.972	98.59
330.201	96.19
330.43	101.59
330.658	97.19
330.887	96.39
331.115	98.79
331.344	99.99
331.572	103.19
331.801	97.99
332.03	93.59
332.258	104.79
332.486	96.39
332.715	98.99
332.943	95.99
333.172	101.59
333.4	103.79
333.629	100.59
333.857	100.99
334.085	98.99
334.314	102.39
334.542	102.39
334.771	98.79
334.999	99.39
335.227	97.99
335.455	97.59
335.684	98.59
335.912	108.19
336.14	101.59
336.369	101.79
336.597	102.59
336.825	96.79
337.053	99.59
337.281	100.79
337.51	94.79
337.738	102.59
337.966	100.59
338.194	103.79
338.422	103.19
338.65	101.19
338.878	94.59
339.106	99.39
339.334	102.79
339.562	105.39
339.79	96.19
340.018	93.79
340.246	96.99
340.474	99.99
340.702	106.19
340.93	102.59
341.158	101.79
341.386	98.99
341.614	102.79
341.842	95.59
342.07	99.39
342.298	102.59
342.526	96.59
342.754	97.39
342.981	103.39
343.209	103.79
343.437	110.19
343.665	102.39
343.893	97.99
344.12	103.39
344.348	102.39
344.576	101.39
344.804	102.79
345.031	103.19
345.259	95.79
345.487	98.19
345.714	100.39
345.942	97.99
346.17	92.39
346.397	96.79
346.625	95.39
346.853	106.59
347.08	104.99
347.308	98.39
347.535	93.39
347.763	92.19
347.99	97.99
348.218	101.99
348.445	97.39
348.673	97.99
348.9	98.79
349.128	101.79
349.355	97.99
349.583	99.79
349.81	100.99
350.037	102.79
350.265	103.99
350.492	99.39
350.72	100.59
350.947	104.39
351.174	104.39
351.402	98.79
351.629	98.99
351.856	101.59
352.083	104.39
352.311	98.79
352.538	96.59
352.765	104.19
352.992	104.99
353.22	104.59
353.447	99.59
353.674	101.99
353.901	105.79
354.128	96.39
354.355	93.39
354.583	95.79
354.81	106.39
355.037	103.99
355.264	99.19
355.491	102.79
355.718	99.39
355.945	108.79
356.172	101.59
356.399	107.59
356.626	106.79
356.853	123.99
357.08	129.19
357.307	153.79
357.534	152.99
357.761	130.99
357.988	123.99
358.215	112.99
358.441	108.19
358.668	107.19
358.895	104.39
359.122	111.39
359.349	102.99
359.576	100.19
359.802	104.19
360.029	104.59
360.256	102.99
360.483	106.19
360.709	100.79
360.936	101.59
361.163	106.59
361.39	99.59
361.616	99.39
361.843	100.99
362.07	105.19
362.296	106.99
362.523	103.59
362.749	105.59
362.976	107.59
363.203	113.39
363.429	113.59
363.656	133.79
363.882	156.59
364.109	176.99
364.335	149.99
364.562	118.39
364.788	116.19
365.015	113.39
365.241	112.59
365.468	110.79
365.694	110.39
365.92	111.99
366.147	102.79
366.373	107.79
366.599	115.59
366.826	113.19
367.052	121.39
367.278	125.79
367.505	119.39
367.731	119.19
367.957	137.19
368.184	172.59
368.41	210.79
368.636	187.39
368.862	151.79
369.089	132.19
369.315	122.59
369.541	116.39
369.767	113.99
369.993	109.19
370.219	103.19
370.445	106.19
370.672	107.39
370.898	107.79
371.124	107.99
371.35	107.59
371.576	106.19
371.802	99.59
372.028	107.99
372.254	105.19
372.48	98.99
372.706	100.19
372.932	107.39
373.158	105.39
373.384	119.39
373.61	122.39
373.835	138.79
374.061	159.19
374.287	151.19
374.513	126.39
374.739	109.19
374.965	107.79
375.191	108.79
375.416	110.59
375.642	103.79
375.868	99.99
376.094	107.19
376.319	98.79
376.545	99.39
376.771	100.99
376.997	105.59
377.222	105.99
377.448	93.59
377.674	91.79
377.899	101.59
378.125	98.59
378.35	106.19
378.576	105.59
378.802	104.99
379.027	98.79
379.253	106.59
379.478	102.79
379.704	102.59
379.929	103.79
380.155	100.99
380.38	98.39
380.606	103.19
380.831	94.79
381.057	103.79
381.282	103.19
381.507	101.59
381.733	99.99
381.958	101.99
382.184	103.99
382.409	96.39
382.634	98.79
382.86	94.19
383.085	102.99
383.31	104.79
383.535	104.99
383.761	107.99
383.986	98.59
384.211	100.99
384.436	99.99
384.662	107.19
384.887	98.19
385.112	101.39
385.337	108.59
385.562	103.39
385.787	96.19
386.013	104.39
386.238	105.19
386.463	96.99
386.688	108.19
386.913	100.99
387.138	103.39
387.363	101.79
387.588	106.99
387.813	102.99
388.038	103.99
388.263	104.99
388.488	99.19
388.713	101.99
388.938	100.59
389.163	108.19
389.387	106.59
389.612	106.19
389.837	101.19
390.062	111.39
390.287	108.59
390.512	105.39
390.736	98.59
390.961	101.19
391.186	101.39
391.411	107.19
391.636	103.99
391.86	104.79
392.085	99.99
392.31	98.79
392.534	105.99
392.759	101.99
392.984	104.79
393.208	105.39
393.433	100.99
393.658	107.59
393.882	105.99
394.107	103.19
394.331	101.99
394.556	102.99
394.78	109.19
395.005	112.59
395.229	109.59
395.454	108.59
395.678	106.79
395.903	104.99
396.127	106.39
396.352	102.99
396.576	100.39
396.801	102.19
397.025	100.99
397.249	110.59
397.474	105.19
397.698	109.99
397.922	101.79
398.147	102.19
398.371	110.99
398.595	113.99
398.82	104.59
399.044	108.79
399.268	114.39
399.492	110.99
399.717	116.19
399.941	110.59
400.165	117.39
400.389	113.99
400.613	110.39
400.837	114.79
401.062	111.59
401.286	111.79
401.51	112.99
401.734	111.79
401.958	122.19
402.182	123.39
402.406	115.59
402.63	109.19
402.854	109.39
403.078	108.79
403.302	109.59
403.526	110.39
403.75	108.59
403.974	109.99
404.198	110.59
404.422	118.39
404.645	120.99
404.869	127.99
405.093	137.99
405.317	148.59
405.541	200.19
405.765	260.19
405.988	290.79
406.212	218.39
406.436	187.79
406.66	157.59
406.883	136.99
407.107	140.39
407.331	129.39
407.555	127.39
407.778	120.19
408.002	119.79
408.226	121.19
408.449	116.59
408.673	121.79
408.896	110.79
409.12	116.59
409.344	108.59
409.567	119.39
409.791	109.99
410.014	112.19
410.238	113.79
410.461	116.39
410.685	110.39
410.908	112.39
411.132	117.59
411.355	110.59
411.578	108.39
411.802	109.59
412.025	114.79
412.249	110.79
412.472	106.99
412.695	109.19
412.919	108.99
413.142	109.79
413.365	114.19
413.589	109.79
413.812	106.59
414.035	109.59
414.258	103.99
414.482	109.19
414.705	108.39
414.928	107.39
415.151	105.19
415.374	106.99
415.597	100.59
415.821	105.19
416.044	107.39
416.267	106.19
416.49	111.59
416.713	112.79
416.936	110.99
417.159	103.19
417.382	107.39
417.605	110.59
417.828	112.59
418.051	101.79
418.274	110.19
418.497	114.39
418.72	106.39
418.943	112.99
419.166	114.79
419.389	116.79
419.611	108.99
419.834	111.39
420.057	111.59
420.28	106.99
420.503	104.99
420.726	107.79
420.948	113.79
421.171	113.19
421.394	109.59
421.617	105.59
421.839	111.39
422.062	112.79
422.285	116.99
422.507	113.59
422.73	114.39
422.953	120.39
423.175	126.39
423.398	120.59
423.621	127.99
423.843	134.19
424.066	134.59
424.288	150.99
424.511	165.99
424.733	166.99
424.956	162.79
425.178	154.99
425.401	138.79
425.623	131.39
425.846	126.79
426.068	126.99
426.291	133.19
426.513	124.99
426.735	121.19
426.958	117.79
427.18	120.19
427.402	124.99
427.625	121.99
427.847	113.79
428.069	123.19
428.292	112.19
428.514	117.19
428.736	112.39
428.958	106.79
429.181	114.99
429.403	110.59
429.625	106.19
429.847	115.79
430.069	110.79
430.292	114.19
430.514	108.79
430.736	104.79
430.958	108.99
431.18	116.19
431.402	106.79
431.624	114.79
431.846	112.99
432.068	105.59
432.29	112.59
432.512	109.59
432.734	108.79
432.956	113.59
433.178	115.99
433.4	114.39
433.622	111.99
433.844	111.39
434.066	119.39
434.287	121.39
434.509	112.39
434.731	107.79
434.953	111.99
435.175	111.59
435.397	116.99
435.618	108.99
435.84	119.19
436.062	112.39
436.284	112.19
436.505	118.79
436.727	115.99
436.949	121.39
437.17	117.19
437.392	122.59
437.614	113.79
437.835	126.79
438.057	121.39
438.278	124.59
438.5	142.59
438.721	157.19
438.943	159.99
439.165	160.19
439.386	144.19
439.608	144.59
439.829	141.79
440.05	131.59
440.272	135.19
440.493	138.99
440.715	135.99
440.936	133.79
441.158	143.79
441.379	135.99
441.6	129.59
441.822	125.99
442.043	125.99
442.264	121.39
442.486	119.19
442.707	116.19
442.928	114.99
443.149	126.19
443.371	110.79
443.592	111.19
443.813	119.99
444.034	116.79
444.255	119.99
444.476	119.99
444.698	115.59
444.919	122.79
445.14	189.79
445.361	156.99
445.582	118.39
445.803	114.39
446.024	118.39
446.245	116.59
446.466	120.39
446.687	117.99
446.908	113.79
447.129	118.59
447.35	109.39
447.571	114.59
447.792	115.99
448.013	112.99
448.234	111.39
448.455	113.59
448.675	111.99
448.896	110.19
449.117	108.79
449.338	112.59
449.559	108.59
449.779	111.79
450	116.19
450.221	107.99
450.442	110.79
450.662	112.59
450.883	111.59
451.104	116.79
451.324	109.59
451.545	111.79
451.766	111.19
451.986	115.19
452.207	108.99
452.428	117.19
452.648	109.39
452.869	107.59
453.089	105.99
453.31	105.99
453.53	104.59
453.751	113.99
453.971	111.79
454.192	102.79
454.412	96.99
454.633	106.19
454.853	111.39
455.073	104.59
455.294	104.59
455.514	105.19
455.734	104.19
455.955	109.99
456.175	103.79
456.395	108.79
456.616	106.19
456.836	103.19
457.056	108.99
457.276	104.99
457.497	109.19
457.717	103.59
457.937	112.79
458.157	98.39
458.377	104.19
458.598	98.59
458.818	105.19
459.038	101.79
459.258	104.19
459.478	100.79
459.698	108.59
459.918	103.79
460.138	101.79
460.358	106.59
460.578	116.59
460.798	108.79
461.018	108.59
461.238	114.79
461.458	112.19
461.678	112.19
461.898	114.39
462.118	112.19
462.338	110.99
462.558	108.39
462.777	110.59
462.997	110.19
463.217	108.19
463.437	108.99
463.657	113.19
463.876	114.99
464.096	117.79
464.316	107.59
464.536	111.39
464.755	110.79
464.975	113.99
465.195	107.19
465.414	111.99
465.634	105.19
465.854	105.79
466.073	108.59
466.293	105.39
466.512	110.19
466.732	108.19
466.951	107.19
467.171	104.59
467.391	106.99
467.61	111.19
467.829	109.59
468.049	106.59
468.268	107.19
468.488	108.59
468.707	107.19
468.927	105.59
469.146	105.39
469.365	107.59
469.585	116.59
469.804	110.99
470.023	105.99
470.243	109.59
470.462	106.79
470.681	112.99
470.901	111.19
471.12	100.79
471.339	107.59
471.558	118.99
471.777	112.59
471.997	112.59
472.216	110.99
472.435	104.39
472.654	103.99
472.873	108.79
473.092	107.19
473.311	112.79
473.53	109.99
473.749	108.59
473.968	112.79
474.187	109.79
474.406	111.59
474.625	107.59
474.844	109.39
475.063	106.39
475.282	107.39
475.501	99.79
475.72	111.59
475.939	112.99
476.158	104.59
476.377	108.39
476.596	112.59
476.814	113.39
477.033	111.19
477.252	106.39
477.471	108.79
477.69	107.79
477.908	117.99
478.127	122.99
478.346	115.99
478.564	113.79
478.783	118.39
479.002	117.59
479.22	114.59
479.439	116.99
479.658	114.99
479.876	109.59
480.095	111.59
480.313	118.59
480.532	114.59
480.751	109.79
480.969	114.59
481.188	111.79
481.406	117.19
481.624	112.79
481.843	116.39
482.061	118.79
482.28	111.99
482.498	110.39
482.717	111.79
482.935	107.59
483.153	114.99
483.372	110.19
483.59	121.79
483.808	114.99
484.027	108.79
484.245	111.59
484.463	119.19
484.681	117.79
484.9	113.79
485.118	112.99
485.336	118.39
485.554	109.19
485.772	108.19
485.99	114.79
486.209	113.59
486.427	114.59
486.645	109.59
486.863	117.79
487.081	114.39
487.299	109.39
487.517	117.59
487.735	121.39
487.953	117.39
488.171	116.79
488.389	121.79
488.607	112.19
488.825	111.59
489.043	113.79
489.261	109.79
489.479	125.59
489.696	117.39
489.914	118.59
490.132	118.19
490.35	118.99
490.568	112.39
490.786	113.59
491.003	115.79
491.221	117.59
491.439	120.59
491.657	115.79
491.874	120.39
492.092	118.59
492.31	123.19
492.527	127.19
492.745	122.99
492.963	120.39
493.18	127.59
493.398	122.79
493.615	124.39
493.833	117.39
494.05	116.99
494.268	121.99
494.485	123.59
494.703	125.39
494.92	123.79
495.138	116.39
495.355	123.59
495.573	123.39
495.79	119.79
496.008	122.79
496.225	120.99
496.442	122.79
496.66	127.79
496.877	119.59
497.094	120.19
497.312	125.39
497.529	122.99
497.746	118.59
497.963	123.59
498.181	122.39
498.398	123.39
498.615	122.59
498.832	127.99
499.049	121.59
499.267	126.39
499.484	127.39
499.701	133.19
499.918	136.99
500.135	133.79
500.352	138.59
500.569	152.99
500.786	165.39
501.003	144.99
501.22	139.79
501.437	144.19
501.654	136.79
501.871	127.99
502.088	133.39
502.305	127.39
502.522	123.19
502.739	131.99
502.956	130.19
503.172	121.59
503.389	127.99
503.606	123.59
503.823	121.19
504.04	128.19
504.256	135.99
504.473	133.59
504.69	135.99
504.907	133.19
505.123	131.59
505.34	125.39
505.557	126.79
505.773	126.59
505.99	119.99
506.207	124.39
506.423	117.59
506.64	118.79
506.856	121.39
507.073	117.99
507.289	123.19
507.506	115.99
507.722	112.39
507.939	115.99
