Data from ZeroMicroDelayPb_HRD10591_00003.txt Node
Date: Mon Nov 24 14:23:32 EST 2025
User: Yrep
Spectrometer: HR+D1059
Trigger mode: 0
Integration Time (sec): 1.000000E-1
Scans to average: 5
Electric dark correction enabled: true
Nonlinearity correction enabled: false
Boxcar width: 0
XAxis mode: Wavelengths
Number of Pixels in Spectrum: 2048
>>>>>Begin Spectral Data<<<<<
223.165	-14.07
223.4	-14.07
223.635	-14.07
223.869	-20.67
224.104	-23.07
224.338	-17.47
224.573	-11.27
224.808	-13.87
225.042	-3.07
225.277	-4.67
225.511	-3.07
225.746	0.53
225.98	8.53
226.215	14.13
226.449	15.73
226.683	15.93
226.918	28.53
227.152	27.93
227.387	31.13
227.621	32.53
227.856	37.73
228.09	43.93
228.324	51.33
228.559	54.93
228.793	57.33
229.027	64.33
229.262	65.33
229.496	66.53
229.73	67.93
229.964	74.93
230.199	67.93
230.433	75.13
230.667	78.73
230.901	79.33
231.136	73.13
231.37	83.73
231.604	75.73
231.838	79.13
232.072	77.93
232.306	78.93
232.541	75.73
232.775	80.33
233.009	85.33
233.243	77.93
233.477	83.73
233.711	76.13
233.945	86.53
234.179	79.33
234.413	75.33
234.647	78.33
234.881	81.53
235.115	78.93
235.349	76.93
235.583	79.33
235.817	86.73
236.051	88.13
236.285	77.13
236.519	75.73
236.753	81.93
236.987	77.73
237.221	82.13
237.455	82.33
237.689	78.93
237.922	73.13
238.156	70.13
238.39	72.33
238.624	79.33
238.858	78.73
239.091	77.73
239.325	80.93
239.559	80.73
239.793	83.53
240.027	84.33
240.26	80.93
240.494	81.93
240.728	82.53
240.961	76.73
241.195	69.33
241.429	78.33
241.662	72.53
241.896	83.33
242.13	74.13
242.363	73.33
242.597	78.93
242.83	80.33
243.064	77.53
243.298	78.33
243.531	79.93
243.765	80.13
243.998	78.53
244.232	81.13
244.465	81.53
244.699	81.73
244.932	79.53
245.166	80.53
245.399	76.93
245.633	79.53
245.866	77.73
246.099	81.13
246.333	80.73
246.566	85.73
246.8	79.73
247.033	78.33
247.266	83.73
247.5	83.33
247.733	83.33
247.966	81.93
248.2	82.13
248.433	82.93
248.666	79.73
248.899	76.53
249.133	78.33
249.366	83.53
249.599	77.73
249.832	78.53
250.066	86.53
250.299	85.33
250.532	80.13
250.765	83.73
250.998	75.73
251.231	82.73
251.465	83.73
251.698	78.73
251.931	82.13
252.164	80.53
252.397	84.93
252.63	86.33
252.863	89.73
253.096	80.93
253.329	87.93
253.562	95.73
253.795	93.73
254.028	87.53
254.261	83.73
254.494	87.73
254.727	89.73
254.96	85.73
255.193	82.93
255.426	85.33
255.659	85.13
255.892	96.93
256.124	87.73
256.357	84.13
256.59	92.33
256.823	86.53
257.056	90.13
257.289	88.33
257.521	84.93
257.754	88.73
257.987	94.93
258.22	94.93
258.452	89.93
258.685	90.53
258.918	89.93
259.151	84.33
259.383	90.33
259.616	90.53
259.849	83.73
260.081	95.73
260.314	89.53
260.547	92.13
260.779	88.53
261.012	106.93
261.244	101.93
261.477	109.33
261.71	116.13
261.942	97.93
262.175	94.33
262.407	97.33
262.64	94.93
262.872	98.33
263.105	93.53
263.337	94.13
263.57	87.13
263.802	90.53
264.035	96.73
264.267	90.93
264.499	98.53
264.732	93.93
264.964	94.93
265.197	99.93
265.429	106.33
265.661	92.13
265.894	92.53
266.126	102.13
266.358	103.33
266.591	109.13
266.823	98.33
267.055	90.93
267.287	96.33
267.52	92.13
267.752	90.73
267.984	89.93
268.216	85.93
268.448	89.93
268.681	94.13
268.913	90.53
269.145	90.33
269.377	92.33
269.609	94.13
269.841	94.13
270.073	94.53
270.306	91.13
270.538	92.13
270.77	87.73
271.002	91.13
271.234	95.73
271.466	89.53
271.698	86.53
271.93	92.13
272.162	93.93
272.394	90.53
272.626	87.33
272.858	85.33
273.09	91.73
273.322	98.53
273.553	91.13
273.785	86.13
274.017	90.53
274.249	91.53
274.481	88.33
274.713	89.33
274.945	92.33
275.176	88.93
275.408	87.93
275.64	92.53
275.872	90.93
276.104	98.53
276.335	94.53
276.567	88.73
276.799	94.53
277.031	94.13
277.262	94.33
277.494	94.73
277.726	97.73
277.957	94.33
278.189	93.73
278.421	100.53
278.652	98.33
278.884	102.13
279.115	108.53
279.347	103.53
279.579	111.13
279.81	114.53
280.042	134.13
280.273	138.93
280.505	130.53
280.736	113.33
280.968	106.73
281.199	107.33
281.431	99.73
281.662	93.13
281.894	104.93
282.125	107.73
282.356	115.13
282.588	113.53
282.819	105.13
283.051	109.53
283.282	112.53
283.513	134.73
283.745	121.33
283.976	109.33
284.207	94.13
284.439	104.73
284.67	100.93
284.901	93.33
285.132	93.53
285.364	100.13
285.595	101.33
285.826	89.53
286.057	91.13
286.288	90.73
286.52	100.33
286.751	100.73
286.982	111.93
287.213	112.73
287.444	125.33
287.675	111.93
287.906	104.73
288.138	97.93
288.369	94.73
288.6	100.53
288.831	96.53
289.062	95.53
289.293	92.93
289.524	91.33
289.755	94.93
289.986	97.53
290.217	93.33
290.448	89.93
290.679	93.13
290.91	95.73
291.141	92.33
291.371	93.33
291.602	87.93
291.833	92.33
292.064	93.33
292.295	89.33
292.526	96.33
292.757	89.73
292.987	91.53
293.218	96.93
293.449	96.53
293.68	97.93
293.91	96.33
294.141	96.93
294.372	96.53
294.603	96.73
294.833	93.73
295.064	102.73
295.295	99.33
295.525	95.73
295.756	98.93
295.987	98.53
296.217	97.73
296.448	90.73
296.679	93.13
296.909	97.13
297.14	90.73
297.37	96.53
297.601	93.33
297.831	95.33
298.062	94.73
298.292	96.93
298.523	94.53
298.753	94.73
298.984	104.73
299.214	95.93
299.445	98.33
299.675	95.53
299.905	98.13
300.136	94.73
300.366	94.93
300.597	97.93
300.827	96.53
301.057	93.33
301.288	94.33
301.518	96.13
301.748	100.53
301.979	108.93
302.209	100.33
302.439	95.53
302.669	93.93
302.9	91.53
303.13	96.73
303.36	93.73
303.59	94.73
303.82	98.33
304.051	104.13
304.281	106.13
304.511	103.73
304.741	99.33
304.971	98.73
305.201	97.13
305.431	93.93
305.661	97.13
305.891	97.53
306.121	97.53
306.352	98.93
306.582	95.73
306.812	94.33
307.042	98.13
307.272	100.13
307.502	97.73
307.731	94.53
307.961	92.93
308.191	96.53
308.421	104.33
308.651	99.33
308.881	99.53
309.111	97.73
309.341	93.53
309.571	88.53
309.8	92.93
310.03	93.33
310.26	93.93
310.49	99.93
310.72	92.93
310.949	97.73
311.179	101.93
311.409	97.53
311.639	104.53
311.868	102.13
312.098	99.13
312.328	96.73
312.557	107.53
312.787	104.13
313.017	99.73
313.246	97.53
313.476	105.93
313.706	107.93
313.935	105.33
314.165	103.13
314.394	99.93
314.624	99.93
314.853	103.13
315.083	103.13
315.312	104.73
315.542	111.33
315.771	106.53
316.001	103.73
316.23	100.73
316.46	101.73
316.689	93.13
316.919	100.93
317.148	103.73
317.377	109.53
317.607	107.53
317.836	96.13
318.065	107.13
318.295	106.73
318.524	105.13
318.753	100.53
318.983	98.93
319.212	97.13
319.441	99.13
319.67	102.73
319.9	100.53
320.129	97.93
320.358	101.93
320.587	95.53
320.816	98.33
321.046	97.73
321.275	104.53
321.504	92.93
321.733	98.33
321.962	99.13
322.191	103.53
322.42	99.13
322.649	102.53
322.878	98.53
323.108	100.73
323.337	95.93
323.566	101.33
323.795	100.93
324.024	104.93
324.253	104.93
324.482	102.13
324.71	101.93
324.939	106.73
325.168	103.93
325.397	99.13
325.626	99.73
325.855	98.73
326.084	96.73
326.313	103.93
326.542	97.73
326.77	95.53
326.999	104.53
327.228	91.93
327.457	103.33
327.686	97.13
327.914	100.53
328.143	106.53
328.372	99.33
328.6	95.53
328.829	97.73
329.058	101.13
329.287	102.13
329.515	102.33
329.744	102.73
329.972	97.53
330.201	97.93
330.43	101.33
330.658	97.13
330.887	109.53
331.115	98.73
331.344	99.73
331.572	99.53
331.801	94.33
332.03	101.73
332.258	102.53
332.486	88.13
332.715	97.93
332.943	99.53
333.172	102.73
333.4	99.93
333.629	101.53
333.857	102.33
334.085	102.93
334.314	103.33
334.542	103.73
334.771	98.53
334.999	101.13
335.227	102.33
335.455	101.73
335.684	98.53
335.912	98.53
336.14	102.33
336.369	103.93
336.597	98.33
336.825	103.73
337.053	97.93
337.281	97.93
337.51	93.73
337.738	96.13
337.966	98.73
338.194	100.73
338.422	99.73
338.65	102.33
338.878	99.93
339.106	94.93
339.334	100.93
339.562	94.13
339.79	94.73
340.018	104.13
340.246	100.33
340.474	100.13
340.702	95.33
340.93	97.73
341.158	99.53
341.386	94.13
341.614	94.93
341.842	96.53
342.07	99.13
342.298	100.93
342.526	99.13
342.754	97.53
342.981	99.93
343.209	99.93
343.437	112.33
343.665	97.13
343.893	106.33
344.12	99.73
344.348	91.33
344.576	95.13
344.804	99.53
345.031	97.53
345.259	97.13
345.487	97.73
345.714	99.73
345.942	100.33
346.17	92.73
346.397	99.93
346.625	97.53
346.853	99.13
347.08	100.33
347.308	99.33
347.535	101.13
347.763	105.33
347.99	95.33
348.218	99.33
348.445	97.73
348.673	102.53
348.9	96.33
349.128	96.93
349.355	95.33
349.583	98.13
349.81	99.93
350.037	95.93
350.265	98.13
350.492	98.33
350.72	99.53
350.947	100.13
351.174	99.33
351.402	100.13
351.629	95.73
351.856	99.13
352.083	104.13
352.311	101.33
352.538	95.13
352.765	105.93
352.992	105.93
353.22	103.33
353.447	96.53
353.674	98.53
353.901	100.33
354.128	106.93
354.355	100.33
354.583	97.93
354.81	105.73
355.037	106.13
355.264	105.93
355.491	94.33
355.718	99.13
355.945	107.93
356.172	100.53
356.399	104.73
356.626	105.13
356.853	114.73
357.08	136.73
357.307	166.33
357.534	144.33
357.761	132.73
357.988	118.33
358.215	117.93
358.441	109.33
358.668	110.13
358.895	109.93
359.122	101.73
359.349	108.13
359.576	98.93
359.802	105.13
360.029	98.73
360.256	102.73
360.483	100.73
360.709	96.93
360.936	106.93
361.163	102.73
361.39	100.73
361.616	101.93
361.843	99.13
362.07	99.33
362.296	103.13
362.523	99.73
362.749	103.93
362.976	102.13
363.203	109.53
363.429	113.93
363.656	135.93
363.882	159.73
364.109	177.33
364.335	156.73
364.562	126.13
364.788	108.73
365.015	109.73
365.241	107.93
365.468	115.33
365.694	111.33
365.92	110.33
366.147	107.13
366.373	103.13
366.599	106.93
366.826	112.33
367.052	118.93
367.278	128.93
367.505	125.33
367.731	128.73
367.957	126.73
368.184	165.33
368.41	205.53
368.636	189.53
368.862	141.53
369.089	129.73
369.315	123.13
369.541	111.73
369.767	115.53
369.993	106.33
370.219	104.53
370.445	103.13
370.672	104.33
370.898	98.93
371.124	100.93
371.35	103.53
371.576	98.13
371.802	109.53
372.028	104.73
372.254	107.73
372.48	104.93
372.706	104.53
372.932	105.93
373.158	104.33
373.384	109.33
373.61	120.53
373.835	145.53
374.061	158.53
374.287	160.13
374.513	130.33
374.739	111.13
374.965	111.93
375.191	109.53
375.416	108.33
375.642	103.13
375.868	111.33
376.094	98.33
376.319	105.13
376.545	105.13
376.771	104.73
376.997	96.93
377.222	102.13
377.448	102.53
377.674	102.93
377.899	99.93
378.125	103.33
378.35	108.13
378.576	101.73
378.802	100.73
379.027	105.53
379.253	108.33
379.478	94.93
379.704	100.33
379.929	97.73
380.155	99.13
380.38	103.73
380.606	100.13
380.831	98.13
381.057	103.13
381.282	103.93
381.507	100.93
381.733	98.13
381.958	93.53
382.184	97.33
382.409	100.53
382.634	97.93
382.86	95.93
383.085	106.93
383.31	94.93
383.535	105.73
383.761	101.33
383.986	102.73
384.211	100.53
384.436	109.73
384.662	105.13
384.887	104.53
385.112	104.53
385.337	103.33
385.562	106.93
385.787	104.73
386.013	102.53
386.238	96.73
386.463	89.73
386.688	107.93
386.913	102.93
387.138	100.73
387.363	101.93
387.588	104.93
387.813	97.33
388.038	105.93
388.263	101.73
388.488	96.93
388.713	105.53
388.938	99.13
389.163	105.73
389.387	98.13
389.612	99.53
389.837	97.33
390.062	102.73
390.287	106.53
390.512	96.93
390.736	102.53
390.961	102.33
391.186	104.93
391.411	105.73
391.636	91.33
391.86	102.13
392.085	102.93
392.31	106.53
392.534	106.13
392.759	105.93
392.984	98.53
393.208	93.93
393.433	102.73
393.658	101.73
393.882	101.13
394.107	104.13
394.331	100.93
394.556	97.93
394.78	105.13
395.005	106.53
395.229	106.33
395.454	102.13
395.678	106.53
395.903	110.13
396.127	106.93
396.352	104.13
396.576	104.33
396.801	100.93
397.025	104.73
397.249	103.33
397.474	100.33
397.698	111.93
397.922	105.53
398.147	105.13
398.371	104.13
398.595	102.33
398.82	106.33
399.044	107.33
399.268	111.93
399.492	108.53
399.717	112.93
399.941	111.33
400.165	105.73
400.389	107.93
400.613	110.33
400.837	107.13
401.062	105.53
401.286	106.93
401.51	101.13
401.734	105.73
401.958	120.13
402.182	119.33
402.406	112.73
402.63	109.73
402.854	117.73
403.078	105.33
403.302	101.93
403.526	112.53
403.75	113.13
403.974	112.73
404.198	110.73
404.422	115.93
404.645	115.33
404.869	122.33
405.093	136.73
405.317	145.13
405.541	191.13
405.765	273.13
405.988	297.33
406.212	221.53
406.436	178.73
406.66	147.93
406.883	141.53
407.107	130.53
407.331	120.93
407.555	126.13
407.778	120.13
408.002	114.93
408.226	111.73
408.449	111.73
408.673	105.53
408.896	119.13
409.12	111.53
409.344	105.93
409.567	113.13
409.791	116.13
410.014	105.53
410.238	109.73
410.461	108.13
410.685	103.73
410.908	106.33
411.132	115.53
411.355	106.73
411.578	106.93
411.802	107.93
412.025	111.73
412.249	112.53
412.472	105.93
412.695	107.13
412.919	104.73
413.142	107.13
413.365	97.13
413.589	102.93
413.812	111.93
414.035	117.73
414.258	106.53
414.482	105.53
414.705	110.73
414.928	106.53
415.151	111.53
415.374	111.13
415.597	108.13
415.821	108.53
416.044	114.33
416.267	107.33
416.49	111.73
416.713	114.73
416.936	114.73
417.159	108.13
417.382	113.53
417.605	104.53
417.828	107.73
418.051	111.53
418.274	110.53
418.497	112.73
418.72	114.73
418.943	110.13
419.166	109.33
419.389	112.13
419.611	107.33
419.834	107.53
420.057	112.33
420.28	112.93
420.503	113.33
420.726	110.93
420.948	102.93
421.171	110.53
421.394	104.93
421.617	108.73
421.839	112.53
422.062	119.93
422.285	116.13
422.507	106.93
422.73	112.73
422.953	113.53
423.175	118.93
423.398	113.33
423.621	125.93
423.843	129.33
424.066	130.93
424.288	148.73
424.511	162.33
424.733	178.53
424.956	158.33
425.178	143.93
425.401	143.33
425.623	138.13
425.846	133.73
426.068	130.53
426.291	123.13
426.513	125.53
426.735	122.33
426.958	122.33
427.18	119.93
427.402	117.33
427.625	121.73
427.847	111.93
428.069	116.33
428.292	114.73
428.514	114.73
428.736	114.13
428.958	115.53
429.181	114.73
429.403	110.53
429.625	114.53
429.847	114.53
430.069	110.13
430.292	114.13
430.514	107.93
430.736	106.13
430.958	106.33
431.18	108.13
431.402	111.53
431.624	112.73
431.846	104.73
432.068	110.73
432.29	116.93
432.512	114.13
432.734	110.33
432.956	106.33
433.178	118.33
433.4	116.93
433.622	113.13
433.844	116.93
434.066	115.73
434.287	111.73
434.509	105.73
434.731	118.53
434.953	113.73
435.175	112.73
435.397	114.73
435.618	106.73
435.84	111.53
436.062	108.53
436.284	115.93
436.505	117.13
436.727	114.93
436.949	117.33
437.17	120.33
437.392	122.53
437.614	120.13
437.835	123.33
438.057	125.73
438.278	125.13
438.5	143.13
438.721	160.33
438.943	159.73
439.165	151.73
439.386	147.53
439.608	146.93
439.829	136.33
440.05	135.93
440.272	128.73
440.493	129.93
440.715	140.93
440.936	136.53
441.158	136.93
441.379	135.53
441.6	128.93
441.822	127.53
442.043	135.33
442.264	120.93
442.486	121.53
442.707	121.93
442.928	105.73
443.149	121.13
443.371	118.53
443.592	109.93
443.813	110.93
444.034	114.53
444.255	116.93
444.476	118.33
444.698	122.53
444.919	118.73
445.14	192.13
445.361	156.13
445.582	117.33
445.803	108.33
446.024	115.93
446.245	114.53
446.466	110.93
446.687	110.33
446.908	106.93
447.129	116.13
447.35	114.53
447.571	116.73
447.792	109.53
448.013	114.53
448.234	115.53
448.455	108.93
448.675	114.93
448.896	106.73
449.117	111.53
449.338	110.33
449.559	118.33
449.779	114.53
450	108.73
450.221	111.33
450.442	107.33
450.662	108.53
450.883	108.73
451.104	109.53
451.324	106.33
451.545	108.53
451.766	112.33
451.986	108.53
452.207	101.13
452.428	103.13
452.648	112.53
452.869	107.13
453.089	101.73
453.31	96.33
453.53	107.33
453.751	100.53
453.971	105.93
454.192	108.73
454.412	102.33
454.633	100.53
454.853	101.13
455.073	104.73
455.294	106.73
455.514	110.93
455.734	106.13
455.955	106.13
456.175	102.33
456.395	103.93
456.616	101.13
456.836	109.73
457.056	103.73
457.276	103.33
457.497	107.33
457.717	104.13
457.937	107.93
458.157	99.73
458.377	101.93
458.598	105.73
458.818	103.93
459.038	103.53
459.258	105.53
459.478	106.33
459.698	105.33
459.918	102.73
460.138	101.53
460.358	113.93
460.578	105.53
460.798	107.73
461.018	106.73
461.238	104.13
461.458	105.73
461.678	106.93
461.898	106.13
462.118	110.33
462.338	107.73
462.558	106.33
462.777	111.93
462.997	113.73
463.217	109.13
463.437	108.93
463.657	112.53
463.876	109.93
464.096	112.33
464.316	108.13
464.536	111.93
464.755	110.73
464.975	108.13
465.195	110.13
465.414	108.73
465.634	106.53
465.854	108.53
466.073	108.33
466.293	111.13
466.512	105.33
466.732	108.53
466.951	110.53
467.171	106.93
467.391	110.53
467.61	109.53
467.829	108.33
468.049	108.53
468.268	105.53
468.488	104.93
468.707	105.53
468.927	110.73
469.146	105.13
469.365	99.13
469.585	107.73
469.804	106.33
470.023	102.93
470.243	111.13
470.462	113.13
470.681	111.73
470.901	101.33
471.12	102.53
471.339	105.53
471.558	108.33
471.777	106.33
471.997	108.53
472.216	104.93
472.435	110.33
472.654	104.93
472.873	108.13
473.092	108.13
473.311	110.93
473.53	103.13
473.749	112.53
473.968	114.13
474.187	110.33
474.406	105.53
474.625	110.53
474.844	110.13
475.063	108.73
475.282	100.53
475.501	106.53
475.72	105.93
475.939	106.13
476.158	108.53
476.377	110.53
476.596	109.13
476.814	97.73
477.033	104.53
477.252	104.33
477.471	111.33
477.69	108.13
477.908	112.93
478.127	112.73
478.346	111.93
478.564	108.93
478.783	117.73
479.002	116.53
479.22	113.73
479.439	115.93
479.658	117.73
479.876	117.33
480.095	111.73
480.313	108.13
480.532	117.53
480.751	115.93
480.969	108.73
481.188	114.33
481.406	109.33
481.624	110.13
481.843	106.93
482.061	110.73
482.28	110.53
482.498	116.13
482.717	111.33
482.935	106.33
483.153	111.13
483.372	110.93
483.59	107.73
483.808	107.33
484.027	105.13
484.245	108.33
484.463	114.13
484.681	113.13
484.9	110.33
485.118	117.93
485.336	111.93
485.554	109.73
485.772	113.53
485.99	113.93
486.209	113.13
486.427	109.93
486.645	108.33
486.863	103.53
487.081	111.33
487.299	109.13
487.517	110.73
487.735	121.53
487.953	121.13
488.171	120.73
488.389	113.73
488.607	117.53
488.825	114.73
489.043	111.33
489.261	118.13
489.479	113.33
489.696	118.53
489.914	113.33
490.132	122.53
490.35	115.33
490.568	116.93
490.786	114.73
491.003	109.93
491.221	118.53
491.439	112.13
491.657	117.73
491.874	126.73
492.092	117.73
492.31	126.33
492.527	122.93
492.745	119.13
492.963	124.33
493.18	121.33
493.398	122.93
493.615	117.73
493.833	121.53
494.05	116.53
494.268	113.73
494.485	123.13
494.703	119.33
494.92	123.73
495.138	114.73
495.355	121.93
495.573	127.13
495.79	118.33
496.008	121.33
496.225	124.53
496.442	122.53
496.66	125.93
496.877	123.33
497.094	122.93
497.312	127.13
497.529	124.13
497.746	113.73
497.963	121.13
498.181	114.33
498.398	118.93
498.615	115.93
498.832	116.93
499.049	118.73
499.267	123.13
499.484	125.13
499.701	129.93
499.918	136.53
500.135	133.13
500.352	140.33
500.569	151.13
500.786	168.73
501.003	144.53
501.22	132.93
501.437	138.33
501.654	134.93
501.871	128.33
502.088	130.73
502.305	129.73
502.522	129.13
502.739	122.73
502.956	124.73
503.172	125.13
503.389	124.73
503.606	128.33
503.823	123.53
504.04	126.33
504.256	124.93
504.473	130.33
504.69	134.33
504.907	133.73
505.123	125.93
505.34	126.13
505.557	127.93
505.773	124.73
505.99	122.93
506.207	119.73
506.423	118.13
506.64	118.53
506.856	125.73
507.073	119.93
507.289	121.73
507.506	120.53
507.722	119.93
507.939	119.93
508.155	119.53
508.372	115.53
508.588	116.93
