Data from ZeroMicroDelayPb_HRD10591_00005.txt Node
Date: Mon Nov 24 14:23:33 EST 2025
User: Yrep
Spectrometer: HR+D1059
Trigger mode: 0
Integration Time (sec): 1.000000E-1
Scans to average: 5
Electric dark correction enabled: true
Nonlinearity correction enabled: false
Boxcar width: 0
XAxis mode: Wavelengths
Number of Pixels in Spectrum: 2048
>>>>>Begin Spectral Data<<<<<
223.165	-13.81
223.4	-13.81
223.635	-13.81
223.869	-21.81
224.104	-18.21
224.338	-17.41
224.573	-17.41
224.808	-7.81
225.042	-5.01
225.277	-5.41
225.511	-7.21
225.746	2.99
225.98	6.19
226.215	10.59
226.449	16.19
226.683	18.79
226.918	26.79
227.152	32.59
227.387	44.99
227.621	42.79
227.856	49.39
228.09	50.39
228.324	53.99
228.559	58.59
228.793	57.19
229.027	64.79
229.262	66.59
229.496	64.39
229.73	72.99
229.964	73.79
230.199	73.99
230.433	73.99
230.667	77.59
230.901	79.39
231.136	79.39
231.37	76.99
231.604	82.39
231.838	82.79
232.072	84.79
232.306	84.59
232.541	87.39
232.775	90.99
233.009	86.79
233.243	83.19
233.477	79.99
233.711	88.19
233.945	83.19
234.179	79.39
234.413	86.99
234.647	83.59
234.881	83.79
235.115	79.99
235.349	87.19
235.583	86.99
235.817	88.59
236.051	87.59
236.285	77.99
236.519	74.59
236.753	74.19
236.987	80.99
237.221	82.19
237.455	82.19
237.689	79.99
237.922	79.39
238.156	76.79
238.39	81.59
238.624	85.39
238.858	78.39
239.091	83.19
239.325	80.39
239.559	81.99
239.793	77.39
240.027	76.39
240.26	80.79
240.494	84.99
240.728	85.19
240.961	81.59
241.195	84.59
241.429	82.19
241.662	83.19
241.896	69.59
242.13	81.39
242.363	84.99
242.597	84.59
242.83	84.39
243.064	76.59
243.298	80.19
243.531	82.59
243.765	85.99
243.998	79.59
244.232	83.39
244.465	85.19
244.699	81.19
244.932	76.39
245.166	81.99
245.399	87.59
245.633	83.79
245.866	84.79
246.099	83.99
246.333	78.59
246.566	88.19
246.8	88.79
247.033	78.39
247.266	76.19
247.5	85.79
247.733	86.59
247.966	90.39
248.2	83.99
248.433	86.39
248.666	84.39
248.899	80.99
249.133	84.59
249.366	85.99
249.599	86.99
249.832	84.39
250.066	92.99
250.299	84.99
250.532	89.79
250.765	92.59
250.998	81.19
251.231	83.79
251.465	86.39
251.698	81.99
251.931	87.59
252.164	88.19
252.397	90.79
252.63	92.59
252.863	88.99
253.096	92.19
253.329	94.59
253.562	90.59
253.795	91.99
254.028	98.99
254.261	93.99
254.494	84.59
254.727	85.99
254.96	89.79
255.193	92.79
255.426	87.79
255.659	88.79
255.892	89.99
256.124	85.79
256.357	90.59
256.59	90.79
256.823	88.19
257.056	84.59
257.289	88.59
257.521	88.99
257.754	90.79
257.987	93.79
258.22	100.19
258.452	98.59
258.685	90.19
258.918	94.39
259.151	86.59
259.383	88.99
259.616	91.59
259.849	89.39
260.081	89.39
260.314	93.39
260.547	96.39
260.779	96.19
261.012	103.59
261.244	110.39
261.477	113.79
261.71	109.79
261.942	101.99
262.175	102.19
262.407	97.99
262.64	96.39
262.872	96.19
263.105	92.79
263.337	94.99
263.57	84.79
263.802	97.19
264.035	91.79
264.267	94.39
264.499	95.19
264.732	107.19
264.964	94.79
265.197	98.59
265.429	94.59
265.661	104.19
265.894	96.59
266.126	92.79
266.358	99.99
266.591	105.59
266.823	95.59
267.055	95.99
267.287	91.99
267.52	90.39
267.752	87.99
267.984	92.19
268.216	88.39
268.448	97.19
268.681	97.39
268.913	93.39
269.145	93.39
269.377	90.59
269.609	85.59
269.841	95.39
270.073	96.19
270.306	88.79
270.538	86.79
270.77	89.59
271.002	88.59
271.234	90.19
271.466	94.59
271.698	88.59
271.93	94.99
272.162	91.59
272.394	91.39
272.626	90.19
272.858	87.99
273.09	92.99
273.322	90.19
273.553	88.79
273.785	90.19
274.017	96.79
274.249	90.99
274.481	95.19
274.713	91.99
274.945	97.19
275.176	90.19
275.408	89.59
275.64	96.19
275.872	92.79
276.104	93.79
276.335	89.79
276.567	89.99
276.799	84.59
277.031	94.99
277.262	95.79
277.494	101.59
277.726	97.19
277.957	96.39
278.189	95.79
278.421	96.19
278.652	101.39
278.884	105.39
279.115	97.19
279.347	102.79
279.579	108.59
279.81	121.39
280.042	132.59
280.273	142.79
280.505	135.79
280.736	116.99
280.968	112.79
281.199	100.59
281.431	107.79
281.662	104.39
281.894	108.39
282.125	108.39
282.356	106.99
282.588	114.39
282.819	114.79
283.051	110.39
283.282	124.79
283.513	126.59
283.745	121.39
283.976	105.99
284.207	101.19
284.439	105.19
284.67	99.39
284.901	96.79
285.132	99.59
285.364	92.79
285.595	99.19
285.826	103.39
286.057	104.39
286.288	103.99
286.52	94.19
286.751	104.19
286.982	109.99
287.213	117.79
287.444	119.99
287.675	109.99
287.906	102.79
288.138	101.39
288.369	98.19
288.6	100.79
288.831	97.79
289.062	100.99
289.293	101.79
289.524	91.19
289.755	91.59
289.986	95.39
290.217	97.79
290.448	102.59
290.679	93.99
290.91	98.19
291.141	90.59
291.371	97.59
291.602	95.59
291.833	94.19
292.064	92.39
292.295	95.39
292.526	88.59
292.757	100.39
292.987	94.79
293.218	96.79
293.449	98.39
293.68	96.59
293.91	101.19
294.141	102.99
294.372	99.59
294.603	99.79
294.833	98.19
295.064	101.79
295.295	95.79
295.525	95.99
295.756	94.19
295.987	98.99
296.217	97.39
296.448	96.19
296.679	95.59
296.909	101.59
297.14	97.19
297.37	99.19
297.601	98.99
297.831	97.39
298.062	98.39
298.292	96.19
298.523	102.39
298.753	96.99
298.984	100.79
299.214	94.39
299.445	97.99
299.675	97.59
299.905	99.99
300.136	88.79
300.366	99.99
300.597	105.39
300.827	94.59
301.057	96.19
301.288	93.99
301.518	96.79
301.748	93.99
301.979	110.59
302.209	96.59
302.439	94.99
302.669	99.39
302.9	101.39
303.13	103.99
303.36	96.19
303.59	98.39
303.82	100.19
304.051	98.59
304.281	97.59
304.511	100.19
304.741	97.59
304.971	93.99
305.201	96.19
305.431	101.39
305.661	98.59
305.891	99.99
306.121	95.99
306.352	98.79
306.582	98.59
306.812	92.79
307.042	95.39
307.272	99.59
307.502	92.79
307.731	97.39
307.961	95.59
308.191	102.19
308.421	105.59
308.651	94.39
308.881	92.59
309.111	102.59
309.341	95.59
309.571	93.99
309.8	103.59
310.03	101.39
310.26	93.79
310.49	94.19
310.72	99.19
310.949	101.19
311.179	101.59
311.409	105.59
311.639	94.79
311.868	106.19
312.098	96.79
312.328	103.59
312.557	102.59
312.787	102.19
313.017	96.79
313.246	104.59
313.476	101.99
313.706	102.99
313.935	105.79
314.165	100.19
314.394	108.59
314.624	103.19
314.853	105.99
315.083	100.59
315.312	98.79
315.542	109.39
315.771	106.59
316.001	102.19
316.23	104.19
316.46	97.39
316.689	104.39
316.919	96.79
317.148	107.39
317.377	103.59
317.607	104.59
317.836	108.39
318.065	96.19
318.295	104.39
318.524	103.39
318.753	107.99
318.983	107.79
319.212	108.59
319.441	98.99
319.67	97.99
319.9	102.19
320.129	99.59
320.358	102.99
320.587	100.99
320.816	98.39
321.046	94.19
321.275	97.39
321.504	102.39
321.733	98.59
321.962	92.19
322.191	93.39
322.42	101.59
322.649	100.79
322.878	100.99
323.108	101.19
323.337	102.19
323.566	105.99
323.795	98.99
324.024	105.99
324.253	105.79
324.482	100.59
324.71	98.39
324.939	106.99
325.168	103.39
325.397	100.59
325.626	96.99
325.855	98.39
326.084	108.79
326.313	99.99
326.542	98.99
326.77	91.59
326.999	103.39
327.228	106.19
327.457	100.19
327.686	104.19
327.914	96.79
328.143	94.59
328.372	96.79
328.6	95.59
328.829	98.79
329.058	103.59
329.287	108.19
329.515	96.99
329.744	102.79
329.972	103.59
330.201	99.59
330.43	99.39
330.658	98.59
330.887	105.19
331.115	99.99
331.344	106.19
331.572	98.99
331.801	96.19
332.03	101.99
332.258	100.19
332.486	95.99
332.715	101.19
332.943	94.39
333.172	103.19
333.4	99.59
333.629	99.19
333.857	99.39
334.085	99.79
334.314	99.99
334.542	94.79
334.771	107.19
334.999	102.79
335.227	100.59
335.455	98.79
335.684	104.59
335.912	100.99
336.14	103.39
336.369	99.39
336.597	105.39
336.825	97.59
337.053	98.59
337.281	99.39
337.51	97.99
337.738	103.39
337.966	97.79
338.194	102.59
338.422	101.59
338.65	95.59
338.878	96.99
339.106	93.99
339.334	99.79
339.562	93.99
339.79	93.19
340.018	96.39
340.246	94.99
340.474	99.59
340.702	98.19
340.93	106.79
341.158	101.99
341.386	101.59
341.614	103.59
341.842	100.99
342.07	100.59
342.298	96.19
342.526	102.19
342.754	98.39
342.981	100.39
343.209	94.39
343.437	113.59
343.665	102.99
343.893	95.99
344.12	104.59
344.348	101.39
344.576	100.79
344.804	97.59
345.031	103.79
345.259	108.39
345.487	98.59
345.714	101.39
345.942	102.39
346.17	100.39
346.397	96.79
346.625	102.79
346.853	102.99
347.08	99.19
347.308	105.99
347.535	99.99
347.763	95.79
347.99	99.79
348.218	107.99
348.445	98.99
348.673	97.19
348.9	98.19
349.128	107.59
349.355	100.59
349.583	96.59
349.81	97.59
350.037	99.79
350.265	104.99
350.492	93.79
350.72	101.79
350.947	99.59
351.174	94.59
351.402	98.19
351.629	104.79
351.856	101.19
352.083	96.99
352.311	100.59
352.538	97.19
352.765	102.59
352.992	102.79
353.22	100.99
353.447	100.19
353.674	98.99
353.901	104.99
354.128	101.19
354.355	101.79
354.583	103.99
354.81	100.19
355.037	96.39
355.264	106.99
355.491	100.59
355.718	100.79
355.945	102.39
356.172	105.59
356.399	99.99
356.626	106.79
356.853	114.19
357.08	134.39
357.307	158.19
357.534	156.19
357.761	140.19
357.988	122.99
358.215	119.19
358.441	116.79
358.668	109.19
358.895	104.19
359.122	109.39
359.349	106.99
359.576	109.39
359.802	105.19
360.029	107.59
360.256	109.59
360.483	100.39
360.709	97.99
360.936	104.79
361.163	103.19
361.39	102.59
361.616	99.79
361.843	99.39
362.07	108.39
362.296	104.79
362.523	108.59
362.749	102.99
362.976	103.99
363.203	106.99
363.429	115.79
363.656	137.79
363.882	160.79
364.109	182.39
364.335	151.79
364.562	129.19
364.788	117.39
365.015	111.19
365.241	107.79
365.468	111.79
365.694	107.59
365.92	101.79
366.147	112.59
366.373	99.79
366.599	112.39
366.826	112.59
367.052	120.99
367.278	122.39
367.505	123.79
367.731	128.99
367.957	135.19
368.184	174.39
368.41	205.79
368.636	191.19
368.862	153.99
369.089	133.59
369.315	124.59
369.541	118.39
369.767	106.39
369.993	111.19
370.219	106.39
370.445	99.99
370.672	101.59
370.898	107.19
371.124	110.99
371.35	99.99
371.576	106.79
371.802	101.99
372.028	109.59
372.254	102.99
372.48	99.99
372.706	105.59
372.932	105.59
373.158	109.79
373.384	109.99
373.61	119.19
373.835	140.99
374.061	161.79
374.287	146.99
374.513	123.99
374.739	119.19
374.965	114.99
375.191	109.19
375.416	108.19
375.642	109.19
375.868	99.99
376.094	106.99
376.319	102.39
376.545	108.19
376.771	96.59
376.997	102.39
377.222	101.99
377.448	99.79
377.674	101.99
377.899	101.19
378.125	104.79
378.35	112.59
378.576	102.79
378.802	101.59
379.027	107.99
379.253	102.19
379.478	98.59
379.704	102.39
379.929	100.79
380.155	99.39
380.38	102.79
380.606	101.99
380.831	109.59
381.057	106.99
381.282	102.59
381.507	101.99
381.733	105.19
381.958	104.39
382.184	103.99
382.409	103.79
382.634	102.79
382.86	94.59
383.085	101.79
383.31	100.99
383.535	101.79
383.761	109.19
383.986	105.39
384.211	106.99
384.436	109.19
384.662	102.99
384.887	104.99
385.112	107.39
385.337	108.79
385.562	105.79
385.787	103.99
386.013	106.79
386.238	104.99
386.463	102.19
386.688	109.39
386.913	102.59
387.138	102.79
387.363	98.19
387.588	108.59
387.813	106.79
388.038	103.99
388.263	106.59
388.488	100.39
388.713	97.39
388.938	100.79
389.163	104.19
389.387	108.39
389.612	100.19
389.837	101.19
390.062	104.99
390.287	102.99
390.512	99.79
390.736	103.59
390.961	96.39
391.186	102.79
391.411	104.59
391.636	109.39
391.86	100.39
392.085	104.19
392.31	95.19
392.534	99.99
392.759	101.79
392.984	104.79
393.208	106.19
393.433	102.79
393.658	108.99
393.882	101.59
394.107	103.59
394.331	106.79
394.556	107.39
394.78	101.99
395.005	103.59
395.229	110.99
395.454	100.79
395.678	101.19
395.903	100.39
396.127	109.19
396.352	105.39
396.576	102.99
396.801	102.79
397.025	106.99
397.249	101.59
397.474	106.19
397.698	103.59
397.922	105.79
398.147	108.19
398.371	104.99
398.595	107.79
398.82	104.39
399.044	111.19
399.268	109.59
399.492	106.19
399.717	119.99
399.941	108.99
400.165	107.59
400.389	109.79
400.613	109.59
400.837	108.59
401.062	106.59
401.286	111.19
401.51	109.59
401.734	114.99
401.958	118.59
402.182	114.79
402.406	113.39
402.63	108.59
402.854	110.99
403.078	110.79
403.302	106.99
403.526	109.79
403.75	110.99
403.974	112.99
404.198	115.59
404.422	114.19
404.645	121.99
404.869	124.99
405.093	136.39
405.317	150.59
405.541	196.99
405.765	264.99
405.988	287.99
406.212	237.19
406.436	180.79
406.66	154.79
406.883	141.79
407.107	137.99
407.331	131.39
407.555	118.59
407.778	119.59
408.002	121.79
408.226	123.39
408.449	113.39
408.673	115.99
408.896	110.79
409.12	109.19
409.344	112.59
409.567	113.59
409.791	110.59
410.014	106.99
410.238	111.19
410.461	110.99
410.685	112.19
410.908	114.19
411.132	114.59
411.355	101.79
411.578	112.79
411.802	106.19
412.025	112.59
412.249	108.19
412.472	108.99
412.695	105.39
412.919	106.39
413.142	111.79
413.365	107.39
413.589	106.79
413.812	111.19
414.035	111.19
414.258	112.79
414.482	107.39
414.705	109.59
414.928	111.19
415.151	110.39
415.374	109.39
415.597	103.99
415.821	110.19
416.044	108.79
416.267	106.79
416.49	109.39
416.713	113.39
416.936	110.99
417.159	113.59
417.382	112.99
417.605	103.79
417.828	114.99
418.051	109.19
418.274	113.19
418.497	111.19
418.72	104.59
418.943	101.79
419.166	103.59
419.389	116.39
419.611	114.99
419.834	109.59
420.057	110.59
420.28	111.19
420.503	113.79
420.726	111.19
420.948	109.79
421.171	110.19
421.394	111.39
421.617	108.79
421.839	104.59
422.062	113.59
422.285	114.19
422.507	112.99
422.73	102.59
422.953	117.79
423.175	117.19
423.398	127.99
423.621	123.79
423.843	134.59
424.066	137.19
424.288	145.79
424.511	163.79
424.733	173.59
424.956	157.79
425.178	148.59
425.401	142.39
425.623	131.19
425.846	132.19
426.068	129.79
426.291	126.79
426.513	126.19
426.735	127.79
426.958	120.79
427.18	122.19
427.402	123.79
427.625	114.79
427.847	108.39
428.069	114.99
428.292	114.39
428.514	112.39
428.736	116.79
428.958	114.59
429.181	112.59
429.403	117.79
429.625	112.59
429.847	117.59
430.069	122.39
430.292	114.59
430.514	103.19
430.736	102.99
430.958	113.59
431.18	116.59
431.402	107.59
431.624	112.99
431.846	115.99
432.068	112.39
432.29	105.79
432.512	111.59
432.734	99.99
432.956	111.99
433.178	111.39
433.4	116.19
433.622	116.19
433.844	113.79
434.066	115.19
434.287	112.39
434.509	120.79
434.731	120.39
434.953	110.99
435.175	114.19
435.397	110.99
435.618	111.99
435.84	115.19
436.062	110.99
436.284	114.19
436.505	117.19
436.727	117.39
436.949	120.59
437.17	121.19
437.392	116.19
437.614	120.79
437.835	119.59
438.057	130.59
438.278	133.19
438.5	138.99
438.721	157.59
438.943	159.59
439.165	152.39
439.386	146.99
439.608	144.99
439.829	139.59
440.05	132.19
440.272	133.19
440.493	131.79
440.715	138.39
440.936	142.79
441.158	146.39
441.379	127.99
441.6	124.99
441.822	128.79
442.043	128.39
442.264	119.59
442.486	121.79
442.707	117.59
442.928	121.19
443.149	119.59
443.371	117.19
443.592	125.99
443.813	121.99
444.034	113.79
444.255	119.99
444.476	118.19
444.698	121.39
444.919	115.79
445.14	186.79
445.361	155.19
445.582	114.79
445.803	115.39
446.024	118.19
446.245	120.59
446.466	113.59
446.687	107.99
446.908	115.39
447.129	117.99
447.35	115.59
447.571	116.79
447.792	110.79
448.013	109.99
448.234	117.79
448.455	109.99
448.675	113.39
448.896	116.39
449.117	109.59
449.338	107.59
449.559	116.39
449.779	117.99
450	112.79
450.221	110.39
450.442	113.59
450.662	108.39
450.883	110.79
451.104	111.59
451.324	102.19
451.545	111.79
451.766	111.99
451.986	106.99
452.207	109.19
452.428	106.99
452.648	106.39
452.869	111.39
453.089	104.99
453.31	102.59
453.53	104.39
453.751	109.19
453.971	103.79
454.192	102.39
454.412	107.19
454.633	106.19
454.853	106.99
455.073	108.19
455.294	105.99
455.514	112.19
455.734	109.59
455.955	98.99
456.175	104.99
456.395	104.79
456.616	108.39
456.836	106.99
457.056	104.59
457.276	107.59
457.497	104.39
457.717	108.19
457.937	105.59
458.157	108.59
458.377	107.79
458.598	104.99
458.818	101.99
459.038	102.39
459.258	105.99
459.478	103.99
459.698	106.19
459.918	107.99
460.138	105.19
460.358	113.79
460.578	106.59
460.798	113.39
461.018	110.59
461.238	111.79
461.458	108.59
461.678	111.39
461.898	104.39
462.118	103.79
462.338	111.59
462.558	113.79
462.777	107.59
462.997	111.59
463.217	115.79
463.437	114.59
463.657	111.19
463.876	108.19
464.096	108.59
464.316	108.39
464.536	115.79
464.755	105.39
464.975	106.59
465.195	114.79
465.414	107.39
465.634	110.19
465.854	106.79
466.073	104.39
466.293	112.79
466.512	104.19
466.732	103.99
466.951	110.59
467.171	108.79
467.391	106.99
467.61	107.79
467.829	109.39
468.049	112.99
468.268	106.79
468.488	106.39
468.707	110.19
468.927	111.79
469.146	114.99
469.365	108.19
469.585	109.59
469.804	106.99
470.023	112.39
470.243	107.99
470.462	106.59
470.681	115.19
470.901	106.39
471.12	104.19
471.339	108.19
471.558	104.79
471.777	109.39
471.997	111.79
472.216	110.79
472.435	106.39
472.654	105.19
472.873	111.59
473.092	109.19
473.311	101.79
473.53	107.79
473.749	110.99
473.968	115.59
474.187	100.19
474.406	108.19
474.625	107.59
474.844	104.79
475.063	109.59
475.282	109.99
475.501	108.79
475.72	114.79
475.939	108.79
476.158	113.79
476.377	114.59
476.596	102.39
476.814	105.59
477.033	110.99
477.252	114.59
477.471	105.99
477.69	116.59
477.908	113.59
478.127	113.39
478.346	115.59
478.564	114.59
478.783	117.39
479.002	116.59
479.22	116.59
479.439	118.59
479.658	110.99
479.876	122.19
480.095	116.99
480.313	110.19
480.532	119.39
480.751	115.79
480.969	113.39
481.188	106.79
481.406	112.39
481.624	117.39
481.843	108.39
482.061	109.79
482.28	108.59
482.498	113.99
482.717	106.19
482.935	114.39
483.153	117.59
483.372	116.99
483.59	113.59
483.808	114.79
484.027	116.79
484.245	118.39
484.463	111.79
484.681	119.99
484.9	111.59
485.118	114.19
485.336	114.79
485.554	113.59
485.772	104.99
485.99	108.99
486.209	112.39
486.427	104.99
486.645	105.99
486.863	108.99
487.081	114.99
487.299	117.19
487.517	113.59
487.735	114.39
487.953	114.99
488.171	117.19
488.389	117.99
488.607	115.39
488.825	116.19
489.043	112.59
489.261	116.19
489.479	118.79
489.696	123.99
489.914	116.79
490.132	115.99
490.35	121.99
490.568	114.19
490.786	115.79
491.003	113.39
491.221	116.99
491.439	121.99
491.657	117.39
491.874	124.39
492.092	126.19
492.31	127.99
492.527	121.59
492.745	119.79
492.963	124.39
493.18	120.39
493.398	116.79
493.615	120.59
493.833	118.99
494.05	124.79
494.268	120.99
494.485	116.39
494.703	122.39
494.92	121.39
495.138	123.19
495.355	123.79
495.573	118.19
495.79	124.99
496.008	122.39
496.225	121.79
496.442	116.19
496.66	118.79
496.877	115.79
497.094	121.79
497.312	121.39
497.529	128.19
497.746	123.99
497.963	121.39
498.181	129.99
498.398	129.59
498.615	122.39
498.832	121.99
499.049	121.19
499.267	131.59
499.484	131.79
499.701	137.19
499.918	129.59
500.135	130.59
500.352	137.99
500.569	153.19
500.786	164.79
501.003	151.99
501.22	143.19
501.437	145.79
501.654	132.79
501.871	134.19
502.088	132.99
502.305	129.59
502.522	128.39
502.739	130.39
502.956	131.19
503.172	123.99
503.389	125.59
503.606	125.39
503.823	122.79
504.04	124.19
504.256	130.59
504.473	130.99
504.69	130.99
504.907	130.19
505.123	129.59
505.34	129.59
505.557	129.59
505.773	128.39
505.99	124.79
506.207	128.79
506.423	125.19
506.64	122.39
506.856	118.59
507.073	123.59
507.289	113.79
507.506	122.39
507.722	111.79
507.939	117.99
