Data from ZeroMicroDelayPb_HRD10591_00015.txt Node
Date: Mon Nov 24 14:23:38 EST 2025
User: Yrep
Spectrometer: HR+D1059
Trigger mode: 0
Integration Time (sec): 1.000000E-1
Scans to average: 5
Electric dark correction enabled: true
Nonlinearity correction enabled: false
Boxcar width: 0
XAxis mode: Wavelengths
Number of Pixels in Spectrum: 2048
>>>>>Begin Spectral Data<<<<<
223.165	-17.45
223.4	-17.45
223.635	-17.45
223.869	-21.45
224.104	-18.45
224.338	-15.85
224.573	-12.85
224.808	-10.25
225.042	-10.25
225.277	-5.45
225.511	-6.05
225.746	3.95
225.98	4.75
226.215	10.95
226.449	16.35
226.683	25.35
226.918	25.75
227.152	30.95
227.387	37.75
227.621	42.95
227.856	46.55
228.09	49.75
228.324	49.95
228.559	54.75
228.793	52.95
229.027	61.35
229.262	65.15
229.496	70.55
229.73	71.55
229.964	72.95
230.199	67.95
230.433	76.15
230.667	78.95
230.901	71.95
231.136	79.35
231.37	77.55
231.604	86.95
231.838	84.35
232.072	78.55
232.306	84.95
232.541	86.35
232.775	77.75
233.009	80.35
233.243	80.95
233.477	78.35
233.711	85.15
233.945	73.55
234.179	81.15
234.413	82.75
234.647	81.55
234.881	81.35
235.115	76.35
235.349	83.75
235.583	80.75
235.817	82.75
236.051	79.75
236.285	80.15
236.519	80.35
236.753	76.75
236.987	78.15
237.221	82.95
237.455	77.35
237.689	75.55
237.922	76.95
238.156	78.35
238.39	70.75
238.624	75.15
238.858	78.35
239.091	78.95
239.325	79.55
239.559	75.75
239.793	73.95
240.027	79.55
240.26	77.55
240.494	81.55
240.728	82.35
240.961	77.15
241.195	80.15
241.429	81.35
241.662	80.35
241.896	84.95
242.13	86.35
242.363	80.55
242.597	76.15
242.83	78.35
243.064	82.55
243.298	75.35
243.531	79.15
243.765	76.55
243.998	84.55
244.232	85.75
244.465	82.55
244.699	87.35
244.932	82.35
245.166	74.35
245.399	83.55
245.633	78.95
245.866	88.55
246.099	82.55
246.333	87.15
246.566	72.55
246.8	79.35
247.033	78.35
247.266	79.15
247.5	84.55
247.733	87.15
247.966	90.75
248.2	83.75
248.433	85.95
248.666	79.95
248.899	81.35
249.133	80.55
249.366	84.95
249.599	84.55
249.832	78.75
250.066	85.55
250.299	90.75
250.532	87.35
250.765	79.95
250.998	83.75
251.231	88.75
251.465	85.95
251.698	89.35
251.931	81.55
252.164	80.15
252.397	88.95
252.63	89.75
252.863	85.75
253.096	80.35
253.329	90.55
253.562	85.15
253.795	86.95
254.028	83.75
254.261	86.75
254.494	81.95
254.727	84.35
254.96	88.95
255.193	86.75
255.426	89.35
255.659	89.95
255.892	87.95
256.124	84.35
256.357	90.75
256.59	95.75
256.823	84.95
257.056	87.15
257.289	92.15
257.521	95.35
257.754	90.75
257.987	91.35
258.22	95.95
258.452	88.15
258.685	88.75
258.918	95.75
259.151	90.55
259.383	95.35
259.616	87.75
259.849	93.95
260.081	97.75
260.314	93.55
260.547	86.75
260.779	99.15
261.012	97.55
261.244	103.35
261.477	115.95
261.71	111.35
261.942	99.35
262.175	99.95
262.407	89.55
262.64	93.35
262.872	92.35
263.105	95.15
263.337	90.15
263.57	84.75
263.802	89.95
264.035	87.55
264.267	86.35
264.499	88.75
264.732	95.95
264.964	101.35
265.197	101.15
265.429	93.15
265.661	98.35
265.894	96.75
266.126	93.55
266.358	103.35
266.591	96.35
266.823	97.35
267.055	96.55
267.287	95.75
267.52	92.75
267.752	92.35
267.984	90.55
268.216	89.95
268.448	93.55
268.681	92.55
268.913	90.15
269.145	84.15
269.377	89.75
269.609	91.35
269.841	96.35
270.073	94.15
270.306	93.95
270.538	92.15
270.77	89.15
271.002	90.55
271.234	88.95
271.466	94.95
271.698	87.35
271.93	92.15
272.162	89.75
272.394	92.75
272.626	94.75
272.858	96.75
273.09	92.55
273.322	92.55
273.553	87.55
273.785	97.75
274.017	92.15
274.249	96.95
274.481	86.15
274.713	96.55
274.945	91.35
275.176	94.95
275.408	89.15
275.64	93.35
275.872	90.15
276.104	90.55
276.335	92.75
276.567	98.15
276.799	89.55
277.031	87.55
277.262	92.95
277.494	94.75
277.726	97.55
277.957	95.15
278.189	94.35
278.421	101.55
278.652	102.55
278.884	103.55
279.115	107.75
279.347	116.55
279.579	110.95
279.81	121.75
280.042	133.95
280.273	141.55
280.505	133.55
280.736	116.35
280.968	112.35
281.199	103.35
281.431	104.15
281.662	102.15
281.894	103.95
282.125	103.35
282.356	109.55
282.588	112.35
282.819	107.95
283.051	113.15
283.282	116.95
283.513	130.35
283.745	119.75
283.976	102.55
284.207	100.75
284.439	106.15
284.67	97.35
284.901	99.35
285.132	94.35
285.364	97.55
285.595	95.95
285.826	99.75
286.057	94.95
286.288	102.35
286.52	105.55
286.751	103.35
286.982	102.35
287.213	117.35
287.444	123.15
287.675	113.75
287.906	101.35
288.138	94.95
288.369	105.75
288.6	91.75
288.831	94.75
289.062	103.35
289.293	98.95
289.524	93.15
289.755	98.75
289.986	96.55
290.217	98.15
290.448	97.35
290.679	99.55
290.91	94.35
291.141	95.15
291.371	94.95
291.602	92.75
291.833	96.35
292.064	94.55
292.295	96.95
292.526	86.55
292.757	100.75
292.987	91.55
293.218	95.95
293.449	95.75
293.68	100.55
293.91	93.55
294.141	97.95
294.372	92.95
294.603	91.15
294.833	93.15
295.064	93.35
295.295	95.35
295.525	93.95
295.756	95.35
295.987	95.75
296.217	92.95
296.448	92.95
296.679	96.95
296.909	99.55
297.14	102.15
297.37	98.75
297.601	91.15
297.831	94.95
298.062	94.95
298.292	105.95
298.523	95.35
298.753	100.75
298.984	102.55
299.214	91.15
299.445	96.55
299.675	97.55
299.905	98.95
300.136	89.35
300.366	99.75
300.597	98.75
300.827	100.35
301.057	101.75
301.288	95.95
301.518	93.35
301.748	96.55
301.979	109.55
302.209	99.75
302.439	96.35
302.669	95.95
302.9	97.75
303.13	100.35
303.36	94.75
303.59	97.75
303.82	105.75
304.051	98.75
304.281	94.55
304.511	105.95
304.741	97.75
304.971	93.35
305.201	99.75
305.431	97.75
305.661	103.55
305.891	98.35
306.121	99.95
306.352	100.15
306.582	93.15
306.812	93.75
307.042	100.95
307.272	95.95
307.502	92.55
307.731	96.35
307.961	97.35
308.191	97.95
308.421	101.95
308.651	98.35
308.881	99.35
309.111	94.35
309.341	100.75
309.571	92.95
309.8	94.15
310.03	103.35
310.26	98.55
310.49	96.75
310.72	100.95
310.949	92.55
311.179	96.95
311.409	98.15
311.639	97.55
311.868	93.95
312.098	96.35
312.328	98.55
312.557	102.55
312.787	106.35
313.017	104.35
313.246	96.75
313.476	108.95
313.706	100.35
313.935	100.95
314.165	109.55
314.394	106.95
314.624	100.75
314.853	104.35
315.083	106.15
315.312	103.35
315.542	105.95
315.771	108.75
316.001	106.35
316.23	97.15
316.46	103.95
316.689	96.35
316.919	106.55
317.148	106.35
317.377	109.55
317.607	102.55
317.836	104.75
318.065	104.55
318.295	98.35
318.524	99.35
318.753	101.15
318.983	103.55
319.212	94.55
319.441	93.15
319.67	106.35
319.9	99.75
320.129	97.15
320.358	94.15
320.587	100.55
320.816	98.55
321.046	104.55
321.275	99.75
321.504	96.55
321.733	103.35
321.962	99.55
322.191	105.95
322.42	94.55
322.649	95.55
322.878	100.15
323.108	99.15
323.337	98.75
323.566	101.55
323.795	93.55
324.024	99.35
324.253	101.15
324.482	91.75
324.71	94.95
324.939	100.75
325.168	105.95
325.397	105.55
325.626	99.55
325.855	97.35
326.084	96.75
326.313	103.15
326.542	97.95
326.77	98.55
326.999	101.35
327.228	102.95
327.457	98.15
327.686	99.55
327.914	99.35
328.143	104.75
328.372	98.75
328.6	94.95
328.829	104.75
329.058	97.95
329.287	95.75
329.515	101.95
329.744	103.55
329.972	101.35
330.201	94.75
330.43	100.95
330.658	101.75
330.887	94.55
331.115	98.75
331.344	93.75
331.572	110.95
331.801	98.75
332.03	102.35
332.258	96.55
332.486	102.15
332.715	106.55
332.943	106.15
333.172	104.35
333.4	97.55
333.629	100.75
333.857	96.55
334.085	104.75
334.314	93.75
334.542	97.75
334.771	97.35
334.999	104.75
335.227	106.35
335.455	104.15
335.684	100.15
335.912	100.35
336.14	96.15
336.369	99.15
336.597	102.75
336.825	95.35
337.053	102.55
337.281	102.15
337.51	93.95
337.738	100.55
337.966	103.95
338.194	94.75
338.422	100.55
338.65	98.15
338.878	99.95
339.106	99.15
339.334	98.95
339.562	95.15
339.79	102.95
340.018	100.55
340.246	100.55
340.474	102.15
340.702	98.35
340.93	102.35
341.158	98.75
341.386	100.75
341.614	103.55
341.842	96.55
342.07	104.15
342.298	99.55
342.526	103.35
342.754	105.15
342.981	95.75
343.209	97.95
343.437	102.75
343.665	103.55
343.893	99.75
344.12	98.75
344.348	102.95
344.576	103.95
344.804	97.75
345.031	95.95
345.259	100.15
345.487	99.95
345.714	96.15
345.942	97.15
346.17	100.15
346.397	99.95
346.625	99.75
346.853	95.75
347.08	100.15
347.308	98.15
347.535	100.15
347.763	104.15
347.99	100.95
348.218	100.95
348.445	95.55
348.673	94.35
348.9	94.35
349.128	100.35
349.355	91.55
349.583	98.95
349.81	99.35
350.037	95.75
350.265	103.35
350.492	104.75
350.72	100.75
350.947	105.55
351.174	104.95
351.402	96.55
351.629	96.75
351.856	101.55
352.083	104.35
352.311	104.75
352.538	99.35
352.765	98.95
352.992	102.35
353.22	99.15
353.447	98.15
353.674	105.15
353.901	94.55
354.128	100.15
354.355	101.75
354.583	100.75
354.81	99.95
355.037	101.75
355.264	102.95
355.491	99.75
355.718	102.15
355.945	108.35
356.172	107.15
356.399	99.55
356.626	108.55
356.853	118.55
357.08	132.55
357.307	157.15
357.534	155.35
357.761	136.95
357.988	125.35
358.215	115.15
358.441	107.95
358.668	110.75
358.895	105.15
359.122	109.75
359.349	104.95
359.576	101.75
359.802	101.95
360.029	101.55
360.256	103.55
360.483	95.75
360.709	106.15
360.936	109.55
361.163	101.95
361.39	98.15
361.616	103.15
361.843	100.15
362.07	105.15
362.296	100.15
362.523	105.15
362.749	100.15
362.976	107.55
363.203	119.55
363.429	117.95
363.656	135.55
363.882	158.95
364.109	177.35
364.335	151.55
364.562	117.75
364.788	117.15
365.015	110.95
365.241	110.15
365.468	109.95
365.694	105.35
365.92	104.15
366.147	100.55
366.373	104.55
366.599	102.35
366.826	110.15
367.052	121.35
367.278	133.15
367.505	124.95
367.731	132.15
367.957	140.15
368.184	179.15
368.41	210.75
368.636	189.15
368.862	149.75
369.089	130.35
369.315	118.15
369.541	120.35
369.767	112.15
369.993	111.75
370.219	107.15
370.445	111.35
370.672	105.15
370.898	106.95
371.124	102.35
371.35	103.75
371.576	105.55
371.802	106.35
372.028	106.95
372.254	109.95
372.48	108.15
372.706	103.95
372.932	108.55
373.158	105.75
373.384	114.95
373.61	125.15
373.835	140.55
374.061	166.75
374.287	151.75
374.513	128.55
374.739	123.15
374.965	111.75
375.191	112.55
375.416	107.15
375.642	107.95
375.868	106.35
376.094	106.95
376.319	100.15
376.545	104.35
376.771	99.75
376.997	104.55
377.222	98.75
377.448	104.15
377.674	104.75
377.899	96.55
378.125	102.75
378.35	97.35
378.576	108.15
378.802	108.75
379.027	106.95
379.253	101.35
379.478	104.35
379.704	101.15
379.929	105.95
380.155	98.95
380.38	96.35
380.606	99.95
380.831	106.15
381.057	107.55
381.282	98.75
381.507	98.75
381.733	98.35
381.958	103.95
382.184	103.75
382.409	103.75
382.634	102.95
382.86	100.15
383.085	101.15
383.31	103.75
383.535	103.35
383.761	102.15
383.986	103.15
384.211	101.75
384.436	99.95
384.662	102.35
384.887	104.15
385.112	102.15
385.337	104.95
385.562	99.15
385.787	105.35
386.013	110.75
386.238	100.75
386.463	103.35
386.688	114.95
386.913	99.75
387.138	106.95
387.363	97.75
387.588	101.55
387.813	107.15
388.038	99.35
388.263	102.75
388.488	96.95
388.713	97.15
388.938	99.35
389.163	105.35
389.387	99.55
389.612	103.35
389.837	102.15
390.062	104.55
390.287	108.15
390.512	105.95
390.736	97.55
390.961	97.35
391.186	102.35
391.411	100.95
391.636	97.75
391.86	103.75
392.085	110.35
392.31	109.15
392.534	100.75
392.759	111.35
392.984	106.15
393.208	102.75
393.433	101.55
393.658	105.75
393.882	103.55
394.107	114.95
394.331	105.15
394.556	100.35
394.78	102.55
395.005	102.15
395.229	105.75
395.454	104.75
395.678	101.35
395.903	105.55
396.127	107.75
396.352	105.75
396.576	107.95
396.801	101.35
397.025	102.55
397.249	105.75
397.474	104.55
397.698	104.55
397.922	102.55
398.147	102.35
398.371	103.75
398.595	104.55
398.82	108.95
399.044	108.75
399.268	99.95
399.492	106.95
399.717	112.55
399.941	110.15
400.165	109.55
400.389	106.15
400.613	105.75
400.837	105.95
401.062	108.55
401.286	112.95
401.51	110.35
401.734	111.95
401.958	116.15
402.182	114.95
402.406	109.75
402.63	106.75
402.854	104.75
403.078	108.55
403.302	108.95
403.526	117.35
403.75	108.95
403.974	120.15
404.198	111.95
404.422	122.75
404.645	121.75
404.869	118.15
405.093	133.15
405.317	152.35
405.541	196.35
405.765	264.75
405.988	290.15
406.212	228.75
406.436	179.95
406.66	150.15
406.883	142.55
407.107	138.95
407.331	122.15
407.555	120.95
407.778	117.75
408.002	125.95
408.226	121.75
408.449	120.95
408.673	117.75
408.896	118.35
409.12	112.55
409.344	116.55
409.567	108.15
409.791	105.75
410.014	106.95
410.238	106.75
410.461	111.95
410.685	113.15
410.908	108.95
411.132	110.35
411.355	109.75
411.578	107.95
411.802	111.75
412.025	108.75
412.249	113.35
412.472	109.75
412.695	107.15
412.919	107.55
413.142	110.15
413.365	106.75
413.589	111.55
413.812	105.75
414.035	113.35
414.258	115.15
414.482	106.95
414.705	111.35
414.928	113.15
415.151	105.95
415.374	103.95
415.597	111.35
415.821	108.95
416.044	108.55
416.267	107.15
416.49	107.75
416.713	114.55
416.936	115.95
417.159	104.95
417.382	109.15
417.605	106.15
417.828	113.95
418.051	108.95
418.274	118.55
418.497	110.35
418.72	116.75
418.943	112.35
419.166	110.95
419.389	114.35
419.611	111.75
419.834	111.35
420.057	115.55
420.28	111.15
420.503	109.15
420.726	100.35
420.948	115.55
421.171	105.95
421.394	110.15
421.617	123.15
421.839	107.95
422.062	112.55
422.285	110.75
422.507	110.95
422.73	119.55
422.953	118.35
423.175	112.75
423.398	121.95
423.621	120.75
423.843	129.35
424.066	135.15
424.288	145.15
424.511	166.75
424.733	177.95
424.956	158.95
425.178	143.55
425.401	142.95
425.623	140.55
425.846	123.15
426.068	126.95
426.291	124.55
426.513	120.15
426.735	125.95
426.958	121.75
427.18	113.95
427.402	120.75
427.625	110.35
427.847	116.95
428.069	110.75
428.292	110.35
428.514	111.35
428.736	107.55
428.958	110.35
429.181	114.55
429.403	112.15
429.625	109.15
429.847	119.55
430.069	111.55
430.292	112.15
430.514	99.55
430.736	113.35
430.958	111.15
431.18	109.95
431.402	114.55
431.624	109.75
431.846	109.35
432.068	101.35
432.29	116.95
432.512	110.35
432.734	101.75
432.956	109.75
433.178	111.75
433.4	108.15
433.622	110.55
433.844	119.75
434.066	114.75
434.287	113.95
434.509	110.95
434.731	111.15
434.953	116.35
435.175	109.15
435.397	108.75
435.618	117.15
435.84	114.35
436.062	120.15
436.284	120.75
436.505	115.75
436.727	115.35
436.949	117.15
437.17	117.75
437.392	116.75
437.614	119.95
437.835	113.95
438.057	120.75
438.278	132.55
438.5	137.55
438.721	157.55
438.943	164.55
439.165	154.75
439.386	152.95
439.608	147.35
439.829	134.55
440.05	134.35
440.272	135.95
440.493	128.95
440.715	129.75
440.936	140.15
441.158	149.75
441.379	133.55
441.6	130.75
441.822	131.55
442.043	125.95
442.264	121.15
442.486	120.35
442.707	123.35
442.928	125.15
443.149	123.95
443.371	117.95
443.592	119.35
443.813	115.35
444.034	118.55
444.255	119.95
444.476	111.15
444.698	117.95
444.919	117.55
445.14	193.95
445.361	149.75
445.582	122.75
445.803	117.55
446.024	116.35
446.245	121.95
446.466	118.95
446.687	117.35
446.908	113.95
447.129	110.35
447.35	120.35
447.571	112.75
447.792	114.35
448.013	116.95
448.234	110.75
448.455	106.95
448.675	106.75
448.896	113.95
449.117	111.95
449.338	111.55
449.559	106.75
449.779	113.55
450	112.75
450.221	110.35
450.442	110.75
450.662	108.75
450.883	113.35
451.104	110.95
451.324	102.15
451.545	106.75
451.766	111.35
451.986	105.55
452.207	109.55
452.428	109.55
452.648	101.35
452.869	111.15
453.089	107.35
453.31	107.55
453.53	101.55
453.751	107.75
453.971	105.15
454.192	102.55
454.412	104.15
454.633	100.15
454.853	108.95
455.073	97.95
455.294	104.95
455.514	104.95
455.734	100.35
455.955	108.95
456.175	107.35
456.395	110.55
456.616	105.55
456.836	104.35
457.056	107.35
457.276	90.95
457.497	100.35
457.717	101.75
457.937	103.75
458.157	105.95
458.377	101.55
458.598	108.15
458.818	99.75
459.038	106.55
459.258	101.55
459.478	106.15
459.698	103.35
459.918	107.15
460.138	103.35
460.358	103.95
460.578	109.55
460.798	111.75
461.018	108.15
461.238	109.95
461.458	108.15
461.678	103.35
461.898	107.15
462.118	109.35
462.338	109.75
462.558	113.95
462.777	108.95
462.997	111.55
463.217	107.35
463.437	118.75
463.657	114.15
463.876	109.95
464.096	103.55
464.316	100.75
464.536	107.55
464.755	114.55
464.975	111.55
465.195	110.15
465.414	111.55
465.634	103.15
465.854	111.95
466.073	114.55
466.293	109.15
466.512	104.75
466.732	105.75
466.951	106.15
467.171	103.35
467.391	106.55
467.61	103.95
467.829	110.95
468.049	115.35
468.268	106.55
468.488	102.75
468.707	99.15
468.927	110.55
469.146	109.55
469.365	113.75
469.585	111.75
469.804	107.75
470.023	104.75
470.243	109.95
470.462	110.95
470.681	106.15
470.901	111.35
471.12	113.75
471.339	106.35
471.558	107.55
471.777	109.55
471.997	108.75
472.216	102.75
472.435	104.55
472.654	101.95
472.873	106.75
473.092	109.75
473.311	105.95
473.53	103.75
473.749	107.55
473.968	117.95
474.187	107.95
474.406	106.35
474.625	111.75
474.844	113.55
475.063	108.95
475.282	103.15
475.501	109.15
475.72	114.35
475.939	109.15
476.158	103.15
476.377	100.55
476.596	103.35
476.814	106.55
477.033	108.75
477.252	109.35
477.471	107.75
477.69	110.95
477.908	116.55
478.127	112.95
478.346	109.55
478.564	110.95
478.783	114.95
479.002	128.15
479.22	114.55
479.439	112.95
479.658	118.15
479.876	111.15
480.095	111.95
480.313	111.55
480.532	110.95
480.751	115.15
480.969	117.35
481.188	110.55
481.406	109.15
481.624	111.75
481.843	112.35
482.061	110.55
482.28	118.15
482.498	115.55
482.717	112.55
482.935	127.15
483.153	110.55
483.372	108.75
483.59	113.95
483.808	122.15
484.027	116.75
484.245	111.95
484.463	111.35
484.681	115.95
484.9	113.75
485.118	114.35
485.336	111.55
485.554	113.55
485.772	114.15
485.99	115.15
486.209	120.55
486.427	114.15
486.645	116.35
486.863	112.15
487.081	112.15
487.299	113.35
487.517	113.35
487.735	114.55
487.953	117.95
488.171	117.35
488.389	120.75
488.607	114.35
488.825	115.55
489.043	116.15
489.261	113.95
489.479	124.35
489.696	116.55
489.914	115.35
490.132	113.95
490.35	115.95
490.568	116.95
490.786	116.55
491.003	122.75
491.221	115.75
491.439	116.75
491.657	120.35
491.874	124.35
492.092	123.35
492.31	122.55
492.527	121.75
492.745	113.75
492.963	121.35
493.18	117.55
493.398	115.75
493.615	118.35
493.833	115.55
494.05	124.55
494.268	112.55
494.485	122.55
494.703	122.15
494.92	118.35
495.138	110.95
495.355	125.95
495.573	122.75
495.79	121.15
496.008	119.95
496.225	122.95
496.442	118.35
496.66	119.95
496.877	120.95
497.094	122.55
497.312	122.15
497.529	120.35
497.746	120.35
497.963	126.95
498.181	119.55
498.398	120.95
498.615	126.75
498.832	126.95
499.049	123.75
499.267	126.15
499.484	126.75
499.701	137.15
499.918	131.55
500.135	136.15
500.352	139.15
500.569	150.75
500.786	168.35
501.003	146.55
501.22	139.55
501.437	140.95
501.654	128.15
501.871	129.15
502.088	132.95
502.305	124.75
502.522	127.95
502.739	128.55
502.956	124.55
503.172	127.75
503.389	132.75
503.606	119.75
503.823	120.55
504.04	129.75
504.256	132.75
504.473	136.95
504.69	135.55
504.907	131.35
505.123	126.95
505.34	123.35
505.557	115.15
505.773	122.75
505.99	122.35
506.207	118.55
506.423	118.35
506.64	125.35
506.856	118.55
507.073	118.75
507.289	118.55
507.506	118.75
507.722	115.55
507.939	115.35
508.155	112.55
508.372	120.15
