Data from ZeroMicroDelayPb_HRD10591_00009.txt Node
Date: Mon Nov 24 14:23:35 EST 2025
User: Yrep
Spectrometer: HR+D1059
Trigger mode: 0
Integration Time (sec): 1.000000E-1
Scans to average: 5
Electric dark correction enabled: true
Nonlinearity correction enabled: false
Boxcar width: 0
XAxis mode: Wavelengths
Number of Pixels in Spectrum: 2048
>>>>>Begin Spectral Data<<<<<
223.165	-18.68
223.4	-18.68
223.635	-18.68
223.869	-24.68
224.104	-22.28
224.338	-12.48
224.573	-15.68
224.808	-11.88
225.042	-8.88
225.277	-2.28
225.511	-7.88
225.746	7.32
225.98	3.72
226.215	14.92
226.449	18.92
226.683	25.32
226.918	23.72
227.152	30.72
227.387	38.12
227.621	39.52
227.856	42.52
228.09	42.52
228.324	53.32
228.559	60.72
228.793	59.32
229.027	62.12
229.262	63.72
229.496	68.12
229.73	65.12
229.964	75.92
230.199	74.92
230.433	80.32
230.667	76.72
230.901	76.72
231.136	77.72
231.37	77.92
231.604	80.72
231.838	81.92
232.072	80.32
232.306	78.72
232.541	79.12
232.775	78.52
233.009	85.92
233.243	86.12
233.477	85.52
233.711	79.72
233.945	86.32
234.179	85.12
234.413	84.72
234.647	81.92
234.881	82.12
235.115	84.92
235.349	78.12
235.583	83.72
235.817	76.12
236.051	77.52
236.285	79.72
236.519	81.12
236.753	77.12
236.987	83.12
237.221	83.52
237.455	86.92
237.689	82.12
237.922	79.52
238.156	78.52
238.39	77.52
238.624	74.52
238.858	82.12
239.091	88.32
239.325	79.52
239.559	81.92
239.793	83.52
240.027	84.32
240.26	80.12
240.494	82.92
240.728	80.92
240.961	83.52
241.195	84.12
241.429	81.12
241.662	83.12
241.896	77.52
242.13	77.92
242.363	76.32
242.597	79.92
242.83	90.52
243.064	81.92
243.298	76.72
243.531	77.52
243.765	78.92
243.998	80.12
244.232	75.52
244.465	78.52
244.699	86.32
244.932	81.12
245.166	91.92
245.399	81.12
245.633	85.32
245.866	76.12
246.099	80.12
246.333	80.32
246.566	79.52
246.8	82.52
247.033	82.92
247.266	88.52
247.5	79.92
247.733	84.92
247.966	82.72
248.2	82.52
248.433	84.52
248.666	88.72
248.899	85.72
249.133	82.72
249.366	86.32
249.599	81.52
249.832	81.72
250.066	87.72
250.299	87.12
250.532	83.52
250.765	78.92
250.998	83.32
251.231	85.52
251.465	85.72
251.698	86.92
251.931	85.52
252.164	85.12
252.397	86.52
252.63	82.72
252.863	80.32
253.096	81.52
253.329	92.12
253.562	85.92
253.795	87.72
254.028	87.12
254.261	92.52
254.494	82.32
254.727	92.32
254.96	85.92
255.193	96.12
255.426	85.52
255.659	83.92
255.892	93.32
256.124	90.92
256.357	88.32
256.59	92.92
256.823	93.52
257.056	89.12
257.289	81.32
257.521	89.32
257.754	89.72
257.987	92.52
258.22	95.72
258.452	88.92
258.685	95.72
258.918	89.72
259.151	95.32
259.383	97.32
259.616	87.12
259.849	93.52
260.081	89.12
260.314	92.92
260.547	87.32
260.779	94.72
261.012	103.12
261.244	101.72
261.477	112.12
261.71	112.52
261.942	97.12
262.175	100.12
262.407	98.32
262.64	96.32
262.872	92.32
263.105	90.72
263.337	94.92
263.57	91.32
263.802	91.72
264.035	95.32
264.267	92.12
264.499	87.52
264.732	95.92
264.964	99.32
265.197	91.52
265.429	99.92
265.661	94.92
265.894	97.12
266.126	101.32
266.358	97.32
266.591	109.92
266.823	104.32
267.055	106.72
267.287	92.72
267.52	86.52
267.752	93.32
267.984	97.72
268.216	96.12
268.448	94.52
268.681	88.92
268.913	93.32
269.145	89.72
269.377	95.72
269.609	87.52
269.841	91.72
270.073	95.32
270.306	94.32
270.538	96.32
270.77	92.52
271.002	86.12
271.234	91.32
271.466	91.92
271.698	88.92
271.93	91.52
272.162	90.32
272.394	87.52
272.626	95.72
272.858	90.72
273.09	87.52
273.322	91.52
273.553	99.92
273.785	92.32
274.017	97.72
274.249	95.12
274.481	84.72
274.713	88.92
274.945	93.12
275.176	92.32
275.408	93.72
275.64	93.52
275.872	92.52
276.104	89.92
276.335	96.72
276.567	98.92
276.799	90.72
277.031	92.92
277.262	94.52
277.494	99.12
277.726	97.12
277.957	93.72
278.189	89.92
278.421	98.72
278.652	95.72
278.884	109.92
279.115	96.92
279.347	104.92
279.579	105.92
279.81	114.72
280.042	130.12
280.273	139.72
280.505	130.52
280.736	110.32
280.968	100.32
281.199	98.72
281.431	98.32
281.662	101.92
281.894	112.52
282.125	109.72
282.356	117.12
282.588	115.52
282.819	106.72
283.051	108.92
283.282	118.32
283.513	123.72
283.745	118.32
283.976	103.92
284.207	104.52
284.439	103.92
284.67	99.72
284.901	96.52
285.132	95.32
285.364	101.92
285.595	100.32
285.826	98.12
286.057	93.32
286.288	99.72
286.52	104.72
286.751	104.52
286.982	100.52
287.213	111.32
287.444	124.12
287.675	114.72
287.906	100.12
288.138	97.32
288.369	91.72
288.6	100.92
288.831	96.72
289.062	93.72
289.293	98.92
289.524	96.52
289.755	96.72
289.986	98.12
290.217	96.52
290.448	94.32
290.679	100.92
290.91	101.12
291.141	93.12
291.371	102.32
291.602	97.12
291.833	90.12
292.064	91.32
292.295	97.12
292.526	91.32
292.757	97.72
292.987	89.72
293.218	96.32
293.449	94.32
293.68	94.32
293.91	92.72
294.141	95.12
294.372	97.92
294.603	89.32
294.833	100.12
295.064	94.32
295.295	94.92
295.525	101.52
295.756	103.52
295.987	103.12
296.217	96.52
296.448	96.72
296.679	97.32
296.909	98.52
297.14	99.32
297.37	93.92
297.601	101.52
297.831	97.12
298.062	92.52
298.292	100.92
298.523	103.52
298.753	101.32
298.984	94.52
299.214	96.32
299.445	100.92
299.675	90.72
299.905	98.92
300.136	103.72
300.366	91.72
300.597	101.72
300.827	101.32
301.057	99.52
301.288	98.32
301.518	90.72
301.748	101.32
301.979	113.92
302.209	95.72
302.439	94.72
302.669	100.52
302.9	100.52
303.13	95.52
303.36	88.72
303.59	96.92
303.82	93.12
304.051	89.32
304.281	106.12
304.511	105.92
304.741	96.92
304.971	94.32
305.201	105.52
305.431	99.72
305.661	97.72
305.891	97.52
306.121	105.32
306.352	100.72
306.582	93.72
306.812	98.92
307.042	101.12
307.272	98.92
307.502	94.12
307.731	98.12
307.961	99.12
308.191	98.12
308.421	97.32
308.651	94.92
308.881	100.72
309.111	100.12
309.341	92.12
309.571	91.72
309.8	90.92
310.03	96.12
310.26	101.12
310.49	98.92
310.72	97.52
310.949	105.32
311.179	96.32
311.409	98.72
311.639	95.52
311.868	97.32
312.098	97.32
312.328	104.32
312.557	96.52
312.787	97.72
313.017	101.12
313.246	95.72
313.476	100.72
313.706	109.32
313.935	110.12
314.165	98.52
314.394	98.92
314.624	105.32
314.853	105.92
315.083	104.12
315.312	110.92
315.542	107.52
315.771	104.32
316.001	102.12
316.23	99.52
316.46	99.72
316.689	101.92
316.919	96.72
317.148	105.72
317.377	110.12
317.607	110.32
317.836	104.12
318.065	97.72
318.295	101.92
318.524	102.32
318.753	104.92
318.983	95.12
319.212	95.72
319.441	108.52
319.67	98.32
319.9	97.52
320.129	99.32
320.358	94.12
320.587	103.92
320.816	105.32
321.046	95.72
321.275	104.72
321.504	98.72
321.733	93.92
321.962	104.52
322.191	104.32
322.42	98.92
322.649	102.12
322.878	104.12
323.108	95.32
323.337	94.72
323.566	104.12
323.795	108.52
324.024	101.12
324.253	102.32
324.482	92.52
324.71	98.52
324.939	102.52
325.168	98.12
325.397	101.52
325.626	101.32
325.855	96.52
326.084	103.92
326.313	102.72
326.542	97.52
326.77	102.92
326.999	103.12
327.228	99.12
327.457	103.12
327.686	105.92
327.914	100.32
328.143	101.32
328.372	102.72
328.6	99.52
328.829	101.12
329.058	94.12
329.287	102.72
329.515	97.12
329.744	104.92
329.972	90.12
330.201	99.52
330.43	99.92
330.658	101.52
330.887	104.92
331.115	99.92
331.344	100.92
331.572	97.72
331.801	100.92
332.03	98.72
332.258	102.12
332.486	101.92
332.715	93.92
332.943	97.92
333.172	101.52
333.4	99.72
333.629	105.32
333.857	104.52
334.085	94.12
334.314	100.32
334.542	93.92
334.771	100.72
334.999	100.52
335.227	99.32
335.455	91.92
335.684	102.32
335.912	100.92
336.14	102.92
336.369	102.52
336.597	102.12
336.825	92.92
337.053	102.32
337.281	104.72
337.51	95.92
337.738	102.72
337.966	99.12
338.194	99.72
338.422	97.32
338.65	93.52
338.878	98.52
339.106	98.72
339.334	103.32
339.562	98.72
339.79	105.32
340.018	101.92
340.246	98.92
340.474	99.12
340.702	99.32
340.93	97.52
341.158	97.32
341.386	104.72
341.614	104.12
341.842	94.32
342.07	92.52
342.298	102.72
342.526	100.72
342.754	101.52
342.981	98.52
343.209	97.72
343.437	110.52
343.665	103.32
343.893	101.72
344.12	109.32
344.348	103.92
344.576	93.92
344.804	105.72
345.031	94.72
345.259	105.72
345.487	103.72
345.714	100.32
345.942	98.92
346.17	105.72
346.397	102.72
346.625	101.92
346.853	94.52
347.08	97.92
347.308	102.72
347.535	100.92
347.763	93.72
347.99	104.92
348.218	101.72
348.445	99.52
348.673	95.32
348.9	92.92
349.128	98.92
349.355	91.72
349.583	93.32
349.81	99.52
350.037	98.72
350.265	102.12
350.492	99.52
350.72	92.32
350.947	97.72
351.174	100.92
351.402	99.52
351.629	96.92
351.856	97.72
352.083	95.72
352.311	101.92
352.538	98.52
352.765	97.72
352.992	101.72
353.22	103.12
353.447	100.52
353.674	101.92
353.901	100.52
354.128	105.12
354.355	94.12
354.583	100.92
354.81	101.32
355.037	98.52
355.264	110.92
355.491	97.12
355.718	93.92
355.945	100.12
356.172	97.92
356.399	102.92
356.626	102.72
356.853	117.52
357.08	132.52
357.307	138.12
357.534	145.12
357.761	131.72
357.988	122.52
358.215	115.32
358.441	108.32
358.668	106.52
358.895	106.12
359.122	104.32
359.349	112.32
359.576	98.92
359.802	104.52
360.029	104.92
360.256	105.92
360.483	98.92
360.709	102.12
360.936	102.92
361.163	102.72
361.39	102.32
361.616	97.72
361.843	103.12
362.07	104.32
362.296	105.92
362.523	99.52
362.749	101.12
362.976	100.92
363.203	105.12
363.429	116.32
363.656	135.32
363.882	149.72
364.109	165.92
364.335	142.32
364.562	119.32
364.788	116.12
365.015	111.72
365.241	108.92
365.468	106.12
365.694	103.32
365.92	101.92
366.147	105.12
366.373	107.32
366.599	102.52
366.826	103.92
367.052	115.72
367.278	121.92
367.505	124.92
367.731	121.72
367.957	136.92
368.184	162.52
368.41	180.12
368.636	177.52
368.862	145.72
369.089	129.52
369.315	116.92
369.541	113.92
369.767	107.92
369.993	106.92
370.219	105.32
370.445	105.52
370.672	107.72
370.898	110.92
371.124	97.12
371.35	103.52
371.576	113.12
371.802	102.92
372.028	105.72
372.254	104.72
372.48	103.12
372.706	106.12
372.932	106.72
373.158	106.72
373.384	117.52
373.61	122.12
373.835	131.12
374.061	155.32
374.287	152.32
374.513	128.72
374.739	112.92
374.965	107.92
375.191	107.12
375.416	101.32
375.642	101.12
375.868	101.32
376.094	98.92
376.319	100.92
376.545	101.92
376.771	102.92
376.997	102.52
377.222	100.72
377.448	105.12
377.674	108.52
377.899	109.32
378.125	102.92
378.35	108.52
378.576	102.92
378.802	99.72
379.027	95.32
379.253	106.12
379.478	101.52
379.704	96.32
379.929	102.12
380.155	107.32
380.38	104.32
380.606	88.52
380.831	94.52
381.057	106.12
381.282	98.52
381.507	107.52
381.733	103.32
381.958	100.12
382.184	100.12
382.409	105.32
382.634	108.72
382.86	101.92
383.085	104.72
383.31	104.12
383.535	91.92
383.761	102.52
383.986	102.12
384.211	107.32
384.436	106.12
384.662	105.12
384.887	100.12
385.112	99.72
385.337	95.52
385.562	105.92
385.787	103.92
386.013	100.92
386.238	100.92
386.463	103.92
386.688	111.52
386.913	105.52
387.138	100.52
387.363	108.52
387.588	103.92
387.813	105.72
388.038	101.52
388.263	98.52
388.488	102.12
388.713	98.72
388.938	97.32
389.163	107.52
389.387	109.92
389.612	99.12
389.837	96.72
390.062	105.32
390.287	104.32
390.512	97.72
390.736	93.12
390.961	98.72
391.186	102.32
391.411	103.32
391.636	100.12
391.86	98.52
392.085	103.72
392.31	99.92
392.534	109.52
392.759	103.72
392.984	98.32
393.208	103.32
393.433	101.32
393.658	105.12
393.882	99.92
394.107	103.12
394.331	100.32
394.556	104.72
394.78	105.32
395.005	102.92
395.229	101.72
395.454	102.32
395.678	106.32
395.903	100.72
396.127	105.12
396.352	95.92
396.576	99.32
396.801	103.52
397.025	105.32
397.249	105.72
397.474	107.72
397.698	104.72
397.922	100.52
398.147	106.52
398.371	103.32
398.595	101.32
398.82	108.92
399.044	113.72
399.268	104.32
399.492	109.32
399.717	107.92
399.941	109.32
400.165	109.12
400.389	109.92
400.613	107.72
400.837	105.52
401.062	111.12
401.286	110.32
401.51	111.12
401.734	111.32
401.958	116.12
402.182	116.32
402.406	108.32
402.63	108.12
402.854	112.52
403.078	111.72
403.302	109.12
403.526	111.12
403.75	110.12
403.974	117.52
404.198	114.72
404.422	112.92
404.645	113.92
404.869	117.52
405.093	132.12
405.317	146.32
405.541	183.52
405.765	244.72
405.988	264.32
406.212	214.72
406.436	174.92
406.66	144.52
406.883	133.92
407.107	128.12
407.331	125.52
407.555	123.52
407.778	127.32
408.002	112.32
408.226	118.72
408.449	115.32
408.673	111.72
408.896	113.12
409.12	112.52
409.344	109.52
409.567	111.12
409.791	106.72
410.014	107.32
410.238	109.92
410.461	107.92
410.685	107.32
410.908	99.92
411.132	116.12
411.355	107.72
411.578	105.52
411.802	107.32
412.025	103.72
412.249	115.52
412.472	110.32
412.695	103.32
412.919	110.52
413.142	100.52
413.365	110.32
413.589	111.32
413.812	102.32
414.035	112.92
414.258	102.52
414.482	108.72
414.705	104.12
414.928	106.72
415.151	106.52
415.374	107.32
415.597	112.72
415.821	112.32
416.044	108.32
416.267	99.92
416.49	112.72
416.713	105.32
416.936	110.32
417.159	108.92
417.382	106.72
417.605	110.32
417.828	105.72
418.051	107.52
418.274	111.72
418.497	106.32
418.72	99.72
418.943	105.72
419.166	110.92
419.389	114.52
419.611	105.92
419.834	111.92
420.057	112.52
420.28	114.72
420.503	112.12
420.726	106.72
420.948	111.72
421.171	108.12
421.394	102.52
421.617	107.92
421.839	116.12
422.062	110.92
422.285	106.32
422.507	107.52
422.73	112.92
422.953	114.52
423.175	119.92
423.398	114.32
423.621	122.72
423.843	130.52
424.066	124.32
424.288	135.32
424.511	166.52
424.733	168.12
424.956	151.32
425.178	135.32
425.401	138.92
425.623	138.52
425.846	129.52
426.068	126.32
426.291	123.52
426.513	128.52
426.735	118.92
426.958	121.12
427.18	113.52
427.402	112.72
427.625	110.92
427.847	114.52
428.069	112.52
428.292	109.92
428.514	115.52
428.736	114.12
428.958	116.52
429.181	110.72
429.403	114.12
429.625	104.12
429.847	106.12
430.069	112.12
430.292	118.12
430.514	107.92
430.736	105.12
430.958	105.32
431.18	109.72
431.402	102.12
431.624	99.32
431.846	111.72
432.068	105.12
432.29	107.72
432.512	107.12
432.734	107.12
432.956	109.52
433.178	124.92
433.4	113.92
433.622	116.32
433.844	117.32
434.066	104.32
434.287	115.92
434.509	102.52
434.731	109.52
434.953	111.52
435.175	113.92
435.397	113.32
435.618	113.72
435.84	114.32
436.062	115.92
436.284	113.72
436.505	113.12
436.727	108.72
436.949	118.12
437.17	120.32
437.392	121.72
437.614	118.72
437.835	115.72
438.057	120.32
438.278	133.72
438.5	139.32
438.721	145.12
438.943	150.32
439.165	152.92
439.386	139.32
439.608	135.32
439.829	135.32
440.05	135.32
440.272	127.72
440.493	129.32
440.715	131.72
440.936	132.52
441.158	133.32
441.379	136.92
441.6	125.12
441.822	123.72
442.043	123.72
442.264	117.52
442.486	120.52
442.707	118.12
442.928	113.12
443.149	118.92
443.371	121.72
443.592	115.52
443.813	125.72
444.034	120.72
444.255	119.12
444.476	114.52
444.698	116.52
444.919	116.92
445.14	190.32
445.361	150.72
445.582	113.32
445.803	109.52
446.024	112.92
446.245	109.12
446.466	117.32
446.687	105.52
446.908	101.32
447.129	107.72
447.35	113.52
447.571	112.92
447.792	108.12
448.013	111.12
448.234	114.32
448.455	114.72
448.675	110.12
448.896	106.52
449.117	116.72
449.338	101.32
449.559	112.72
449.779	105.92
450	111.12
450.221	111.12
450.442	104.32
450.662	114.92
450.883	104.52
451.104	107.32
451.324	109.32
451.545	100.72
451.766	115.52
451.986	110.92
452.207	108.92
452.428	115.92
452.648	112.12
452.869	107.52
453.089	104.12
453.31	104.12
453.53	111.12
453.751	104.92
453.971	105.92
454.192	103.92
454.412	102.12
454.633	108.32
454.853	103.32
455.073	106.72
455.294	100.92
455.514	109.12
455.734	102.72
455.955	105.32
456.175	96.72
456.395	101.32
456.616	108.92
456.836	103.92
457.056	104.32
457.276	100.72
457.497	100.52
457.717	105.52
457.937	98.92
458.157	104.52
458.377	104.12
458.598	96.32
458.818	97.72
459.038	97.12
459.258	113.52
459.478	104.32
459.698	98.92
459.918	104.12
460.138	102.92
460.358	104.32
460.578	105.32
460.798	103.12
461.018	107.72
461.238	107.12
461.458	110.92
461.678	102.92
461.898	107.52
462.118	102.32
462.338	108.32
462.558	107.92
462.777	106.52
462.997	109.12
463.217	101.52
463.437	111.32
463.657	108.32
463.876	113.32
464.096	111.32
464.316	102.52
464.536	108.72
464.755	111.92
464.975	109.92
465.195	103.72
465.414	102.72
465.634	107.72
465.854	102.72
466.073	104.92
466.293	103.72
466.512	103.32
466.732	107.92
466.951	100.92
467.171	104.92
467.391	109.12
467.61	105.92
467.829	106.72
468.049	104.12
468.268	104.32
468.488	101.52
468.707	110.52
468.927	106.52
469.146	107.72
469.365	104.92
469.585	103.12
469.804	103.12
470.023	113.72
470.243	110.32
470.462	115.52
470.681	112.52
470.901	108.32
471.12	109.12
471.339	110.72
471.558	105.92
471.777	107.72
471.997	111.32
472.216	100.32
472.435	105.52
472.654	103.92
472.873	104.92
473.092	104.52
473.311	109.92
473.53	106.92
473.749	107.12
473.968	107.92
474.187	109.72
474.406	106.32
474.625	107.72
474.844	105.12
475.063	110.52
475.282	104.12
475.501	104.92
475.72	107.92
475.939	106.52
476.158	103.72
476.377	110.32
476.596	100.12
476.814	110.32
477.033	111.92
477.252	104.92
477.471	109.72
477.69	112.92
477.908	111.12
478.127	115.92
478.346	114.32
478.564	107.92
478.783	116.52
479.002	112.92
479.22	113.32
479.439	113.12
479.658	104.52
479.876	113.72
480.095	109.72
480.313	112.92
480.532	111.72
480.751	113.32
480.969	107.92
481.188	103.72
481.406	109.12
481.624	108.32
481.843	104.52
482.061	111.92
482.28	115.52
482.498	109.32
482.717	111.92
482.935	105.92
483.153	108.32
483.372	111.72
483.59	107.72
483.808	103.72
484.027	112.72
484.245	110.12
484.463	110.32
484.681	115.52
484.9	110.12
485.118	117.52
485.336	105.52
485.554	109.32
485.772	109.72
485.99	107.92
486.209	109.12
486.427	99.72
486.645	107.92
486.863	114.52
487.081	114.32
487.299	115.52
487.517	111.52
487.735	117.52
487.953	120.12
488.171	118.32
488.389	116.52
488.607	108.92
488.825	110.12
489.043	107.52
489.261	115.72
489.479	109.92
489.696	115.72
489.914	111.52
490.132	115.32
490.35	112.72
490.568	109.72
490.786	122.32
491.003	120.32
491.221	113.72
491.439	119.72
491.657	117.72
491.874	119.52
492.092	116.12
492.31	125.32
492.527	109.92
492.745	110.72
492.963	115.72
493.18	111.52
493.398	115.72
493.615	121.52
493.833	123.12
494.05	117.32
494.268	119.72
494.485	113.52
494.703	119.72
494.92	109.32
495.138	119.32
495.355	114.12
495.573	129.32
495.79	127.12
496.008	124.12
496.225	122.12
496.442	120.92
496.66	116.92
496.877	119.12
497.094	125.12
497.312	122.92
497.529	119.92
497.746	116.52
497.963	115.72
498.181	119.72
498.398	118.52
498.615	123.32
498.832	120.12
499.049	122.52
499.267	125.52
499.484	127.12
499.701	128.52
499.918	137.72
500.135	136.92
500.352	135.72
500.569	141.52
500.786	162.52
501.003	141.32
501.22	134.72
501.437	131.72
501.654	130.72
501.871	128.12
502.088	126.52
502.305	123.92
502.522	128.12
502.739	124.72
502.956	127.52
503.172	126.12
503.389	120.92
503.606	120.12
503.823	121.92
504.04	130.52
504.256	131.12
504.473	122.12
504.69	126.32
504.907	127.72
505.123	131.72
505.34	124.72
505.557	125.12
505.773	125.72
505.99	122.12
506.207	121.12
506.423	111.92
506.64	115.72
506.856	117.12
507.073	119.92
507.289	113.32
507.506	112.72
507.722	114.72
507.939	118.32
508.155	114.92
508.372	116.12
