Data from ZeroMicroDelayPb_HRD10591_00011.txt Node
Date: Mon Nov 24 14:23:36 EST 2025
User: Yrep
Spectrometer: HR+D1059
Trigger mode: 0
Integration Time (sec): 1.000000E-1
Scans to average: 5
Electric dark correction enabled: true
Nonlinearity correction enabled: false
Boxcar width: 0
XAxis mode: Wavelengths
Number of Pixels in Spectrum: 2048
>>>>>Begin Spectral Data<<<<<
223.165	-7.28
223.4	-7.28
223.635	-7.28
223.869	-17.08
224.104	-21.68
224.338	-20.08
224.573	-15.88
224.808	-14.08
225.042	-10.48
225.277	-3.68
225.511	-1.68
225.746	3.52
225.98	9.32
226.215	11.32
226.449	13.32
226.683	16.52
226.918	22.92
227.152	34.92
227.387	30.32
227.621	38.52
227.856	42.72
228.09	44.12
228.324	47.72
228.559	54.72
228.793	54.32
229.027	63.92
229.262	69.52
229.496	66.92
229.73	75.12
229.964	71.32
230.199	73.92
230.433	68.72
230.667	86.12
230.901	77.32
231.136	75.32
231.37	78.32
231.604	84.32
231.838	80.52
232.072	83.92
232.306	85.92
232.541	80.32
232.775	88.32
233.009	78.12
233.243	78.32
233.477	81.52
233.711	84.12
233.945	81.12
234.179	79.52
234.413	75.32
234.647	80.52
234.881	76.52
235.115	87.52
235.349	79.92
235.583	81.72
235.817	81.32
236.051	81.32
236.285	74.52
236.519	79.32
236.753	82.92
236.987	81.12
237.221	77.52
237.455	83.72
237.689	77.32
237.922	76.52
238.156	82.92
238.39	82.92
238.624	75.32
238.858	80.92
239.091	78.52
239.325	76.92
239.559	76.72
239.793	79.32
240.027	80.32
240.26	82.92
240.494	80.52
240.728	71.92
240.961	85.32
241.195	80.52
241.429	76.12
241.662	75.32
241.896	84.32
242.13	74.52
242.363	77.92
242.597	77.12
242.83	81.92
243.064	79.32
243.298	80.32
243.531	80.32
243.765	81.92
243.998	81.92
244.232	84.72
244.465	82.92
244.699	81.52
244.932	78.12
245.166	81.72
245.399	86.32
245.633	75.52
245.866	80.32
246.099	77.72
246.333	87.92
246.566	91.72
246.8	81.12
247.033	81.92
247.266	83.32
247.5	79.72
247.733	80.52
247.966	79.52
248.2	84.52
248.433	83.72
248.666	80.72
248.899	80.32
249.133	82.52
249.366	79.32
249.599	79.12
249.832	78.52
250.066	85.12
250.299	82.32
250.532	87.52
250.765	85.52
250.998	76.12
251.231	82.12
251.465	85.12
251.698	82.52
251.931	80.72
252.164	84.52
252.397	90.32
252.63	81.52
252.863	85.92
253.096	95.52
253.329	92.52
253.562	83.72
253.795	91.32
254.028	93.72
254.261	90.92
254.494	86.92
254.727	89.52
254.96	84.92
255.193	82.52
255.426	89.72
255.659	83.12
255.892	90.52
256.124	86.72
256.357	92.12
256.59	87.12
256.823	90.32
257.056	89.52
257.289	86.72
257.521	87.52
257.754	94.92
257.987	89.12
258.22	97.32
258.452	96.52
258.685	89.32
258.918	96.52
259.151	90.52
259.383	91.72
259.616	86.72
259.849	93.12
260.081	89.52
260.314	92.12
260.547	91.52
260.779	99.12
261.012	99.72
261.244	108.72
261.477	118.32
261.71	114.12
261.942	108.92
262.175	100.52
262.407	91.92
262.64	95.72
262.872	95.72
263.105	89.92
263.337	99.12
263.57	96.32
263.802	89.92
264.035	87.52
264.267	92.92
264.499	93.72
264.732	92.52
264.964	100.52
265.197	103.72
265.429	98.92
265.661	90.72
265.894	96.12
266.126	103.72
266.358	99.12
266.591	106.72
266.823	102.32
267.055	94.72
267.287	92.52
267.52	91.92
267.752	88.92
267.984	87.12
268.216	86.72
268.448	89.72
268.681	92.32
268.913	89.32
269.145	91.72
269.377	97.52
269.609	92.32
269.841	89.72
270.073	86.92
270.306	95.12
270.538	83.92
270.77	95.12
271.002	95.72
271.234	89.32
271.466	94.52
271.698	90.12
271.93	88.12
272.162	89.72
272.394	97.32
272.626	91.12
272.858	90.52
273.09	98.32
273.322	89.52
273.553	89.92
273.785	92.72
274.017	83.52
274.249	86.52
274.481	91.12
274.713	92.52
274.945	98.52
275.176	94.32
275.408	93.72
275.64	90.72
275.872	92.92
276.104	96.32
276.335	89.32
276.567	95.52
276.799	89.12
277.031	92.12
277.262	91.92
277.494	91.52
277.726	94.32
277.957	106.12
278.189	95.72
278.421	93.92
278.652	98.12
278.884	109.32
279.115	102.12
279.347	105.52
279.579	105.52
279.81	114.52
280.042	129.92
280.273	131.32
280.505	131.12
280.736	116.72
280.968	106.92
281.199	107.32
281.431	102.72
281.662	92.32
281.894	102.12
282.125	110.52
282.356	114.32
282.588	111.72
282.819	114.32
283.051	108.12
283.282	122.72
283.513	129.72
283.745	119.92
283.976	106.12
284.207	105.72
284.439	101.52
284.67	100.92
284.901	100.12
285.132	96.32
285.364	97.12
285.595	96.92
285.826	95.52
286.057	95.72
286.288	95.52
286.52	95.92
286.751	103.92
286.982	98.32
287.213	109.12
287.444	119.32
287.675	116.92
287.906	105.52
288.138	99.72
288.369	100.52
288.6	94.92
288.831	98.72
289.062	91.72
289.293	95.72
289.524	97.72
289.755	96.72
289.986	98.72
290.217	97.52
290.448	98.32
290.679	97.52
290.91	98.72
291.141	97.92
291.371	98.12
291.602	92.32
291.833	96.92
292.064	93.72
292.295	101.32
292.526	98.72
292.757	95.72
292.987	93.12
293.218	100.12
293.449	100.72
293.68	94.52
293.91	91.92
294.141	100.52
294.372	90.12
294.603	94.72
294.833	95.52
295.064	94.12
295.295	105.52
295.525	94.12
295.756	93.52
295.987	99.12
296.217	92.92
296.448	97.12
296.679	93.32
296.909	101.92
297.14	98.52
297.37	97.12
297.601	99.92
297.831	97.92
298.062	102.52
298.292	99.12
298.523	96.32
298.753	89.52
298.984	99.32
299.214	100.92
299.445	96.32
299.675	102.72
299.905	98.32
300.136	100.92
300.366	98.32
300.597	94.52
300.827	97.52
301.057	97.12
301.288	93.72
301.518	99.52
301.748	105.12
301.979	113.12
302.209	100.32
302.439	94.52
302.669	97.72
302.9	94.12
303.13	100.72
303.36	105.52
303.59	97.52
303.82	103.32
304.051	97.72
304.281	102.52
304.511	108.72
304.741	104.52
304.971	100.32
305.201	101.12
305.431	103.92
305.661	100.52
305.891	97.92
306.121	99.12
306.352	99.92
306.582	93.12
306.812	94.52
307.042	90.72
307.272	100.52
307.502	96.12
307.731	94.12
307.961	98.92
308.191	97.72
308.421	98.92
308.651	99.32
308.881	98.12
309.111	100.72
309.341	102.12
309.571	95.32
309.8	99.52
310.03	103.52
310.26	99.52
310.49	97.92
310.72	98.52
310.949	97.92
311.179	93.52
311.409	96.72
311.639	99.72
311.868	96.72
312.098	100.12
312.328	105.72
312.557	106.92
312.787	106.32
313.017	109.92
313.246	101.72
313.476	106.52
313.706	103.92
313.935	109.52
314.165	110.52
314.394	100.72
314.624	107.72
314.853	107.32
315.083	97.72
315.312	101.12
315.542	104.52
315.771	109.92
316.001	105.12
316.23	103.72
316.46	100.32
316.689	95.52
316.919	97.52
317.148	101.52
317.377	105.72
317.607	108.92
317.836	105.32
318.065	94.72
318.295	97.72
318.524	102.72
318.753	96.52
318.983	97.32
319.212	102.32
319.441	100.32
319.67	98.92
319.9	107.92
320.129	100.92
320.358	94.52
320.587	102.72
320.816	96.92
321.046	101.92
321.275	100.12
321.504	98.52
321.733	101.52
321.962	95.92
322.191	96.72
322.42	99.52
322.649	98.72
322.878	104.72
323.108	94.92
323.337	101.32
323.566	95.32
323.795	102.12
324.024	100.72
324.253	98.32
324.482	99.72
324.71	104.12
324.939	103.92
325.168	98.52
325.397	104.92
325.626	100.92
325.855	98.52
326.084	103.92
326.313	102.52
326.542	104.72
326.77	105.92
326.999	101.12
327.228	93.92
327.457	99.92
327.686	97.72
327.914	100.72
328.143	103.92
328.372	100.92
328.6	93.72
328.829	101.72
329.058	100.32
329.287	103.92
329.515	96.32
329.744	108.52
329.972	94.72
330.201	107.12
330.43	102.52
330.658	98.72
330.887	98.92
331.115	106.92
331.344	96.52
331.572	106.32
331.801	95.52
332.03	95.72
332.258	98.32
332.486	99.52
332.715	104.72
332.943	98.32
333.172	98.92
333.4	108.92
333.629	104.92
333.857	104.32
334.085	101.72
334.314	102.52
334.542	94.52
334.771	102.92
334.999	106.92
335.227	104.52
335.455	101.52
335.684	104.12
335.912	98.32
336.14	105.72
336.369	97.12
336.597	100.52
336.825	99.32
337.053	100.12
337.281	106.12
337.51	90.92
337.738	97.12
337.966	101.32
338.194	98.72
338.422	100.72
338.65	109.32
338.878	102.32
339.106	96.32
339.334	101.92
339.562	104.12
339.79	98.32
340.018	100.32
340.246	102.92
340.474	99.92
340.702	98.72
340.93	94.52
341.158	100.72
341.386	104.12
341.614	100.32
341.842	100.72
342.07	99.52
342.298	99.52
342.526	101.32
342.754	100.52
342.981	101.52
343.209	96.72
343.437	109.72
343.665	97.52
343.893	105.52
344.12	103.92
344.348	104.32
344.576	105.72
344.804	104.12
345.031	94.52
345.259	99.92
345.487	96.72
345.714	104.72
345.942	102.72
346.17	96.32
346.397	93.92
346.625	98.52
346.853	96.92
347.08	104.32
347.308	96.52
347.535	97.92
347.763	97.92
347.99	101.92
348.218	100.32
348.445	104.92
348.673	94.92
348.9	106.32
349.128	103.12
349.355	102.72
349.583	99.92
349.81	99.12
350.037	106.92
350.265	97.92
350.492	101.92
350.72	100.92
350.947	97.72
351.174	105.12
351.402	95.32
351.629	94.72
351.856	99.92
352.083	94.92
352.311	98.92
352.538	103.12
352.765	102.72
352.992	102.12
353.22	100.32
353.447	93.52
353.674	94.52
353.901	102.92
354.128	96.32
354.355	99.52
354.583	103.52
354.81	102.92
355.037	102.72
355.264	97.72
355.491	96.12
355.718	98.52
355.945	98.72
356.172	107.52
356.399	106.32
356.626	105.92
356.853	117.52
357.08	135.52
357.307	150.92
357.534	156.72
357.761	128.12
357.988	121.32
358.215	115.12
358.441	106.92
358.668	108.12
358.895	110.92
359.122	104.72
359.349	104.32
359.576	105.12
359.802	111.92
360.029	108.12
360.256	103.32
360.483	103.12
360.709	102.52
360.936	108.32
361.163	104.52
361.39	107.52
361.616	100.72
361.843	104.12
362.07	103.32
362.296	106.92
362.523	102.72
362.749	103.52
362.976	107.92
363.203	110.72
363.429	119.32
363.656	133.12
363.882	153.32
364.109	165.12
364.335	144.92
364.562	125.52
364.788	113.12
365.015	115.92
365.241	112.72
365.468	113.72
365.694	101.12
365.92	103.12
366.147	106.32
366.373	105.72
366.599	104.92
366.826	111.32
367.052	118.12
367.278	121.92
367.505	121.32
367.731	124.52
367.957	143.32
368.184	176.72
368.41	190.92
368.636	191.52
368.862	150.12
369.089	126.32
369.315	115.92
369.541	116.32
369.767	113.32
369.993	106.92
370.219	106.32
370.445	103.52
370.672	100.92
370.898	102.52
371.124	101.92
371.35	104.72
371.576	109.72
371.802	109.72
372.028	107.72
372.254	106.12
372.48	103.12
372.706	104.12
372.932	103.92
373.158	111.92
373.384	118.52
373.61	125.12
373.835	141.32
374.061	150.72
374.287	151.52
374.513	129.92
374.739	115.52
374.965	114.12
375.191	109.32
375.416	109.32
375.642	103.32
375.868	108.12
376.094	105.72
376.319	102.52
376.545	103.32
376.771	96.72
376.997	97.52
377.222	100.72
377.448	103.32
377.674	102.72
377.899	101.72
378.125	94.12
378.35	110.12
378.576	101.32
378.802	102.52
379.027	102.72
379.253	103.92
379.478	101.92
379.704	104.92
379.929	99.92
380.155	108.72
380.38	104.72
380.606	106.32
380.831	102.12
381.057	107.12
381.282	98.52
381.507	99.92
381.733	101.72
381.958	98.32
382.184	108.52
382.409	100.32
382.634	107.52
382.86	101.92
383.085	101.92
383.31	101.12
383.535	106.52
383.761	101.12
383.986	102.72
384.211	103.52
384.436	103.72
384.662	98.32
384.887	104.12
385.112	99.32
385.337	103.32
385.562	107.52
385.787	100.12
386.013	101.72
386.238	101.32
386.463	106.52
386.688	110.52
386.913	106.52
387.138	101.12
387.363	97.12
387.588	107.12
387.813	98.72
388.038	98.92
388.263	100.72
388.488	106.12
388.713	103.12
388.938	103.92
389.163	100.72
389.387	104.52
389.612	100.32
389.837	103.12
390.062	104.32
390.287	104.72
390.512	102.92
390.736	105.72
390.961	104.12
391.186	100.12
391.411	97.72
391.636	98.72
391.86	100.12
392.085	103.52
392.31	101.12
392.534	107.72
392.759	103.52
392.984	106.72
393.208	103.52
393.433	98.32
393.658	104.92
393.882	102.12
394.107	95.12
394.331	102.52
394.556	99.52
394.78	106.32
395.005	100.72
395.229	101.12
395.454	102.52
395.678	97.72
395.903	108.12
396.127	113.72
396.352	102.52
396.576	105.52
396.801	104.52
397.025	108.32
397.249	104.12
397.474	107.32
397.698	102.12
397.922	102.12
398.147	101.72
398.371	107.12
398.595	101.32
398.82	109.52
399.044	104.92
399.268	103.92
399.492	109.12
399.717	114.72
399.941	115.12
400.165	111.92
400.389	105.72
400.613	108.52
400.837	107.52
401.062	107.32
401.286	108.32
401.51	104.92
401.734	110.32
401.958	121.72
402.182	120.72
402.406	104.32
402.63	101.72
402.854	115.52
403.078	115.12
403.302	111.32
403.526	122.72
403.75	114.72
403.974	114.72
404.198	112.72
404.422	110.12
404.645	116.72
404.869	125.52
405.093	127.92
405.317	147.32
405.541	181.52
405.765	251.72
405.988	271.72
406.212	223.72
406.436	175.32
406.66	145.52
406.883	137.32
407.107	123.52
407.331	129.32
407.555	130.92
407.778	115.32
408.002	117.12
408.226	115.92
408.449	119.52
408.673	115.32
408.896	114.32
409.12	103.72
409.344	108.52
409.567	112.72
409.791	111.72
410.014	110.92
410.238	115.12
410.461	111.92
410.685	110.32
410.908	114.52
411.132	113.12
411.355	113.92
411.578	107.72
411.802	107.72
412.025	101.92
412.249	102.92
412.472	111.12
412.695	106.32
412.919	108.32
413.142	103.12
413.365	109.92
413.589	104.32
413.812	104.92
414.035	108.32
414.258	104.92
414.482	103.92
414.705	101.92
414.928	112.32
415.151	107.32
415.374	112.72
415.597	110.32
415.821	110.92
416.044	111.12
416.267	108.52
416.49	116.52
416.713	112.12
416.936	108.92
417.159	108.32
417.382	108.32
417.605	111.32
417.828	105.92
418.051	109.12
418.274	104.52
418.497	110.52
418.72	112.92
418.943	110.52
419.166	111.52
419.389	112.52
419.611	108.32
419.834	118.52
420.057	110.12
420.28	113.12
420.503	110.72
420.726	105.32
420.948	116.52
421.171	113.72
421.394	112.52
421.617	116.52
421.839	116.72
422.062	110.52
422.285	111.92
422.507	115.52
422.73	113.92
422.953	111.12
423.175	117.72
423.398	122.12
423.621	130.32
423.843	131.92
424.066	132.12
424.288	148.32
424.511	163.92
424.733	173.12
424.956	154.12
425.178	141.92
425.401	133.92
425.623	133.52
425.846	126.52
426.068	131.12
426.291	122.92
426.513	116.72
426.735	125.92
426.958	115.52
427.18	127.12
427.402	121.12
427.625	112.92
427.847	119.92
428.069	117.12
428.292	115.12
428.514	114.32
428.736	119.52
428.958	112.12
429.181	111.92
429.403	109.92
429.625	105.72
429.847	112.72
430.069	110.72
430.292	108.52
430.514	107.12
430.736	109.72
430.958	110.12
431.18	104.92
431.402	108.92
431.624	112.12
431.846	108.72
432.068	111.32
432.29	114.12
432.512	111.72
432.734	109.32
432.956	113.32
433.178	114.32
433.4	106.92
433.622	125.32
433.844	113.52
434.066	110.92
434.287	112.12
434.509	115.92
434.731	112.72
434.953	116.52
435.175	110.72
435.397	121.32
435.618	108.92
435.84	114.92
436.062	108.52
436.284	117.12
436.505	116.52
436.727	123.92
436.949	118.52
437.17	122.92
437.392	119.72
437.614	123.32
437.835	121.92
438.057	127.92
438.278	133.32
438.5	149.72
438.721	155.12
438.943	163.92
439.165	151.92
439.386	144.32
439.608	138.52
439.829	141.32
440.05	137.72
440.272	134.92
440.493	139.72
440.715	138.52
440.936	143.12
441.158	138.32
441.379	131.12
441.6	124.12
441.822	128.72
442.043	128.12
442.264	125.12
442.486	129.32
442.707	123.72
442.928	121.52
443.149	115.72
443.371	118.92
443.592	114.92
443.813	111.52
444.034	111.72
444.255	113.52
444.476	114.72
444.698	122.12
444.919	119.32
445.14	193.92
445.361	143.72
445.582	114.32
445.803	114.92
446.024	115.72
446.245	123.32
446.466	120.52
446.687	108.92
446.908	111.72
447.129	112.52
447.35	109.72
447.571	116.72
447.792	114.52
448.013	111.52
448.234	116.72
448.455	113.12
448.675	115.72
448.896	112.32
449.117	108.92
449.338	111.32
449.559	109.92
449.779	115.72
450	109.32
450.221	109.52
450.442	113.92
450.662	110.12
450.883	108.12
451.104	110.12
451.324	105.32
451.545	109.52
451.766	112.72
451.986	107.72
452.207	103.32
452.428	110.12
452.648	111.32
452.869	106.92
453.089	104.52
453.31	106.32
453.53	109.72
453.751	106.12
453.971	99.32
454.192	101.52
454.412	102.32
454.633	102.32
454.853	102.12
455.073	107.72
455.294	111.92
455.514	107.92
455.734	103.52
455.955	111.52
456.175	101.12
456.395	103.12
456.616	101.52
456.836	99.92
457.056	100.32
457.276	102.52
457.497	101.72
457.717	105.92
457.937	105.72
458.157	102.12
458.377	103.52
458.598	99.72
458.818	100.12
459.038	100.12
459.258	104.92
459.478	111.32
459.698	99.52
459.918	107.52
460.138	106.52
460.358	110.12
460.578	106.52
460.798	104.12
461.018	107.32
461.238	103.52
461.458	106.92
461.678	102.52
461.898	110.52
462.118	108.72
462.338	111.12
462.558	106.92
462.777	108.92
462.997	112.32
463.217	108.72
463.437	113.32
463.657	114.92
463.876	109.32
464.096	111.72
464.316	116.72
464.536	113.32
464.755	114.52
464.975	110.12
465.195	101.52
465.414	109.72
465.634	100.92
465.854	98.72
466.073	100.72
466.293	99.32
466.512	109.32
466.732	111.12
466.951	109.52
467.171	113.12
467.391	112.32
467.61	106.72
467.829	102.12
468.049	103.32
468.268	109.72
468.488	104.12
468.707	102.32
468.927	106.52
469.146	115.52
469.365	110.72
469.585	102.92
469.804	110.52
470.023	105.32
470.243	115.12
470.462	110.72
470.681	108.92
470.901	103.92
471.12	108.52
471.339	116.52
471.558	115.72
471.777	113.12
471.997	100.92
472.216	111.12
472.435	104.72
472.654	108.32
472.873	103.52
473.092	110.12
473.311	112.52
473.53	106.72
473.749	109.92
473.968	106.72
474.187	105.72
474.406	110.92
474.625	113.12
474.844	111.92
475.063	110.52
475.282	103.92
475.501	105.72
475.72	104.12
475.939	104.32
476.158	107.52
476.377	105.92
476.596	103.92
476.814	107.52
477.033	109.72
477.252	114.52
477.471	105.92
477.69	109.32
477.908	115.32
478.127	113.72
478.346	115.32
478.564	112.52
478.783	117.52
479.002	121.92
479.22	116.72
479.439	119.32
479.658	114.72
479.876	113.92
480.095	114.72
480.313	120.52
480.532	112.92
480.751	112.72
480.969	104.32
481.188	108.72
481.406	114.32
481.624	107.32
481.843	105.52
482.061	114.12
482.28	114.52
482.498	111.12
482.717	107.92
482.935	119.12
483.153	111.32
483.372	112.92
483.59	115.32
483.808	107.72
484.027	112.72
484.245	106.32
484.463	116.12
484.681	120.92
484.9	115.92
485.118	112.52
485.336	113.72
485.554	104.32
485.772	108.72
485.99	115.52
486.209	112.12
486.427	115.52
486.645	111.72
486.863	108.92
487.081	114.92
487.299	108.32
487.517	113.72
487.735	119.32
487.953	118.12
488.171	117.92
488.389	115.12
488.607	114.72
488.825	114.12
489.043	119.32
489.261	125.32
489.479	112.92
489.696	111.32
489.914	107.92
490.132	110.72
490.35	113.72
490.568	117.32
490.786	114.72
491.003	114.92
491.221	109.92
491.439	119.12
491.657	114.72
491.874	125.32
492.092	121.32
492.31	133.92
492.527	127.72
492.745	114.92
492.963	120.32
493.18	121.12
493.398	118.92
493.615	111.92
493.833	120.92
494.05	116.92
494.268	113.32
494.485	115.12
494.703	116.32
494.92	119.72
495.138	115.32
495.355	125.72
495.573	127.92
495.79	118.92
496.008	121.72
496.225	112.52
496.442	121.72
496.66	117.32
496.877	119.72
497.094	126.32
497.312	123.52
497.529	116.12
497.746	120.12
497.963	117.92
498.181	119.12
498.398	121.52
498.615	119.12
498.832	121.72
499.049	124.52
499.267	129.32
499.484	129.12
499.701	136.12
499.918	142.12
500.135	135.52
500.352	140.72
500.569	150.92
500.786	159.92
501.003	144.52
501.22	139.92
501.437	140.12
501.654	126.72
501.871	132.12
502.088	131.52
502.305	120.12
502.522	122.52
502.739	129.52
502.956	130.52
503.172	125.72
503.389	121.12
503.606	125.92
503.823	121.92
504.04	124.52
504.256	132.12
504.473	132.72
504.69	132.32
504.907	129.32
505.123	121.72
505.34	127.52
505.557	124.12
505.773	122.12
505.99	119.52
506.207	121.52
506.423	122.12
506.64	119.92
506.856	114.72
507.073	122.52
507.289	117.32
507.506	116.12
507.722	111.72
507.939	113.92
