Data from ZeroMicroDelayPb_HRD10591_00013.txt Node
Date: Mon Nov 24 14:23:37 EST 2025
User: Yrep
Spectrometer: HR+D1059
Trigger mode: 0
Integration Time (sec): 1.000000E-1
Scans to average: 5
Electric dark correction enabled: true
Nonlinearity correction enabled: false
Boxcar width: 0
XAxis mode: Wavelengths
Number of Pixels in Spectrum: 2048
>>>>>Begin Spectral Data<<<<<
223.165	-13.77
223.4	-13.77
223.635	-13.77
223.869	-19.17
224.104	-15.98
224.338	-14.38
224.573	-5.77
224.808	-16.98
225.042	-10.57
225.277	-7.57
225.511	-6.57
225.746	5.02
225.98	9.43
226.215	5.23
226.449	16.83
226.683	17.62
226.918	28.23
227.152	28.43
227.387	38.83
227.621	40.23
227.856	45.23
228.09	42.83
228.324	47.62
228.559	65.43
228.793	63.02
229.027	65.62
229.262	61.83
229.496	60.43
229.73	69.43
229.964	72.02
230.199	75.02
230.433	81.23
230.667	80.02
230.901	77.23
231.136	86.02
231.37	76.23
231.604	79.62
231.838	85.23
232.072	85.02
232.306	88.83
232.541	84.02
232.775	83.23
233.009	84.83
233.243	82.43
233.477	84.23
233.711	83.23
233.945	75.02
234.179	81.83
234.413	82.62
234.647	87.23
234.881	74.23
235.115	81.02
235.349	75.62
235.583	73.43
235.817	70.43
236.051	76.83
236.285	80.83
236.519	87.83
236.753	75.43
236.987	75.83
237.221	76.83
237.455	76.23
237.689	78.02
237.922	78.62
238.156	78.83
238.39	81.83
238.624	79.83
238.858	82.23
239.091	82.62
239.325	79.23
239.559	84.83
239.793	81.62
240.027	89.02
240.26	76.83
240.494	76.02
240.728	76.62
240.961	82.23
241.195	84.83
241.429	75.43
241.662	79.02
241.896	75.23
242.13	79.02
242.363	77.02
242.597	77.23
242.83	83.02
243.064	81.62
243.298	85.23
243.531	81.83
243.765	80.23
243.998	78.83
244.232	84.83
244.465	85.02
244.699	81.83
244.932	84.23
245.166	84.83
245.399	88.43
245.633	82.43
245.866	72.23
246.099	80.62
246.333	79.43
246.566	81.43
246.8	83.02
247.033	80.23
247.266	78.43
247.5	80.43
247.733	86.02
247.966	87.43
248.2	80.43
248.433	87.83
248.666	75.83
248.899	81.43
249.133	84.62
249.366	84.23
249.599	84.23
249.832	78.83
250.066	82.23
250.299	82.23
250.532	82.43
250.765	86.62
250.998	82.02
251.231	83.02
251.465	88.83
251.698	86.62
251.931	81.62
252.164	77.83
252.397	86.62
252.63	85.62
252.863	88.83
253.096	90.23
253.329	86.23
253.562	92.62
253.795	87.23
254.028	88.02
254.261	82.83
254.494	85.02
254.727	87.23
254.96	90.02
255.193	87.23
255.426	93.23
255.659	86.83
255.892	90.23
256.124	90.43
256.357	90.83
256.59	89.43
256.823	88.43
257.056	87.43
257.289	88.23
257.521	93.62
257.754	92.43
257.987	101.02
258.22	94.83
258.452	89.23
258.685	89.43
258.918	99.43
259.151	84.43
259.383	95.23
259.616	88.23
259.849	91.23
260.081	89.83
260.314	85.83
260.547	90.02
260.779	95.02
261.012	106.83
261.244	102.23
261.477	113.62
261.71	116.43
261.942	107.23
262.175	98.02
262.407	88.23
262.64	93.62
262.872	91.02
263.105	92.62
263.337	100.43
263.57	91.62
263.802	95.43
264.035	96.23
264.267	88.23
264.499	93.43
264.732	98.23
264.964	97.83
265.197	95.43
265.429	94.23
265.661	93.43
265.894	90.62
266.126	105.23
266.358	97.43
266.591	109.02
266.823	101.02
267.055	93.43
267.287	90.62
267.52	93.62
267.752	94.83
267.984	96.02
268.216	89.02
268.448	94.43
268.681	93.62
268.913	94.02
269.145	91.83
269.377	96.83
269.609	90.83
269.841	91.43
270.073	94.23
270.306	94.23
270.538	88.02
270.77	92.02
271.002	86.23
271.234	86.43
271.466	92.83
271.698	87.23
271.93	90.23
272.162	90.23
272.394	97.43
272.626	81.43
272.858	90.83
273.09	89.23
273.322	90.62
273.553	90.02
273.785	95.02
274.017	92.23
274.249	92.23
274.481	91.43
274.713	84.43
274.945	93.23
275.176	91.23
275.408	93.83
275.64	97.43
275.872	95.02
276.104	87.43
276.335	100.23
276.567	94.62
276.799	93.23
277.031	94.23
277.262	90.43
277.494	95.43
277.726	95.83
277.957	91.62
278.189	98.02
278.421	98.43
278.652	93.23
278.884	102.23
279.115	98.62
279.347	107.02
279.579	110.62
279.81	124.43
280.042	129.43
280.273	143.62
280.505	131.02
280.736	117.62
280.968	105.62
281.199	100.23
281.431	108.23
281.662	106.62
281.894	104.02
282.125	111.43
282.356	105.62
282.588	111.62
282.819	105.83
283.051	109.02
283.282	115.02
283.513	131.43
283.745	119.43
283.976	105.83
284.207	100.02
284.439	98.43
284.67	104.83
284.901	103.62
285.132	98.02
285.364	91.62
285.595	91.83
285.826	97.43
286.057	98.83
286.288	91.02
286.52	98.43
286.751	100.43
286.982	112.23
287.213	109.43
287.444	109.62
287.675	115.23
287.906	104.02
288.138	99.02
288.369	100.83
288.6	101.62
288.831	86.23
289.062	99.62
289.293	96.62
289.524	90.02
289.755	87.83
289.986	96.62
290.217	100.83
290.448	100.43
290.679	98.23
290.91	90.23
291.141	98.83
291.371	96.83
291.602	91.02
291.833	95.23
292.064	90.83
292.295	94.83
292.526	95.43
292.757	98.83
292.987	96.83
293.218	98.02
293.449	98.43
293.68	94.23
293.91	92.62
294.141	96.83
294.372	92.62
294.603	97.02
294.833	101.83
295.064	98.23
295.295	104.23
295.525	100.02
295.756	99.62
295.987	96.23
296.217	102.43
296.448	96.43
296.679	96.02
296.909	99.62
297.14	102.83
297.37	99.23
297.601	96.83
297.831	90.02
298.062	101.23
298.292	99.02
298.523	96.02
298.753	97.43
298.984	97.43
299.214	94.62
299.445	99.62
299.675	90.02
299.905	96.43
300.136	99.43
300.366	98.23
300.597	90.43
300.827	105.02
301.057	96.23
301.288	98.62
301.518	99.02
301.748	100.23
301.979	113.43
302.209	100.23
302.439	93.43
302.669	105.23
302.9	92.23
303.13	97.02
303.36	98.23
303.59	96.23
303.82	96.83
304.051	102.02
304.281	100.43
304.511	102.23
304.741	98.23
304.971	100.62
305.201	100.02
305.431	96.02
305.661	99.43
305.891	100.02
306.121	103.62
306.352	96.62
306.582	94.23
306.812	99.62
307.042	95.23
307.272	92.23
307.502	93.62
307.731	97.43
307.961	99.43
308.191	95.83
308.421	95.23
308.651	98.02
308.881	103.83
309.111	103.23
309.341	98.43
309.571	100.43
309.8	91.02
310.03	97.02
310.26	93.23
310.49	101.02
310.72	101.43
310.949	97.02
311.179	110.02
311.409	96.02
311.639	99.83
311.868	100.43
312.098	99.02
312.328	101.83
312.557	101.02
312.787	99.83
313.017	102.23
313.246	100.62
313.476	108.62
313.706	96.02
313.935	101.62
314.165	101.62
314.394	102.83
314.624	111.02
314.853	99.62
315.083	103.02
315.312	103.62
315.542	101.23
315.771	102.83
316.001	98.23
316.23	102.43
316.46	97.02
316.689	103.62
316.919	104.02
317.148	106.23
317.377	112.43
317.607	110.02
317.836	102.62
318.065	106.02
318.295	109.62
318.524	101.43
318.753	102.23
318.983	99.83
319.212	98.23
319.441	103.23
319.67	101.02
319.9	102.23
320.129	100.83
320.358	102.43
320.587	101.62
320.816	97.23
321.046	97.23
321.275	105.23
321.504	99.23
321.733	101.02
321.962	99.62
322.191	101.23
322.42	98.23
322.649	102.43
322.878	100.43
323.108	102.23
323.337	95.83
323.566	96.02
323.795	109.83
324.024	99.62
324.253	98.02
324.482	96.62
324.71	100.43
324.939	97.02
325.168	101.83
325.397	103.83
325.626	105.62
325.855	102.43
326.084	100.62
326.313	107.23
326.542	107.23
326.77	98.83
326.999	99.23
327.228	96.23
327.457	101.43
327.686	97.43
327.914	105.43
328.143	101.62
328.372	97.62
328.6	97.43
328.829	95.43
329.058	96.02
329.287	97.62
329.515	100.02
329.744	106.23
329.972	99.02
330.201	95.43
330.43	104.02
330.658	102.43
330.887	106.02
331.115	99.23
331.344	105.43
331.572	110.02
331.801	100.23
332.03	101.62
332.258	102.02
332.486	100.83
332.715	101.23
332.943	105.02
333.172	96.83
333.4	107.02
333.629	103.62
333.857	103.02
334.085	97.43
334.314	96.43
334.542	101.43
334.771	104.02
334.999	106.83
335.227	99.62
335.455	100.62
335.684	97.83
335.912	109.23
336.14	102.02
336.369	101.02
336.597	101.83
336.825	102.62
337.053	103.43
337.281	100.62
337.51	103.23
337.738	100.83
337.966	96.02
338.194	99.83
338.422	98.62
338.65	103.23
338.878	102.43
339.106	99.43
339.334	100.83
339.562	94.62
339.79	98.43
340.018	93.02
340.246	94.02
340.474	105.62
340.702	102.83
340.93	102.62
341.158	96.02
341.386	96.62
341.614	103.43
341.842	101.23
342.07	100.23
342.298	102.02
342.526	103.43
342.754	90.62
342.981	100.02
343.209	93.83
343.437	115.83
343.665	104.43
343.893	107.23
344.12	104.02
344.348	92.43
344.576	100.02
344.804	95.23
345.031	93.83
345.259	98.43
345.487	104.23
345.714	103.02
345.942	99.23
346.17	96.83
346.397	93.02
346.625	99.43
346.853	102.43
347.08	98.62
347.308	99.02
347.535	96.83
347.763	97.23
347.99	96.23
348.218	105.43
348.445	105.02
348.673	103.23
348.9	106.43
349.128	96.83
349.355	101.23
349.583	103.02
349.81	103.83
350.037	96.43
350.265	100.43
350.492	97.62
350.72	101.83
350.947	99.23
351.174	103.43
351.402	100.62
351.629	105.23
351.856	100.23
352.083	96.83
352.311	94.62
352.538	93.02
352.765	100.43
352.992	104.62
353.22	99.43
353.447	106.83
353.674	104.23
353.901	100.02
354.128	105.23
354.355	93.43
354.583	103.83
354.81	101.43
355.037	104.83
355.264	102.02
355.491	104.23
355.718	102.83
355.945	104.23
356.172	100.83
356.399	98.62
356.626	105.62
356.853	122.02
357.08	135.83
357.307	149.43
357.534	162.62
357.761	134.43
357.988	127.43
358.215	114.02
358.441	109.02
358.668	106.83
358.895	106.62
359.122	103.23
359.349	106.43
359.576	110.43
359.802	106.83
360.029	112.83
360.256	102.83
360.483	96.62
360.709	99.62
360.936	107.23
361.163	104.43
361.39	106.83
361.616	106.83
361.843	95.83
362.07	107.83
362.296	108.23
362.523	105.62
362.749	103.83
362.976	105.62
363.203	115.62
363.429	112.23
363.656	139.62
363.882	165.43
364.109	180.02
364.335	147.62
364.562	120.62
364.788	112.23
365.015	116.43
365.241	109.43
365.468	110.23
365.694	105.62
365.92	106.02
366.147	105.43
366.373	106.23
366.599	107.83
366.826	108.43
367.052	115.23
367.278	122.02
367.505	116.62
367.731	126.02
367.957	130.23
368.184	175.23
368.41	206.23
368.636	197.83
368.862	152.62
369.089	129.62
369.315	117.23
369.541	121.62
369.767	115.83
369.993	113.43
370.219	111.83
370.445	102.83
370.672	111.23
370.898	103.43
371.124	107.83
371.35	102.83
371.576	105.02
371.802	102.62
372.028	106.83
372.254	106.83
372.48	105.02
372.706	100.43
372.932	101.02
373.158	107.83
373.384	112.83
373.61	124.02
373.835	144.23
374.061	161.43
374.287	151.23
374.513	125.83
374.739	120.02
374.965	110.62
375.191	108.02
375.416	105.02
375.642	104.43
375.868	107.43
376.094	106.02
376.319	96.23
376.545	105.02
376.771	108.02
376.997	101.02
377.222	106.23
377.448	99.83
377.674	98.43
377.899	105.23
378.125	100.43
378.35	104.83
378.576	101.23
378.802	102.23
379.027	106.83
379.253	101.43
379.478	105.83
379.704	104.83
379.929	103.83
380.155	102.23
380.38	103.62
380.606	105.02
380.831	99.23
381.057	104.02
381.282	102.83
381.507	101.02
381.733	101.02
381.958	104.23
382.184	99.23
382.409	95.23
382.634	103.23
382.86	102.43
383.085	100.02
383.31	97.83
383.535	105.23
383.761	104.43
383.986	105.83
384.211	106.62
384.436	108.23
384.662	102.02
384.887	101.43
385.112	102.62
385.337	105.02
385.562	104.43
385.787	110.02
386.013	106.02
386.238	98.23
386.463	100.43
386.688	118.43
386.913	109.23
387.138	104.43
387.363	105.43
387.588	108.43
387.813	105.62
388.038	102.02
388.263	106.62
388.488	105.43
388.713	101.23
388.938	96.62
389.163	99.62
389.387	106.62
389.612	104.43
389.837	108.02
390.062	109.23
390.287	99.23
390.512	97.23
390.736	101.83
390.961	107.02
391.186	102.83
391.411	101.02
391.636	102.83
391.86	96.02
392.085	107.43
392.31	99.83
392.534	99.83
392.759	101.02
392.984	106.23
393.208	104.62
393.433	98.23
393.658	106.02
393.882	101.43
394.107	104.43
394.331	104.02
394.556	98.02
394.78	105.02
395.005	110.43
395.229	109.62
395.454	104.02
395.678	105.02
395.903	107.83
396.127	109.23
396.352	102.83
396.576	99.62
396.801	107.62
397.025	104.62
397.249	104.02
397.474	100.23
397.698	106.62
397.922	108.43
398.147	105.83
398.371	100.83
398.595	101.62
398.82	101.83
399.044	108.43
399.268	108.43
399.492	106.02
399.717	116.62
399.941	111.43
400.165	110.62
400.389	106.02
400.613	106.83
400.837	106.83
401.062	110.83
401.286	112.43
401.51	113.23
401.734	120.62
401.958	123.83
402.182	119.23
402.406	111.83
402.63	111.83
402.854	114.43
403.078	103.83
403.302	107.43
403.526	109.62
403.75	110.02
403.974	119.02
404.198	117.62
404.422	109.02
404.645	115.23
404.869	124.83
405.093	128.83
405.317	152.43
405.541	197.62
405.765	267.43
405.988	296.23
406.212	226.43
406.436	180.83
406.66	158.02
406.883	137.62
407.107	131.23
407.331	135.23
407.555	130.43
407.778	126.23
408.002	115.02
408.226	119.23
408.449	114.23
408.673	113.62
408.896	115.83
409.12	115.62
409.344	117.43
409.567	116.62
409.791	111.62
410.014	114.83
410.238	107.43
410.461	108.43
410.685	108.43
410.908	110.62
411.132	112.23
411.355	109.43
411.578	108.02
411.802	105.83
412.025	104.43
412.249	112.23
412.472	108.23
412.695	102.62
412.919	99.62
413.142	107.62
413.365	109.02
413.589	112.02
413.812	105.62
414.035	106.43
414.258	104.02
414.482	100.62
414.705	105.62
414.928	108.02
415.151	105.83
415.374	109.83
415.597	106.83
415.821	115.83
416.044	110.43
416.267	108.02
416.49	108.02
416.713	114.43
416.936	117.83
417.159	114.83
417.382	116.62
417.605	107.83
417.828	112.02
418.051	114.02
418.274	102.43
418.497	110.23
418.72	112.62
418.943	117.02
419.166	117.43
419.389	106.83
419.611	106.02
419.834	102.83
420.057	109.23
420.28	106.43
420.503	112.83
420.726	114.83
420.948	112.23
421.171	105.43
421.394	116.43
421.617	110.23
421.839	106.43
422.062	107.83
422.285	120.43
422.507	114.83
422.73	107.02
422.953	120.43
423.175	119.62
423.398	116.23
423.621	126.23
423.843	127.43
424.066	137.02
424.288	145.62
424.511	161.62
424.733	177.43
424.956	154.23
425.178	145.83
425.401	140.62
425.623	132.02
425.846	131.23
426.068	133.43
426.291	128.62
426.513	119.43
426.735	118.62
426.958	118.43
427.18	116.02
427.402	112.62
427.625	115.23
427.847	122.43
428.069	118.83
428.292	113.83
428.514	107.43
428.736	118.23
428.958	114.62
429.181	111.83
429.403	110.62
429.625	115.23
429.847	107.83
430.069	105.83
430.292	115.43
430.514	111.62
430.736	111.23
430.958	112.62
431.18	115.43
431.402	117.43
431.624	111.02
431.846	108.43
432.068	105.23
432.29	111.02
432.512	107.43
432.734	107.62
432.956	114.83
433.178	114.23
433.4	105.62
433.622	114.43
433.844	114.23
434.066	112.62
434.287	112.23
434.509	113.02
434.731	114.23
434.953	113.23
435.175	109.62
435.397	112.43
435.618	117.02
435.84	114.02
436.062	116.62
436.284	117.62
436.505	117.83
436.727	119.02
436.949	124.62
437.17	118.83
437.392	121.02
437.614	125.23
437.835	123.02
438.057	128.23
438.278	131.02
438.5	142.62
438.721	168.02
438.943	168.43
439.165	156.23
439.386	148.62
439.608	145.62
439.829	133.02
440.05	134.62
440.272	136.23
440.493	134.83
440.715	137.62
440.936	134.23
441.158	142.43
441.379	134.43
441.6	126.23
441.822	135.23
442.043	135.43
442.264	121.62
442.486	124.62
442.707	127.43
442.928	121.43
443.149	114.62
443.371	120.43
443.592	116.23
443.813	116.02
444.034	120.83
444.255	117.43
444.476	123.23
444.698	115.43
444.919	119.43
445.14	187.02
445.361	150.83
445.582	119.02
445.803	107.62
446.024	120.23
446.245	116.02
446.466	110.02
446.687	111.02
446.908	120.62
447.129	110.62
447.35	109.83
447.571	110.43
447.792	123.83
448.013	108.62
448.234	113.43
448.455	116.02
448.675	116.83
448.896	116.62
449.117	112.83
449.338	104.23
449.559	119.62
449.779	113.23
450	108.43
450.221	110.43
450.442	108.83
450.662	114.43
450.883	115.62
451.104	113.62
451.324	108.02
451.545	107.02
451.766	108.62
451.986	112.62
452.207	113.62
452.428	110.43
452.648	107.23
452.869	106.83
453.089	109.83
453.31	101.62
453.53	103.02
453.751	105.23
453.971	99.23
454.192	109.62
454.412	106.02
454.633	110.83
454.853	109.62
455.073	103.43
455.294	108.43
455.514	107.43
455.734	108.43
455.955	103.23
456.175	103.62
456.395	101.02
456.616	101.62
456.836	103.43
457.056	101.02
457.276	102.43
457.497	105.62
457.717	103.62
457.937	107.83
458.157	103.23
458.377	104.02
458.598	102.43
458.818	105.62
459.038	106.43
459.258	108.43
459.478	103.02
459.698	102.02
459.918	103.83
460.138	109.23
460.358	111.83
460.578	117.43
460.798	105.43
461.018	105.62
461.238	107.02
461.458	107.83
461.678	105.62
461.898	112.43
462.118	108.02
462.338	116.83
462.558	109.02
462.777	110.02
462.997	110.83
463.217	114.23
463.437	112.23
463.657	108.43
463.876	110.62
464.096	102.83
464.316	111.83
464.536	113.83
464.755	114.83
464.975	117.43
465.195	106.83
465.414	106.83
465.634	102.02
465.854	102.02
466.073	111.83
466.293	111.62
466.512	109.23
466.732	105.23
466.951	107.62
467.171	115.02
467.391	114.23
467.61	109.83
467.829	108.62
468.049	108.23
468.268	104.43
468.488	114.83
468.707	108.23
468.927	106.62
469.146	106.62
469.365	107.43
469.585	100.83
469.804	109.02
470.023	115.02
470.243	108.23
470.462	114.62
470.681	110.02
470.901	112.02
471.12	109.62
471.339	109.23
471.558	115.23
471.777	109.23
471.997	103.62
472.216	101.43
472.435	99.43
472.654	105.83
472.873	105.23
473.092	106.43
473.311	104.23
473.53	105.83
473.749	106.83
473.968	110.62
474.187	109.02
474.406	110.62
474.625	103.43
474.844	110.23
475.063	102.83
475.282	113.02
475.501	105.02
475.72	114.43
475.939	109.43
476.158	108.83
476.377	106.23
476.596	112.43
476.814	109.62
477.033	107.43
477.252	112.83
477.471	109.83
477.69	113.43
477.908	109.43
478.127	118.23
478.346	116.02
478.564	119.02
478.783	112.02
479.002	112.83
479.22	111.62
479.439	108.43
479.658	107.83
479.876	111.02
480.095	118.23
480.313	119.62
480.532	117.43
480.751	109.02
480.969	107.43
481.188	112.43
481.406	110.83
481.624	112.83
481.843	114.83
482.061	115.02
482.28	109.23
482.498	108.02
482.717	105.43
482.935	110.43
483.153	117.23
483.372	110.62
483.59	118.02
483.808	116.23
484.027	113.43
484.245	105.62
484.463	111.62
484.681	118.43
484.9	111.83
485.118	112.43
485.336	112.02
485.554	110.02
485.772	110.23
485.99	115.83
486.209	113.83
486.427	117.83
486.645	113.43
486.863	115.62
487.081	109.23
487.299	110.83
487.517	111.83
487.735	121.43
487.953	121.02
488.171	117.83
488.389	115.62
488.607	120.02
488.825	113.62
489.043	108.83
489.261	112.83
489.479	115.02
489.696	113.43
489.914	120.62
490.132	110.23
490.35	119.62
490.568	115.83
490.786	115.02
491.003	113.02
491.221	119.02
491.439	112.62
491.657	121.43
491.874	120.83
492.092	120.02
492.31	124.83
492.527	118.62
492.745	113.02
492.963	124.23
493.18	118.02
493.398	117.83
493.615	119.02
493.833	122.23
494.05	122.83
494.268	118.62
494.485	120.02
494.703	121.83
494.92	118.02
495.138	117.02
495.355	119.83
495.573	121.43
495.79	115.83
496.008	129.43
496.225	124.43
496.442	121.02
496.66	122.83
496.877	113.23
497.094	113.62
497.312	115.02
497.529	123.83
497.746	123.23
497.963	114.83
498.181	114.83
498.398	120.43
498.615	120.02
498.832	126.83
499.049	129.83
499.267	129.43
499.484	129.23
499.701	134.43
499.918	134.02
500.135	139.23
500.352	135.83
500.569	155.02
500.786	165.43
501.003	140.43
501.22	144.62
501.437	138.43
501.654	136.02
501.871	127.83
502.088	128.02
502.305	124.43
502.522	136.43
502.739	122.62
502.956	118.62
503.172	125.62
503.389	127.43
503.606	128.43
503.823	125.02
504.04	134.23
504.256	130.43
504.473	124.62
504.69	123.62
504.907	135.02
505.123	120.23
505.34	127.83
505.557	126.02
505.773	126.62
505.99	121.23
506.207	116.23
506.423	118.83
506.64	120.02
506.856	117.83
507.073	118.23
507.289	114.83
507.506	118.43
507.722	116.43
