Data from SampG_HRD10591_00022.txt Node
Date: Mon Jan 19 11:53:50 EST 2026
User: Yrep
Spectrometer: HR+D1059
Trigger mode: 0
Integration Time (sec): 3.443000E-1
Scans to average: 1
Electric dark correction enabled: true
Nonlinearity correction enabled: false
Boxcar width: 0
XAxis mode: Wavelengths
Number of Pixels in Spectrum: 2048
>>>>>Begin Spectral Data<<<<<
223.165	-16.12
223.4	-16.12
223.635	-16.12
223.869	-24.12
224.104	-28.12
224.338	-14.12
224.573	1.88
224.808	-11.12
225.042	-5.12
225.277	2.88
225.511	-10.12
225.746	-7.12
225.98	-3.12
226.215	4.88
226.449	21.88
226.683	26.88
226.918	21.88
227.152	38.88
227.387	35.88
227.621	41.88
227.856	41.88
228.09	40.88
228.324	54.88
228.559	61.88
228.793	43.88
229.027	62.88
229.262	77.88
229.496	57.88
229.73	72.88
229.964	71.88
230.199	66.88
230.433	70.88
230.667	72.88
230.901	90.88
231.136	87.88
231.37	76.88
231.604	87.88
231.838	82.88
232.072	74.88
232.306	84.88
232.541	75.88
232.775	69.88
233.009	77.88
233.243	94.88
233.477	75.88
233.711	84.88
233.945	91.88
234.179	74.88
234.413	80.88
234.647	92.88
234.881	91.88
235.115	84.88
235.349	71.88
235.583	77.88
235.817	74.88
236.051	80.88
236.285	87.88
236.519	83.88
236.753	90.88
236.987	101.88
237.221	90.88
237.455	80.88
237.689	98.88
237.922	82.88
238.156	88.88
238.39	64.88
238.624	77.88
238.858	93.88
239.091	86.88
239.325	82.88
239.559	85.88
239.793	79.88
240.027	89.88
240.26	89.88
240.494	77.88
240.728	68.88
240.961	67.88
241.195	77.88
241.429	88.88
241.662	68.88
241.896	93.88
242.13	78.88
242.363	83.88
242.597	64.88
242.83	86.88
243.064	87.88
243.298	90.88
243.531	76.88
243.765	87.88
243.998	79.88
244.232	87.88
244.465	92.88
244.699	80.88
244.932	91.88
245.166	84.88
245.399	86.88
245.633	102.88
245.866	83.88
246.099	80.88
246.333	85.88
246.566	96.88
246.8	92.88
247.033	65.88
247.266	89.88
247.5	88.88
247.733	89.88
247.966	99.88
248.2	89.88
248.433	78.88
248.666	92.88
248.899	89.88
249.133	89.88
249.366	109.88
249.599	74.88
249.832	80.88
250.066	93.88
250.299	97.88
250.532	100.88
250.765	85.88
250.998	83.88
251.231	89.88
251.465	82.88
251.698	93.88
251.931	92.88
252.164	93.88
252.397	84.88
252.63	91.88
252.863	81.88
253.096	91.88
253.329	88.88
253.562	98.88
253.795	80.88
254.028	86.88
254.261	123.88
254.494	80.88
254.727	105.88
254.96	86.88
255.193	98.88
255.426	93.88
255.659	100.88
255.892	98.88
256.124	100.88
256.357	104.88
256.59	99.88
256.823	101.88
257.056	98.88
257.289	89.88
257.521	109.88
257.754	96.88
257.987	84.88
258.22	106.88
258.452	98.88
258.685	94.88
258.918	103.88
259.151	94.88
259.383	97.88
259.616	96.88
259.849	94.88
260.081	104.88
260.314	95.88
260.547	102.88
260.779	92.88
261.012	92.88
261.244	93.88
261.477	106.88
261.71	90.88
261.942	101.88
262.175	108.88
262.407	83.88
262.64	106.88
262.872	98.88
263.105	110.88
263.337	102.88
263.57	101.88
263.802	102.88
264.035	100.88
264.267	92.88
264.499	106.88
264.732	105.88
264.964	106.88
265.197	97.88
265.429	105.88
265.661	92.88
265.894	109.88
266.126	117.88
266.358	100.88
266.591	104.88
266.823	108.88
267.055	106.88
267.287	87.88
267.52	102.88
267.752	108.88
267.984	107.88
268.216	102.88
268.448	107.88
268.681	98.88
268.913	110.88
269.145	100.88
269.377	104.88
269.609	89.88
269.841	106.88
270.073	101.88
270.306	102.88
270.538	104.88
270.77	102.88
271.002	90.88
271.234	106.88
271.466	108.88
271.698	105.88
271.93	113.88
272.162	108.88
272.394	106.88
272.626	97.88
272.858	112.88
273.09	105.88
273.322	125.88
273.553	104.88
273.785	126.88
274.017	102.88
274.249	108.88
274.481	110.88
274.713	110.88
274.945	117.88
275.176	107.88
275.408	122.88
275.64	109.88
275.872	106.88
276.104	117.88
276.335	108.88
276.567	94.88
276.799	105.88
277.031	95.88
277.262	102.88
277.494	117.88
277.726	118.88
277.957	113.88
278.189	112.88
278.421	104.88
278.652	121.88
278.884	106.88
279.115	104.88
279.347	100.88
279.579	110.88
279.81	99.88
280.042	97.88
280.273	109.88
280.505	103.88
280.736	114.88
280.968	113.88
281.199	119.88
281.431	109.88
281.662	116.88
281.894	116.88
282.125	107.88
282.356	114.88
282.588	108.88
282.819	120.88
283.051	114.88
283.282	120.88
283.513	110.88
283.745	131.88
283.976	107.88
284.207	109.88
284.439	127.88
284.67	117.88
284.901	120.88
285.132	117.88
285.364	109.88
285.595	113.88
285.826	123.88
286.057	119.88
286.288	116.88
286.52	121.88
286.751	133.88
286.982	115.88
287.213	123.88
287.444	110.88
287.675	115.88
287.906	116.88
288.138	126.88
288.369	109.88
288.6	114.88
288.831	122.88
289.062	126.88
289.293	141.88
289.524	114.88
289.755	122.88
289.986	119.88
290.217	104.88
290.448	108.88
290.679	129.88
290.91	136.88
291.141	115.88
291.371	123.88
291.602	106.88
291.833	94.88
292.064	110.88
292.295	118.88
292.526	119.88
292.757	110.88
292.987	136.88
293.218	136.88
293.449	109.88
293.68	129.88
293.91	118.88
294.141	129.88
294.372	106.88
294.603	117.88
294.833	130.88
295.064	124.88
295.295	113.88
295.525	123.88
295.756	126.88
295.987	120.88
296.217	126.88
296.448	123.88
296.679	133.88
296.909	140.88
297.14	129.88
297.37	123.88
297.601	120.88
297.831	116.88
298.062	128.88
298.292	123.88
298.523	136.88
298.753	120.88
298.984	131.88
299.214	120.88
299.445	116.88
299.675	123.88
299.905	148.88
300.136	109.88
300.366	111.88
300.597	136.88
300.827	138.88
301.057	120.88
301.288	134.88
301.518	128.88
301.748	135.88
301.979	167.88
302.209	121.88
302.439	122.88
302.669	126.88
302.9	126.88
303.13	136.88
303.36	125.88
303.59	120.88
303.82	126.88
304.051	123.88
304.281	116.88
304.511	124.88
304.741	126.88
304.971	120.88
305.201	120.88
305.431	116.88
305.661	118.88
305.891	126.88
306.121	119.88
306.352	130.88
306.582	130.88
306.812	131.88
307.042	144.88
307.272	122.88
307.502	120.88
307.731	139.88
307.961	116.88
308.191	114.88
308.421	124.88
308.651	125.88
308.881	126.88
309.111	115.88
309.341	138.88
309.571	124.88
309.8	118.88
310.03	127.88
310.26	138.88
310.49	120.88
310.72	116.88
310.949	119.88
311.179	124.88
311.409	118.88
311.639	143.88
311.868	124.88
312.098	130.88
312.328	124.88
312.557	138.88
312.787	111.88
313.017	109.88
313.246	128.88
313.476	131.88
313.706	119.88
313.935	128.88
314.165	126.88
314.394	133.88
314.624	132.88
314.853	141.88
315.083	144.88
315.312	134.88
315.542	105.88
315.771	135.88
316.001	134.88
316.23	122.88
316.46	118.88
316.689	125.88
316.919	137.88
317.148	136.88
317.377	127.88
317.607	132.88
317.836	121.88
318.065	121.88
318.295	138.88
318.524	125.88
318.753	115.88
318.983	122.88
319.212	139.88
319.441	139.88
319.67	106.88
319.9	131.88
320.129	125.88
320.358	119.88
320.587	129.88
320.816	135.88
321.046	128.88
321.275	125.88
321.504	122.88
321.733	128.88
321.962	134.88
322.191	130.88
322.42	141.88
322.649	135.88
322.878	134.88
323.108	135.88
323.337	123.88
323.566	126.88
323.795	125.88
324.024	149.88
324.253	133.88
324.482	110.88
324.71	134.88
324.939	142.88
325.168	137.88
325.397	125.88
325.626	119.88
325.855	141.88
326.084	151.88
326.313	154.88
326.542	128.88
326.77	115.88
326.999	117.88
327.228	127.88
327.457	120.88
327.686	135.88
327.914	134.88
328.143	139.88
328.372	124.88
328.6	126.88
328.829	143.88
329.058	140.88
329.287	131.88
329.515	139.88
329.744	144.88
329.972	132.88
330.201	135.88
330.43	144.88
330.658	153.88
330.887	132.88
331.115	138.88
331.344	132.88
331.572	147.88
331.801	132.88
332.03	156.88
332.258	152.88
332.486	156.88
332.715	135.88
332.943	141.88
333.172	150.88
333.4	165.88
333.629	162.88
333.857	174.88
334.085	163.88
334.314	169.88
334.542	150.88
334.771	141.88
334.999	142.88
335.227	130.88
335.455	142.88
335.684	142.88
335.912	145.88
336.14	149.88
336.369	133.88
336.597	139.88
336.825	143.88
337.053	132.88
337.281	147.88
337.51	139.88
337.738	135.88
337.966	151.88
338.194	129.88
338.422	147.88
338.65	154.88
338.878	118.88
339.106	152.88
339.334	140.88
339.562	126.88
339.79	141.88
340.018	113.88
340.246	117.88
340.474	141.88
340.702	138.88
340.93	139.88
341.158	139.88
341.386	124.88
341.614	148.88
341.842	144.88
342.07	130.88
342.298	132.88
342.526	134.88
342.754	145.88
342.981	129.88
343.209	138.88
343.437	170.88
343.665	152.88
343.893	146.88
344.12	165.88
344.348	123.88
344.576	139.88
344.804	148.88
345.031	141.88
345.259	133.88
345.487	135.88
345.714	133.88
345.942	142.88
346.17	145.88
346.397	139.88
346.625	110.88
346.853	130.88
347.08	122.88
347.308	144.88
347.535	131.88
347.763	126.88
347.99	141.88
348.218	139.88
348.445	130.88
348.673	147.88
348.9	140.88
349.128	141.88
349.355	132.88
349.583	129.88
349.81	126.88
350.037	120.88
350.265	144.88
350.492	126.88
350.72	128.88
350.947	129.88
351.174	140.88
351.402	126.88
351.629	134.88
351.856	110.88
352.083	124.88
352.311	117.88
352.538	117.88
352.765	134.88
352.992	153.88
353.22	126.88
353.447	125.88
353.674	133.88
353.901	133.88
354.128	130.88
354.355	138.88
354.583	131.88
354.81	141.88
355.037	137.88
355.264	150.88
355.491	120.88
355.718	123.88
355.945	129.88
356.172	117.88
356.399	134.88
356.626	131.88
356.853	139.88
357.08	149.88
357.307	128.88
357.534	127.88
357.761	130.88
357.988	138.88
358.215	132.88
358.441	136.88
358.668	131.88
358.895	136.88
359.122	133.88
359.349	125.88
359.576	125.88
359.802	137.88
360.029	122.88
360.256	134.88
360.483	136.88
360.709	120.88
360.936	146.88
361.163	136.88
361.39	136.88
361.616	126.88
361.843	136.88
362.07	142.88
362.296	135.88
362.523	119.88
362.749	127.88
362.976	130.88
363.203	156.88
363.429	131.88
363.656	125.88
363.882	133.88
364.109	128.88
364.335	148.88
364.562	141.88
364.788	133.88
365.015	118.88
365.241	126.88
365.468	130.88
365.694	126.88
365.92	129.88
366.147	136.88
366.373	118.88
366.599	127.88
366.826	133.88
367.052	128.88
367.278	133.88
367.505	125.88
367.731	157.88
367.957	128.88
368.184	144.88
368.41	137.88
368.636	142.88
368.862	142.88
369.089	134.88
369.315	129.88
369.541	146.88
369.767	129.88
369.993	130.88
370.219	149.88
370.445	133.88
370.672	140.88
370.898	140.88
371.124	138.88
371.35	139.88
371.576	138.88
371.802	133.88
372.028	141.88
372.254	152.88
372.48	158.88
372.706	149.88
372.932	141.88
373.158	125.88
373.384	125.88
373.61	143.88
373.835	132.88
374.061	139.88
374.287	138.88
374.513	152.88
374.739	139.88
374.965	149.88
375.191	145.88
375.416	155.88
375.642	139.88
375.868	152.88
376.094	132.88
376.319	139.88
376.545	140.88
376.771	134.88
376.997	121.88
377.222	130.88
377.448	138.88
377.674	141.88
377.899	135.88
378.125	140.88
378.35	141.88
378.576	110.88
378.802	118.88
379.027	134.88
379.253	147.88
379.478	136.88
379.704	146.88
379.929	139.88
380.155	144.88
380.38	140.88
380.606	131.88
380.831	137.88
381.057	157.88
381.282	137.88
381.507	136.88
381.733	135.88
381.958	145.88
382.184	141.88
382.409	123.88
382.634	154.88
382.86	151.88
383.085	135.88
383.31	142.88
383.535	155.88
383.761	153.88
383.986	155.88
384.211	152.88
384.436	154.88
384.662	138.88
384.887	147.88
385.112	155.88
385.337	144.88
385.562	152.88
385.787	149.88
386.013	157.88
386.238	161.88
386.463	161.88
386.688	191.88
386.913	147.88
387.138	158.88
387.363	139.88
387.588	165.88
387.813	172.88
388.038	142.88
388.263	160.88
388.488	165.88
388.713	146.88
388.938	152.88
389.163	146.88
389.387	142.88
389.612	157.88
389.837	145.88
390.062	152.88
390.287	149.88
390.512	157.88
390.736	136.88
390.961	165.88
391.186	152.88
391.411	154.88
391.636	175.88
391.86	171.88
392.085	159.88
392.31	163.88
392.534	148.88
392.759	160.88
392.984	148.88
393.208	157.88
393.433	153.88
393.658	149.88
393.882	169.88
394.107	169.88
394.331	164.88
394.556	166.88
394.78	158.88
395.005	167.88
395.229	169.88
395.454	150.88
395.678	156.88
395.903	168.88
396.127	176.88
396.352	165.88
396.576	154.88
396.801	156.88
397.025	146.88
397.249	168.88
397.474	170.88
397.698	180.88
397.922	160.88
398.147	148.88
398.371	169.88
398.595	178.88
398.82	185.88
399.044	184.88
399.268	205.88
399.492	227.88
399.717	242.88
399.941	220.88
400.165	200.88
400.389	188.88
400.613	173.88
400.837	175.88
401.062	173.88
401.286	168.88
401.51	173.88
401.734	165.88
401.958	177.88
402.182	171.88
402.406	169.88
402.63	172.88
402.854	196.88
403.078	165.88
403.302	175.88
403.526	180.88
403.75	192.88
403.974	185.88
404.198	194.88
404.422	186.88
404.645	197.88
404.869	187.88
405.093	174.88
405.317	192.88
405.541	192.88
405.765	186.88
405.988	184.88
406.212	196.88
406.436	191.88
406.66	192.88
406.883	184.88
407.107	194.88
407.331	214.88
407.555	211.88
407.778	213.88
408.002	205.88
408.226	209.88
408.449	177.88
408.673	186.88
408.896	193.88
409.12	187.88
409.344	205.88
409.567	172.88
409.791	183.88
410.014	189.88
410.238	183.88
410.461	202.88
410.685	201.88
410.908	171.88
411.132	181.88
411.355	186.88
411.578	187.88
411.802	175.88
412.025	185.88
412.249	177.88
412.472	156.88
412.695	166.88
412.919	162.88
413.142	162.88
413.365	166.88
413.589	190.88
413.812	172.88
414.035	193.88
414.258	182.88
414.482	177.88
414.705	183.88
414.928	184.88
415.151	158.88
415.374	167.88
415.597	170.88
415.821	172.88
416.044	166.88
416.267	175.88
416.49	170.88
416.713	165.88
416.936	170.88
417.159	175.88
417.382	156.88
417.605	175.88
417.828	164.88
418.051	165.88
418.274	177.88
418.497	178.88
418.72	180.88
418.943	179.88
419.166	171.88
419.389	185.88
419.611	177.88
419.834	166.88
420.057	172.88
420.28	176.88
420.503	169.88
420.726	167.88
420.948	161.88
421.171	159.88
421.394	157.88
421.617	184.88
421.839	166.88
422.062	178.88
422.285	169.88
422.507	196.88
422.73	168.88
422.953	174.88
423.175	166.88
423.398	177.88
423.621	182.88
423.843	181.88
424.066	175.88
424.288	186.88
424.511	172.88
424.733	171.88
424.956	167.88
425.178	180.88
425.401	184.88
425.623	189.88
425.846	169.88
426.068	152.88
426.291	176.88
426.513	177.88
426.735	168.88
426.958	151.88
427.18	167.88
427.402	168.88
427.625	161.88
427.847	173.88
428.069	166.88
428.292	162.88
428.514	156.88
428.736	164.88
428.958	161.88
429.181	169.88
429.403	152.88
429.625	151.88
429.847	151.88
430.069	160.88
430.292	169.88
430.514	163.88
430.736	162.88
430.958	162.88
431.18	157.88
431.402	172.88
431.624	155.88
431.846	181.88
432.068	167.88
432.29	164.88
432.512	154.88
432.734	162.88
432.956	168.88
433.178	168.88
433.4	176.88
433.622	169.88
433.844	153.88
434.066	173.88
434.287	163.88
434.509	167.88
434.731	175.88
434.953	177.88
435.175	168.88
435.397	187.88
435.618	144.88
435.84	168.88
436.062	148.88
436.284	166.88
436.505	153.88
436.727	149.88
436.949	163.88
437.17	168.88
437.392	154.88
437.614	150.88
437.835	142.88
438.057	144.88
438.278	159.88
438.5	156.88
438.721	148.88
438.943	164.88
439.165	166.88
439.386	162.88
439.608	165.88
439.829	154.88
440.05	171.88
440.272	169.88
440.493	164.88
440.715	144.88
440.936	160.88
441.158	180.88
441.379	164.88
441.6	169.88
441.822	178.88
442.043	174.88
442.264	179.88
442.486	184.88
442.707	166.88
442.928	174.88
443.149	177.88
443.371	178.88
443.592	176.88
443.813	181.88
444.034	190.88
444.255	186.88
444.476	204.88
444.698	200.88
444.919	193.88
445.14	466.88
445.361	308.88
445.582	178.88
445.803	167.88
446.024	167.88
446.245	163.88
446.466	166.88
446.687	174.88
446.908	159.88
447.129	153.88
447.35	158.88
447.571	163.88
447.792	158.88
448.013	150.88
448.234	165.88
448.455	137.88
448.675	128.88
448.896	134.88
449.117	155.88
449.338	151.88
449.559	159.88
449.779	163.88
450	149.88
450.221	144.88
450.442	154.88
450.662	141.88
450.883	149.88
451.104	173.88
451.324	165.88
451.545	156.88
451.766	132.88
451.986	151.88
452.207	143.88
452.428	138.88
452.648	142.88
452.869	171.88
453.089	149.88
453.31	145.88
453.53	151.88
453.751	167.88
453.971	153.88
454.192	160.88
454.412	129.88
454.633	154.88
454.853	152.88
455.073	136.88
455.294	157.88
455.514	160.88
455.734	157.88
455.955	151.88
456.175	143.88
456.395	156.88
456.616	139.88
456.836	144.88
457.056	140.88
457.276	156.88
457.497	146.88
457.717	146.88
457.937	147.88
458.157	139.88
458.377	162.88
458.598	136.88
458.818	144.88
459.038	160.88
459.258	165.88
459.478	168.88
459.698	138.88
459.918	161.88
460.138	160.88
460.358	178.88
460.578	188.88
460.798	177.88
461.018	179.88
461.238	168.88
461.458	193.88
461.678	176.88
461.898	190.88
462.118	179.88
462.338	193.88
462.558	175.88
462.777	201.88
462.997	225.88
463.217	218.88
463.437	209.88
463.657	190.88
463.876	198.88
464.096	211.88
464.316	188.88
464.536	174.88
464.755	189.88
464.975	169.88
465.195	176.88
465.414	181.88
465.634	173.88
465.854	160.88
466.073	163.88
466.293	153.88
466.512	159.88
466.732	149.88
466.951	161.88
467.171	144.88
467.391	164.88
467.61	164.88
467.829	151.88
468.049	146.88
468.268	165.88
468.488	153.88
468.707	161.88
468.927	147.88
469.146	151.88
469.365	149.88
469.585	157.88
469.804	156.88
470.023	138.88
470.243	170.88
470.462	164.88
470.681	158.88
470.901	157.88
471.12	170.88
471.339	174.88
471.558	157.88
471.777	162.88
471.997	135.88
472.216	153.88
472.435	152.88
472.654	162.88
472.873	161.88
473.092	159.88
473.311	140.88
473.53	141.88
473.749	159.88
473.968	166.88
474.187	132.88
474.406	151.88
474.625	145.88
474.844	153.88
475.063	141.88
475.282	154.88
475.501	164.88
475.72	164.88
475.939	146.88
476.158	161.88
476.377	164.88
476.596	150.88
476.814	154.88
477.033	168.88
477.252	165.88
477.471	174.88
477.69	172.88
477.908	167.88
478.127	176.88
478.346	162.88
478.564	163.88
478.783	163.88
479.002	169.88
479.22	168.88
479.439	177.88
479.658	195.88
479.876	176.88
480.095	177.88
480.313	190.88
480.532	189.88
480.751	183.88
480.969	171.88
481.188	171.88
481.406	183.88
481.624	173.88
481.843	167.88
482.061	147.88
482.28	155.88
482.498	161.88
482.717	150.88
482.935	161.88
483.153	167.88
483.372	157.88
483.59	163.88
483.808	150.88
484.027	158.88
484.245	167.88
484.463	155.88
484.681	174.88
484.9	163.88
485.118	180.88
485.336	164.88
485.554	169.88
485.772	162.88
485.99	168.88
486.209	162.88
486.427	177.88
486.645	164.88
486.863	165.88
487.081	170.88
487.299	175.88
487.517	169.88
487.735	170.88
487.953	178.88
488.171	176.88
488.389	151.88
488.607	164.88
488.825	160.88
489.043	158.88
489.261	171.88
489.479	166.88
489.696	177.88
489.914	178.88
490.132	158.88
490.35	184.88
490.568	169.88
490.786	167.88
491.003	178.88
491.221	174.88
491.439	190.88
491.657	164.88
491.874	174.88
492.092	171.88
492.31	168.88
492.527	172.88
492.745	166.88
492.963	174.88
493.18	172.88
493.398	169.88
493.615	189.88
493.833	168.88
494.05	174.88
494.268	167.88
494.485	183.88
494.703	173.88
494.92	181.88
495.138	173.88
495.355	180.88
495.573	173.88
495.79	180.88
496.008	176.88
496.225	174.88
496.442	188.88
496.66	196.88
496.877	189.88
497.094	194.88
497.312	179.88
497.529	191.88
497.746	214.88
497.963	200.88
498.181	198.88
498.398	200.88
498.615	232.88
498.832	214.88
499.049	250.88
499.267	254.88
499.484	276.88
499.701	300.88
499.918	331.88
500.135	345.88
500.352	395.88
500.569	408.88
500.786	404.88
501.003	369.88
501.22	321.88
501.437	314.88
501.654	275.88
501.871	267.88
502.088	224.88
502.305	243.88
502.522	237.88
502.739	224.88
502.956	208.88
503.172	200.88
503.389	187.88
503.606	198.88
503.823	190.88
504.04	212.88
504.256	203.88
504.473	208.88
504.69	208.88
