Data from SampG_HRD10591_00088.txt Node
Date: Mon Jan 19 11:54:13 EST 2026
User: Yrep
Spectrometer: HR+D1059
Trigger mode: 0
Integration Time (sec): 3.443000E-1
Scans to average: 1
Electric dark correction enabled: true
Nonlinearity correction enabled: false
Boxcar width: 0
XAxis mode: Wavelengths
Number of Pixels in Spectrum: 2048
>>>>>Begin Spectral Data<<<<<
223.165	-13.88
223.4	-13.88
223.635	-13.88
223.869	-20.88
224.104	-13.88
224.338	-21.88
224.573	-17.88
224.808	-5.88
225.042	-6.88
225.277	0.12
225.511	-10.88
225.746	-0.88
225.98	7.12
226.215	21.12
226.449	12.12
226.683	10.12
226.918	20.12
227.152	42.12
227.387	46.12
227.621	32.12
227.856	47.12
228.09	52.12
228.324	56.12
228.559	66.12
228.793	58.12
229.027	66.12
229.262	71.12
229.496	82.12
229.73	63.12
229.964	76.12
230.199	83.12
230.433	77.12
230.667	78.12
230.901	85.12
231.136	75.12
231.37	77.12
231.604	74.12
231.838	98.12
232.072	84.12
232.306	80.12
232.541	88.12
232.775	79.12
233.009	79.12
233.243	104.12
233.477	102.12
233.711	89.12
233.945	87.12
234.179	90.12
234.413	94.12
234.647	82.12
234.881	82.12
235.115	90.12
235.349	85.12
235.583	80.12
235.817	77.12
236.051	82.12
236.285	75.12
236.519	84.12
236.753	71.12
236.987	74.12
237.221	94.12
237.455	90.12
237.689	94.12
237.922	86.12
238.156	97.12
238.39	92.12
238.624	76.12
238.858	90.12
239.091	107.12
239.325	84.12
239.559	90.12
239.793	91.12
240.027	102.12
240.26	99.12
240.494	99.12
240.728	89.12
240.961	84.12
241.195	91.12
241.429	92.12
241.662	76.12
241.896	84.12
242.13	97.12
242.363	86.12
242.597	68.12
242.83	95.12
243.064	82.12
243.298	74.12
243.531	88.12
243.765	102.12
243.998	86.12
244.232	105.12
244.465	90.12
244.699	83.12
244.932	90.12
245.166	84.12
245.399	85.12
245.633	87.12
245.866	69.12
246.099	90.12
246.333	87.12
246.566	87.12
246.8	92.12
247.033	100.12
247.266	75.12
247.5	82.12
247.733	93.12
247.966	85.12
248.2	87.12
248.433	91.12
248.666	101.12
248.899	96.12
249.133	98.12
249.366	102.12
249.599	93.12
249.832	96.12
250.066	115.12
250.299	93.12
250.532	109.12
250.765	91.12
250.998	81.12
251.231	89.12
251.465	96.12
251.698	88.12
251.931	92.12
252.164	101.12
252.397	80.12
252.63	88.12
252.863	104.12
253.096	87.12
253.329	108.12
253.562	91.12
253.795	95.12
254.028	102.12
254.261	96.12
254.494	84.12
254.727	109.12
254.96	107.12
255.193	89.12
255.426	108.12
255.659	86.12
255.892	102.12
256.124	79.12
256.357	111.12
256.59	91.12
256.823	90.12
257.056	95.12
257.289	95.12
257.521	99.12
257.754	95.12
257.987	103.12
258.22	106.12
258.452	99.12
258.685	95.12
258.918	104.12
259.151	96.12
259.383	118.12
259.616	98.12
259.849	85.12
260.081	93.12
260.314	100.12
260.547	92.12
260.779	85.12
261.012	96.12
261.244	98.12
261.477	106.12
261.71	100.12
261.942	104.12
262.175	101.12
262.407	92.12
262.64	103.12
262.872	106.12
263.105	92.12
263.337	107.12
263.57	98.12
263.802	100.12
264.035	106.12
264.267	89.12
264.499	105.12
264.732	108.12
264.964	90.12
265.197	95.12
265.429	95.12
265.661	104.12
265.894	111.12
266.126	108.12
266.358	115.12
266.591	102.12
266.823	108.12
267.055	103.12
267.287	107.12
267.52	108.12
267.752	105.12
267.984	100.12
268.216	102.12
268.448	109.12
268.681	107.12
268.913	119.12
269.145	104.12
269.377	112.12
269.609	90.12
269.841	121.12
270.073	110.12
270.306	104.12
270.538	101.12
270.77	112.12
271.002	120.12
271.234	106.12
271.466	97.12
271.698	107.12
271.93	107.12
272.162	107.12
272.394	108.12
272.626	108.12
272.858	100.12
273.09	116.12
273.322	87.12
273.553	112.12
273.785	118.12
274.017	108.12
274.249	111.12
274.481	118.12
274.713	103.12
274.945	112.12
275.176	111.12
275.408	120.12
275.64	109.12
275.872	119.12
276.104	96.12
276.335	108.12
276.567	105.12
276.799	108.12
277.031	102.12
277.262	115.12
277.494	119.12
277.726	111.12
277.957	111.12
278.189	101.12
278.421	98.12
278.652	127.12
278.884	107.12
279.115	119.12
279.347	125.12
279.579	118.12
279.81	119.12
280.042	110.12
280.273	116.12
280.505	113.12
280.736	101.12
280.968	122.12
281.199	108.12
281.431	120.12
281.662	115.12
281.894	119.12
282.125	123.12
282.356	124.12
282.588	97.12
282.819	130.12
283.051	107.12
283.282	114.12
283.513	124.12
283.745	115.12
283.976	106.12
284.207	118.12
284.439	103.12
284.67	115.12
284.901	105.12
285.132	106.12
285.364	98.12
285.595	132.12
285.826	116.12
286.057	111.12
286.288	114.12
286.52	114.12
286.751	126.12
286.982	135.12
287.213	126.12
287.444	120.12
287.675	113.12
287.906	127.12
288.138	119.12
288.369	123.12
288.6	107.12
288.831	117.12
289.062	121.12
289.293	131.12
289.524	113.12
289.755	123.12
289.986	120.12
290.217	119.12
290.448	122.12
290.679	124.12
290.91	117.12
291.141	122.12
291.371	126.12
291.602	114.12
291.833	117.12
292.064	121.12
292.295	131.12
292.526	122.12
292.757	112.12
292.987	116.12
293.218	115.12
293.449	131.12
293.68	122.12
293.91	138.12
294.141	127.12
294.372	119.12
294.603	112.12
294.833	115.12
295.064	127.12
295.295	106.12
295.525	133.12
295.756	127.12
295.987	118.12
296.217	122.12
296.448	131.12
296.679	134.12
296.909	117.12
297.14	127.12
297.37	133.12
297.601	120.12
297.831	117.12
298.062	117.12
298.292	126.12
298.523	133.12
298.753	118.12
298.984	122.12
299.214	118.12
299.445	115.12
299.675	122.12
299.905	136.12
300.136	130.12
300.366	112.12
300.597	118.12
300.827	137.12
301.057	115.12
301.288	133.12
301.518	127.12
301.748	138.12
301.979	176.12
302.209	123.12
302.439	120.12
302.669	118.12
302.9	126.12
303.13	115.12
303.36	133.12
303.59	115.12
303.82	111.12
304.051	117.12
304.281	137.12
304.511	148.12
304.741	127.12
304.971	122.12
305.201	125.12
305.431	132.12
305.661	131.12
305.891	136.12
306.121	117.12
306.352	130.12
306.582	121.12
306.812	112.12
307.042	136.12
307.272	123.12
307.502	130.12
307.731	119.12
307.961	129.12
308.191	118.12
308.421	150.12
308.651	128.12
308.881	126.12
309.111	131.12
309.341	127.12
309.571	120.12
309.8	109.12
310.03	132.12
310.26	127.12
310.49	149.12
310.72	118.12
310.949	119.12
311.179	127.12
311.409	142.12
311.639	119.12
311.868	134.12
312.098	135.12
312.328	130.12
312.557	148.12
312.787	138.12
313.017	130.12
313.246	138.12
313.476	148.12
313.706	135.12
313.935	136.12
314.165	148.12
314.394	133.12
314.624	127.12
314.853	140.12
315.083	121.12
315.312	116.12
315.542	121.12
315.771	130.12
316.001	146.12
316.23	137.12
316.46	129.12
316.689	138.12
316.919	142.12
317.148	129.12
317.377	137.12
317.607	132.12
317.836	123.12
318.065	123.12
318.295	131.12
318.524	138.12
318.753	123.12
318.983	108.12
319.212	130.12
319.441	116.12
319.67	134.12
319.9	132.12
320.129	136.12
320.358	121.12
320.587	126.12
320.816	125.12
321.046	137.12
321.275	140.12
321.504	112.12
321.733	121.12
321.962	139.12
322.191	139.12
322.42	136.12
322.649	141.12
322.878	132.12
323.108	139.12
323.337	137.12
323.566	138.12
323.795	132.12
324.024	142.12
324.253	135.12
324.482	127.12
324.71	138.12
324.939	132.12
325.168	116.12
325.397	119.12
325.626	126.12
325.855	139.12
326.084	134.12
326.313	131.12
326.542	131.12
326.77	149.12
326.999	135.12
327.228	110.12
327.457	131.12
327.686	123.12
327.914	137.12
328.143	135.12
328.372	127.12
328.6	139.12
328.829	135.12
329.058	135.12
329.287	120.12
329.515	125.12
329.744	135.12
329.972	144.12
330.201	151.12
330.43	135.12
330.658	138.12
330.887	151.12
331.115	138.12
331.344	156.12
331.572	154.12
331.801	133.12
332.03	135.12
332.258	143.12
332.486	129.12
332.715	143.12
332.943	166.12
333.172	166.12
333.4	166.12
333.629	147.12
333.857	168.12
334.085	167.12
334.314	155.12
334.542	138.12
334.771	162.12
334.999	158.12
335.227	133.12
335.455	153.12
335.684	134.12
335.912	159.12
336.14	148.12
336.369	150.12
336.597	150.12
336.825	142.12
337.053	137.12
337.281	126.12
337.51	150.12
337.738	144.12
337.966	162.12
338.194	134.12
338.422	135.12
338.65	138.12
338.878	150.12
339.106	142.12
339.334	148.12
339.562	138.12
339.79	125.12
340.018	128.12
340.246	120.12
340.474	135.12
340.702	138.12
340.93	139.12
341.158	126.12
341.386	138.12
341.614	147.12
341.842	125.12
342.07	135.12
342.298	128.12
342.526	149.12
342.754	131.12
342.981	121.12
343.209	127.12
343.437	183.12
343.665	138.12
343.893	162.12
344.12	164.12
344.348	141.12
344.576	153.12
344.804	133.12
345.031	148.12
345.259	162.12
345.487	144.12
345.714	137.12
345.942	125.12
346.17	129.12
346.397	139.12
346.625	138.12
346.853	135.12
347.08	135.12
347.308	130.12
347.535	135.12
347.763	154.12
347.99	127.12
348.218	136.12
348.445	142.12
348.673	128.12
348.9	134.12
349.128	124.12
349.355	120.12
349.583	140.12
349.81	132.12
350.037	146.12
350.265	136.12
350.492	148.12
350.72	124.12
350.947	143.12
351.174	132.12
351.402	147.12
351.629	138.12
351.856	133.12
352.083	136.12
352.311	134.12
352.538	131.12
352.765	134.12
352.992	139.12
353.22	126.12
353.447	132.12
353.674	115.12
353.901	140.12
354.128	126.12
354.355	134.12
354.583	140.12
354.81	134.12
355.037	142.12
355.264	125.12
355.491	131.12
355.718	132.12
355.945	131.12
356.172	131.12
356.399	134.12
356.626	141.12
356.853	134.12
357.08	138.12
357.307	133.12
357.534	140.12
357.761	124.12
357.988	144.12
358.215	155.12
358.441	125.12
358.668	133.12
358.895	123.12
359.122	134.12
359.349	126.12
359.576	147.12
359.802	146.12
360.029	130.12
360.256	148.12
360.483	133.12
360.709	141.12
360.936	155.12
361.163	132.12
361.39	138.12
361.616	130.12
361.843	140.12
362.07	134.12
362.296	143.12
362.523	131.12
362.749	134.12
362.976	146.12
363.203	148.12
363.429	131.12
363.656	121.12
363.882	117.12
364.109	147.12
364.335	149.12
364.562	144.12
364.788	125.12
365.015	126.12
365.241	112.12
365.468	139.12
365.694	143.12
365.92	135.12
366.147	128.12
366.373	143.12
366.599	147.12
366.826	132.12
367.052	131.12
367.278	148.12
367.505	132.12
367.731	156.12
367.957	134.12
368.184	122.12
368.41	116.12
368.636	151.12
368.862	132.12
369.089	133.12
369.315	125.12
369.541	138.12
369.767	138.12
369.993	136.12
370.219	141.12
370.445	131.12
370.672	127.12
370.898	148.12
371.124	136.12
371.35	156.12
371.576	119.12
371.802	135.12
372.028	139.12
372.254	135.12
372.48	142.12
372.706	144.12
372.932	149.12
373.158	146.12
373.384	173.12
373.61	146.12
373.835	138.12
374.061	120.12
374.287	168.12
374.513	132.12
374.739	135.12
374.965	146.12
375.191	146.12
375.416	153.12
375.642	140.12
375.868	150.12
376.094	143.12
376.319	141.12
376.545	142.12
376.771	152.12
376.997	147.12
377.222	146.12
377.448	124.12
377.674	133.12
377.899	150.12
378.125	138.12
378.35	151.12
378.576	140.12
378.802	147.12
379.027	153.12
379.253	142.12
379.478	124.12
379.704	131.12
379.929	138.12
380.155	154.12
380.38	130.12
380.606	119.12
380.831	142.12
381.057	148.12
381.282	158.12
381.507	164.12
381.733	143.12
381.958	145.12
382.184	132.12
382.409	147.12
382.634	149.12
382.86	148.12
383.085	165.12
383.31	151.12
383.535	151.12
383.761	154.12
383.986	150.12
384.211	150.12
384.436	150.12
384.662	158.12
384.887	141.12
385.112	164.12
385.337	156.12
385.562	158.12
385.787	159.12
386.013	149.12
386.238	159.12
386.463	162.12
386.688	176.12
386.913	165.12
387.138	148.12
387.363	147.12
387.588	167.12
387.813	144.12
388.038	151.12
388.263	156.12
388.488	150.12
388.713	166.12
388.938	150.12
389.163	148.12
389.387	151.12
389.612	150.12
389.837	149.12
390.062	159.12
390.287	169.12
390.512	154.12
390.736	141.12
390.961	143.12
391.186	162.12
391.411	174.12
391.636	162.12
391.86	165.12
392.085	139.12
392.31	164.12
392.534	174.12
392.759	147.12
392.984	171.12
393.208	165.12
393.433	160.12
393.658	160.12
393.882	150.12
394.107	188.12
394.331	168.12
394.556	176.12
394.78	179.12
395.005	161.12
395.229	178.12
395.454	178.12
395.678	155.12
395.903	172.12
396.127	160.12
396.352	166.12
396.576	156.12
396.801	168.12
397.025	164.12
397.249	154.12
397.474	179.12
397.698	180.12
397.922	167.12
398.147	171.12
398.371	164.12
398.595	175.12
398.82	178.12
399.044	184.12
399.268	196.12
399.492	225.12
399.717	228.12
399.941	212.12
400.165	213.12
400.389	178.12
400.613	166.12
400.837	192.12
401.062	179.12
401.286	172.12
401.51	160.12
401.734	168.12
401.958	187.12
402.182	189.12
402.406	187.12
402.63	174.12
402.854	182.12
403.078	187.12
403.302	201.12
403.526	200.12
403.75	186.12
403.974	201.12
404.198	180.12
404.422	180.12
404.645	192.12
404.869	185.12
405.093	175.12
405.317	200.12
405.541	196.12
405.765	192.12
405.988	180.12
406.212	174.12
406.436	182.12
406.66	206.12
406.883	195.12
407.107	196.12
407.331	206.12
407.555	202.12
407.778	207.12
408.002	203.12
408.226	205.12
408.449	198.12
408.673	194.12
408.896	194.12
409.12	187.12
409.344	191.12
409.567	186.12
409.791	191.12
410.014	196.12
410.238	185.12
410.461	190.12
410.685	189.12
410.908	181.12
411.132	190.12
411.355	165.12
411.578	189.12
411.802	185.12
412.025	175.12
412.249	156.12
412.472	166.12
412.695	171.12
412.919	183.12
413.142	177.12
413.365	177.12
413.589	171.12
413.812	174.12
414.035	186.12
414.258	176.12
414.482	183.12
414.705	181.12
414.928	176.12
415.151	183.12
415.374	189.12
415.597	159.12
415.821	190.12
416.044	175.12
416.267	170.12
416.49	172.12
416.713	168.12
416.936	189.12
417.159	164.12
417.382	178.12
417.605	164.12
417.828	186.12
418.051	179.12
418.274	170.12
418.497	181.12
418.72	177.12
418.943	193.12
419.166	191.12
419.389	192.12
419.611	170.12
419.834	199.12
420.057	183.12
420.28	170.12
420.503	172.12
420.726	180.12
420.948	169.12
421.171	188.12
421.394	168.12
421.617	172.12
421.839	172.12
422.062	179.12
422.285	186.12
422.507	163.12
422.73	167.12
422.953	173.12
423.175	190.12
423.398	182.12
423.621	186.12
423.843	188.12
424.066	182.12
424.288	175.12
424.511	185.12
424.733	178.12
424.956	191.12
425.178	188.12
425.401	167.12
425.623	183.12
425.846	181.12
426.068	178.12
426.291	176.12
426.513	181.12
426.735	174.12
426.958	165.12
427.18	169.12
427.402	178.12
427.625	150.12
427.847	168.12
428.069	174.12
428.292	162.12
428.514	164.12
428.736	165.12
428.958	175.12
429.181	171.12
429.403	184.12
429.625	163.12
429.847	173.12
430.069	179.12
430.292	172.12
430.514	154.12
430.736	154.12
430.958	170.12
431.18	153.12
431.402	155.12
431.624	160.12
431.846	169.12
432.068	176.12
432.29	168.12
432.512	171.12
432.734	166.12
432.956	178.12
433.178	181.12
433.4	166.12
433.622	191.12
433.844	171.12
434.066	188.12
434.287	172.12
434.509	185.12
434.731	175.12
434.953	181.12
435.175	175.12
435.397	189.12
435.618	164.12
435.84	162.12
436.062	152.12
436.284	163.12
436.505	158.12
436.727	166.12
436.949	169.12
437.17	148.12
437.392	155.12
437.614	145.12
437.835	149.12
438.057	143.12
438.278	167.12
438.5	152.12
438.721	166.12
438.943	139.12
439.165	131.12
439.386	167.12
439.608	166.12
439.829	155.12
440.05	180.12
440.272	175.12
440.493	162.12
440.715	169.12
440.936	175.12
441.158	172.12
441.379	155.12
441.6	177.12
441.822	170.12
442.043	166.12
442.264	179.12
442.486	171.12
442.707	165.12
442.928	165.12
443.149	170.12
443.371	184.12
443.592	171.12
443.813	181.12
444.034	169.12
444.255	183.12
444.476	191.12
444.698	188.12
444.919	206.12
445.14	379.12
445.361	271.12
445.582	190.12
445.803	164.12
446.024	160.12
446.245	182.12
446.466	172.12
446.687	172.12
446.908	166.12
447.129	147.12
447.35	152.12
447.571	147.12
447.792	175.12
448.013	166.12
448.234	164.12
448.455	155.12
448.675	162.12
448.896	164.12
449.117	143.12
449.338	148.12
449.559	158.12
449.779	158.12
450	160.12
450.221	165.12
450.442	162.12
450.662	136.12
450.883	169.12
451.104	157.12
451.324	147.12
451.545	158.12
451.766	166.12
451.986	151.12
452.207	169.12
452.428	164.12
452.648	187.12
452.869	162.12
453.089	141.12
453.31	151.12
453.53	169.12
453.751	163.12
453.971	153.12
454.192	153.12
454.412	153.12
454.633	154.12
454.853	150.12
455.073	142.12
455.294	154.12
455.514	171.12
455.734	166.12
455.955	174.12
456.175	156.12
456.395	147.12
456.616	138.12
456.836	145.12
457.056	167.12
457.276	156.12
457.497	139.12
457.717	151.12
457.937	150.12
458.157	156.12
458.377	145.12
458.598	153.12
458.818	171.12
459.038	171.12
459.258	163.12
459.478	164.12
459.698	179.12
459.918	177.12
460.138	174.12
460.358	173.12
460.578	193.12
460.798	184.12
461.018	198.12
461.238	181.12
461.458	175.12
461.678	168.12
461.898	193.12
462.118	184.12
462.338	187.12
462.558	199.12
462.777	197.12
462.997	213.12
463.217	216.12
463.437	229.12
463.657	185.12
463.876	200.12
464.096	214.12
464.316	206.12
464.536	203.12
464.755	207.12
464.975	190.12
465.195	170.12
465.414	183.12
465.634	164.12
465.854	172.12
466.073	180.12
466.293	164.12
466.512	158.12
466.732	151.12
466.951	166.12
467.171	172.12
467.391	171.12
467.61	164.12
467.829	166.12
468.049	164.12
468.268	147.12
468.488	155.12
468.707	148.12
468.927	151.12
469.146	164.12
469.365	172.12
469.585	178.12
469.804	170.12
470.023	184.12
470.243	175.12
470.462	181.12
470.681	187.12
470.901	178.12
471.12	180.12
471.339	172.12
471.558	161.12
471.777	157.12
471.997	154.12
472.216	169.12
472.435	139.12
472.654	151.12
472.873	155.12
473.092	158.12
473.311	167.12
473.53	144.12
473.749	164.12
473.968	183.12
474.187	166.12
474.406	155.12
474.625	159.12
474.844	169.12
475.063	159.12
475.282	169.12
475.501	158.12
475.72	180.12
475.939	169.12
476.158	152.12
476.377	139.12
476.596	166.12
476.814	166.12
477.033	156.12
477.252	154.12
477.471	179.12
477.69	169.12
477.908	174.12
478.127	193.12
478.346	184.12
478.564	179.12
478.783	179.12
479.002	186.12
479.22	185.12
479.439	192.12
479.658	174.12
479.876	190.12
480.095	177.12
480.313	186.12
480.532	202.12
480.751	190.12
480.969	202.12
481.188	169.12
481.406	172.12
481.624	171.12
481.843	183.12
482.061	178.12
482.28	172.12
482.498	168.12
482.717	164.12
482.935	173.12
483.153	184.12
483.372	162.12
483.59	171.12
483.808	165.12
484.027	189.12
484.245	170.12
484.463	172.12
484.681	184.12
484.9	165.12
485.118	179.12
485.336	176.12
485.554	156.12
485.772	177.12
485.99	187.12
486.209	188.12
486.427	172.12
486.645	184.12
486.863	165.12
487.081	167.12
487.299	195.12
487.517	182.12
487.735	191.12
487.953	175.12
488.171	182.12
488.389	178.12
488.607	177.12
488.825	176.12
489.043	180.12
489.261	182.12
489.479	188.12
489.696	196.12
489.914	175.12
490.132	169.12
490.35	178.12
490.568	171.12
490.786	180.12
491.003	166.12
491.221	180.12
491.439	174.12
491.657	165.12
491.874	192.12
492.092	180.12
492.31	176.12
492.527	200.12
492.745	184.12
492.963	179.12
493.18	177.12
493.398	170.12
493.615	187.12
493.833	194.12
494.05	182.12
494.268	179.12
494.485	189.12
494.703	189.12
494.92	187.12
495.138	173.12
495.355	183.12
495.573	190.12
495.79	176.12
496.008	191.12
496.225	196.12
496.442	193.12
496.66	177.12
496.877	196.12
497.094	211.12
497.312	195.12
497.529	190.12
497.746	200.12
497.963	187.12
498.181	199.12
498.398	219.12
498.615	216.12
498.832	218.12
499.049	258.12
499.267	292.12
499.484	285.12
499.701	313.12
499.918	316.12
500.135	353.12
500.352	395.12
500.569	428.12
500.786	402.12
501.003	377.12
501.22	309.12
501.437	304.12
501.654	263.12
501.871	268.12
502.088	228.12
502.305	240.12
502.522	229.12
502.739	220.12
502.956	218.12
503.172	204.12
503.389	177.12
503.606	201.12
503.823	210.12
504.04	210.12
504.256	208.12
504.473	205.12
