Data from SampG_HRD10591_00002.txt Node
Date: Mon Jan 19 11:53:44 EST 2026
User: Yrep
Spectrometer: HR+D1059
Trigger mode: 0
Integration Time (sec): 3.443000E-1
Scans to average: 1
Electric dark correction enabled: true
Nonlinearity correction enabled: false
Boxcar width: 0
XAxis mode: Wavelengths
Number of Pixels in Spectrum: 2048
>>>>>Begin Spectral Data<<<<<
223.165	-24.06
223.4	-24.06
223.635	-24.06
223.869	-25.06
224.104	-28.06
224.338	-9.06
224.573	-29.06
224.808	2.94
225.042	-3.06
225.277	7.94
225.511	-3.06
225.746	2.94
225.98	-8.06
226.215	26.94
226.449	4.94
226.683	22.94
226.918	26.94
227.152	33.94
227.387	28.94
227.621	32.94
227.856	58.94
228.09	26.94
228.324	51.94
228.559	62.94
228.793	64.94
229.027	59.94
229.262	77.94
229.496	79.94
229.73	82.94
229.964	82.94
230.199	69.94
230.433	58.94
230.667	72.94
230.901	88.94
231.136	68.94
231.37	90.94
231.604	78.94
231.838	80.94
232.072	64.94
232.306	61.94
232.541	61.94
232.775	72.94
233.009	82.94
233.243	96.94
233.477	76.94
233.711	78.94
233.945	79.94
234.179	74.94
234.413	71.94
234.647	85.94
234.881	64.94
235.115	74.94
235.349	82.94
235.583	81.94
235.817	84.94
236.051	75.94
236.285	73.94
236.519	70.94
236.753	84.94
236.987	77.94
237.221	90.94
237.455	83.94
237.689	78.94
237.922	95.94
238.156	63.94
238.39	74.94
238.624	78.94
238.858	79.94
239.091	69.94
239.325	81.94
239.559	83.94
239.793	78.94
240.027	88.94
240.26	77.94
240.494	85.94
240.728	66.94
240.961	78.94
241.195	92.94
241.429	83.94
241.662	90.94
241.896	89.94
242.13	72.94
242.363	77.94
242.597	74.94
242.83	69.94
243.064	76.94
243.298	78.94
243.531	50.94
243.765	75.94
243.998	87.94
244.232	92.94
244.465	76.94
244.699	67.94
244.932	84.94
245.166	79.94
245.399	81.94
245.633	85.94
245.866	100.94
246.099	83.94
246.333	85.94
246.566	76.94
246.8	78.94
247.033	86.94
247.266	83.94
247.5	78.94
247.733	90.94
247.966	79.94
248.2	94.94
248.433	78.94
248.666	92.94
248.899	87.94
249.133	94.94
249.366	90.94
249.599	88.94
249.832	82.94
250.066	91.94
250.299	99.94
250.532	88.94
250.765	75.94
250.998	92.94
251.231	94.94
251.465	88.94
251.698	79.94
251.931	92.94
252.164	83.94
252.397	93.94
252.63	84.94
252.863	77.94
253.096	91.94
253.329	91.94
253.562	82.94
253.795	94.94
254.028	95.94
254.261	93.94
254.494	86.94
254.727	97.94
254.96	86.94
255.193	80.94
255.426	90.94
255.659	88.94
255.892	96.94
256.124	71.94
256.357	82.94
256.59	94.94
256.823	81.94
257.056	100.94
257.289	93.94
257.521	90.94
257.754	96.94
257.987	90.94
258.22	100.94
258.452	100.94
258.685	85.94
258.918	89.94
259.151	93.94
259.383	94.94
259.616	100.94
259.849	82.94
260.081	105.94
260.314	92.94
260.547	86.94
260.779	92.94
261.012	98.94
261.244	97.94
261.477	96.94
261.71	98.94
261.942	94.94
262.175	90.94
262.407	110.94
262.64	111.94
262.872	89.94
263.105	102.94
263.337	95.94
263.57	81.94
263.802	98.94
264.035	98.94
264.267	97.94
264.499	108.94
264.732	88.94
264.964	99.94
265.197	100.94
265.429	93.94
265.661	95.94
265.894	108.94
266.126	96.94
266.358	116.94
266.591	104.94
266.823	94.94
267.055	104.94
267.287	107.94
267.52	90.94
267.752	104.94
267.984	99.94
268.216	96.94
268.448	103.94
268.681	115.94
268.913	103.94
269.145	103.94
269.377	94.94
269.609	102.94
269.841	112.94
270.073	84.94
270.306	109.94
270.538	96.94
270.77	94.94
271.002	104.94
271.234	105.94
271.466	84.94
271.698	93.94
271.93	99.94
272.162	98.94
272.394	119.94
272.626	106.94
272.858	83.94
273.09	94.94
273.322	86.94
273.553	110.94
273.785	102.94
274.017	93.94
274.249	109.94
274.481	101.94
274.713	92.94
274.945	107.94
275.176	96.94
275.408	110.94
275.64	103.94
275.872	100.94
276.104	91.94
276.335	101.94
276.567	96.94
276.799	93.94
277.031	112.94
277.262	97.94
277.494	110.94
277.726	97.94
277.957	93.94
278.189	111.94
278.421	95.94
278.652	96.94
278.884	115.94
279.115	99.94
279.347	100.94
279.579	99.94
279.81	108.94
280.042	103.94
280.273	96.94
280.505	106.94
280.736	105.94
280.968	118.94
281.199	105.94
281.431	111.94
281.662	104.94
281.894	96.94
282.125	103.94
282.356	97.94
282.588	107.94
282.819	103.94
283.051	103.94
283.282	117.94
283.513	119.94
283.745	123.94
283.976	118.94
284.207	112.94
284.439	100.94
284.67	118.94
284.901	134.94
285.132	118.94
285.364	110.94
285.595	112.94
285.826	104.94
286.057	123.94
286.288	100.94
286.52	118.94
286.751	118.94
286.982	113.94
287.213	113.94
287.444	111.94
287.675	103.94
287.906	111.94
288.138	93.94
288.369	111.94
288.6	103.94
288.831	109.94
289.062	124.94
289.293	121.94
289.524	126.94
289.755	105.94
289.986	115.94
290.217	116.94
290.448	100.94
290.679	124.94
290.91	103.94
291.141	109.94
291.371	103.94
291.602	124.94
291.833	118.94
292.064	117.94
292.295	113.94
292.526	119.94
292.757	115.94
292.987	99.94
293.218	111.94
293.449	133.94
293.68	131.94
293.91	114.94
294.141	130.94
294.372	116.94
294.603	120.94
294.833	106.94
295.064	100.94
295.295	103.94
295.525	103.94
295.756	107.94
295.987	117.94
296.217	126.94
296.448	127.94
296.679	122.94
296.909	127.94
297.14	124.94
297.37	134.94
297.601	116.94
297.831	131.94
298.062	113.94
298.292	124.94
298.523	126.94
298.753	127.94
298.984	112.94
299.214	103.94
299.445	116.94
299.675	109.94
299.905	118.94
300.136	110.94
300.366	120.94
300.597	119.94
300.827	123.94
301.057	122.94
301.288	117.94
301.518	123.94
301.748	119.94
301.979	168.94
302.209	124.94
302.439	120.94
302.669	120.94
302.9	130.94
303.13	140.94
303.36	126.94
303.59	112.94
303.82	112.94
304.051	139.94
304.281	122.94
304.511	124.94
304.741	131.94
304.971	130.94
305.201	126.94
305.431	107.94
305.661	111.94
305.891	121.94
306.121	129.94
306.352	127.94
306.582	129.94
306.812	125.94
307.042	122.94
307.272	120.94
307.502	118.94
307.731	131.94
307.961	103.94
308.191	118.94
308.421	118.94
308.651	110.94
308.881	107.94
309.111	121.94
309.341	134.94
309.571	125.94
309.8	98.94
310.03	119.94
310.26	116.94
310.49	131.94
310.72	113.94
310.949	124.94
311.179	119.94
311.409	111.94
311.639	135.94
311.868	132.94
312.098	111.94
312.328	133.94
312.557	127.94
312.787	118.94
313.017	120.94
313.246	122.94
313.476	124.94
313.706	118.94
313.935	128.94
314.165	136.94
314.394	127.94
314.624	116.94
314.853	105.94
315.083	117.94
315.312	124.94
315.542	117.94
315.771	130.94
316.001	131.94
316.23	123.94
316.46	125.94
316.689	120.94
316.919	126.94
317.148	127.94
317.377	130.94
317.607	115.94
317.836	123.94
318.065	117.94
318.295	113.94
318.524	122.94
318.753	134.94
318.983	115.94
319.212	126.94
319.441	122.94
319.67	127.94
319.9	115.94
320.129	112.94
320.358	112.94
320.587	131.94
320.816	122.94
321.046	131.94
321.275	115.94
321.504	114.94
321.733	122.94
321.962	139.94
322.191	135.94
322.42	113.94
322.649	130.94
322.878	136.94
323.108	138.94
323.337	128.94
323.566	118.94
323.795	123.94
324.024	116.94
324.253	138.94
324.482	124.94
324.71	125.94
324.939	118.94
325.168	116.94
325.397	129.94
325.626	127.94
325.855	129.94
326.084	140.94
326.313	138.94
326.542	133.94
326.77	135.94
326.999	132.94
327.228	127.94
327.457	129.94
327.686	133.94
327.914	129.94
328.143	134.94
328.372	107.94
328.6	102.94
328.829	127.94
329.058	123.94
329.287	130.94
329.515	136.94
329.744	149.94
329.972	116.94
330.201	136.94
330.43	127.94
330.658	129.94
330.887	125.94
331.115	131.94
331.344	130.94
331.572	132.94
331.801	123.94
332.03	126.94
332.258	150.94
332.486	135.94
332.715	134.94
332.943	144.94
333.172	152.94
333.4	168.94
333.629	155.94
333.857	151.94
334.085	151.94
334.314	127.94
334.542	133.94
334.771	144.94
334.999	151.94
335.227	149.94
335.455	157.94
335.684	155.94
335.912	148.94
336.14	151.94
336.369	140.94
336.597	150.94
336.825	131.94
337.053	135.94
337.281	131.94
337.51	113.94
337.738	138.94
337.966	126.94
338.194	133.94
338.422	132.94
338.65	136.94
338.878	154.94
339.106	140.94
339.334	147.94
339.562	134.94
339.79	127.94
340.018	131.94
340.246	125.94
340.474	126.94
340.702	138.94
340.93	124.94
341.158	134.94
341.386	126.94
341.614	112.94
341.842	112.94
342.07	130.94
342.298	135.94
342.526	124.94
342.754	141.94
342.981	133.94
343.209	136.94
343.437	179.94
343.665	147.94
343.893	151.94
344.12	162.94
344.348	148.94
344.576	159.94
344.804	133.94
345.031	127.94
345.259	119.94
345.487	129.94
345.714	123.94
345.942	125.94
346.17	147.94
346.397	140.94
346.625	111.94
346.853	127.94
347.08	122.94
347.308	129.94
347.535	137.94
347.763	127.94
347.99	130.94
348.218	122.94
348.445	148.94
348.673	143.94
348.9	134.94
349.128	129.94
349.355	109.94
349.583	128.94
349.81	138.94
350.037	127.94
350.265	138.94
350.492	132.94
350.72	141.94
350.947	132.94
351.174	128.94
351.402	124.94
351.629	125.94
351.856	117.94
352.083	123.94
352.311	120.94
352.538	126.94
352.765	137.94
352.992	140.94
353.22	120.94
353.447	133.94
353.674	131.94
353.901	134.94
354.128	119.94
354.355	123.94
354.583	116.94
354.81	131.94
355.037	111.94
355.264	142.94
355.491	117.94
355.718	129.94
355.945	119.94
356.172	126.94
356.399	140.94
356.626	137.94
356.853	119.94
357.08	130.94
357.307	130.94
357.534	126.94
357.761	120.94
357.988	137.94
358.215	130.94
358.441	132.94
358.668	142.94
358.895	129.94
359.122	134.94
359.349	117.94
359.576	131.94
359.802	112.94
360.029	129.94
360.256	127.94
360.483	134.94
360.709	132.94
360.936	156.94
361.163	133.94
361.39	120.94
361.616	114.94
361.843	124.94
362.07	134.94
362.296	131.94
362.523	133.94
362.749	133.94
362.976	130.94
363.203	130.94
363.429	127.94
363.656	131.94
363.882	122.94
364.109	127.94
364.335	127.94
364.562	115.94
364.788	135.94
365.015	131.94
365.241	133.94
365.468	143.94
365.694	121.94
365.92	126.94
366.147	127.94
366.373	134.94
366.599	119.94
366.826	147.94
367.052	136.94
367.278	154.94
367.505	136.94
367.731	149.94
367.957	120.94
368.184	130.94
368.41	127.94
368.636	143.94
368.862	139.94
369.089	128.94
369.315	121.94
369.541	132.94
369.767	134.94
369.993	132.94
370.219	113.94
370.445	134.94
370.672	128.94
370.898	131.94
371.124	114.94
371.35	127.94
371.576	119.94
371.802	127.94
372.028	131.94
372.254	131.94
372.48	140.94
372.706	130.94
372.932	130.94
373.158	128.94
373.384	143.94
373.61	141.94
373.835	138.94
374.061	133.94
374.287	130.94
374.513	117.94
374.739	139.94
374.965	126.94
375.191	144.94
375.416	149.94
375.642	145.94
375.868	137.94
376.094	127.94
376.319	142.94
376.545	142.94
376.771	115.94
376.997	129.94
377.222	132.94
377.448	156.94
377.674	135.94
377.899	143.94
378.125	116.94
378.35	118.94
378.576	137.94
378.802	133.94
379.027	131.94
379.253	145.94
379.478	134.94
379.704	124.94
379.929	124.94
380.155	135.94
380.38	129.94
380.606	125.94
380.831	136.94
381.057	145.94
381.282	142.94
381.507	116.94
381.733	140.94
381.958	140.94
382.184	130.94
382.409	127.94
382.634	153.94
382.86	146.94
383.085	150.94
383.31	148.94
383.535	138.94
383.761	143.94
383.986	142.94
384.211	148.94
384.436	144.94
384.662	150.94
384.887	154.94
385.112	163.94
385.337	160.94
385.562	142.94
385.787	147.94
386.013	158.94
386.238	157.94
386.463	159.94
386.688	171.94
386.913	143.94
387.138	140.94
387.363	146.94
387.588	152.94
387.813	141.94
388.038	155.94
388.263	157.94
388.488	157.94
388.713	155.94
388.938	150.94
389.163	148.94
389.387	160.94
389.612	144.94
389.837	164.94
390.062	150.94
390.287	155.94
390.512	164.94
390.736	149.94
390.961	154.94
391.186	163.94
391.411	138.94
391.636	159.94
391.86	159.94
392.085	169.94
392.31	141.94
392.534	162.94
392.759	170.94
392.984	158.94
393.208	163.94
393.433	140.94
393.658	158.94
393.882	161.94
394.107	152.94
394.331	166.94
394.556	167.94
394.78	174.94
395.005	172.94
395.229	146.94
395.454	159.94
395.678	163.94
395.903	156.94
396.127	165.94
396.352	143.94
396.576	168.94
396.801	164.94
397.025	154.94
397.249	173.94
397.474	174.94
397.698	158.94
397.922	157.94
398.147	157.94
398.371	156.94
398.595	191.94
398.82	171.94
399.044	188.94
399.268	195.94
399.492	238.94
399.717	232.94
399.941	229.94
400.165	188.94
400.389	173.94
400.613	179.94
400.837	177.94
401.062	177.94
401.286	175.94
401.51	176.94
401.734	166.94
401.958	161.94
402.182	171.94
402.406	172.94
402.63	186.94
402.854	176.94
403.078	178.94
403.302	192.94
403.526	193.94
403.75	181.94
403.974	187.94
404.198	189.94
404.422	205.94
404.645	193.94
404.869	178.94
405.093	184.94
405.317	179.94
405.541	175.94
405.765	173.94
405.988	179.94
406.212	182.94
406.436	182.94
406.66	200.94
406.883	191.94
407.107	203.94
407.331	181.94
407.555	185.94
407.778	203.94
408.002	195.94
408.226	209.94
408.449	195.94
408.673	196.94
408.896	188.94
409.12	182.94
409.344	179.94
409.567	173.94
409.791	193.94
410.014	186.94
410.238	172.94
410.461	190.94
410.685	204.94
410.908	179.94
411.132	191.94
411.355	172.94
411.578	186.94
411.802	180.94
412.025	163.94
412.249	185.94
412.472	182.94
412.695	178.94
412.919	181.94
413.142	172.94
413.365	186.94
413.589	169.94
413.812	167.94
414.035	174.94
414.258	163.94
414.482	184.94
414.705	162.94
414.928	193.94
415.151	163.94
415.374	170.94
415.597	164.94
415.821	164.94
416.044	172.94
416.267	172.94
416.49	178.94
416.713	166.94
416.936	165.94
417.159	168.94
417.382	150.94
417.605	173.94
417.828	178.94
418.051	183.94
418.274	175.94
418.497	183.94
418.72	177.94
418.943	180.94
419.166	168.94
419.389	190.94
419.611	189.94
419.834	167.94
420.057	186.94
420.28	183.94
420.503	184.94
420.726	160.94
420.948	184.94
421.171	174.94
421.394	158.94
421.617	146.94
421.839	169.94
422.062	160.94
422.285	168.94
422.507	178.94
422.73	168.94
422.953	177.94
423.175	187.94
423.398	183.94
423.621	181.94
423.843	186.94
424.066	165.94
424.288	173.94
424.511	181.94
424.733	171.94
424.956	184.94
425.178	166.94
425.401	162.94
425.623	163.94
425.846	171.94
426.068	180.94
426.291	187.94
426.513	168.94
426.735	159.94
426.958	169.94
427.18	178.94
427.402	162.94
427.625	168.94
427.847	160.94
428.069	167.94
428.292	174.94
428.514	180.94
428.736	150.94
428.958	158.94
429.181	157.94
429.403	147.94
429.625	157.94
429.847	147.94
430.069	157.94
430.292	156.94
430.514	151.94
430.736	147.94
430.958	158.94
431.18	145.94
431.402	157.94
431.624	156.94
431.846	155.94
432.068	170.94
432.29	166.94
432.512	166.94
432.734	135.94
432.956	172.94
433.178	172.94
433.4	171.94
433.622	168.94
433.844	165.94
434.066	155.94
434.287	175.94
434.509	154.94
434.731	186.94
434.953	166.94
435.175	183.94
435.397	185.94
435.618	188.94
435.84	172.94
436.062	159.94
436.284	160.94
436.505	173.94
436.727	159.94
436.949	161.94
437.17	147.94
437.392	150.94
437.614	166.94
437.835	144.94
438.057	134.94
438.278	165.94
438.5	164.94
438.721	158.94
438.943	153.94
439.165	160.94
439.386	154.94
439.608	177.94
439.829	168.94
440.05	158.94
440.272	159.94
440.493	176.94
440.715	160.94
440.936	160.94
441.158	174.94
441.379	151.94
441.6	177.94
441.822	176.94
442.043	151.94
442.264	174.94
442.486	152.94
442.707	161.94
442.928	165.94
443.149	179.94
443.371	168.94
443.592	164.94
443.813	168.94
444.034	175.94
444.255	178.94
444.476	182.94
444.698	193.94
444.919	200.94
445.14	442.94
445.361	266.94
445.582	168.94
445.803	157.94
446.024	179.94
446.245	168.94
446.466	165.94
446.687	156.94
446.908	154.94
447.129	153.94
447.35	156.94
447.571	162.94
447.792	168.94
448.013	158.94
448.234	163.94
448.455	154.94
448.675	146.94
448.896	154.94
449.117	147.94
449.338	139.94
449.559	142.94
449.779	149.94
450	144.94
450.221	148.94
450.442	164.94
450.662	162.94
450.883	143.94
451.104	151.94
451.324	153.94
451.545	152.94
451.766	145.94
451.986	159.94
452.207	178.94
452.428	158.94
452.648	166.94
452.869	162.94
453.089	155.94
453.31	161.94
453.53	148.94
453.751	154.94
453.971	158.94
454.192	142.94
454.412	151.94
454.633	148.94
454.853	141.94
455.073	144.94
455.294	149.94
455.514	164.94
455.734	154.94
455.955	141.94
456.175	142.94
456.395	150.94
456.616	143.94
456.836	125.94
457.056	140.94
457.276	132.94
457.497	135.94
457.717	144.94
457.937	144.94
458.157	158.94
458.377	149.94
458.598	141.94
458.818	144.94
459.038	139.94
459.258	160.94
459.478	147.94
459.698	168.94
459.918	176.94
460.138	180.94
460.358	188.94
460.578	179.94
460.798	174.94
461.018	196.94
461.238	189.94
461.458	174.94
461.678	190.94
461.898	182.94
462.118	187.94
462.338	186.94
462.558	198.94
462.777	182.94
462.997	211.94
463.217	224.94
463.437	211.94
463.657	197.94
463.876	208.94
464.096	195.94
464.316	193.94
464.536	189.94
464.755	208.94
464.975	205.94
465.195	178.94
465.414	166.94
465.634	171.94
465.854	174.94
466.073	148.94
466.293	167.94
466.512	146.94
466.732	151.94
466.951	161.94
467.171	156.94
467.391	138.94
467.61	155.94
467.829	161.94
468.049	149.94
468.268	141.94
468.488	154.94
468.707	156.94
468.927	144.94
469.146	138.94
469.365	151.94
469.585	159.94
469.804	162.94
470.023	156.94
470.243	168.94
470.462	179.94
470.681	149.94
470.901	144.94
471.12	164.94
471.339	160.94
471.558	144.94
471.777	138.94
471.997	152.94
472.216	155.94
472.435	155.94
472.654	158.94
472.873	152.94
473.092	136.94
473.311	164.94
473.53	145.94
473.749	167.94
473.968	168.94
474.187	152.94
474.406	166.94
474.625	163.94
474.844	149.94
475.063	143.94
475.282	132.94
475.501	152.94
475.72	164.94
475.939	149.94
476.158	138.94
476.377	142.94
476.596	161.94
476.814	158.94
477.033	164.94
477.252	169.94
477.471	143.94
477.69	175.94
477.908	158.94
478.127	169.94
478.346	168.94
478.564	168.94
478.783	186.94
479.002	163.94
479.22	180.94
479.439	172.94
479.658	183.94
479.876	160.94
480.095	186.94
480.313	186.94
480.532	160.94
480.751	181.94
480.969	162.94
481.188	182.94
481.406	185.94
481.624	160.94
481.843	155.94
482.061	166.94
482.28	183.94
482.498	175.94
482.717	160.94
482.935	167.94
483.153	159.94
483.372	163.94
483.59	175.94
483.808	161.94
484.027	162.94
484.245	162.94
484.463	174.94
484.681	177.94
484.9	165.94
485.118	173.94
485.336	149.94
485.554	171.94
485.772	182.94
485.99	174.94
486.209	179.94
486.427	184.94
486.645	167.94
486.863	181.94
487.081	167.94
487.299	166.94
487.517	169.94
487.735	173.94
487.953	166.94
488.171	169.94
488.389	181.94
488.607	158.94
488.825	146.94
489.043	162.94
489.261	148.94
489.479	168.94
489.696	165.94
489.914	154.94
490.132	175.94
490.35	172.94
490.568	172.94
490.786	176.94
491.003	177.94
491.221	162.94
491.439	160.94
491.657	161.94
491.874	171.94
492.092	179.94
492.31	176.94
492.527	174.94
492.745	175.94
492.963	165.94
493.18	168.94
493.398	167.94
493.615	178.94
493.833	181.94
494.05	182.94
494.268	181.94
494.485	183.94
494.703	183.94
494.92	171.94
495.138	174.94
495.355	177.94
495.573	176.94
495.79	181.94
496.008	186.94
496.225	165.94
496.442	178.94
496.66	196.94
496.877	191.94
497.094	196.94
497.312	198.94
497.529	191.94
497.746	188.94
497.963	205.94
498.181	194.94
498.398	212.94
498.615	212.94
498.832	228.94
499.049	233.94
499.267	248.94
499.484	285.94
499.701	280.94
499.918	328.94
500.135	360.94
500.352	377.94
500.569	403.94
500.786	400.94
501.003	363.94
501.22	318.94
501.437	282.94
501.654	273.94
501.871	256.94
502.088	245.94
502.305	236.94
502.522	203.94
502.739	216.94
502.956	226.94
503.172	200.94
503.389	197.94
503.606	193.94
503.823	190.94
504.04	206.94
504.256	189.94
504.473	202.94
504.69	218.94
504.907	208.94
505.123	184.94
505.34	204.94
