Data from SampG_HRD10591_00089.txt Node
Date: Mon Jan 19 11:54:13 EST 2026
User: Yrep
Spectrometer: HR+D1059
Trigger mode: 0
Integration Time (sec): 3.443000E-1
Scans to average: 1
Electric dark correction enabled: true
Nonlinearity correction enabled: false
Boxcar width: 0
XAxis mode: Wavelengths
Number of Pixels in Spectrum: 2048
>>>>>Begin Spectral Data<<<<<
223.165	-17.12
223.4	-17.12
223.635	-17.12
223.869	-27.12
224.104	-28.12
224.338	-12.12
224.573	-11.12
224.808	-12.12
225.042	9.88
225.277	-5.12
225.511	-6.12
225.746	-6.12
225.98	7.88
226.215	16.88
226.449	12.88
226.683	14.88
226.918	38.88
227.152	23.88
227.387	48.88
227.621	40.88
227.856	50.88
228.09	42.88
228.324	42.88
228.559	55.88
228.793	64.88
229.027	66.88
229.262	74.88
229.496	78.88
229.73	66.88
229.964	60.88
230.199	62.88
230.433	76.88
230.667	86.88
230.901	78.88
231.136	76.88
231.37	68.88
231.604	75.88
231.838	77.88
232.072	83.88
232.306	89.88
232.541	89.88
232.775	83.88
233.009	80.88
233.243	72.88
233.477	63.88
233.711	80.88
233.945	79.88
234.179	84.88
234.413	88.88
234.647	87.88
234.881	74.88
235.115	78.88
235.349	67.88
235.583	83.88
235.817	87.88
236.051	87.88
236.285	83.88
236.519	81.88
236.753	84.88
236.987	82.88
237.221	67.88
237.455	80.88
237.689	80.88
237.922	85.88
238.156	86.88
238.39	72.88
238.624	67.88
238.858	84.88
239.091	65.88
239.325	74.88
239.559	82.88
239.793	90.88
240.027	96.88
240.26	80.88
240.494	74.88
240.728	65.88
240.961	70.88
241.195	93.88
241.429	72.88
241.662	78.88
241.896	82.88
242.13	92.88
242.363	77.88
242.597	82.88
242.83	80.88
243.064	68.88
243.298	81.88
243.531	80.88
243.765	85.88
243.998	89.88
244.232	84.88
244.465	91.88
244.699	87.88
244.932	86.88
245.166	97.88
245.399	82.88
245.633	90.88
245.866	77.88
246.099	96.88
246.333	93.88
246.566	73.88
246.8	70.88
247.033	79.88
247.266	80.88
247.5	90.88
247.733	71.88
247.966	82.88
248.2	85.88
248.433	83.88
248.666	94.88
248.899	98.88
249.133	88.88
249.366	92.88
249.599	80.88
249.832	86.88
250.066	97.88
250.299	91.88
250.532	82.88
250.765	91.88
250.998	93.88
251.231	82.88
251.465	91.88
251.698	91.88
251.931	83.88
252.164	91.88
252.397	82.88
252.63	69.88
252.863	94.88
253.096	86.88
253.329	72.88
253.562	83.88
253.795	85.88
254.028	92.88
254.261	81.88
254.494	72.88
254.727	94.88
254.96	81.88
255.193	86.88
255.426	62.88
255.659	91.88
255.892	91.88
256.124	95.88
256.357	77.88
256.59	83.88
256.823	75.88
257.056	84.88
257.289	96.88
257.521	90.88
257.754	75.88
257.987	86.88
258.22	82.88
258.452	90.88
258.685	96.88
258.918	94.88
259.151	72.88
259.383	85.88
259.616	99.88
259.849	72.88
260.081	83.88
260.314	89.88
260.547	83.88
260.779	77.88
261.012	72.88
261.244	93.88
261.477	91.88
261.71	83.88
261.942	97.88
262.175	93.88
262.407	78.88
262.64	88.88
262.872	90.88
263.105	84.88
263.337	81.88
263.57	90.88
263.802	96.88
264.035	93.88
264.267	89.88
264.499	83.88
264.732	93.88
264.964	90.88
265.197	112.88
265.429	90.88
265.661	78.88
265.894	90.88
266.126	89.88
266.358	99.88
266.591	86.88
266.823	100.88
267.055	89.88
267.287	81.88
267.52	81.88
267.752	93.88
267.984	94.88
268.216	88.88
268.448	97.88
268.681	84.88
268.913	88.88
269.145	81.88
269.377	80.88
269.609	82.88
269.841	106.88
270.073	90.88
270.306	103.88
270.538	90.88
270.77	94.88
271.002	78.88
271.234	95.88
271.466	103.88
271.698	91.88
271.93	92.88
272.162	88.88
272.394	96.88
272.626	87.88
272.858	87.88
273.09	95.88
273.322	103.88
273.553	105.88
273.785	90.88
274.017	84.88
274.249	101.88
274.481	91.88
274.713	78.88
274.945	94.88
275.176	88.88
275.408	93.88
275.64	102.88
275.872	88.88
276.104	100.88
276.335	90.88
276.567	95.88
276.799	86.88
277.031	92.88
277.262	95.88
277.494	109.88
277.726	97.88
277.957	87.88
278.189	92.88
278.421	103.88
278.652	90.88
278.884	108.88
279.115	92.88
279.347	103.88
279.579	90.88
279.81	101.88
280.042	82.88
280.273	101.88
280.505	102.88
280.736	101.88
280.968	113.88
281.199	92.88
281.431	75.88
281.662	103.88
281.894	98.88
282.125	89.88
282.356	106.88
282.588	99.88
282.819	111.88
283.051	93.88
283.282	91.88
283.513	103.88
283.745	95.88
283.976	99.88
284.207	108.88
284.439	101.88
284.67	103.88
284.901	102.88
285.132	96.88
285.364	99.88
285.595	112.88
285.826	104.88
286.057	98.88
286.288	95.88
286.52	91.88
286.751	93.88
286.982	101.88
287.213	88.88
287.444	97.88
287.675	102.88
287.906	109.88
288.138	91.88
288.369	96.88
288.6	98.88
288.831	113.88
289.062	92.88
289.293	94.88
289.524	83.88
289.755	96.88
289.986	100.88
290.217	102.88
290.448	93.88
290.679	116.88
290.91	94.88
291.141	105.88
291.371	107.88
291.602	89.88
291.833	101.88
292.064	88.88
292.295	98.88
292.526	95.88
292.757	106.88
292.987	102.88
293.218	91.88
293.449	102.88
293.68	91.88
293.91	93.88
294.141	119.88
294.372	107.88
294.603	101.88
294.833	85.88
295.064	103.88
295.295	91.88
295.525	87.88
295.756	97.88
295.987	93.88
296.217	99.88
296.448	110.88
296.679	106.88
296.909	100.88
297.14	119.88
297.37	97.88
297.601	114.88
297.831	104.88
298.062	108.88
298.292	112.88
298.523	90.88
298.753	110.88
298.984	87.88
299.214	87.88
299.445	95.88
299.675	98.88
299.905	89.88
300.136	97.88
300.366	98.88
300.597	103.88
300.827	112.88
301.057	100.88
301.288	102.88
301.518	105.88
301.748	93.88
301.979	133.88
302.209	104.88
302.439	99.88
302.669	92.88
302.9	98.88
303.13	106.88
303.36	103.88
303.59	108.88
303.82	117.88
304.051	101.88
304.281	106.88
304.511	109.88
304.741	111.88
304.971	103.88
305.201	109.88
305.431	98.88
305.661	110.88
305.891	104.88
306.121	102.88
306.352	104.88
306.582	113.88
306.812	104.88
307.042	102.88
307.272	92.88
307.502	99.88
307.731	95.88
307.961	104.88
308.191	109.88
308.421	103.88
308.651	120.88
308.881	102.88
309.111	105.88
309.341	96.88
309.571	110.88
309.8	94.88
310.03	113.88
310.26	110.88
310.49	109.88
310.72	97.88
310.949	104.88
311.179	112.88
311.409	89.88
311.639	94.88
311.868	103.88
312.098	96.88
312.328	110.88
312.557	107.88
312.787	103.88
313.017	122.88
313.246	110.88
313.476	105.88
313.706	109.88
313.935	106.88
314.165	107.88
314.394	106.88
314.624	103.88
314.853	116.88
315.083	114.88
315.312	103.88
315.542	92.88
315.771	99.88
316.001	100.88
316.23	101.88
316.46	98.88
316.689	114.88
316.919	106.88
317.148	102.88
317.377	103.88
317.607	96.88
317.836	88.88
318.065	93.88
318.295	99.88
318.524	129.88
318.753	104.88
318.983	107.88
319.212	124.88
319.441	106.88
319.67	97.88
319.9	113.88
320.129	104.88
320.358	89.88
320.587	96.88
320.816	113.88
321.046	114.88
321.275	116.88
321.504	98.88
321.733	100.88
321.962	117.88
322.191	100.88
322.42	107.88
322.649	121.88
322.878	110.88
323.108	102.88
323.337	105.88
323.566	105.88
323.795	107.88
324.024	91.88
324.253	106.88
324.482	107.88
324.71	118.88
324.939	105.88
325.168	93.88
325.397	113.88
325.626	107.88
325.855	103.88
326.084	107.88
326.313	106.88
326.542	106.88
326.77	116.88
326.999	109.88
327.228	107.88
327.457	110.88
327.686	115.88
327.914	104.88
328.143	116.88
328.372	108.88
328.6	107.88
328.829	109.88
329.058	108.88
329.287	122.88
329.515	110.88
329.744	120.88
329.972	113.88
330.201	105.88
330.43	103.88
330.658	89.88
330.887	114.88
331.115	106.88
331.344	113.88
331.572	120.88
331.801	112.88
332.03	86.88
332.258	107.88
332.486	116.88
332.715	123.88
332.943	117.88
333.172	122.88
333.4	100.88
333.629	120.88
333.857	117.88
334.085	124.88
334.314	111.88
334.542	119.88
334.771	137.88
334.999	120.88
335.227	118.88
335.455	122.88
335.684	108.88
335.912	97.88
336.14	117.88
336.369	115.88
336.597	117.88
336.825	135.88
337.053	113.88
337.281	124.88
337.51	101.88
337.738	122.88
337.966	113.88
338.194	97.88
338.422	105.88
338.65	117.88
338.878	126.88
339.106	106.88
339.334	120.88
339.562	110.88
339.79	114.88
340.018	110.88
340.246	81.88
340.474	114.88
340.702	101.88
340.93	108.88
341.158	96.88
341.386	113.88
341.614	118.88
341.842	96.88
342.07	118.88
342.298	119.88
342.526	105.88
342.754	108.88
342.981	106.88
343.209	116.88
343.437	136.88
343.665	115.88
343.893	122.88
344.12	132.88
344.348	107.88
344.576	97.88
344.804	114.88
345.031	116.88
345.259	111.88
345.487	120.88
345.714	105.88
345.942	100.88
346.17	106.88
346.397	100.88
346.625	88.88
346.853	107.88
347.08	103.88
347.308	110.88
347.535	113.88
347.763	112.88
347.99	120.88
348.218	111.88
348.445	102.88
348.673	122.88
348.9	111.88
349.128	123.88
349.355	109.88
349.583	114.88
349.81	117.88
350.037	109.88
350.265	108.88
350.492	98.88
350.72	108.88
350.947	100.88
351.174	117.88
351.402	112.88
351.629	104.88
351.856	100.88
352.083	106.88
352.311	108.88
352.538	89.88
352.765	109.88
352.992	114.88
353.22	109.88
353.447	97.88
353.674	106.88
353.901	108.88
354.128	110.88
354.355	104.88
354.583	110.88
354.81	112.88
355.037	118.88
355.264	109.88
355.491	97.88
355.718	102.88
355.945	98.88
356.172	102.88
356.399	105.88
356.626	118.88
356.853	103.88
357.08	116.88
357.307	101.88
357.534	103.88
357.761	98.88
357.988	107.88
358.215	107.88
358.441	109.88
358.668	97.88
358.895	108.88
359.122	107.88
359.349	112.88
359.576	108.88
359.802	102.88
360.029	96.88
360.256	108.88
360.483	110.88
360.709	109.88
360.936	113.88
361.163	120.88
361.39	116.88
361.616	105.88
361.843	104.88
362.07	108.88
362.296	97.88
362.523	109.88
362.749	106.88
362.976	106.88
363.203	107.88
363.429	104.88
363.656	109.88
363.882	118.88
364.109	107.88
364.335	119.88
364.562	97.88
364.788	103.88
365.015	116.88
365.241	119.88
365.468	113.88
365.694	106.88
365.92	105.88
366.147	89.88
366.373	96.88
366.599	115.88
366.826	104.88
367.052	92.88
367.278	111.88
367.505	106.88
367.731	129.88
367.957	108.88
368.184	110.88
368.41	112.88
368.636	106.88
368.862	106.88
369.089	107.88
369.315	106.88
369.541	118.88
369.767	106.88
369.993	119.88
370.219	111.88
370.445	92.88
370.672	86.88
370.898	103.88
371.124	105.88
371.35	117.88
371.576	117.88
371.802	105.88
372.028	116.88
372.254	115.88
372.48	113.88
372.706	112.88
372.932	118.88
373.158	107.88
373.384	115.88
373.61	116.88
373.835	120.88
374.061	107.88
374.287	99.88
374.513	96.88
374.739	112.88
374.965	108.88
375.191	108.88
375.416	130.88
375.642	113.88
375.868	102.88
376.094	102.88
376.319	113.88
376.545	96.88
376.771	105.88
376.997	117.88
377.222	121.88
377.448	113.88
377.674	108.88
377.899	101.88
378.125	112.88
378.35	116.88
378.576	97.88
378.802	116.88
379.027	111.88
379.253	120.88
379.478	106.88
379.704	119.88
379.929	111.88
380.155	110.88
380.38	95.88
380.606	112.88
380.831	100.88
381.057	115.88
381.282	130.88
381.507	114.88
381.733	125.88
381.958	107.88
382.184	99.88
382.409	106.88
382.634	109.88
382.86	99.88
383.085	103.88
383.31	105.88
383.535	110.88
383.761	120.88
383.986	108.88
384.211	94.88
384.436	125.88
384.662	109.88
384.887	111.88
385.112	111.88
385.337	117.88
385.562	112.88
385.787	114.88
386.013	125.88
386.238	120.88
386.463	116.88
386.688	161.88
386.913	116.88
387.138	124.88
387.363	115.88
387.588	121.88
387.813	126.88
388.038	124.88
388.263	117.88
388.488	109.88
388.713	117.88
388.938	135.88
389.163	100.88
389.387	117.88
389.612	116.88
389.837	110.88
390.062	115.88
390.287	111.88
390.512	115.88
390.736	102.88
390.961	112.88
391.186	111.88
391.411	112.88
391.636	122.88
391.86	120.88
392.085	128.88
392.31	105.88
392.534	97.88
392.759	127.88
392.984	123.88
393.208	128.88
393.433	121.88
393.658	125.88
393.882	125.88
394.107	126.88
394.331	120.88
394.556	114.88
394.78	117.88
395.005	118.88
395.229	128.88
395.454	130.88
395.678	114.88
395.903	131.88
396.127	133.88
396.352	118.88
396.576	131.88
396.801	111.88
397.025	112.88
397.249	114.88
397.474	120.88
397.698	107.88
397.922	124.88
398.147	105.88
398.371	114.88
398.595	135.88
398.82	133.88
399.044	134.88
399.268	145.88
399.492	160.88
399.717	158.88
399.941	153.88
400.165	120.88
400.389	139.88
400.613	140.88
400.837	134.88
401.062	120.88
401.286	113.88
401.51	131.88
401.734	121.88
401.958	136.88
402.182	130.88
402.406	123.88
402.63	119.88
402.854	124.88
403.078	128.88
403.302	147.88
403.526	131.88
403.75	140.88
403.974	136.88
404.198	122.88
404.422	137.88
404.645	143.88
404.869	126.88
405.093	139.88
405.317	137.88
405.541	130.88
405.765	124.88
405.988	133.88
406.212	128.88
406.436	126.88
406.66	132.88
406.883	155.88
407.107	146.88
407.331	138.88
407.555	148.88
407.778	158.88
408.002	133.88
408.226	122.88
408.449	122.88
408.673	126.88
408.896	128.88
409.12	137.88
409.344	138.88
409.567	131.88
409.791	132.88
410.014	129.88
410.238	147.88
410.461	127.88
410.685	137.88
410.908	129.88
411.132	132.88
411.355	125.88
411.578	147.88
411.802	122.88
412.025	126.88
412.249	129.88
412.472	123.88
412.695	129.88
412.919	122.88
413.142	109.88
413.365	134.88
413.589	123.88
413.812	119.88
414.035	127.88
414.258	122.88
414.482	120.88
414.705	132.88
414.928	126.88
415.151	117.88
415.374	135.88
415.597	129.88
415.821	122.88
416.044	114.88
416.267	129.88
416.49	124.88
416.713	133.88
416.936	129.88
417.159	120.88
417.382	121.88
417.605	130.88
417.828	124.88
418.051	122.88
418.274	146.88
418.497	109.88
418.72	114.88
418.943	125.88
419.166	140.88
419.389	137.88
419.611	145.88
419.834	127.88
420.057	132.88
420.28	130.88
420.503	122.88
420.726	121.88
420.948	113.88
421.171	132.88
421.394	136.88
421.617	134.88
421.839	126.88
422.062	120.88
422.285	120.88
422.507	127.88
422.73	120.88
422.953	131.88
423.175	108.88
423.398	133.88
423.621	129.88
423.843	125.88
424.066	118.88
424.288	130.88
424.511	136.88
424.733	126.88
424.956	136.88
425.178	123.88
425.401	117.88
425.623	121.88
425.846	128.88
426.068	107.88
426.291	129.88
426.513	125.88
426.735	116.88
426.958	88.88
427.18	116.88
427.402	125.88
427.625	116.88
427.847	120.88
428.069	116.88
428.292	134.88
428.514	121.88
428.736	104.88
428.958	103.88
429.181	119.88
429.403	115.88
429.625	119.88
429.847	112.88
430.069	122.88
430.292	139.88
430.514	119.88
430.736	106.88
430.958	134.88
431.18	134.88
431.402	116.88
431.624	104.88
431.846	104.88
432.068	118.88
432.29	107.88
432.512	131.88
432.734	120.88
432.956	127.88
433.178	122.88
433.4	126.88
433.622	139.88
433.844	130.88
434.066	110.88
434.287	122.88
434.509	120.88
434.731	130.88
434.953	127.88
435.175	137.88
435.397	128.88
435.618	117.88
435.84	120.88
436.062	115.88
436.284	122.88
436.505	118.88
436.727	131.88
436.949	132.88
437.17	113.88
437.392	122.88
437.614	116.88
437.835	115.88
438.057	109.88
438.278	114.88
438.5	99.88
438.721	121.88
438.943	118.88
439.165	128.88
439.386	112.88
439.608	124.88
439.829	114.88
440.05	115.88
440.272	107.88
440.493	120.88
440.715	107.88
440.936	121.88
441.158	116.88
441.379	118.88
441.6	129.88
441.822	132.88
442.043	120.88
442.264	120.88
442.486	122.88
442.707	116.88
442.928	123.88
443.149	132.88
443.371	125.88
443.592	116.88
443.813	128.88
444.034	125.88
444.255	140.88
444.476	131.88
444.698	139.88
444.919	136.88
445.14	355.88
445.361	216.88
445.582	132.88
445.803	124.88
446.024	118.88
446.245	134.88
446.466	113.88
446.687	124.88
446.908	130.88
447.129	125.88
447.35	127.88
447.571	121.88
447.792	116.88
448.013	112.88
448.234	116.88
448.455	131.88
448.675	97.88
448.896	115.88
449.117	113.88
449.338	120.88
449.559	130.88
449.779	121.88
450	110.88
450.221	126.88
450.442	117.88
450.662	114.88
450.883	115.88
451.104	130.88
451.324	110.88
451.545	122.88
451.766	98.88
451.986	123.88
452.207	111.88
452.428	117.88
452.648	128.88
452.869	111.88
453.089	112.88
453.31	134.88
453.53	117.88
453.751	112.88
453.971	116.88
454.192	115.88
454.412	114.88
454.633	118.88
454.853	119.88
455.073	123.88
455.294	105.88
455.514	119.88
455.734	106.88
455.955	100.88
456.175	113.88
456.395	118.88
456.616	106.88
456.836	115.88
457.056	104.88
457.276	110.88
457.497	101.88
457.717	110.88
457.937	108.88
458.157	123.88
458.377	113.88
458.598	113.88
458.818	102.88
459.038	120.88
459.258	124.88
459.478	128.88
459.698	127.88
459.918	111.88
460.138	111.88
460.358	149.88
460.578	142.88
460.798	120.88
461.018	137.88
461.238	137.88
461.458	132.88
461.678	145.88
461.898	138.88
462.118	122.88
462.338	151.88
462.558	129.88
462.777	120.88
462.997	153.88
463.217	141.88
463.437	147.88
463.657	134.88
463.876	123.88
464.096	140.88
464.316	132.88
464.536	136.88
464.755	149.88
464.975	131.88
465.195	133.88
465.414	144.88
465.634	118.88
465.854	112.88
466.073	120.88
466.293	129.88
466.512	120.88
466.732	119.88
466.951	122.88
467.171	106.88
467.391	118.88
467.61	104.88
467.829	109.88
468.049	108.88
468.268	123.88
468.488	107.88
468.707	113.88
468.927	114.88
469.146	125.88
469.365	118.88
469.585	115.88
469.804	106.88
470.023	121.88
470.243	113.88
470.462	136.88
470.681	108.88
470.901	128.88
471.12	123.88
471.339	114.88
471.558	125.88
471.777	97.88
471.997	119.88
472.216	120.88
472.435	112.88
472.654	116.88
472.873	137.88
473.092	120.88
473.311	125.88
473.53	116.88
473.749	122.88
473.968	129.88
474.187	144.88
474.406	109.88
474.625	127.88
474.844	116.88
475.063	106.88
475.282	117.88
475.501	100.88
475.72	126.88
475.939	115.88
476.158	114.88
476.377	123.88
476.596	118.88
476.814	123.88
477.033	130.88
477.252	104.88
477.471	117.88
477.69	106.88
477.908	124.88
478.127	124.88
478.346	130.88
478.564	139.88
478.783	134.88
479.002	123.88
479.22	106.88
479.439	125.88
479.658	122.88
479.876	125.88
480.095	117.88
480.313	122.88
480.532	127.88
480.751	145.88
480.969	123.88
481.188	129.88
481.406	129.88
481.624	125.88
481.843	114.88
482.061	123.88
482.28	121.88
482.498	133.88
482.717	123.88
482.935	121.88
483.153	118.88
483.372	122.88
483.59	114.88
483.808	115.88
484.027	127.88
484.245	131.88
484.463	124.88
484.681	133.88
484.9	119.88
485.118	130.88
485.336	116.88
485.554	148.88
485.772	118.88
485.99	127.88
486.209	127.88
486.427	124.88
486.645	119.88
486.863	124.88
487.081	115.88
487.299	114.88
487.517	133.88
487.735	126.88
487.953	127.88
488.171	135.88
488.389	131.88
488.607	124.88
488.825	122.88
489.043	120.88
489.261	126.88
489.479	133.88
489.696	134.88
489.914	117.88
490.132	116.88
490.35	133.88
490.568	126.88
490.786	147.88
491.003	114.88
491.221	133.88
491.439	136.88
491.657	134.88
491.874	130.88
492.092	122.88
492.31	134.88
492.527	126.88
492.745	130.88
492.963	134.88
493.18	130.88
493.398	120.88
493.615	133.88
493.833	119.88
494.05	131.88
494.268	141.88
494.485	128.88
494.703	140.88
494.92	134.88
495.138	127.88
495.355	127.88
495.573	123.88
495.79	133.88
496.008	126.88
496.225	117.88
496.442	125.88
496.66	129.88
496.877	120.88
497.094	153.88
497.312	136.88
497.529	138.88
497.746	150.88
497.963	147.88
498.181	149.88
498.398	146.88
498.615	163.88
498.832	156.88
499.049	161.88
499.267	179.88
499.484	191.88
499.701	193.88
499.918	215.88
500.135	214.88
500.352	237.88
500.569	232.88
500.786	239.88
501.003	224.88
501.22	215.88
501.437	201.88
501.654	180.88
501.871	169.88
502.088	149.88
502.305	166.88
502.522	146.88
502.739	163.88
502.956	144.88
503.172	162.88
503.389	153.88
503.606	127.88
503.823	129.88
504.04	132.88
504.256	134.88
504.473	144.88
504.69	129.88
504.907	148.88
505.123	134.88
505.34	123.88
505.557	118.88
505.773	132.88
505.99	120.88
506.207	123.88
506.423	125.88
506.64	128.88
506.856	129.88
507.073	114.88
