Data from SampG_HRD10591_00060.txt Node
Date: Mon Jan 19 11:54:04 EST 2026
User: Yrep
Spectrometer: HR+D1059
Trigger mode: 0
Integration Time (sec): 3.443000E-1
Scans to average: 1
Electric dark correction enabled: true
Nonlinearity correction enabled: false
Boxcar width: 0
XAxis mode: Wavelengths
Number of Pixels in Spectrum: 2048
>>>>>Begin Spectral Data<<<<<
223.165	-31.75
223.4	-31.75
223.635	-31.75
223.869	-11.75
224.104	-30.75
224.338	-17.75
224.573	-31.75
224.808	-6.75
225.042	3.25
225.277	3.25
225.511	-3.75
225.746	8.25
225.98	6.25
226.215	-5.75
226.449	16.25
226.683	27.25
226.918	40.25
227.152	35.25
227.387	30.25
227.621	36.25
227.856	50.25
228.09	58.25
228.324	41.25
228.559	58.25
228.793	56.25
229.027	72.25
229.262	81.25
229.496	83.25
229.73	72.25
229.964	73.25
230.199	80.25
230.433	66.25
230.667	77.25
230.901	83.25
231.136	83.25
231.37	94.25
231.604	86.25
231.838	86.25
232.072	81.25
232.306	89.25
232.541	81.25
232.775	90.25
233.009	74.25
233.243	80.25
233.477	73.25
233.711	83.25
233.945	77.25
234.179	74.25
234.413	88.25
234.647	90.25
234.881	84.25
235.115	87.25
235.349	91.25
235.583	85.25
235.817	84.25
236.051	92.25
236.285	75.25
236.519	92.25
236.753	75.25
236.987	84.25
237.221	80.25
237.455	88.25
237.689	88.25
237.922	84.25
238.156	80.25
238.39	72.25
238.624	87.25
238.858	70.25
239.091	82.25
239.325	74.25
239.559	73.25
239.793	82.25
240.027	96.25
240.26	83.25
240.494	105.25
240.728	84.25
240.961	74.25
241.195	94.25
241.429	83.25
241.662	77.25
241.896	75.25
242.13	66.25
242.363	69.25
242.597	75.25
242.83	73.25
243.064	75.25
243.298	70.25
243.531	73.25
243.765	74.25
243.998	60.25
244.232	81.25
244.465	82.25
244.699	70.25
244.932	70.25
245.166	77.25
245.399	91.25
245.633	104.25
245.866	80.25
246.099	80.25
246.333	83.25
246.566	84.25
246.8	82.25
247.033	75.25
247.266	72.25
247.5	73.25
247.733	69.25
247.966	85.25
248.2	81.25
248.433	92.25
248.666	93.25
248.899	90.25
249.133	77.25
249.366	82.25
249.599	80.25
249.832	83.25
250.066	109.25
250.299	74.25
250.532	85.25
250.765	72.25
250.998	73.25
251.231	80.25
251.465	90.25
251.698	67.25
251.931	80.25
252.164	85.25
252.397	76.25
252.63	94.25
252.863	95.25
253.096	86.25
253.329	85.25
253.562	80.25
253.795	95.25
254.028	105.25
254.261	89.25
254.494	74.25
254.727	76.25
254.96	84.25
255.193	95.25
255.426	91.25
255.659	80.25
255.892	99.25
256.124	75.25
256.357	92.25
256.59	86.25
256.823	74.25
257.056	88.25
257.289	99.25
257.521	97.25
257.754	82.25
257.987	68.25
258.22	93.25
258.452	80.25
258.685	76.25
258.918	92.25
259.151	87.25
259.383	83.25
259.616	73.25
259.849	82.25
260.081	87.25
260.314	94.25
260.547	71.25
260.779	83.25
261.012	90.25
261.244	86.25
261.477	108.25
261.71	88.25
261.942	89.25
262.175	84.25
262.407	100.25
262.64	86.25
262.872	88.25
263.105	95.25
263.337	101.25
263.57	80.25
263.802	92.25
264.035	86.25
264.267	88.25
264.499	90.25
264.732	93.25
264.964	86.25
265.197	85.25
265.429	82.25
265.661	88.25
265.894	84.25
266.126	97.25
266.358	80.25
266.591	101.25
266.823	96.25
267.055	98.25
267.287	88.25
267.52	88.25
267.752	101.25
267.984	88.25
268.216	88.25
268.448	99.25
268.681	99.25
268.913	96.25
269.145	86.25
269.377	83.25
269.609	99.25
269.841	99.25
270.073	96.25
270.306	103.25
270.538	91.25
270.77	83.25
271.002	101.25
271.234	88.25
271.466	94.25
271.698	83.25
271.93	98.25
272.162	96.25
272.394	104.25
272.626	87.25
272.858	84.25
273.09	103.25
273.322	95.25
273.553	77.25
273.785	95.25
274.017	96.25
274.249	92.25
274.481	96.25
274.713	100.25
274.945	103.25
275.176	118.25
275.408	93.25
275.64	97.25
275.872	102.25
276.104	92.25
276.335	96.25
276.567	95.25
276.799	93.25
277.031	84.25
277.262	98.25
277.494	96.25
277.726	99.25
277.957	99.25
278.189	91.25
278.421	99.25
278.652	105.25
278.884	88.25
279.115	88.25
279.347	95.25
279.579	107.25
279.81	95.25
280.042	92.25
280.273	91.25
280.505	91.25
280.736	95.25
280.968	100.25
281.199	92.25
281.431	100.25
281.662	89.25
281.894	87.25
282.125	93.25
282.356	94.25
282.588	97.25
282.819	88.25
283.051	96.25
283.282	78.25
283.513	101.25
283.745	97.25
283.976	101.25
284.207	105.25
284.439	106.25
284.67	96.25
284.901	102.25
285.132	96.25
285.364	93.25
285.595	99.25
285.826	106.25
286.057	105.25
286.288	107.25
286.52	110.25
286.751	84.25
286.982	98.25
287.213	94.25
287.444	101.25
287.675	109.25
287.906	106.25
288.138	78.25
288.369	96.25
288.6	97.25
288.831	82.25
289.062	111.25
289.293	114.25
289.524	102.25
289.755	99.25
289.986	98.25
290.217	101.25
290.448	101.25
290.679	117.25
290.91	100.25
291.141	96.25
291.371	97.25
291.602	107.25
291.833	85.25
292.064	94.25
292.295	101.25
292.526	107.25
292.757	96.25
292.987	97.25
293.218	94.25
293.449	106.25
293.68	96.25
293.91	90.25
294.141	113.25
294.372	99.25
294.603	100.25
294.833	103.25
295.064	100.25
295.295	92.25
295.525	96.25
295.756	108.25
295.987	92.25
296.217	93.25
296.448	92.25
296.679	114.25
296.909	99.25
297.14	110.25
297.37	101.25
297.601	104.25
297.831	102.25
298.062	104.25
298.292	100.25
298.523	86.25
298.753	99.25
298.984	105.25
299.214	99.25
299.445	86.25
299.675	101.25
299.905	85.25
300.136	110.25
300.366	106.25
300.597	102.25
300.827	87.25
301.057	104.25
301.288	118.25
301.518	109.25
301.748	96.25
301.979	138.25
302.209	101.25
302.439	102.25
302.669	98.25
302.9	107.25
303.13	102.25
303.36	108.25
303.59	116.25
303.82	115.25
304.051	99.25
304.281	109.25
304.511	97.25
304.741	102.25
304.971	109.25
305.201	109.25
305.431	98.25
305.661	98.25
305.891	106.25
306.121	112.25
306.352	97.25
306.582	109.25
306.812	91.25
307.042	77.25
307.272	102.25
307.502	107.25
307.731	100.25
307.961	114.25
308.191	100.25
308.421	113.25
308.651	99.25
308.881	104.25
309.111	92.25
309.341	100.25
309.571	99.25
309.8	102.25
310.03	101.25
310.26	101.25
310.49	95.25
310.72	116.25
310.949	100.25
311.179	96.25
311.409	107.25
311.639	98.25
311.868	98.25
312.098	95.25
312.328	120.25
312.557	95.25
312.787	92.25
313.017	120.25
313.246	93.25
313.476	106.25
313.706	96.25
313.935	101.25
314.165	112.25
314.394	91.25
314.624	94.25
314.853	105.25
315.083	90.25
315.312	116.25
315.542	92.25
315.771	99.25
316.001	103.25
316.23	121.25
316.46	92.25
316.689	100.25
316.919	104.25
317.148	109.25
317.377	105.25
317.607	103.25
317.836	101.25
318.065	103.25
318.295	97.25
318.524	115.25
318.753	106.25
318.983	108.25
319.212	116.25
319.441	101.25
319.67	92.25
319.9	118.25
320.129	113.25
320.358	112.25
320.587	106.25
320.816	106.25
321.046	120.25
321.275	104.25
321.504	95.25
321.733	95.25
321.962	99.25
322.191	89.25
322.42	104.25
322.649	108.25
322.878	105.25
323.108	115.25
323.337	108.25
323.566	106.25
323.795	117.25
324.024	117.25
324.253	112.25
324.482	101.25
324.71	107.25
324.939	112.25
325.168	98.25
325.397	98.25
325.626	101.25
325.855	109.25
326.084	113.25
326.313	104.25
326.542	118.25
326.77	99.25
326.999	106.25
327.228	105.25
327.457	100.25
327.686	120.25
327.914	117.25
328.143	126.25
328.372	107.25
328.6	104.25
328.829	105.25
329.058	106.25
329.287	113.25
329.515	100.25
329.744	106.25
329.972	104.25
330.201	102.25
330.43	101.25
330.658	103.25
330.887	97.25
331.115	105.25
331.344	123.25
331.572	113.25
331.801	105.25
332.03	116.25
332.258	118.25
332.486	116.25
332.715	101.25
332.943	120.25
333.172	115.25
333.4	109.25
333.629	130.25
333.857	107.25
334.085	118.25
334.314	119.25
334.542	109.25
334.771	112.25
334.999	112.25
335.227	102.25
335.455	119.25
335.684	120.25
335.912	99.25
336.14	111.25
336.369	113.25
336.597	123.25
336.825	116.25
337.053	106.25
337.281	113.25
337.51	122.25
337.738	126.25
337.966	116.25
338.194	103.25
338.422	117.25
338.65	102.25
338.878	115.25
339.106	103.25
339.334	110.25
339.562	112.25
339.79	121.25
340.018	116.25
340.246	92.25
340.474	107.25
340.702	114.25
340.93	116.25
341.158	106.25
341.386	93.25
341.614	105.25
341.842	107.25
342.07	96.25
342.298	98.25
342.526	110.25
342.754	110.25
342.981	106.25
343.209	121.25
343.437	123.25
343.665	114.25
343.893	106.25
344.12	117.25
344.348	108.25
344.576	117.25
344.804	112.25
345.031	108.25
345.259	109.25
345.487	105.25
345.714	102.25
345.942	103.25
346.17	109.25
346.397	101.25
346.625	110.25
346.853	104.25
347.08	94.25
347.308	114.25
347.535	101.25
347.763	91.25
347.99	107.25
348.218	114.25
348.445	99.25
348.673	114.25
348.9	112.25
349.128	120.25
349.355	94.25
349.583	98.25
349.81	108.25
350.037	105.25
350.265	105.25
350.492	100.25
350.72	105.25
350.947	105.25
351.174	115.25
351.402	108.25
351.629	94.25
351.856	104.25
352.083	110.25
352.311	102.25
352.538	101.25
352.765	87.25
352.992	116.25
353.22	109.25
353.447	102.25
353.674	99.25
353.901	109.25
354.128	110.25
354.355	93.25
354.583	118.25
354.81	110.25
355.037	102.25
355.264	111.25
355.491	103.25
355.718	106.25
355.945	118.25
356.172	103.25
356.399	110.25
356.626	96.25
356.853	104.25
357.08	110.25
357.307	104.25
357.534	109.25
357.761	99.25
357.988	101.25
358.215	110.25
358.441	93.25
358.668	104.25
358.895	102.25
359.122	95.25
359.349	96.25
359.576	118.25
359.802	95.25
360.029	101.25
360.256	114.25
360.483	106.25
360.709	108.25
360.936	119.25
361.163	102.25
361.39	101.25
361.616	114.25
361.843	102.25
362.07	103.25
362.296	107.25
362.523	108.25
362.749	110.25
362.976	108.25
363.203	111.25
363.429	94.25
363.656	103.25
363.882	98.25
364.109	109.25
364.335	108.25
364.562	115.25
364.788	117.25
365.015	112.25
365.241	108.25
365.468	116.25
365.694	99.25
365.92	114.25
366.147	100.25
366.373	90.25
366.599	126.25
366.826	118.25
367.052	102.25
367.278	126.25
367.505	90.25
367.731	109.25
367.957	93.25
368.184	107.25
368.41	116.25
368.636	103.25
368.862	115.25
369.089	98.25
369.315	110.25
369.541	119.25
369.767	112.25
369.993	113.25
370.219	100.25
370.445	104.25
370.672	99.25
370.898	110.25
371.124	105.25
371.35	113.25
371.576	96.25
371.802	107.25
372.028	99.25
372.254	96.25
372.48	112.25
372.706	89.25
372.932	92.25
373.158	113.25
373.384	113.25
373.61	118.25
373.835	123.25
374.061	108.25
374.287	105.25
374.513	115.25
374.739	109.25
374.965	119.25
375.191	110.25
375.416	114.25
375.642	121.25
375.868	126.25
376.094	119.25
376.319	104.25
376.545	101.25
376.771	118.25
376.997	116.25
377.222	102.25
377.448	117.25
377.674	114.25
377.899	109.25
378.125	94.25
378.35	107.25
378.576	104.25
378.802	104.25
379.027	105.25
379.253	103.25
379.478	102.25
379.704	103.25
379.929	117.25
380.155	112.25
380.38	105.25
380.606	97.25
380.831	115.25
381.057	116.25
381.282	114.25
381.507	119.25
381.733	99.25
381.958	120.25
382.184	102.25
382.409	108.25
382.634	103.25
382.86	112.25
383.085	102.25
383.31	86.25
383.535	123.25
383.761	96.25
383.986	109.25
384.211	109.25
384.436	110.25
384.662	106.25
384.887	109.25
385.112	104.25
385.337	125.25
385.562	109.25
385.787	116.25
386.013	116.25
386.238	118.25
386.463	119.25
386.688	128.25
386.913	115.25
387.138	116.25
387.363	104.25
387.588	124.25
387.813	116.25
388.038	116.25
388.263	102.25
388.488	93.25
388.713	110.25
388.938	119.25
389.163	107.25
389.387	96.25
389.612	112.25
389.837	118.25
390.062	109.25
390.287	109.25
390.512	108.25
390.736	113.25
390.961	105.25
391.186	113.25
391.411	119.25
391.636	122.25
391.86	121.25
392.085	132.25
392.31	109.25
392.534	110.25
392.759	134.25
392.984	133.25
393.208	110.25
393.433	104.25
393.658	128.25
393.882	100.25
394.107	131.25
394.331	112.25
394.556	116.25
394.78	113.25
395.005	121.25
395.229	121.25
395.454	133.25
395.678	127.25
395.903	110.25
396.127	126.25
396.352	112.25
396.576	112.25
396.801	128.25
397.025	122.25
397.249	124.25
397.474	119.25
397.698	110.25
397.922	108.25
398.147	113.25
398.371	121.25
398.595	133.25
398.82	124.25
399.044	130.25
399.268	133.25
399.492	152.25
399.717	153.25
399.941	156.25
400.165	121.25
400.389	125.25
400.613	106.25
400.837	115.25
401.062	124.25
401.286	110.25
401.51	112.25
401.734	121.25
401.958	123.25
402.182	122.25
402.406	113.25
402.63	128.25
402.854	128.25
403.078	120.25
403.302	126.25
403.526	123.25
403.75	140.25
403.974	130.25
404.198	131.25
404.422	127.25
404.645	129.25
404.869	126.25
405.093	135.25
405.317	122.25
405.541	122.25
405.765	121.25
405.988	118.25
406.212	130.25
406.436	125.25
406.66	136.25
406.883	144.25
407.107	134.25
407.331	133.25
407.555	144.25
407.778	129.25
408.002	133.25
408.226	123.25
408.449	135.25
408.673	118.25
408.896	133.25
409.12	119.25
409.344	133.25
409.567	133.25
409.791	137.25
410.014	139.25
410.238	141.25
410.461	124.25
410.685	127.25
410.908	125.25
411.132	134.25
411.355	131.25
411.578	141.25
411.802	133.25
412.025	139.25
412.249	115.25
412.472	116.25
412.695	121.25
412.919	123.25
413.142	118.25
413.365	131.25
413.589	107.25
413.812	119.25
414.035	133.25
414.258	108.25
414.482	123.25
414.705	109.25
414.928	121.25
415.151	127.25
415.374	127.25
415.597	105.25
415.821	123.25
416.044	133.25
416.267	123.25
416.49	99.25
416.713	128.25
416.936	122.25
417.159	138.25
417.382	118.25
417.605	126.25
417.828	122.25
418.051	113.25
418.274	130.25
418.497	117.25
418.72	133.25
418.943	124.25
419.166	130.25
419.389	129.25
419.611	118.25
419.834	122.25
420.057	129.25
420.28	129.25
420.503	110.25
420.726	131.25
420.948	124.25
421.171	111.25
421.394	118.25
421.617	111.25
421.839	125.25
422.062	115.25
422.285	117.25
422.507	121.25
422.73	121.25
422.953	108.25
423.175	122.25
423.398	131.25
423.621	121.25
423.843	132.25
424.066	118.25
424.288	126.25
424.511	122.25
424.733	129.25
424.956	124.25
425.178	136.25
425.401	109.25
425.623	126.25
425.846	114.25
426.068	122.25
426.291	113.25
426.513	106.25
426.735	122.25
426.958	113.25
427.18	119.25
427.402	115.25
427.625	114.25
427.847	88.25
428.069	125.25
428.292	110.25
428.514	104.25
428.736	104.25
428.958	109.25
429.181	112.25
429.403	119.25
429.625	115.25
429.847	116.25
430.069	124.25
430.292	124.25
430.514	117.25
430.736	110.25
430.958	122.25
431.18	103.25
431.402	106.25
431.624	130.25
431.846	125.25
432.068	121.25
432.29	124.25
432.512	123.25
432.734	124.25
432.956	114.25
433.178	136.25
433.4	106.25
433.622	114.25
433.844	117.25
434.066	126.25
434.287	107.25
434.509	107.25
434.731	120.25
434.953	123.25
435.175	129.25
435.397	135.25
435.618	111.25
435.84	120.25
436.062	123.25
436.284	128.25
436.505	119.25
436.727	113.25
436.949	114.25
437.17	115.25
437.392	116.25
437.614	103.25
437.835	112.25
438.057	120.25
438.278	109.25
438.5	112.25
438.721	115.25
438.943	115.25
439.165	104.25
439.386	123.25
439.608	128.25
439.829	124.25
440.05	114.25
440.272	112.25
440.493	103.25
440.715	119.25
440.936	123.25
441.158	118.25
441.379	123.25
441.6	135.25
441.822	113.25
442.043	128.25
442.264	126.25
442.486	110.25
442.707	106.25
442.928	105.25
443.149	113.25
443.371	130.25
443.592	122.25
443.813	115.25
444.034	132.25
444.255	137.25
444.476	119.25
444.698	133.25
444.919	122.25
445.14	334.25
445.361	232.25
445.582	128.25
445.803	109.25
446.024	117.25
446.245	111.25
446.466	127.25
446.687	104.25
446.908	107.25
447.129	121.25
447.35	109.25
447.571	106.25
447.792	112.25
448.013	111.25
448.234	106.25
448.455	112.25
448.675	115.25
448.896	110.25
449.117	109.25
449.338	107.25
449.559	123.25
449.779	102.25
450	122.25
450.221	121.25
450.442	107.25
450.662	119.25
450.883	106.25
451.104	112.25
451.324	114.25
451.545	112.25
451.766	117.25
451.986	116.25
452.207	105.25
452.428	116.25
452.648	107.25
452.869	108.25
453.089	114.25
453.31	108.25
453.53	99.25
453.751	113.25
453.971	114.25
454.192	106.25
454.412	105.25
454.633	117.25
454.853	111.25
455.073	104.25
455.294	125.25
455.514	120.25
455.734	104.25
455.955	117.25
456.175	130.25
456.395	112.25
456.616	115.25
456.836	110.25
457.056	119.25
457.276	104.25
457.497	120.25
457.717	103.25
457.937	102.25
458.157	113.25
458.377	110.25
458.598	107.25
458.818	99.25
459.038	117.25
459.258	117.25
459.478	124.25
459.698	120.25
459.918	124.25
460.138	123.25
460.358	134.25
460.578	126.25
460.798	124.25
461.018	126.25
461.238	125.25
461.458	130.25
461.678	136.25
461.898	140.25
462.118	129.25
462.338	133.25
462.558	135.25
462.777	146.25
462.997	141.25
463.217	152.25
463.437	155.25
463.657	125.25
463.876	129.25
464.096	147.25
464.316	138.25
464.536	138.25
464.755	130.25
464.975	128.25
465.195	140.25
465.414	131.25
465.634	113.25
465.854	128.25
466.073	124.25
466.293	113.25
466.512	123.25
466.732	113.25
466.951	141.25
467.171	116.25
467.391	99.25
467.61	116.25
467.829	121.25
468.049	109.25
468.268	118.25
468.488	102.25
468.707	112.25
468.927	104.25
469.146	113.25
469.365	128.25
469.585	118.25
469.804	104.25
470.023	125.25
470.243	114.25
470.462	124.25
470.681	116.25
470.901	120.25
471.12	119.25
471.339	110.25
471.558	116.25
471.777	117.25
471.997	112.25
472.216	109.25
472.435	109.25
472.654	124.25
472.873	112.25
473.092	119.25
473.311	126.25
473.53	118.25
473.749	104.25
473.968	107.25
474.187	105.25
474.406	117.25
474.625	117.25
474.844	117.25
475.063	105.25
475.282	100.25
475.501	104.25
475.72	123.25
475.939	106.25
476.158	108.25
476.377	116.25
476.596	104.25
476.814	112.25
477.033	113.25
477.252	124.25
477.471	108.25
477.69	102.25
477.908	113.25
478.127	124.25
478.346	118.25
478.564	109.25
478.783	113.25
479.002	117.25
479.22	130.25
479.439	111.25
479.658	117.25
479.876	117.25
480.095	125.25
480.313	133.25
480.532	124.25
480.751	126.25
480.969	106.25
481.188	112.25
481.406	110.25
481.624	114.25
481.843	116.25
482.061	111.25
482.28	108.25
482.498	117.25
482.717	116.25
482.935	122.25
483.153	120.25
483.372	124.25
483.59	117.25
483.808	117.25
484.027	128.25
484.245	110.25
484.463	116.25
484.681	133.25
484.9	130.25
485.118	129.25
485.336	136.25
485.554	106.25
485.772	125.25
485.99	128.25
486.209	142.25
486.427	120.25
486.645	123.25
486.863	128.25
487.081	119.25
487.299	110.25
487.517	111.25
487.735	123.25
487.953	121.25
488.171	137.25
488.389	119.25
488.607	107.25
488.825	117.25
489.043	130.25
489.261	139.25
489.479	121.25
489.696	105.25
489.914	127.25
490.132	129.25
490.35	128.25
490.568	144.25
490.786	106.25
491.003	109.25
491.221	116.25
491.439	120.25
491.657	116.25
491.874	114.25
492.092	132.25
492.31	129.25
492.527	129.25
492.745	144.25
492.963	118.25
493.18	141.25
493.398	135.25
493.615	107.25
493.833	123.25
494.05	137.25
494.268	118.25
494.485	121.25
494.703	124.25
494.92	139.25
495.138	128.25
495.355	134.25
495.573	128.25
495.79	131.25
496.008	132.25
496.225	122.25
496.442	120.25
496.66	136.25
496.877	123.25
497.094	148.25
497.312	124.25
497.529	126.25
497.746	134.25
497.963	145.25
498.181	137.25
498.398	139.25
498.615	157.25
498.832	148.25
499.049	141.25
499.267	176.25
499.484	153.25
499.701	171.25
499.918	195.25
500.135	209.25
500.352	221.25
500.569	224.25
500.786	234.25
501.003	215.25
501.22	205.25
501.437	182.25
501.654	166.25
501.871	177.25
502.088	160.25
502.305	150.25
502.522	151.25
502.739	135.25
502.956	153.25
503.172	131.25
503.389	119.25
503.606	124.25
503.823	134.25
504.04	128.25
504.256	139.25
504.473	141.25
504.69	138.25
504.907	138.25
505.123	139.25
505.34	113.25
505.557	125.25
505.773	119.25
505.99	130.25
506.207	117.25
506.423	118.25
506.64	130.25
506.856	124.25
507.073	122.25
507.289	119.25
