Data from SampG_HRD10591_00048.txt Node
Date: Mon Jan 19 11:53:59 EST 2026
User: Yrep
Spectrometer: HR+D1059
Trigger mode: 0
Integration Time (sec): 3.443000E-1
Scans to average: 1
Electric dark correction enabled: true
Nonlinearity correction enabled: false
Boxcar width: 0
XAxis mode: Wavelengths
Number of Pixels in Spectrum: 2048
>>>>>Begin Spectral Data<<<<<
223.165	-26.38
223.4	-26.38
223.635	-26.38
223.869	-22.38
224.104	-12.38
224.338	-21.38
224.573	-17.38
224.808	-17.38
225.042	-15.38
225.277	-1.38
225.511	9.62
225.746	1.62
225.98	7.62
226.215	22.62
226.449	21.62
226.683	13.62
226.918	27.62
227.152	29.62
227.387	36.62
227.621	17.62
227.856	40.62
228.09	45.62
228.324	51.62
228.559	80.62
228.793	41.62
229.027	49.62
229.262	65.62
229.496	69.62
229.73	86.62
229.964	85.62
230.199	72.62
230.433	85.62
230.667	78.62
230.901	82.62
231.136	77.62
231.37	81.62
231.604	86.62
231.838	81.62
232.072	70.62
232.306	83.62
232.541	99.62
232.775	75.62
233.009	75.62
233.243	83.62
233.477	81.62
233.711	87.62
233.945	88.62
234.179	69.62
234.413	93.62
234.647	108.62
234.881	85.62
235.115	82.62
235.349	90.62
235.583	80.62
235.817	64.62
236.051	85.62
236.285	70.62
236.519	86.62
236.753	64.62
236.987	89.62
237.221	77.62
237.455	81.62
237.689	88.62
237.922	85.62
238.156	95.62
238.39	81.62
238.624	69.62
238.858	79.62
239.091	87.62
239.325	85.62
239.559	66.62
239.793	75.62
240.027	82.62
240.26	75.62
240.494	69.62
240.728	75.62
240.961	70.62
241.195	91.62
241.429	85.62
241.662	73.62
241.896	75.62
242.13	85.62
242.363	73.62
242.597	81.62
242.83	82.62
243.064	74.62
243.298	81.62
243.531	81.62
243.765	81.62
243.998	90.62
244.232	83.62
244.465	99.62
244.699	75.62
244.932	100.62
245.166	67.62
245.399	83.62
245.633	82.62
245.866	77.62
246.099	83.62
246.333	73.62
246.566	69.62
246.8	84.62
247.033	97.62
247.266	80.62
247.5	84.62
247.733	81.62
247.966	86.62
248.2	93.62
248.433	79.62
248.666	83.62
248.899	75.62
249.133	79.62
249.366	114.62
249.599	84.62
249.832	94.62
250.066	102.62
250.299	79.62
250.532	95.62
250.765	83.62
250.998	87.62
251.231	88.62
251.465	77.62
251.698	107.62
251.931	84.62
252.164	79.62
252.397	89.62
252.63	77.62
252.863	69.62
253.096	81.62
253.329	94.62
253.562	101.62
253.795	102.62
254.028	84.62
254.261	82.62
254.494	97.62
254.727	103.62
254.96	97.62
255.193	91.62
255.426	82.62
255.659	82.62
255.892	101.62
256.124	97.62
256.357	97.62
256.59	75.62
256.823	97.62
257.056	93.62
257.289	78.62
257.521	101.62
257.754	86.62
257.987	87.62
258.22	96.62
258.452	91.62
258.685	91.62
258.918	81.62
259.151	75.62
259.383	91.62
259.616	78.62
259.849	78.62
260.081	87.62
260.314	90.62
260.547	88.62
260.779	96.62
261.012	91.62
261.244	96.62
261.477	119.62
261.71	81.62
261.942	79.62
262.175	90.62
262.407	98.62
262.64	96.62
262.872	86.62
263.105	105.62
263.337	83.62
263.57	86.62
263.802	91.62
264.035	91.62
264.267	86.62
264.499	93.62
264.732	91.62
264.964	101.62
265.197	98.62
265.429	93.62
265.661	106.62
265.894	103.62
266.126	98.62
266.358	99.62
266.591	96.62
266.823	82.62
267.055	85.62
267.287	94.62
267.52	98.62
267.752	108.62
267.984	113.62
268.216	113.62
268.448	118.62
268.681	101.62
268.913	96.62
269.145	107.62
269.377	106.62
269.609	84.62
269.841	115.62
270.073	98.62
270.306	90.62
270.538	107.62
270.77	99.62
271.002	89.62
271.234	103.62
271.466	112.62
271.698	101.62
271.93	108.62
272.162	118.62
272.394	111.62
272.626	104.62
272.858	98.62
273.09	103.62
273.322	105.62
273.553	102.62
273.785	102.62
274.017	100.62
274.249	91.62
274.481	86.62
274.713	107.62
274.945	113.62
275.176	96.62
275.408	101.62
275.64	102.62
275.872	116.62
276.104	105.62
276.335	102.62
276.567	85.62
276.799	108.62
277.031	114.62
277.262	98.62
277.494	107.62
277.726	109.62
277.957	98.62
278.189	90.62
278.421	99.62
278.652	95.62
278.884	96.62
279.115	93.62
279.347	112.62
279.579	118.62
279.81	99.62
280.042	100.62
280.273	104.62
280.505	102.62
280.736	97.62
280.968	115.62
281.199	112.62
281.431	119.62
281.662	112.62
281.894	117.62
282.125	123.62
282.356	110.62
282.588	108.62
282.819	126.62
283.051	101.62
283.282	119.62
283.513	115.62
283.745	109.62
283.976	112.62
284.207	95.62
284.439	115.62
284.67	117.62
284.901	123.62
285.132	112.62
285.364	99.62
285.595	102.62
285.826	115.62
286.057	117.62
286.288	116.62
286.52	112.62
286.751	113.62
286.982	92.62
287.213	105.62
287.444	112.62
287.675	101.62
287.906	119.62
288.138	120.62
288.369	117.62
288.6	118.62
288.831	100.62
289.062	119.62
289.293	117.62
289.524	122.62
289.755	115.62
289.986	121.62
290.217	114.62
290.448	110.62
290.679	111.62
290.91	118.62
291.141	125.62
291.371	121.62
291.602	125.62
291.833	106.62
292.064	105.62
292.295	124.62
292.526	107.62
292.757	121.62
292.987	112.62
293.218	111.62
293.449	106.62
293.68	113.62
293.91	122.62
294.141	132.62
294.372	120.62
294.603	104.62
294.833	117.62
295.064	114.62
295.295	111.62
295.525	101.62
295.756	125.62
295.987	119.62
296.217	118.62
296.448	107.62
296.679	111.62
296.909	122.62
297.14	117.62
297.37	123.62
297.601	117.62
297.831	118.62
298.062	116.62
298.292	117.62
298.523	136.62
298.753	136.62
298.984	114.62
299.214	126.62
299.445	118.62
299.675	126.62
299.905	125.62
300.136	124.62
300.366	113.62
300.597	128.62
300.827	119.62
301.057	128.62
301.288	113.62
301.518	138.62
301.748	118.62
301.979	166.62
302.209	119.62
302.439	129.62
302.669	111.62
302.9	113.62
303.13	107.62
303.36	114.62
303.59	118.62
303.82	119.62
304.051	115.62
304.281	137.62
304.511	129.62
304.741	120.62
304.971	111.62
305.201	112.62
305.431	123.62
305.661	111.62
305.891	110.62
306.121	132.62
306.352	118.62
306.582	129.62
306.812	117.62
307.042	117.62
307.272	111.62
307.502	95.62
307.731	118.62
307.961	118.62
308.191	112.62
308.421	126.62
308.651	124.62
308.881	125.62
309.111	105.62
309.341	119.62
309.571	122.62
309.8	111.62
310.03	138.62
310.26	107.62
310.49	131.62
310.72	118.62
310.949	115.62
311.179	120.62
311.409	102.62
311.639	119.62
311.868	128.62
312.098	120.62
312.328	121.62
312.557	119.62
312.787	120.62
313.017	120.62
313.246	122.62
313.476	134.62
313.706	131.62
313.935	127.62
314.165	150.62
314.394	117.62
314.624	127.62
314.853	123.62
315.083	114.62
315.312	130.62
315.542	123.62
315.771	123.62
316.001	141.62
316.23	121.62
316.46	127.62
316.689	137.62
316.919	118.62
317.148	121.62
317.377	123.62
317.607	128.62
317.836	113.62
318.065	121.62
318.295	118.62
318.524	104.62
318.753	129.62
318.983	111.62
319.212	109.62
319.441	117.62
319.67	120.62
319.9	134.62
320.129	127.62
320.358	106.62
320.587	129.62
320.816	123.62
321.046	129.62
321.275	124.62
321.504	129.62
321.733	119.62
321.962	116.62
322.191	117.62
322.42	123.62
322.649	126.62
322.878	129.62
323.108	125.62
323.337	128.62
323.566	116.62
323.795	142.62
324.024	135.62
324.253	143.62
324.482	117.62
324.71	107.62
324.939	132.62
325.168	129.62
325.397	121.62
325.626	134.62
325.855	112.62
326.084	125.62
326.313	129.62
326.542	117.62
326.77	134.62
326.999	125.62
327.228	133.62
327.457	117.62
327.686	119.62
327.914	121.62
328.143	131.62
328.372	120.62
328.6	119.62
328.829	127.62
329.058	123.62
329.287	135.62
329.515	124.62
329.744	124.62
329.972	122.62
330.201	131.62
330.43	138.62
330.658	130.62
330.887	128.62
331.115	118.62
331.344	119.62
331.572	134.62
331.801	129.62
332.03	137.62
332.258	144.62
332.486	137.62
332.715	143.62
332.943	131.62
333.172	143.62
333.4	145.62
333.629	167.62
333.857	149.62
334.085	146.62
334.314	151.62
334.542	143.62
334.771	161.62
334.999	134.62
335.227	147.62
335.455	145.62
335.684	150.62
335.912	144.62
336.14	147.62
336.369	137.62
336.597	142.62
336.825	137.62
337.053	140.62
337.281	143.62
337.51	139.62
337.738	150.62
337.966	138.62
338.194	136.62
338.422	124.62
338.65	135.62
338.878	134.62
339.106	115.62
339.334	137.62
339.562	137.62
339.79	123.62
340.018	133.62
340.246	126.62
340.474	128.62
340.702	136.62
340.93	135.62
341.158	148.62
341.386	118.62
341.614	138.62
341.842	112.62
342.07	119.62
342.298	129.62
342.526	140.62
342.754	141.62
342.981	144.62
343.209	146.62
343.437	181.62
343.665	138.62
343.893	149.62
344.12	141.62
344.348	130.62
344.576	132.62
344.804	130.62
345.031	107.62
345.259	140.62
345.487	125.62
345.714	130.62
345.942	121.62
346.17	125.62
346.397	127.62
346.625	128.62
346.853	132.62
347.08	128.62
347.308	115.62
347.535	119.62
347.763	138.62
347.99	130.62
348.218	135.62
348.445	125.62
348.673	136.62
348.9	127.62
349.128	136.62
349.355	134.62
349.583	132.62
349.81	117.62
350.037	129.62
350.265	129.62
350.492	136.62
350.72	134.62
350.947	128.62
351.174	152.62
351.402	111.62
351.629	129.62
351.856	112.62
352.083	121.62
352.311	134.62
352.538	119.62
352.765	135.62
352.992	146.62
353.22	135.62
353.447	112.62
353.674	120.62
353.901	131.62
354.128	141.62
354.355	109.62
354.583	126.62
354.81	123.62
355.037	127.62
355.264	139.62
355.491	139.62
355.718	133.62
355.945	126.62
356.172	124.62
356.399	133.62
356.626	143.62
356.853	125.62
357.08	129.62
357.307	145.62
357.534	139.62
357.761	121.62
357.988	138.62
358.215	141.62
358.441	120.62
358.668	136.62
358.895	141.62
359.122	127.62
359.349	133.62
359.576	120.62
359.802	110.62
360.029	133.62
360.256	119.62
360.483	125.62
360.709	141.62
360.936	144.62
361.163	128.62
361.39	127.62
361.616	124.62
361.843	116.62
362.07	135.62
362.296	134.62
362.523	133.62
362.749	128.62
362.976	135.62
363.203	119.62
363.429	135.62
363.656	133.62
363.882	118.62
364.109	129.62
364.335	121.62
364.562	121.62
364.788	124.62
365.015	128.62
365.241	126.62
365.468	132.62
365.694	118.62
365.92	125.62
366.147	141.62
366.373	132.62
366.599	123.62
366.826	122.62
367.052	137.62
367.278	114.62
367.505	134.62
367.731	134.62
367.957	127.62
368.184	134.62
368.41	125.62
368.636	130.62
368.862	120.62
369.089	136.62
369.315	134.62
369.541	150.62
369.767	132.62
369.993	117.62
370.219	127.62
370.445	114.62
370.672	125.62
370.898	130.62
371.124	139.62
371.35	133.62
371.576	131.62
371.802	129.62
372.028	134.62
372.254	125.62
372.48	151.62
372.706	138.62
372.932	141.62
373.158	117.62
373.384	135.62
373.61	144.62
373.835	138.62
374.061	127.62
374.287	136.62
374.513	141.62
374.739	151.62
374.965	135.62
375.191	157.62
375.416	144.62
375.642	130.62
375.868	136.62
376.094	134.62
376.319	131.62
376.545	150.62
376.771	131.62
376.997	145.62
377.222	136.62
377.448	123.62
377.674	129.62
377.899	131.62
378.125	120.62
378.35	137.62
378.576	124.62
378.802	122.62
379.027	147.62
379.253	143.62
379.478	131.62
379.704	132.62
379.929	118.62
380.155	127.62
380.38	131.62
380.606	156.62
380.831	137.62
381.057	148.62
381.282	122.62
381.507	143.62
381.733	136.62
381.958	141.62
382.184	133.62
382.409	148.62
382.634	144.62
382.86	142.62
383.085	154.62
383.31	132.62
383.535	134.62
383.761	147.62
383.986	148.62
384.211	134.62
384.436	151.62
384.662	133.62
384.887	133.62
385.112	145.62
385.337	149.62
385.562	143.62
385.787	147.62
386.013	152.62
386.238	130.62
386.463	151.62
386.688	177.62
386.913	168.62
387.138	141.62
387.363	142.62
387.588	154.62
387.813	154.62
388.038	149.62
388.263	143.62
388.488	136.62
388.713	148.62
388.938	150.62
389.163	157.62
389.387	151.62
389.612	148.62
389.837	137.62
390.062	139.62
390.287	132.62
390.512	151.62
390.736	141.62
390.961	138.62
391.186	143.62
391.411	153.62
391.636	152.62
391.86	143.62
392.085	147.62
392.31	127.62
392.534	137.62
392.759	163.62
392.984	165.62
393.208	153.62
393.433	152.62
393.658	152.62
393.882	141.62
394.107	168.62
394.331	153.62
394.556	144.62
394.78	169.62
395.005	152.62
395.229	147.62
395.454	165.62
395.678	157.62
395.903	152.62
396.127	165.62
396.352	143.62
396.576	165.62
396.801	167.62
397.025	148.62
397.249	144.62
397.474	170.62
397.698	148.62
397.922	151.62
398.147	175.62
398.371	151.62
398.595	166.62
398.82	161.62
399.044	179.62
399.268	209.62
399.492	223.62
399.717	240.62
399.941	213.62
400.165	204.62
400.389	169.62
400.613	179.62
400.837	175.62
401.062	160.62
401.286	170.62
401.51	168.62
401.734	172.62
401.958	157.62
402.182	161.62
402.406	179.62
402.63	169.62
402.854	179.62
403.078	178.62
403.302	171.62
403.526	202.62
403.75	191.62
403.974	170.62
404.198	201.62
404.422	192.62
404.645	176.62
404.869	178.62
405.093	177.62
405.317	180.62
405.541	178.62
405.765	184.62
405.988	165.62
406.212	177.62
406.436	173.62
406.66	186.62
406.883	183.62
407.107	198.62
407.331	191.62
407.555	205.62
407.778	201.62
408.002	195.62
408.226	185.62
408.449	174.62
408.673	165.62
408.896	185.62
409.12	194.62
409.344	180.62
409.567	195.62
409.791	183.62
410.014	191.62
410.238	179.62
410.461	159.62
410.685	178.62
410.908	180.62
411.132	185.62
411.355	169.62
411.578	177.62
411.802	171.62
412.025	168.62
412.249	169.62
412.472	167.62
412.695	171.62
412.919	168.62
413.142	162.62
413.365	163.62
413.589	162.62
413.812	154.62
414.035	169.62
414.258	154.62
414.482	172.62
414.705	168.62
414.928	181.62
415.151	158.62
415.374	167.62
415.597	168.62
415.821	159.62
416.044	153.62
416.267	173.62
416.49	169.62
416.713	170.62
416.936	165.62
417.159	193.62
417.382	178.62
417.605	152.62
417.828	186.62
418.051	162.62
418.274	168.62
418.497	173.62
418.72	171.62
418.943	184.62
419.166	190.62
419.389	190.62
419.611	174.62
419.834	154.62
420.057	174.62
420.28	161.62
420.503	186.62
420.726	165.62
420.948	165.62
421.171	147.62
421.394	175.62
421.617	159.62
421.839	164.62
422.062	173.62
422.285	168.62
422.507	175.62
422.73	154.62
422.953	177.62
423.175	171.62
423.398	179.62
423.621	196.62
423.843	182.62
424.066	162.62
424.288	165.62
424.511	185.62
424.733	170.62
424.956	153.62
425.178	158.62
425.401	160.62
425.623	172.62
425.846	153.62
426.068	164.62
426.291	160.62
426.513	152.62
426.735	161.62
426.958	170.62
427.18	175.62
427.402	171.62
427.625	155.62
427.847	149.62
428.069	161.62
428.292	155.62
428.514	154.62
428.736	146.62
428.958	143.62
429.181	159.62
429.403	164.62
429.625	146.62
429.847	166.62
430.069	159.62
430.292	164.62
430.514	153.62
430.736	143.62
430.958	158.62
431.18	164.62
431.402	149.62
431.624	157.62
431.846	156.62
432.068	158.62
432.29	166.62
432.512	164.62
432.734	164.62
432.956	162.62
433.178	168.62
433.4	181.62
433.622	156.62
433.844	145.62
434.066	156.62
434.287	164.62
434.509	172.62
434.731	172.62
434.953	171.62
435.175	167.62
435.397	171.62
435.618	146.62
435.84	163.62
436.062	171.62
436.284	158.62
436.505	152.62
436.727	164.62
436.949	168.62
437.17	163.62
437.392	152.62
437.614	144.62
437.835	158.62
438.057	138.62
438.278	154.62
438.5	147.62
438.721	165.62
438.943	164.62
439.165	154.62
439.386	170.62
439.608	131.62
439.829	144.62
440.05	169.62
440.272	159.62
440.493	160.62
440.715	161.62
440.936	166.62
441.158	167.62
441.379	146.62
441.6	173.62
441.822	175.62
442.043	160.62
442.264	145.62
442.486	145.62
442.707	166.62
442.928	147.62
443.149	168.62
443.371	175.62
443.592	170.62
443.813	171.62
444.034	174.62
444.255	185.62
444.476	181.62
444.698	192.62
444.919	190.62
445.14	418.62
445.361	293.62
445.582	171.62
445.803	162.62
446.024	166.62
446.245	174.62
446.466	171.62
446.687	146.62
446.908	160.62
447.129	136.62
447.35	166.62
447.571	161.62
447.792	147.62
448.013	143.62
448.234	154.62
448.455	153.62
448.675	163.62
448.896	147.62
449.117	146.62
449.338	140.62
449.559	138.62
449.779	142.62
450	149.62
450.221	145.62
450.442	133.62
450.662	146.62
450.883	155.62
451.104	156.62
451.324	141.62
451.545	145.62
451.766	136.62
451.986	139.62
452.207	167.62
452.428	151.62
452.648	155.62
452.869	156.62
453.089	128.62
453.31	134.62
453.53	144.62
453.751	137.62
453.971	149.62
454.192	149.62
454.412	131.62
454.633	141.62
454.853	139.62
455.073	161.62
455.294	145.62
455.514	142.62
455.734	129.62
455.955	129.62
456.175	134.62
456.395	143.62
456.616	134.62
456.836	147.62
457.056	141.62
457.276	145.62
457.497	132.62
457.717	145.62
457.937	163.62
458.157	151.62
458.377	150.62
458.598	159.62
458.818	153.62
459.038	154.62
459.258	164.62
459.478	157.62
459.698	167.62
459.918	163.62
460.138	176.62
460.358	175.62
460.578	187.62
460.798	171.62
461.018	190.62
461.238	198.62
461.458	159.62
461.678	166.62
461.898	177.62
462.118	183.62
462.338	189.62
462.558	180.62
462.777	197.62
462.997	210.62
463.217	221.62
463.437	214.62
463.657	182.62
463.876	192.62
464.096	197.62
464.316	184.62
464.536	191.62
464.755	192.62
464.975	167.62
465.195	184.62
465.414	175.62
465.634	162.62
465.854	157.62
466.073	155.62
466.293	165.62
466.512	153.62
466.732	163.62
466.951	148.62
467.171	145.62
467.391	145.62
467.61	132.62
467.829	168.62
468.049	157.62
468.268	149.62
468.488	149.62
468.707	150.62
468.927	134.62
469.146	145.62
469.365	143.62
469.585	175.62
469.804	151.62
470.023	133.62
470.243	157.62
470.462	160.62
470.681	170.62
470.901	139.62
471.12	166.62
471.339	147.62
471.558	144.62
471.777	143.62
471.997	141.62
472.216	146.62
472.435	150.62
472.654	151.62
472.873	134.62
473.092	151.62
473.311	147.62
473.53	133.62
473.749	134.62
473.968	162.62
474.187	155.62
474.406	135.62
474.625	145.62
474.844	147.62
475.063	158.62
475.282	145.62
475.501	132.62
475.72	149.62
475.939	145.62
476.158	158.62
476.377	151.62
476.596	163.62
476.814	139.62
477.033	154.62
477.252	161.62
477.471	149.62
477.69	176.62
477.908	159.62
478.127	175.62
478.346	185.62
478.564	168.62
478.783	166.62
479.002	156.62
479.22	161.62
479.439	160.62
479.658	174.62
479.876	186.62
480.095	166.62
480.313	171.62
480.532	179.62
480.751	173.62
480.969	189.62
481.188	166.62
481.406	163.62
481.624	166.62
481.843	153.62
482.061	149.62
482.28	176.62
482.498	160.62
482.717	157.62
482.935	162.62
483.153	149.62
483.372	179.62
483.59	172.62
483.808	163.62
484.027	169.62
484.245	146.62
484.463	161.62
484.681	168.62
484.9	164.62
485.118	162.62
485.336	168.62
485.554	165.62
485.772	163.62
485.99	157.62
486.209	177.62
486.427	165.62
486.645	168.62
486.863	162.62
487.081	170.62
487.299	169.62
487.517	170.62
487.735	168.62
487.953	174.62
488.171	168.62
488.389	175.62
488.607	147.62
488.825	156.62
489.043	157.62
489.261	167.62
489.479	182.62
489.696	175.62
489.914	155.62
490.132	157.62
490.35	171.62
490.568	167.62
490.786	167.62
491.003	157.62
491.221	155.62
491.439	168.62
491.657	158.62
491.874	154.62
492.092	170.62
492.31	170.62
492.527	175.62
492.745	173.62
492.963	160.62
493.18	159.62
493.398	175.62
493.615	177.62
493.833	172.62
494.05	183.62
494.268	189.62
494.485	171.62
494.703	167.62
494.92	171.62
495.138	169.62
495.355	185.62
495.573	190.62
495.79	151.62
496.008	181.62
496.225	168.62
496.442	176.62
496.66	195.62
496.877	191.62
497.094	196.62
497.312	178.62
497.529	185.62
497.746	183.62
497.963	173.62
498.181	198.62
498.398	198.62
498.615	214.62
498.832	221.62
499.049	234.62
499.267	261.62
499.484	262.62
499.701	289.62
499.918	316.62
500.135	347.62
500.352	391.62
500.569	388.62
500.786	364.62
501.003	357.62
501.22	318.62
501.437	279.62
501.654	271.62
501.871	246.62
502.088	250.62
502.305	243.62
502.522	212.62
502.739	209.62
502.956	216.62
503.172	195.62
503.389	189.62
503.606	191.62
503.823	176.62
504.04	188.62
504.256	195.62
504.473	197.62
504.69	200.62
504.907	209.62
505.123	196.62
