Data from SampG_HRD10591_00049.txt Node
Date: Mon Jan 19 11:54:00 EST 2026
User: Yrep
Spectrometer: HR+D1059
Trigger mode: 0
Integration Time (sec): 3.443000E-1
Scans to average: 1
Electric dark correction enabled: true
Nonlinearity correction enabled: false
Boxcar width: 0
XAxis mode: Wavelengths
Number of Pixels in Spectrum: 2048
>>>>>Begin Spectral Data<<<<<
223.165	-22
223.4	-22
223.635	-22
223.869	-23
224.104	-20
224.338	-17
224.573	-17
224.808	-12
225.042	-12
225.277	-6
225.511	-2
225.746	4
225.98	2
226.215	14
226.449	18
226.683	20
226.918	33
227.152	40
227.387	33
227.621	33
227.856	57
228.09	52
228.324	49
228.559	65
228.793	60
229.027	68
229.262	70
229.496	77
229.73	72
229.964	78
230.199	88
230.433	83
230.667	72
230.901	90
231.136	87
231.37	89
231.604	86
231.838	92
232.072	99
232.306	86
232.541	77
232.775	83
233.009	70
233.243	97
233.477	74
233.711	88
233.945	93
234.179	81
234.413	90
234.647	101
234.881	82
235.115	88
235.349	97
235.583	87
235.817	76
236.051	86
236.285	94
236.519	93
236.753	85
236.987	97
237.221	87
237.455	88
237.689	89
237.922	74
238.156	70
238.39	86
238.624	90
238.858	97
239.091	94
239.325	88
239.559	77
239.793	82
240.027	82
240.26	74
240.494	90
240.728	93
240.961	83
241.195	89
241.429	83
241.662	77
241.896	89
242.13	90
242.363	87
242.597	87
242.83	77
243.064	88
243.298	77
243.531	74
243.765	84
243.998	85
244.232	90
244.465	75
244.699	98
244.932	87
245.166	81
245.399	87
245.633	101
245.866	90
246.099	83
246.333	83
246.566	76
246.8	97
247.033	88
247.266	82
247.5	90
247.733	93
247.966	89
248.2	75
248.433	89
248.666	86
248.899	91
249.133	92
249.366	87
249.599	106
249.832	85
250.066	96
250.299	81
250.532	84
250.765	90
250.998	103
251.231	87
251.465	108
251.698	97
251.931	95
252.164	96
252.397	91
252.63	99
252.863	91
253.096	86
253.329	93
253.562	99
253.795	96
254.028	96
254.261	103
254.494	92
254.727	93
254.96	92
255.193	96
255.426	97
255.659	88
255.892	94
256.124	91
256.357	102
256.59	106
256.823	109
257.056	97
257.289	98
257.521	97
257.754	96
257.987	110
258.22	110
258.452	97
258.685	93
258.918	94
259.151	94
259.383	101
259.616	91
259.849	89
260.081	94
260.314	96
260.547	93
260.779	97
261.012	115
261.244	98
261.477	102
261.71	90
261.942	87
262.175	107
262.407	90
262.64	97
262.872	97
263.105	87
263.337	127
263.57	100
263.802	111
264.035	97
264.267	93
264.499	94
264.732	101
264.964	92
265.197	94
265.429	101
265.661	100
265.894	113
266.126	114
266.358	97
266.591	105
266.823	90
267.055	99
267.287	102
267.52	95
267.752	102
267.984	104
268.216	102
268.448	97
268.681	120
268.913	108
269.145	98
269.377	103
269.609	97
269.841	115
270.073	109
270.306	102
270.538	89
270.77	110
271.002	100
271.234	129
271.466	109
271.698	109
271.93	117
272.162	107
272.394	114
272.626	108
272.858	130
273.09	112
273.322	105
273.553	108
273.785	104
274.017	97
274.249	99
274.481	110
274.713	102
274.945	97
275.176	92
275.408	109
275.64	115
275.872	101
276.104	110
276.335	105
276.567	109
276.799	117
277.031	107
277.262	95
277.494	118
277.726	119
277.957	121
278.189	98
278.421	126
278.652	114
278.884	108
279.115	121
279.347	107
279.579	112
279.81	113
280.042	107
280.273	103
280.505	107
280.736	106
280.968	100
281.199	118
281.431	109
281.662	106
281.894	115
282.125	112
282.356	102
282.588	120
282.819	115
283.051	107
283.282	116
283.513	122
283.745	105
283.976	113
284.207	95
284.439	112
284.67	110
284.901	109
285.132	122
285.364	109
285.595	113
285.826	112
286.057	113
286.288	123
286.52	106
286.751	116
286.982	116
287.213	106
287.444	102
287.675	119
287.906	130
288.138	105
288.369	129
288.6	127
288.831	112
289.062	114
289.293	106
289.524	118
289.755	137
289.986	122
290.217	113
290.448	122
290.679	131
290.91	125
291.141	115
291.371	119
291.602	123
291.833	126
292.064	114
292.295	136
292.526	131
292.757	129
292.987	117
293.218	116
293.449	116
293.68	120
293.91	106
294.141	135
294.372	129
294.603	130
294.833	118
295.064	122
295.295	118
295.525	120
295.756	125
295.987	124
296.217	126
296.448	124
296.679	125
296.909	140
297.14	110
297.37	122
297.601	136
297.831	110
298.062	120
298.292	125
298.523	131
298.753	120
298.984	110
299.214	117
299.445	112
299.675	111
299.905	130
300.136	117
300.366	113
300.597	130
300.827	133
301.057	132
301.288	132
301.518	129
301.748	111
301.979	175
302.209	127
302.439	123
302.669	128
302.9	133
303.13	124
303.36	118
303.59	118
303.82	118
304.051	138
304.281	128
304.511	128
304.741	132
304.971	115
305.201	124
305.431	131
305.661	123
305.891	105
306.121	116
306.352	131
306.582	126
306.812	117
307.042	129
307.272	110
307.502	122
307.731	141
307.961	124
308.191	128
308.421	123
308.651	134
308.881	123
309.111	123
309.341	135
309.571	123
309.8	127
310.03	114
310.26	120
310.49	118
310.72	111
310.949	120
311.179	128
311.409	125
311.639	129
311.868	127
312.098	132
312.328	115
312.557	137
312.787	141
313.017	144
313.246	133
313.476	128
313.706	120
313.935	127
314.165	132
314.394	125
314.624	124
314.853	138
315.083	126
315.312	137
315.542	128
315.771	133
316.001	120
316.23	130
316.46	121
316.689	119
316.919	131
317.148	131
317.377	140
317.607	131
317.836	134
318.065	125
318.295	126
318.524	116
318.753	132
318.983	132
319.212	145
319.441	115
319.67	125
319.9	124
320.129	138
320.358	138
320.587	140
320.816	137
321.046	116
321.275	139
321.504	125
321.733	118
321.962	129
322.191	123
322.42	134
322.649	146
322.878	126
323.108	123
323.337	135
323.566	133
323.795	127
324.024	145
324.253	125
324.482	110
324.71	131
324.939	130
325.168	128
325.397	131
325.626	131
325.855	145
326.084	125
326.313	133
326.542	135
326.77	122
326.999	134
327.228	132
327.457	120
327.686	137
327.914	126
328.143	134
328.372	133
328.6	133
328.829	137
329.058	135
329.287	135
329.515	114
329.744	145
329.972	130
330.201	129
330.43	138
330.658	129
330.887	158
331.115	153
331.344	136
331.572	132
331.801	126
332.03	141
332.258	137
332.486	142
332.715	150
332.943	147
333.172	141
333.4	144
333.629	155
333.857	169
334.085	158
334.314	159
334.542	159
334.771	145
334.999	153
335.227	137
335.455	143
335.684	161
335.912	161
336.14	138
336.369	123
336.597	151
336.825	149
337.053	126
337.281	145
337.51	146
337.738	133
337.966	133
338.194	142
338.422	117
338.65	150
338.878	162
339.106	145
339.334	148
339.562	161
339.79	137
340.018	128
340.246	131
340.474	131
340.702	140
340.93	125
341.158	134
341.386	140
341.614	143
341.842	131
342.07	128
342.298	140
342.526	128
342.754	146
342.981	145
343.209	145
343.437	181
343.665	141
343.893	156
344.12	181
344.348	137
344.576	139
344.804	123
345.031	127
345.259	138
345.487	159
345.714	134
345.942	115
346.17	133
346.397	134
346.625	130
346.853	150
347.08	138
347.308	137
347.535	135
347.763	132
347.99	160
348.218	137
348.445	132
348.673	135
348.9	148
349.128	142
349.355	150
349.583	134
349.81	147
350.037	145
350.265	134
350.492	129
350.72	132
350.947	131
351.174	138
351.402	134
351.629	130
351.856	131
352.083	118
352.311	126
352.538	139
352.765	134
352.992	143
353.22	138
353.447	133
353.674	146
353.901	141
354.128	133
354.355	137
354.583	125
354.81	134
355.037	137
355.264	160
355.491	130
355.718	134
355.945	132
356.172	124
356.399	131
356.626	142
356.853	121
357.08	130
357.307	125
357.534	121
357.761	132
357.988	148
358.215	130
358.441	130
358.668	133
358.895	129
359.122	139
359.349	126
359.576	122
359.802	139
360.029	134
360.256	129
360.483	119
360.709	129
360.936	146
361.163	126
361.39	147
361.616	140
361.843	148
362.07	142
362.296	123
362.523	100
362.749	136
362.976	140
363.203	136
363.429	132
363.656	150
363.882	134
364.109	145
364.335	134
364.562	117
364.788	133
365.015	118
365.241	136
365.468	135
365.694	126
365.92	124
366.147	137
366.373	126
366.599	131
366.826	126
367.052	125
367.278	131
367.505	129
367.731	139
367.957	124
368.184	116
368.41	133
368.636	134
368.862	136
369.089	137
369.315	113
369.541	143
369.767	139
369.993	134
370.219	127
370.445	126
370.672	148
370.898	134
371.124	126
371.35	145
371.576	143
371.802	136
372.028	123
372.254	133
372.48	130
372.706	148
372.932	169
373.158	159
373.384	157
373.61	140
373.835	150
374.061	141
374.287	131
374.513	154
374.739	130
374.965	159
375.191	151
375.416	145
375.642	153
375.868	151
376.094	135
376.319	149
376.545	140
376.771	129
376.997	124
377.222	138
377.448	135
377.674	148
377.899	158
378.125	128
378.35	135
378.576	134
378.802	131
379.027	124
379.253	148
379.478	127
379.704	131
379.929	145
380.155	149
380.38	124
380.606	125
380.831	132
381.057	144
381.282	155
381.507	142
381.733	147
381.958	131
382.184	141
382.409	139
382.634	152
382.86	140
383.085	164
383.31	149
383.535	170
383.761	154
383.986	140
384.211	150
384.436	156
384.662	144
384.887	161
385.112	145
385.337	152
385.562	151
385.787	131
386.013	141
386.238	150
386.463	154
386.688	181
386.913	141
387.138	150
387.363	154
387.588	168
387.813	150
388.038	138
388.263	172
388.488	155
388.713	140
388.938	141
389.163	171
389.387	143
389.612	163
389.837	161
390.062	158
390.287	163
390.512	147
390.736	157
390.961	149
391.186	152
391.411	152
391.636	159
391.86	150
392.085	179
392.31	159
392.534	182
392.759	172
392.984	167
393.208	159
393.433	158
393.658	159
393.882	180
394.107	159
394.331	167
394.556	158
394.78	165
395.005	169
395.229	155
395.454	169
395.678	154
395.903	158
396.127	179
396.352	150
396.576	146
396.801	162
397.025	167
397.249	162
397.474	191
397.698	167
397.922	166
398.147	167
398.371	179
398.595	167
398.82	176
399.044	187
399.268	220
399.492	237
399.717	227
399.941	213
400.165	201
400.389	187
400.613	176
400.837	182
401.062	169
401.286	161
401.51	178
401.734	179
401.958	178
402.182	186
402.406	180
402.63	162
402.854	171
403.078	197
403.302	194
403.526	210
403.75	194
403.974	198
404.198	191
404.422	202
404.645	169
404.869	194
405.093	186
405.317	183
405.541	179
405.765	186
405.988	175
406.212	168
406.436	198
406.66	198
406.883	200
407.107	184
407.331	199
407.555	212
407.778	197
408.002	178
408.226	185
408.449	181
408.673	175
408.896	195
409.12	185
409.344	189
409.567	195
409.791	210
410.014	198
410.238	191
410.461	194
410.685	171
410.908	188
411.132	202
411.355	175
411.578	185
411.802	173
412.025	169
412.249	190
412.472	179
412.695	174
412.919	183
413.142	187
413.365	175
413.589	177
413.812	171
414.035	197
414.258	180
414.482	167
414.705	192
414.928	196
415.151	166
415.374	171
415.597	165
415.821	174
416.044	172
416.267	171
416.49	175
416.713	180
416.936	190
417.159	176
417.382	166
417.605	187
417.828	194
418.051	172
418.274	169
418.497	179
418.72	179
418.943	188
419.166	192
419.389	198
419.611	195
419.834	171
420.057	189
420.28	169
420.503	162
420.726	173
420.948	165
421.171	171
421.394	168
421.617	179
421.839	177
422.062	175
422.285	175
422.507	173
422.73	169
422.953	185
423.175	173
423.398	187
423.621	185
423.843	181
424.066	181
424.288	178
424.511	177
424.733	174
424.956	181
425.178	170
425.401	157
425.623	167
425.846	163
426.068	157
426.291	173
426.513	180
426.735	170
426.958	137
427.18	161
427.402	150
427.625	161
427.847	157
428.069	175
428.292	166
428.514	176
428.736	154
428.958	158
429.181	157
429.403	164
429.625	172
429.847	158
430.069	165
430.292	163
430.514	160
430.736	166
430.958	164
431.18	145
431.402	170
431.624	165
431.846	164
432.068	163
432.29	173
432.512	168
432.734	165
432.956	159
433.178	159
433.4	159
433.622	167
433.844	168
434.066	163
434.287	158
434.509	154
434.731	178
434.953	179
435.175	178
435.397	176
435.618	168
435.84	180
436.062	166
436.284	154
436.505	164
436.727	153
436.949	165
437.17	161
437.392	163
437.614	179
437.835	157
438.057	165
438.278	136
438.5	145
438.721	155
438.943	174
439.165	166
439.386	170
439.608	166
439.829	166
440.05	175
440.272	153
440.493	161
440.715	175
440.936	177
441.158	178
441.379	168
441.6	161
441.822	162
442.043	179
442.264	171
442.486	179
442.707	173
442.928	180
443.149	174
443.371	186
443.592	172
443.813	176
444.034	170
444.255	197
444.476	195
444.698	193
444.919	196
445.14	458
445.361	311
445.582	181
445.803	169
446.024	165
446.245	176
446.466	154
446.687	140
446.908	149
447.129	159
447.35	173
447.571	177
447.792	164
448.013	143
448.234	185
448.455	165
448.675	166
448.896	143
449.117	155
449.338	143
449.559	155
449.779	147
450	161
450.221	145
450.442	131
450.662	159
450.883	170
451.104	159
451.324	154
451.545	155
451.766	155
451.986	151
452.207	147
452.428	153
452.648	161
452.869	155
453.089	155
453.31	158
453.53	170
453.751	165
453.971	130
454.192	151
454.412	157
454.633	139
454.853	146
455.073	157
455.294	161
455.514	148
455.734	149
455.955	150
456.175	136
456.395	153
456.616	135
456.836	142
457.056	159
457.276	139
457.497	147
457.717	150
457.937	138
458.157	138
458.377	131
458.598	154
458.818	163
459.038	147
459.258	165
459.478	163
459.698	157
459.918	170
460.138	184
460.358	178
460.578	178
460.798	183
461.018	195
461.238	175
461.458	189
461.678	174
461.898	183
462.118	185
462.338	190
462.558	189
462.777	189
462.997	212
463.217	214
463.437	207
463.657	203
463.876	209
464.096	205
464.316	197
464.536	202
464.755	198
464.975	188
465.195	197
465.414	170
465.634	171
465.854	166
466.073	162
466.293	153
466.512	165
466.732	161
466.951	167
467.171	154
467.391	158
467.61	148
467.829	158
468.049	151
468.268	142
468.488	150
468.707	161
468.927	145
469.146	155
469.365	154
469.585	150
469.804	172
470.023	158
470.243	173
470.462	179
470.681	155
470.901	165
471.12	161
471.339	163
471.558	158
471.777	153
471.997	162
472.216	151
472.435	138
472.654	155
472.873	163
473.092	163
473.311	168
473.53	147
473.749	163
473.968	169
474.187	146
474.406	154
474.625	155
474.844	173
475.063	146
475.282	151
475.501	159
475.72	166
475.939	163
476.158	159
476.377	162
476.596	152
476.814	157
477.033	149
477.252	163
477.471	148
477.69	139
477.908	151
478.127	186
478.346	180
478.564	164
478.783	167
479.002	175
479.22	163
479.439	167
479.658	184
479.876	173
480.095	163
480.313	175
480.532	194
480.751	170
480.969	170
481.188	171
481.406	177
481.624	173
481.843	187
482.061	161
482.28	153
482.498	171
482.717	176
482.935	165
483.153	154
483.372	161
483.59	158
483.808	160
484.027	180
484.245	180
484.463	166
484.681	169
484.9	178
485.118	174
485.336	163
485.554	180
485.772	189
485.99	187
486.209	169
486.427	183
486.645	166
486.863	187
487.081	151
487.299	171
487.517	179
487.735	172
487.953	180
488.171	176
488.389	191
488.607	180
488.825	161
489.043	174
489.261	189
489.479	170
489.696	173
489.914	185
490.132	170
490.35	180
490.568	161
490.786	166
491.003	158
491.221	169
491.439	172
491.657	169
491.874	176
492.092	166
492.31	188
492.527	152
492.745	180
492.963	171
493.18	182
493.398	188
493.615	165
493.833	169
494.05	187
494.268	178
494.485	195
494.703	181
494.92	181
495.138	184
495.355	171
495.573	181
495.79	170
496.008	189
496.225	181
496.442	162
496.66	197
496.877	203
497.094	187
497.312	190
497.529	175
497.746	193
497.963	203
498.181	226
498.398	214
498.615	225
498.832	235
499.049	243
499.267	266
499.484	283
499.701	299
499.918	299
500.135	370
500.352	387
500.569	411
500.786	387
501.003	373
501.22	331
501.437	304
501.654	275
501.871	246
502.088	238
502.305	243
502.522	218
502.739	227
502.956	210
503.172	204
503.389	206
503.606	195
503.823	197
504.04	206
504.256	197
504.473	199
504.69	193
504.907	223
505.123	187
505.34	180
505.557	165
505.773	162
505.99	170
506.207	178
506.423	165
506.64	183
506.856	161
507.073	154
507.289	173
507.506	169
507.722	162
507.939	170
508.155	166
508.372	165
508.588	157
508.805	171
509.021	155
509.238	175
509.454	167
509.67	150
509.887	150
510.103	182
510.319	159
510.536	170
510.752	157
510.968	155
511.184	145
511.401	162
511.617	152
511.833	168
512.049	156
512.265	143
512.481	166
512.698	157
512.914	174
513.13	147
513.346	157
513.562	145
513.778	185
513.994	161
514.21	158
514.426	171
514.642	172
514.858	181
515.074	174
515.29	171
515.506	183
515.721	153
515.937	172
516.153	150
516.369	183
516.585	170
516.801	189
517.016	181
517.232	202
517.448	216
517.664	215
517.879	199
518.095	203
518.311	183
518.527	185
518.742	204
518.958	171
519.173	166
519.389	175
519.605	166
519.82	166
520.036	178
520.251	168
520.467	182
520.682	166
520.898	172
521.113	162
521.329	156
521.544	142
521.76	162
521.975	159
522.19	175
522.406	155
522.621	153
522.836	142
523.052	167
523.267	147
523.482	139
523.698	160
523.913	150
524.128	163
524.343	160
524.559	151
524.774	143
524.989	163
525.204	151
525.419	150
525.634	146
525.849	160
526.064	168
526.28	162
526.495	156
526.71	145
526.925	141
527.14	151
527.355	152
527.57	165
527.785	139
527.999	150
528.214	163
528.429	152
528.644	159
528.859	166
529.074	132
529.289	153
529.503	161
529.718	169
529.933	165
530.148	163
530.363	149
530.577	145
530.792	163
531.007	148
531.221	153
531.436	149
531.651	157
531.865	167
532.08	156
532.295	174
532.509	153
532.724	163
532.938	134
533.153	153
533.367	150
533.582	159
533.796	169
534.011	146
534.225	153
534.44	137
534.654	163
534.868	158
535.083	161
535.297	161
535.511	155
535.726	164
535.94	156
536.154	160
536.369	161
536.583	153
536.797	148
537.011	145
537.225	161
537.44	133
537.654	143
537.868	155
538.082	141
538.296	150
538.51	167
538.724	141
538.938	138
539.153	149
539.367	163
539.581	133
539.795	161
540.009	161
540.222	162
540.436	140
540.65	131
540.864	138
541.078	156
541.292	160
541.506	153
541.72	155
541.934	165
542.147	154
542.361	153
542.575	152
542.789	151
543.002	154
543.216	149
543.43	152
543.644	155
543.857	133
544.071	150
544.285	145
544.498	162
544.712	125
544.925	146
545.139	142
545.352	165
545.566	154
545.779	147
545.993	139
546.206	152
546.42	147
546.633	149
546.847	154
547.06	155
547.274	152
547.487	160
547.7	149
547.914	152
548.127	129
548.34	157
548.554	147
548.767	150
548.98	143
549.193	152
549.407	144
549.62	142
549.833	152
550.046	148
550.259	156
550.473	157
550.686	165
550.899	151
551.112	163
551.325	148
551.538	139
551.751	148
551.964	145
552.177	153
552.39	162
552.603	169
552.816	148
553.029	171
553.242	173
553.455	164
553.667	166
553.88	146
554.093	141
554.306	147
554.519	152
554.732	153
554.944	154
555.157	150
555.37	141
555.583	141
555.795	153
556.008	159
556.221	126
556.433	139
556.646	153
556.859	137
557.071	157
557.284	140
557.496	148
557.709	135
557.921	142
558.134	145
558.346	134
558.559	140
558.771	146
558.984	136
559.196	152
559.409	123
559.621	137
559.833	129
560.046	135
560.258	139
560.47	145
560.683	146
560.895	116
561.107	131
561.32	132
561.532	127
561.744	143
561.956	140
562.168	139
562.381	142
562.593	134
562.805	139
563.017	135
563.229	144
563.441	134
563.653	147
563.865	145
564.077	147
564.289	151
564.501	127
564.713	129
564.925	140
565.137	137
565.349	148
565.561	140
565.773	156
565.985	167
566.197	165
566.408	164
566.62	168
566.832	180
567.044	183
