Data from SampG_HRD10591_00071.txt Node
Date: Mon Jan 19 11:54:07 EST 2026
User: Yrep
Spectrometer: HR+D1059
Trigger mode: 0
Integration Time (sec): 3.443000E-1
Scans to average: 1
Electric dark correction enabled: true
Nonlinearity correction enabled: false
Boxcar width: 0
XAxis mode: Wavelengths
Number of Pixels in Spectrum: 2048
>>>>>Begin Spectral Data<<<<<
223.165	-4.75
223.4	-4.75
223.635	-4.75
223.869	-28.75
224.104	-40.75
224.338	-23.75
224.573	-19.75
224.808	-24.75
225.042	2.25
225.277	0.25
225.511	4.25
225.746	0.25
225.98	16.25
226.215	22.25
226.449	19.25
226.683	16.25
226.918	31.25
227.152	30.25
227.387	32.25
227.621	31.25
227.856	56.25
228.09	40.25
228.324	57.25
228.559	67.25
228.793	54.25
229.027	59.25
229.262	59.25
229.496	51.25
229.73	62.25
229.964	70.25
230.199	75.25
230.433	83.25
230.667	88.25
230.901	80.25
231.136	73.25
231.37	79.25
231.604	73.25
231.838	74.25
232.072	81.25
232.306	72.25
232.541	81.25
232.775	82.25
233.009	85.25
233.243	71.25
233.477	68.25
233.711	88.25
233.945	80.25
234.179	87.25
234.413	84.25
234.647	88.25
234.881	73.25
235.115	78.25
235.349	89.25
235.583	84.25
235.817	84.25
236.051	79.25
236.285	88.25
236.519	83.25
236.753	90.25
236.987	88.25
237.221	70.25
237.455	80.25
237.689	70.25
237.922	81.25
238.156	77.25
238.39	63.25
238.624	85.25
238.858	96.25
239.091	80.25
239.325	88.25
239.559	73.25
239.793	81.25
240.027	84.25
240.26	82.25
240.494	108.25
240.728	80.25
240.961	76.25
241.195	74.25
241.429	84.25
241.662	86.25
241.896	77.25
242.13	92.25
242.363	68.25
242.597	86.25
242.83	68.25
243.064	76.25
243.298	78.25
243.531	80.25
243.765	73.25
243.998	81.25
244.232	96.25
244.465	77.25
244.699	78.25
244.932	77.25
245.166	66.25
245.399	75.25
245.633	80.25
245.866	76.25
246.099	93.25
246.333	80.25
246.566	72.25
246.8	65.25
247.033	72.25
247.266	63.25
247.5	83.25
247.733	66.25
247.966	78.25
248.2	80.25
248.433	68.25
248.666	84.25
248.899	90.25
249.133	78.25
249.366	97.25
249.599	84.25
249.832	79.25
250.066	82.25
250.299	86.25
250.532	75.25
250.765	89.25
250.998	85.25
251.231	98.25
251.465	74.25
251.698	92.25
251.931	87.25
252.164	75.25
252.397	81.25
252.63	70.25
252.863	83.25
253.096	93.25
253.329	85.25
253.562	87.25
253.795	81.25
254.028	85.25
254.261	90.25
254.494	82.25
254.727	93.25
254.96	76.25
255.193	86.25
255.426	86.25
255.659	92.25
255.892	98.25
256.124	77.25
256.357	95.25
256.59	96.25
256.823	82.25
257.056	88.25
257.289	68.25
257.521	89.25
257.754	90.25
257.987	80.25
258.22	78.25
258.452	76.25
258.685	89.25
258.918	84.25
259.151	100.25
259.383	101.25
259.616	84.25
259.849	93.25
260.081	78.25
260.314	85.25
260.547	88.25
260.779	95.25
261.012	82.25
261.244	93.25
261.477	107.25
261.71	93.25
261.942	77.25
262.175	88.25
262.407	90.25
262.64	74.25
262.872	77.25
263.105	87.25
263.337	92.25
263.57	88.25
263.802	101.25
264.035	103.25
264.267	104.25
264.499	100.25
264.732	76.25
264.964	81.25
265.197	84.25
265.429	80.25
265.661	97.25
265.894	105.25
266.126	102.25
266.358	92.25
266.591	104.25
266.823	87.25
267.055	81.25
267.287	94.25
267.52	95.25
267.752	88.25
267.984	104.25
268.216	87.25
268.448	99.25
268.681	102.25
268.913	99.25
269.145	87.25
269.377	98.25
269.609	98.25
269.841	100.25
270.073	88.25
270.306	91.25
270.538	90.25
270.77	91.25
271.002	88.25
271.234	97.25
271.466	103.25
271.698	92.25
271.93	94.25
272.162	86.25
272.394	89.25
272.626	87.25
272.858	83.25
273.09	89.25
273.322	106.25
273.553	86.25
273.785	101.25
274.017	97.25
274.249	93.25
274.481	82.25
274.713	88.25
274.945	93.25
275.176	89.25
275.408	108.25
275.64	91.25
275.872	95.25
276.104	102.25
276.335	87.25
276.567	91.25
276.799	88.25
277.031	82.25
277.262	107.25
277.494	82.25
277.726	97.25
277.957	96.25
278.189	90.25
278.421	97.25
278.652	81.25
278.884	99.25
279.115	92.25
279.347	86.25
279.579	98.25
279.81	90.25
280.042	101.25
280.273	99.25
280.505	97.25
280.736	91.25
280.968	102.25
281.199	95.25
281.431	88.25
281.662	105.25
281.894	99.25
282.125	96.25
282.356	102.25
282.588	114.25
282.819	101.25
283.051	90.25
283.282	89.25
283.513	101.25
283.745	89.25
283.976	89.25
284.207	95.25
284.439	98.25
284.67	100.25
284.901	99.25
285.132	97.25
285.364	88.25
285.595	111.25
285.826	91.25
286.057	108.25
286.288	92.25
286.52	111.25
286.751	94.25
286.982	114.25
287.213	74.25
287.444	98.25
287.675	92.25
287.906	96.25
288.138	103.25
288.369	102.25
288.6	104.25
288.831	94.25
289.062	105.25
289.293	94.25
289.524	112.25
289.755	88.25
289.986	92.25
290.217	101.25
290.448	108.25
290.679	98.25
290.91	93.25
291.141	102.25
291.371	101.25
291.602	115.25
291.833	104.25
292.064	106.25
292.295	96.25
292.526	102.25
292.757	102.25
292.987	116.25
293.218	108.25
293.449	93.25
293.68	118.25
293.91	101.25
294.141	98.25
294.372	107.25
294.603	104.25
294.833	100.25
295.064	92.25
295.295	95.25
295.525	94.25
295.756	101.25
295.987	105.25
296.217	97.25
296.448	99.25
296.679	111.25
296.909	104.25
297.14	113.25
297.37	113.25
297.601	95.25
297.831	105.25
298.062	85.25
298.292	98.25
298.523	105.25
298.753	103.25
298.984	106.25
299.214	102.25
299.445	108.25
299.675	92.25
299.905	112.25
300.136	103.25
300.366	90.25
300.597	113.25
300.827	105.25
301.057	108.25
301.288	108.25
301.518	98.25
301.748	105.25
301.979	133.25
302.209	97.25
302.439	105.25
302.669	89.25
302.9	107.25
303.13	107.25
303.36	105.25
303.59	93.25
303.82	97.25
304.051	106.25
304.281	108.25
304.511	119.25
304.741	95.25
304.971	100.25
305.201	115.25
305.431	100.25
305.661	88.25
305.891	86.25
306.121	104.25
306.352	95.25
306.582	104.25
306.812	105.25
307.042	105.25
307.272	88.25
307.502	104.25
307.731	113.25
307.961	108.25
308.191	93.25
308.421	96.25
308.651	110.25
308.881	97.25
309.111	119.25
309.341	94.25
309.571	100.25
309.8	88.25
310.03	109.25
310.26	100.25
310.49	108.25
310.72	103.25
310.949	109.25
311.179	131.25
311.409	108.25
311.639	106.25
311.868	107.25
312.098	105.25
312.328	94.25
312.557	105.25
312.787	106.25
313.017	111.25
313.246	98.25
313.476	101.25
313.706	101.25
313.935	103.25
314.165	108.25
314.394	112.25
314.624	103.25
314.853	95.25
315.083	93.25
315.312	115.25
315.542	101.25
315.771	104.25
316.001	108.25
316.23	110.25
316.46	110.25
316.689	112.25
316.919	92.25
317.148	108.25
317.377	103.25
317.607	106.25
317.836	97.25
318.065	94.25
318.295	85.25
318.524	100.25
318.753	104.25
318.983	101.25
319.212	108.25
319.441	108.25
319.67	99.25
319.9	104.25
320.129	118.25
320.358	109.25
320.587	97.25
320.816	103.25
321.046	104.25
321.275	110.25
321.504	103.25
321.733	108.25
321.962	98.25
322.191	111.25
322.42	109.25
322.649	103.25
322.878	114.25
323.108	99.25
323.337	94.25
323.566	97.25
323.795	104.25
324.024	107.25
324.253	107.25
324.482	115.25
324.71	114.25
324.939	121.25
325.168	116.25
325.397	108.25
325.626	96.25
325.855	116.25
326.084	101.25
326.313	102.25
326.542	93.25
326.77	107.25
326.999	100.25
327.228	113.25
327.457	105.25
327.686	121.25
327.914	89.25
328.143	117.25
328.372	105.25
328.6	111.25
328.829	109.25
329.058	102.25
329.287	103.25
329.515	109.25
329.744	119.25
329.972	97.25
330.201	103.25
330.43	93.25
330.658	104.25
330.887	102.25
331.115	91.25
331.344	110.25
331.572	115.25
331.801	109.25
332.03	92.25
332.258	97.25
332.486	116.25
332.715	118.25
332.943	113.25
333.172	100.25
333.4	128.25
333.629	127.25
333.857	119.25
334.085	136.25
334.314	108.25
334.542	114.25
334.771	104.25
334.999	128.25
335.227	111.25
335.455	122.25
335.684	117.25
335.912	106.25
336.14	100.25
336.369	112.25
336.597	115.25
336.825	114.25
337.053	117.25
337.281	102.25
337.51	105.25
337.738	108.25
337.966	112.25
338.194	116.25
338.422	104.25
338.65	113.25
338.878	119.25
339.106	117.25
339.334	117.25
339.562	105.25
339.79	99.25
340.018	105.25
340.246	99.25
340.474	100.25
340.702	115.25
340.93	100.25
341.158	117.25
341.386	103.25
341.614	102.25
341.842	110.25
342.07	100.25
342.298	108.25
342.526	108.25
342.754	102.25
342.981	96.25
343.209	108.25
343.437	124.25
343.665	114.25
343.893	120.25
344.12	118.25
344.348	110.25
344.576	107.25
344.804	102.25
345.031	120.25
345.259	99.25
345.487	113.25
345.714	107.25
345.942	107.25
346.17	119.25
346.397	111.25
346.625	95.25
346.853	104.25
347.08	98.25
347.308	98.25
347.535	96.25
347.763	109.25
347.99	116.25
348.218	108.25
348.445	93.25
348.673	93.25
348.9	115.25
349.128	113.25
349.355	109.25
349.583	106.25
349.81	111.25
350.037	106.25
350.265	110.25
350.492	109.25
350.72	87.25
350.947	95.25
351.174	112.25
351.402	112.25
351.629	96.25
351.856	105.25
352.083	109.25
352.311	102.25
352.538	95.25
352.765	109.25
352.992	126.25
353.22	103.25
353.447	113.25
353.674	108.25
353.901	112.25
354.128	112.25
354.355	107.25
354.583	102.25
354.81	102.25
355.037	100.25
355.264	115.25
355.491	102.25
355.718	98.25
355.945	118.25
356.172	104.25
356.399	103.25
356.626	98.25
356.853	117.25
357.08	96.25
357.307	114.25
357.534	104.25
357.761	110.25
357.988	124.25
358.215	128.25
358.441	112.25
358.668	115.25
358.895	96.25
359.122	113.25
359.349	104.25
359.576	98.25
359.802	102.25
360.029	111.25
360.256	106.25
360.483	92.25
360.709	94.25
360.936	118.25
361.163	100.25
361.39	124.25
361.616	106.25
361.843	117.25
362.07	115.25
362.296	97.25
362.523	97.25
362.749	101.25
362.976	104.25
363.203	114.25
363.429	109.25
363.656	101.25
363.882	106.25
364.109	101.25
364.335	103.25
364.562	97.25
364.788	94.25
365.015	124.25
365.241	93.25
365.468	123.25
365.694	111.25
365.92	105.25
366.147	95.25
366.373	91.25
366.599	101.25
366.826	110.25
367.052	114.25
367.278	114.25
367.505	104.25
367.731	113.25
367.957	102.25
368.184	105.25
368.41	91.25
368.636	93.25
368.862	103.25
369.089	98.25
369.315	111.25
369.541	121.25
369.767	108.25
369.993	112.25
370.219	95.25
370.445	107.25
370.672	105.25
370.898	118.25
371.124	118.25
371.35	94.25
371.576	94.25
371.802	101.25
372.028	113.25
372.254	99.25
372.48	104.25
372.706	103.25
372.932	101.25
373.158	119.25
373.384	123.25
373.61	123.25
373.835	121.25
374.061	106.25
374.287	106.25
374.513	98.25
374.739	121.25
374.965	112.25
375.191	112.25
375.416	108.25
375.642	109.25
375.868	107.25
376.094	102.25
376.319	101.25
376.545	107.25
376.771	94.25
376.997	112.25
377.222	108.25
377.448	100.25
377.674	111.25
377.899	100.25
378.125	116.25
378.35	110.25
378.576	113.25
378.802	99.25
379.027	122.25
379.253	97.25
379.478	109.25
379.704	114.25
379.929	106.25
380.155	116.25
380.38	92.25
380.606	109.25
380.831	104.25
381.057	130.25
381.282	110.25
381.507	103.25
381.733	109.25
381.958	104.25
382.184	109.25
382.409	111.25
382.634	117.25
382.86	102.25
383.085	89.25
383.31	111.25
383.535	106.25
383.761	103.25
383.986	101.25
384.211	111.25
384.436	125.25
384.662	108.25
384.887	116.25
385.112	111.25
385.337	104.25
385.562	106.25
385.787	107.25
386.013	114.25
386.238	131.25
386.463	119.25
386.688	150.25
386.913	102.25
387.138	106.25
387.363	110.25
387.588	115.25
387.813	119.25
388.038	124.25
388.263	125.25
388.488	109.25
388.713	117.25
388.938	106.25
389.163	102.25
389.387	95.25
389.612	114.25
389.837	118.25
390.062	105.25
390.287	126.25
390.512	105.25
390.736	114.25
390.961	112.25
391.186	113.25
391.411	111.25
391.636	115.25
391.86	110.25
392.085	118.25
392.31	115.25
392.534	110.25
392.759	118.25
392.984	118.25
393.208	115.25
393.433	113.25
393.658	115.25
393.882	114.25
394.107	102.25
394.331	123.25
394.556	122.25
394.78	118.25
395.005	115.25
395.229	120.25
395.454	115.25
395.678	121.25
395.903	110.25
396.127	114.25
396.352	121.25
396.576	109.25
396.801	110.25
397.025	107.25
397.249	110.25
397.474	125.25
397.698	116.25
397.922	125.25
398.147	116.25
398.371	113.25
398.595	116.25
398.82	106.25
399.044	123.25
399.268	152.25
399.492	159.25
399.717	148.25
399.941	162.25
400.165	139.25
400.389	126.25
400.613	121.25
400.837	128.25
401.062	120.25
401.286	122.25
401.51	132.25
401.734	121.25
401.958	115.25
402.182	124.25
402.406	115.25
402.63	109.25
402.854	127.25
403.078	137.25
403.302	128.25
403.526	142.25
403.75	126.25
403.974	123.25
404.198	138.25
404.422	130.25
404.645	124.25
404.869	134.25
405.093	124.25
405.317	130.25
405.541	128.25
405.765	116.25
405.988	120.25
406.212	121.25
406.436	123.25
406.66	114.25
406.883	126.25
407.107	132.25
407.331	127.25
407.555	131.25
407.778	120.25
408.002	124.25
408.226	123.25
408.449	131.25
408.673	131.25
408.896	123.25
409.12	129.25
409.344	128.25
409.567	122.25
409.791	138.25
410.014	118.25
410.238	113.25
410.461	110.25
410.685	133.25
410.908	125.25
411.132	131.25
411.355	123.25
411.578	129.25
411.802	126.25
412.025	117.25
412.249	129.25
412.472	126.25
412.695	133.25
412.919	133.25
413.142	114.25
413.365	123.25
413.589	119.25
413.812	127.25
414.035	129.25
414.258	128.25
414.482	122.25
414.705	108.25
414.928	129.25
415.151	119.25
415.374	102.25
415.597	125.25
415.821	118.25
416.044	118.25
416.267	118.25
416.49	130.25
416.713	123.25
416.936	133.25
417.159	109.25
417.382	121.25
417.605	98.25
417.828	121.25
418.051	132.25
418.274	125.25
418.497	137.25
418.72	117.25
418.943	132.25
419.166	108.25
419.389	128.25
419.611	104.25
419.834	129.25
420.057	114.25
420.28	129.25
420.503	124.25
420.726	116.25
420.948	123.25
421.171	123.25
421.394	131.25
421.617	128.25
421.839	136.25
422.062	119.25
422.285	121.25
422.507	121.25
422.73	128.25
422.953	120.25
423.175	111.25
423.398	120.25
423.621	124.25
423.843	117.25
424.066	109.25
424.288	109.25
424.511	114.25
424.733	121.25
424.956	120.25
425.178	126.25
425.401	120.25
425.623	125.25
425.846	132.25
426.068	115.25
426.291	106.25
426.513	112.25
426.735	124.25
426.958	119.25
427.18	125.25
427.402	119.25
427.625	121.25
427.847	129.25
428.069	115.25
428.292	108.25
428.514	135.25
428.736	116.25
428.958	110.25
429.181	118.25
429.403	114.25
429.625	124.25
429.847	104.25
430.069	110.25
430.292	120.25
430.514	108.25
430.736	113.25
430.958	121.25
431.18	122.25
431.402	109.25
431.624	113.25
431.846	106.25
432.068	119.25
432.29	102.25
432.512	121.25
432.734	120.25
432.956	128.25
433.178	124.25
433.4	122.25
433.622	119.25
433.844	105.25
434.066	109.25
434.287	114.25
434.509	114.25
434.731	122.25
434.953	123.25
435.175	121.25
435.397	128.25
435.618	110.25
435.84	117.25
436.062	119.25
436.284	99.25
436.505	111.25
436.727	116.25
436.949	116.25
437.17	107.25
437.392	107.25
437.614	113.25
437.835	116.25
438.057	109.25
438.278	115.25
438.5	102.25
438.721	109.25
438.943	125.25
439.165	119.25
439.386	123.25
439.608	123.25
439.829	125.25
440.05	125.25
440.272	101.25
440.493	106.25
440.715	111.25
440.936	111.25
441.158	128.25
441.379	120.25
441.6	121.25
441.822	133.25
442.043	133.25
442.264	112.25
442.486	124.25
442.707	125.25
442.928	112.25
443.149	112.25
443.371	126.25
443.592	121.25
443.813	124.25
444.034	126.25
444.255	129.25
444.476	116.25
444.698	120.25
444.919	139.25
445.14	332.25
445.361	220.25
445.582	125.25
445.803	116.25
446.024	116.25
446.245	128.25
446.466	113.25
446.687	103.25
446.908	124.25
447.129	129.25
447.35	119.25
447.571	111.25
447.792	111.25
448.013	110.25
448.234	120.25
448.455	113.25
448.675	108.25
448.896	124.25
449.117	109.25
449.338	113.25
449.559	114.25
449.779	113.25
450	117.25
450.221	108.25
450.442	118.25
450.662	104.25
450.883	109.25
451.104	112.25
451.324	121.25
451.545	114.25
451.766	116.25
451.986	127.25
452.207	105.25
452.428	120.25
452.648	120.25
452.869	121.25
453.089	115.25
453.31	105.25
453.53	108.25
453.751	109.25
453.971	120.25
454.192	112.25
454.412	104.25
454.633	104.25
454.853	102.25
455.073	90.25
455.294	105.25
455.514	104.25
455.734	104.25
455.955	113.25
456.175	98.25
456.395	116.25
456.616	110.25
456.836	104.25
457.056	125.25
457.276	116.25
457.497	98.25
457.717	102.25
457.937	118.25
458.157	105.25
458.377	120.25
458.598	106.25
458.818	100.25
459.038	106.25
459.258	115.25
459.478	125.25
459.698	115.25
459.918	122.25
460.138	107.25
460.358	108.25
460.578	125.25
460.798	129.25
461.018	128.25
461.238	124.25
461.458	131.25
461.678	114.25
461.898	132.25
462.118	114.25
462.338	122.25
462.558	122.25
462.777	141.25
462.997	132.25
463.217	141.25
463.437	146.25
463.657	140.25
463.876	137.25
464.096	127.25
464.316	123.25
464.536	141.25
464.755	139.25
464.975	137.25
465.195	149.25
465.414	122.25
465.634	128.25
465.854	109.25
466.073	120.25
466.293	122.25
466.512	117.25
466.732	116.25
466.951	101.25
467.171	111.25
467.391	119.25
467.61	107.25
467.829	130.25
468.049	116.25
468.268	101.25
468.488	114.25
468.707	113.25
468.927	105.25
469.146	117.25
469.365	110.25
469.585	109.25
469.804	118.25
470.023	115.25
470.243	121.25
470.462	124.25
470.681	125.25
470.901	120.25
471.12	116.25
471.339	129.25
471.558	114.25
471.777	123.25
471.997	105.25
472.216	113.25
472.435	105.25
472.654	115.25
472.873	121.25
473.092	122.25
473.311	101.25
473.53	109.25
473.749	108.25
473.968	112.25
474.187	118.25
474.406	102.25
474.625	118.25
474.844	122.25
475.063	101.25
475.282	101.25
475.501	106.25
475.72	113.25
475.939	113.25
476.158	109.25
476.377	103.25
476.596	119.25
476.814	117.25
477.033	120.25
477.252	118.25
477.471	132.25
477.69	118.25
477.908	110.25
478.127	134.25
478.346	129.25
478.564	130.25
478.783	115.25
479.002	118.25
479.22	128.25
479.439	134.25
479.658	118.25
479.876	119.25
480.095	114.25
480.313	113.25
480.532	136.25
480.751	139.25
480.969	118.25
481.188	124.25
481.406	127.25
481.624	129.25
481.843	111.25
482.061	128.25
482.28	123.25
482.498	120.25
482.717	111.25
482.935	120.25
483.153	123.25
483.372	138.25
483.59	114.25
483.808	106.25
484.027	115.25
484.245	108.25
484.463	128.25
484.681	148.25
484.9	118.25
485.118	117.25
485.336	130.25
485.554	117.25
485.772	130.25
485.99	121.25
486.209	127.25
486.427	117.25
486.645	117.25
486.863	109.25
487.081	128.25
487.299	114.25
487.517	125.25
487.735	127.25
487.953	121.25
488.171	114.25
488.389	120.25
488.607	123.25
488.825	101.25
489.043	118.25
489.261	128.25
489.479	121.25
489.696	137.25
489.914	132.25
490.132	113.25
490.35	127.25
490.568	115.25
490.786	134.25
491.003	109.25
491.221	121.25
491.439	107.25
491.657	107.25
491.874	110.25
492.092	117.25
492.31	122.25
492.527	122.25
492.745	113.25
492.963	128.25
493.18	133.25
493.398	127.25
493.615	132.25
493.833	124.25
494.05	128.25
494.268	133.25
494.485	129.25
494.703	138.25
494.92	127.25
495.138	125.25
495.355	110.25
495.573	130.25
495.79	132.25
496.008	118.25
496.225	131.25
496.442	133.25
496.66	140.25
496.877	110.25
497.094	133.25
497.312	124.25
497.529	146.25
497.746	147.25
497.963	125.25
498.181	139.25
498.398	139.25
498.615	149.25
498.832	138.25
499.049	137.25
499.267	172.25
499.484	169.25
499.701	181.25
499.918	218.25
500.135	225.25
500.352	217.25
500.569	225.25
500.786	220.25
501.003	214.25
501.22	188.25
501.437	182.25
501.654	171.25
501.871	153.25
502.088	160.25
502.305	161.25
502.522	126.25
502.739	118.25
502.956	147.25
503.172	144.25
503.389	141.25
503.606	139.25
503.823	137.25
504.04	126.25
504.256	130.25
504.473	135.25
504.69	148.25
504.907	144.25
505.123	123.25
505.34	142.25
505.557	138.25
505.773	136.25
505.99	118.25
506.207	134.25
506.423	117.25
506.64	114.25
506.856	120.25
507.073	110.25
507.289	123.25
