Data from SampG_HRD10591_00065.txt Node
Date: Mon Jan 19 11:54:05 EST 2026
User: Yrep
Spectrometer: HR+D1059
Trigger mode: 0
Integration Time (sec): 3.443000E-1
Scans to average: 1
Electric dark correction enabled: true
Nonlinearity correction enabled: false
Boxcar width: 0
XAxis mode: Wavelengths
Number of Pixels in Spectrum: 2048
>>>>>Begin Spectral Data<<<<<
223.165	-36.62
223.4	-36.62
223.635	-36.62
223.869	-26.62
224.104	-29.62
224.338	-8.62
224.573	-18.62
224.808	-9.62
225.042	-11.62
225.277	8.38
225.511	-8.62
225.746	15.38
225.98	13.38
226.215	4.38
226.449	14.38
226.683	23.38
226.918	37.38
227.152	33.38
227.387	33.38
227.621	44.38
227.856	41.38
228.09	37.38
228.324	46.38
228.559	74.38
228.793	56.38
229.027	58.38
229.262	69.38
229.496	59.38
229.73	72.38
229.964	72.38
230.199	95.38
230.433	55.38
230.667	80.38
230.901	88.38
231.136	78.38
231.37	82.38
231.604	93.38
231.838	82.38
232.072	55.38
232.306	87.38
232.541	87.38
232.775	87.38
233.009	80.38
233.243	83.38
233.477	69.38
233.711	81.38
233.945	79.38
234.179	84.38
234.413	85.38
234.647	85.38
234.881	96.38
235.115	69.38
235.349	67.38
235.583	91.38
235.817	89.38
236.051	79.38
236.285	78.38
236.519	79.38
236.753	77.38
236.987	88.38
237.221	86.38
237.455	82.38
237.689	68.38
237.922	79.38
238.156	62.38
238.39	67.38
238.624	91.38
238.858	83.38
239.091	75.38
239.325	85.38
239.559	90.38
239.793	78.38
240.027	73.38
240.26	70.38
240.494	71.38
240.728	86.38
240.961	75.38
241.195	74.38
241.429	77.38
241.662	89.38
241.896	90.38
242.13	85.38
242.363	65.38
242.597	91.38
242.83	99.38
243.064	78.38
243.298	81.38
243.531	67.38
243.765	72.38
243.998	81.38
244.232	81.38
244.465	94.38
244.699	80.38
244.932	82.38
245.166	72.38
245.399	86.38
245.633	95.38
245.866	92.38
246.099	88.38
246.333	97.38
246.566	94.38
246.8	92.38
247.033	80.38
247.266	98.38
247.5	72.38
247.733	80.38
247.966	90.38
248.2	88.38
248.433	92.38
248.666	73.38
248.899	91.38
249.133	97.38
249.366	81.38
249.599	82.38
249.832	88.38
250.066	97.38
250.299	79.38
250.532	95.38
250.765	87.38
250.998	100.38
251.231	89.38
251.465	95.38
251.698	77.38
251.931	85.38
252.164	94.38
252.397	94.38
252.63	86.38
252.863	103.38
253.096	85.38
253.329	98.38
253.562	83.38
253.795	88.38
254.028	94.38
254.261	90.38
254.494	95.38
254.727	105.38
254.96	97.38
255.193	92.38
255.426	100.38
255.659	86.38
255.892	105.38
256.124	83.38
256.357	86.38
256.59	87.38
256.823	97.38
257.056	89.38
257.289	93.38
257.521	77.38
257.754	99.38
257.987	83.38
258.22	84.38
258.452	95.38
258.685	79.38
258.918	89.38
259.151	95.38
259.383	86.38
259.616	85.38
259.849	84.38
260.081	112.38
260.314	81.38
260.547	98.38
260.779	96.38
261.012	90.38
261.244	100.38
261.477	112.38
261.71	90.38
261.942	94.38
262.175	95.38
262.407	95.38
262.64	87.38
262.872	96.38
263.105	77.38
263.337	97.38
263.57	88.38
263.802	109.38
264.035	116.38
264.267	97.38
264.499	94.38
264.732	105.38
264.964	85.38
265.197	97.38
265.429	100.38
265.661	97.38
265.894	89.38
266.126	96.38
266.358	107.38
266.591	89.38
266.823	98.38
267.055	89.38
267.287	78.38
267.52	100.38
267.752	105.38
267.984	105.38
268.216	95.38
268.448	110.38
268.681	90.38
268.913	110.38
269.145	107.38
269.377	99.38
269.609	115.38
269.841	105.38
270.073	109.38
270.306	104.38
270.538	99.38
270.77	95.38
271.002	104.38
271.234	105.38
271.466	101.38
271.698	111.38
271.93	97.38
272.162	95.38
272.394	115.38
272.626	105.38
272.858	97.38
273.09	107.38
273.322	102.38
273.553	96.38
273.785	96.38
274.017	104.38
274.249	104.38
274.481	90.38
274.713	110.38
274.945	117.38
275.176	107.38
275.408	112.38
275.64	96.38
275.872	110.38
276.104	107.38
276.335	108.38
276.567	91.38
276.799	107.38
277.031	111.38
277.262	104.38
277.494	108.38
277.726	118.38
277.957	91.38
278.189	120.38
278.421	101.38
278.652	109.38
278.884	103.38
279.115	106.38
279.347	96.38
279.579	100.38
279.81	100.38
280.042	104.38
280.273	105.38
280.505	95.38
280.736	107.38
280.968	111.38
281.199	104.38
281.431	107.38
281.662	119.38
281.894	120.38
282.125	102.38
282.356	117.38
282.588	102.38
282.819	103.38
283.051	106.38
283.282	108.38
283.513	125.38
283.745	114.38
283.976	122.38
284.207	115.38
284.439	122.38
284.67	126.38
284.901	111.38
285.132	111.38
285.364	128.38
285.595	121.38
285.826	105.38
286.057	113.38
286.288	107.38
286.52	110.38
286.751	113.38
286.982	118.38
287.213	110.38
287.444	105.38
287.675	121.38
287.906	118.38
288.138	108.38
288.369	110.38
288.6	106.38
288.831	100.38
289.062	106.38
289.293	115.38
289.524	118.38
289.755	110.38
289.986	114.38
290.217	121.38
290.448	100.38
290.679	128.38
290.91	125.38
291.141	110.38
291.371	113.38
291.602	108.38
291.833	111.38
292.064	112.38
292.295	112.38
292.526	109.38
292.757	122.38
292.987	116.38
293.218	125.38
293.449	122.38
293.68	128.38
293.91	112.38
294.141	112.38
294.372	113.38
294.603	119.38
294.833	129.38
295.064	128.38
295.295	122.38
295.525	133.38
295.756	118.38
295.987	113.38
296.217	121.38
296.448	121.38
296.679	110.38
296.909	131.38
297.14	103.38
297.37	130.38
297.601	115.38
297.831	113.38
298.062	120.38
298.292	127.38
298.523	129.38
298.753	122.38
298.984	110.38
299.214	115.38
299.445	122.38
299.675	103.38
299.905	125.38
300.136	125.38
300.366	127.38
300.597	137.38
300.827	121.38
301.057	121.38
301.288	113.38
301.518	123.38
301.748	123.38
301.979	162.38
302.209	118.38
302.439	113.38
302.669	120.38
302.9	131.38
303.13	134.38
303.36	132.38
303.59	122.38
303.82	127.38
304.051	128.38
304.281	136.38
304.511	122.38
304.741	124.38
304.971	123.38
305.201	117.38
305.431	132.38
305.661	124.38
305.891	121.38
306.121	121.38
306.352	120.38
306.582	106.38
306.812	118.38
307.042	115.38
307.272	118.38
307.502	111.38
307.731	118.38
307.961	126.38
308.191	124.38
308.421	128.38
308.651	120.38
308.881	130.38
309.111	117.38
309.341	111.38
309.571	125.38
309.8	113.38
310.03	107.38
310.26	122.38
310.49	113.38
310.72	110.38
310.949	124.38
311.179	119.38
311.409	131.38
311.639	122.38
311.868	112.38
312.098	120.38
312.328	132.38
312.557	115.38
312.787	136.38
313.017	126.38
313.246	129.38
313.476	134.38
313.706	127.38
313.935	129.38
314.165	119.38
314.394	135.38
314.624	136.38
314.853	123.38
315.083	141.38
315.312	118.38
315.542	121.38
315.771	140.38
316.001	143.38
316.23	141.38
316.46	122.38
316.689	126.38
316.919	119.38
317.148	115.38
317.377	142.38
317.607	136.38
317.836	123.38
318.065	126.38
318.295	135.38
318.524	131.38
318.753	113.38
318.983	118.38
319.212	123.38
319.441	107.38
319.67	121.38
319.9	126.38
320.129	135.38
320.358	130.38
320.587	122.38
320.816	123.38
321.046	129.38
321.275	121.38
321.504	126.38
321.733	122.38
321.962	123.38
322.191	120.38
322.42	116.38
322.649	131.38
322.878	131.38
323.108	123.38
323.337	127.38
323.566	130.38
323.795	126.38
324.024	121.38
324.253	128.38
324.482	123.38
324.71	125.38
324.939	126.38
325.168	117.38
325.397	110.38
325.626	119.38
325.855	125.38
326.084	140.38
326.313	129.38
326.542	126.38
326.77	133.38
326.999	134.38
327.228	121.38
327.457	129.38
327.686	142.38
327.914	139.38
328.143	127.38
328.372	123.38
328.6	114.38
328.829	128.38
329.058	129.38
329.287	127.38
329.515	132.38
329.744	144.38
329.972	128.38
330.201	128.38
330.43	135.38
330.658	136.38
330.887	130.38
331.115	121.38
331.344	141.38
331.572	153.38
331.801	134.38
332.03	146.38
332.258	140.38
332.486	150.38
332.715	142.38
332.943	150.38
333.172	157.38
333.4	146.38
333.629	152.38
333.857	143.38
334.085	151.38
334.314	159.38
334.542	148.38
334.771	134.38
334.999	151.38
335.227	121.38
335.455	135.38
335.684	143.38
335.912	134.38
336.14	133.38
336.369	137.38
336.597	149.38
336.825	126.38
337.053	135.38
337.281	147.38
337.51	132.38
337.738	137.38
337.966	124.38
338.194	130.38
338.422	126.38
338.65	145.38
338.878	129.38
339.106	126.38
339.334	134.38
339.562	149.38
339.79	116.38
340.018	135.38
340.246	137.38
340.474	142.38
340.702	125.38
340.93	141.38
341.158	116.38
341.386	129.38
341.614	125.38
341.842	136.38
342.07	149.38
342.298	138.38
342.526	127.38
342.754	114.38
342.981	135.38
343.209	134.38
343.437	160.38
343.665	141.38
343.893	158.38
344.12	158.38
344.348	158.38
344.576	142.38
344.804	137.38
345.031	132.38
345.259	122.38
345.487	123.38
345.714	131.38
345.942	147.38
346.17	148.38
346.397	130.38
346.625	131.38
346.853	135.38
347.08	135.38
347.308	134.38
347.535	125.38
347.763	129.38
347.99	128.38
348.218	133.38
348.445	141.38
348.673	126.38
348.9	141.38
349.128	119.38
349.355	133.38
349.583	114.38
349.81	126.38
350.037	123.38
350.265	122.38
350.492	122.38
350.72	118.38
350.947	126.38
351.174	131.38
351.402	121.38
351.629	131.38
351.856	129.38
352.083	132.38
352.311	130.38
352.538	122.38
352.765	118.38
352.992	143.38
353.22	133.38
353.447	124.38
353.674	134.38
353.901	140.38
354.128	131.38
354.355	130.38
354.583	129.38
354.81	127.38
355.037	138.38
355.264	133.38
355.491	130.38
355.718	133.38
355.945	128.38
356.172	125.38
356.399	142.38
356.626	122.38
356.853	117.38
357.08	124.38
357.307	135.38
357.534	136.38
357.761	129.38
357.988	136.38
358.215	148.38
358.441	126.38
358.668	137.38
358.895	139.38
359.122	127.38
359.349	134.38
359.576	137.38
359.802	127.38
360.029	135.38
360.256	127.38
360.483	133.38
360.709	125.38
360.936	153.38
361.163	129.38
361.39	126.38
361.616	146.38
361.843	141.38
362.07	121.38
362.296	118.38
362.523	131.38
362.749	135.38
362.976	103.38
363.203	128.38
363.429	133.38
363.656	131.38
363.882	121.38
364.109	141.38
364.335	127.38
364.562	117.38
364.788	127.38
365.015	135.38
365.241	125.38
365.468	144.38
365.694	124.38
365.92	126.38
366.147	144.38
366.373	133.38
366.599	118.38
366.826	129.38
367.052	133.38
367.278	129.38
367.505	124.38
367.731	143.38
367.957	135.38
368.184	131.38
368.41	130.38
368.636	136.38
368.862	148.38
369.089	128.38
369.315	139.38
369.541	146.38
369.767	152.38
369.993	156.38
370.219	136.38
370.445	120.38
370.672	143.38
370.898	133.38
371.124	122.38
371.35	131.38
371.576	136.38
371.802	125.38
372.028	125.38
372.254	127.38
372.48	125.38
372.706	137.38
372.932	128.38
373.158	143.38
373.384	142.38
373.61	141.38
373.835	146.38
374.061	135.38
374.287	135.38
374.513	129.38
374.739	149.38
374.965	143.38
375.191	143.38
375.416	154.38
375.642	138.38
375.868	152.38
376.094	134.38
376.319	132.38
376.545	127.38
376.771	135.38
376.997	127.38
377.222	135.38
377.448	142.38
377.674	122.38
377.899	130.38
378.125	135.38
378.35	135.38
378.576	133.38
378.802	129.38
379.027	131.38
379.253	127.38
379.478	145.38
379.704	142.38
379.929	126.38
380.155	137.38
380.38	142.38
380.606	128.38
380.831	128.38
381.057	158.38
381.282	149.38
381.507	137.38
381.733	139.38
381.958	135.38
382.184	138.38
382.409	143.38
382.634	140.38
382.86	139.38
383.085	151.38
383.31	142.38
383.535	141.38
383.761	130.38
383.986	147.38
384.211	147.38
384.436	166.38
384.662	141.38
384.887	151.38
385.112	162.38
385.337	152.38
385.562	144.38
385.787	154.38
386.013	151.38
386.238	152.38
386.463	132.38
386.688	190.38
386.913	135.38
387.138	141.38
387.363	158.38
387.588	159.38
387.813	150.38
388.038	157.38
388.263	137.38
388.488	154.38
388.713	146.38
388.938	144.38
389.163	146.38
389.387	146.38
389.612	150.38
389.837	147.38
390.062	151.38
390.287	139.38
390.512	147.38
390.736	147.38
390.961	159.38
391.186	160.38
391.411	157.38
391.636	150.38
391.86	170.38
392.085	162.38
392.31	158.38
392.534	162.38
392.759	146.38
392.984	145.38
393.208	159.38
393.433	169.38
393.658	141.38
393.882	150.38
394.107	140.38
394.331	153.38
394.556	139.38
394.78	165.38
395.005	155.38
395.229	157.38
395.454	163.38
395.678	162.38
395.903	157.38
396.127	145.38
396.352	150.38
396.576	157.38
396.801	141.38
397.025	150.38
397.249	173.38
397.474	154.38
397.698	163.38
397.922	177.38
398.147	149.38
398.371	155.38
398.595	166.38
398.82	168.38
399.044	174.38
399.268	197.38
399.492	221.38
399.717	225.38
399.941	218.38
400.165	208.38
400.389	184.38
400.613	193.38
400.837	173.38
401.062	171.38
401.286	175.38
401.51	163.38
401.734	182.38
401.958	173.38
402.182	179.38
402.406	170.38
402.63	175.38
402.854	185.38
403.078	183.38
403.302	180.38
403.526	171.38
403.75	195.38
403.974	198.38
404.198	194.38
404.422	203.38
404.645	198.38
404.869	174.38
405.093	149.38
405.317	187.38
405.541	190.38
405.765	181.38
405.988	181.38
406.212	188.38
406.436	177.38
406.66	201.38
406.883	198.38
407.107	179.38
407.331	201.38
407.555	214.38
407.778	212.38
408.002	201.38
408.226	193.38
408.449	194.38
408.673	191.38
408.896	200.38
409.12	171.38
409.344	206.38
409.567	184.38
409.791	197.38
410.014	184.38
410.238	177.38
410.461	170.38
410.685	179.38
410.908	182.38
411.132	177.38
411.355	168.38
411.578	176.38
411.802	179.38
412.025	170.38
412.249	173.38
412.472	175.38
412.695	171.38
412.919	176.38
413.142	172.38
413.365	174.38
413.589	168.38
413.812	170.38
414.035	174.38
414.258	193.38
414.482	164.38
414.705	165.38
414.928	172.38
415.151	173.38
415.374	185.38
415.597	166.38
415.821	169.38
416.044	172.38
416.267	157.38
416.49	173.38
416.713	169.38
416.936	180.38
417.159	180.38
417.382	167.38
417.605	181.38
417.828	169.38
418.051	170.38
418.274	197.38
418.497	177.38
418.72	172.38
418.943	186.38
419.166	186.38
419.389	181.38
419.611	181.38
419.834	172.38
420.057	186.38
420.28	163.38
420.503	149.38
420.726	177.38
420.948	183.38
421.171	169.38
421.394	175.38
421.617	161.38
421.839	170.38
422.062	161.38
422.285	170.38
422.507	154.38
422.73	184.38
422.953	174.38
423.175	183.38
423.398	179.38
423.621	196.38
423.843	179.38
424.066	180.38
424.288	195.38
424.511	171.38
424.733	185.38
424.956	172.38
425.178	162.38
425.401	172.38
425.623	175.38
425.846	172.38
426.068	168.38
426.291	184.38
426.513	180.38
426.735	168.38
426.958	179.38
427.18	168.38
427.402	162.38
427.625	146.38
427.847	156.38
428.069	158.38
428.292	154.38
428.514	179.38
428.736	156.38
428.958	158.38
429.181	144.38
429.403	147.38
429.625	159.38
429.847	151.38
430.069	162.38
430.292	168.38
430.514	159.38
430.736	158.38
430.958	158.38
431.18	153.38
431.402	159.38
431.624	162.38
431.846	175.38
432.068	166.38
432.29	159.38
432.512	165.38
432.734	162.38
432.956	163.38
433.178	176.38
433.4	169.38
433.622	166.38
433.844	166.38
434.066	166.38
434.287	149.38
434.509	181.38
434.731	168.38
434.953	166.38
435.175	162.38
435.397	164.38
435.618	155.38
435.84	175.38
436.062	159.38
436.284	164.38
436.505	159.38
436.727	155.38
436.949	159.38
437.17	163.38
437.392	157.38
437.614	159.38
437.835	160.38
438.057	157.38
438.278	141.38
438.5	149.38
438.721	156.38
438.943	175.38
439.165	150.38
439.386	153.38
439.608	169.38
439.829	163.38
440.05	170.38
440.272	139.38
440.493	168.38
440.715	161.38
440.936	159.38
441.158	166.38
441.379	170.38
441.6	178.38
441.822	161.38
442.043	178.38
442.264	171.38
442.486	174.38
442.707	161.38
442.928	161.38
443.149	172.38
443.371	169.38
443.592	171.38
443.813	173.38
444.034	162.38
444.255	168.38
444.476	177.38
444.698	194.38
444.919	194.38
445.14	403.38
445.361	277.38
445.582	186.38
445.803	145.38
446.024	155.38
446.245	173.38
446.466	168.38
446.687	157.38
446.908	167.38
447.129	152.38
447.35	152.38
447.571	156.38
447.792	159.38
448.013	158.38
448.234	160.38
448.455	165.38
448.675	145.38
448.896	160.38
449.117	152.38
449.338	147.38
449.559	151.38
449.779	162.38
450	156.38
450.221	162.38
450.442	158.38
450.662	160.38
450.883	157.38
451.104	168.38
451.324	146.38
451.545	170.38
451.766	158.38
451.986	144.38
452.207	142.38
452.428	156.38
452.648	167.38
452.869	141.38
453.089	141.38
453.31	145.38
453.53	145.38
453.751	161.38
453.971	156.38
454.192	146.38
454.412	154.38
454.633	146.38
454.853	127.38
455.073	161.38
455.294	134.38
455.514	157.38
455.734	147.38
455.955	142.38
456.175	154.38
456.395	138.38
456.616	142.38
456.836	134.38
457.056	167.38
457.276	144.38
457.497	136.38
457.717	161.38
457.937	131.38
458.157	150.38
458.377	136.38
458.598	145.38
458.818	145.38
459.038	129.38
459.258	154.38
459.478	142.38
459.698	169.38
459.918	174.38
460.138	165.38
460.358	163.38
460.578	185.38
460.798	188.38
461.018	182.38
461.238	181.38
461.458	190.38
461.678	172.38
461.898	188.38
462.118	188.38
462.338	179.38
462.558	175.38
462.777	177.38
462.997	215.38
463.217	217.38
463.437	205.38
463.657	207.38
463.876	180.38
464.096	182.38
464.316	184.38
464.536	206.38
464.755	194.38
464.975	198.38
465.195	159.38
465.414	172.38
465.634	149.38
465.854	165.38
466.073	166.38
466.293	159.38
466.512	174.38
466.732	154.38
466.951	151.38
467.171	153.38
467.391	151.38
467.61	163.38
467.829	148.38
468.049	167.38
468.268	166.38
468.488	145.38
468.707	173.38
468.927	157.38
469.146	136.38
469.365	160.38
469.585	165.38
469.804	168.38
470.023	159.38
470.243	166.38
470.462	144.38
470.681	157.38
470.901	147.38
471.12	160.38
471.339	165.38
471.558	155.38
471.777	149.38
471.997	152.38
472.216	151.38
472.435	163.38
472.654	167.38
472.873	149.38
473.092	152.38
473.311	162.38
473.53	164.38
473.749	152.38
473.968	151.38
474.187	156.38
474.406	151.38
474.625	157.38
474.844	148.38
475.063	161.38
475.282	159.38
475.501	142.38
475.72	178.38
475.939	145.38
476.158	157.38
476.377	154.38
476.596	164.38
476.814	161.38
477.033	146.38
477.252	152.38
477.471	161.38
477.69	166.38
477.908	158.38
478.127	191.38
478.346	172.38
478.564	166.38
478.783	166.38
479.002	176.38
479.22	177.38
479.439	168.38
479.658	170.38
479.876	168.38
480.095	178.38
480.313	191.38
480.532	186.38
480.751	173.38
480.969	177.38
481.188	157.38
481.406	176.38
481.624	170.38
481.843	170.38
482.061	147.38
482.28	157.38
482.498	160.38
482.717	144.38
482.935	161.38
483.153	165.38
483.372	146.38
483.59	153.38
483.808	160.38
484.027	191.38
484.245	150.38
484.463	163.38
484.681	190.38
484.9	174.38
485.118	185.38
485.336	166.38
485.554	180.38
485.772	162.38
485.99	175.38
486.209	180.38
486.427	181.38
486.645	175.38
486.863	169.38
487.081	170.38
487.299	179.38
487.517	197.38
487.735	161.38
487.953	174.38
488.171	167.38
488.389	167.38
488.607	171.38
488.825	154.38
489.043	178.38
489.261	163.38
489.479	167.38
489.696	176.38
489.914	159.38
490.132	149.38
490.35	173.38
490.568	160.38
490.786	163.38
491.003	156.38
491.221	161.38
491.439	181.38
491.657	166.38
491.874	175.38
492.092	185.38
492.31	169.38
492.527	186.38
492.745	182.38
492.963	177.38
493.18	157.38
493.398	187.38
493.615	173.38
493.833	165.38
494.05	165.38
494.268	165.38
494.485	173.38
494.703	189.38
494.92	171.38
495.138	151.38
495.355	189.38
495.573	174.38
495.79	182.38
496.008	178.38
496.225	186.38
496.442	170.38
496.66	194.38
496.877	177.38
497.094	209.38
497.312	186.38
497.529	190.38
497.746	194.38
497.963	220.38
498.181	217.38
498.398	216.38
498.615	208.38
498.832	217.38
499.049	246.38
499.267	262.38
499.484	268.38
499.701	298.38
499.918	323.38
500.135	361.38
500.352	401.38
500.569	405.38
500.786	383.38
501.003	337.38
501.22	323.38
501.437	272.38
501.654	248.38
501.871	244.38
502.088	246.38
502.305	233.38
502.522	240.38
502.739	228.38
502.956	197.38
503.172	213.38
503.389	201.38
503.606	196.38
503.823	189.38
504.04	203.38
504.256	193.38
504.473	189.38
504.69	182.38
504.907	205.38
505.123	179.38
