Data from SampG_HRD10591_00012.txt Node
Date: Mon Jan 19 11:53:47 EST 2026
User: Yrep
Spectrometer: HR+D1059
Trigger mode: 0
Integration Time (sec): 3.443000E-1
Scans to average: 1
Electric dark correction enabled: true
Nonlinearity correction enabled: false
Boxcar width: 0
XAxis mode: Wavelengths
Number of Pixels in Spectrum: 2048
>>>>>Begin Spectral Data<<<<<
223.165	-22.5
223.4	-22.5
223.635	-22.5
223.869	-30.5
224.104	-25.5
224.338	-13.5
224.573	-17.5
224.808	6.5
225.042	-13.5
225.277	-4.5
225.511	-12.5
225.746	1.5
225.98	7.5
226.215	14.5
226.449	16.5
226.683	21.5
226.918	39.5
227.152	32.5
227.387	22.5
227.621	42.5
227.856	53.5
228.09	56.5
228.324	38.5
228.559	58.5
228.793	48.5
229.027	66.5
229.262	70.5
229.496	71.5
229.73	81.5
229.964	68.5
230.199	77.5
230.433	80.5
230.667	86.5
230.901	70.5
231.136	60.5
231.37	71.5
231.604	75.5
231.838	82.5
232.072	76.5
232.306	86.5
232.541	82.5
232.775	83.5
233.009	82.5
233.243	83.5
233.477	79.5
233.711	78.5
233.945	71.5
234.179	86.5
234.413	94.5
234.647	90.5
234.881	79.5
235.115	90.5
235.349	76.5
235.583	81.5
235.817	75.5
236.051	86.5
236.285	72.5
236.519	91.5
236.753	74.5
236.987	88.5
237.221	70.5
237.455	54.5
237.689	83.5
237.922	78.5
238.156	72.5
238.39	87.5
238.624	81.5
238.858	59.5
239.091	86.5
239.325	73.5
239.559	87.5
239.793	70.5
240.027	76.5
240.26	73.5
240.494	73.5
240.728	76.5
240.961	80.5
241.195	86.5
241.429	82.5
241.662	74.5
241.896	74.5
242.13	76.5
242.363	76.5
242.597	87.5
242.83	78.5
243.064	66.5
243.298	82.5
243.531	71.5
243.765	74.5
243.998	91.5
244.232	84.5
244.465	82.5
244.699	94.5
244.932	83.5
245.166	78.5
245.399	86.5
245.633	79.5
245.866	84.5
246.099	77.5
246.333	82.5
246.566	75.5
246.8	93.5
247.033	81.5
247.266	71.5
247.5	82.5
247.733	89.5
247.966	75.5
248.2	74.5
248.433	80.5
248.666	78.5
248.899	97.5
249.133	95.5
249.366	99.5
249.599	87.5
249.832	83.5
250.066	86.5
250.299	81.5
250.532	80.5
250.765	82.5
250.998	89.5
251.231	105.5
251.465	90.5
251.698	86.5
251.931	94.5
252.164	80.5
252.397	92.5
252.63	84.5
252.863	94.5
253.096	91.5
253.329	80.5
253.562	89.5
253.795	97.5
254.028	94.5
254.261	84.5
254.494	105.5
254.727	96.5
254.96	99.5
255.193	82.5
255.426	80.5
255.659	90.5
255.892	107.5
256.124	97.5
256.357	89.5
256.59	88.5
256.823	98.5
257.056	86.5
257.289	78.5
257.521	88.5
257.754	106.5
257.987	102.5
258.22	96.5
258.452	100.5
258.685	105.5
258.918	99.5
259.151	89.5
259.383	96.5
259.616	92.5
259.849	98.5
260.081	105.5
260.314	96.5
260.547	89.5
260.779	92.5
261.012	104.5
261.244	99.5
261.477	94.5
261.71	96.5
261.942	84.5
262.175	97.5
262.407	98.5
262.64	80.5
262.872	102.5
263.105	105.5
263.337	100.5
263.57	100.5
263.802	105.5
264.035	98.5
264.267	92.5
264.499	104.5
264.732	75.5
264.964	94.5
265.197	94.5
265.429	89.5
265.661	99.5
265.894	96.5
266.126	99.5
266.358	105.5
266.591	94.5
266.823	75.5
267.055	101.5
267.287	99.5
267.52	87.5
267.752	103.5
267.984	106.5
268.216	100.5
268.448	99.5
268.681	97.5
268.913	99.5
269.145	98.5
269.377	113.5
269.609	102.5
269.841	105.5
270.073	111.5
270.306	106.5
270.538	88.5
270.77	99.5
271.002	99.5
271.234	101.5
271.466	106.5
271.698	98.5
271.93	92.5
272.162	99.5
272.394	108.5
272.626	92.5
272.858	92.5
273.09	106.5
273.322	115.5
273.553	99.5
273.785	102.5
274.017	101.5
274.249	110.5
274.481	101.5
274.713	103.5
274.945	98.5
275.176	107.5
275.408	115.5
275.64	104.5
275.872	101.5
276.104	123.5
276.335	118.5
276.567	110.5
276.799	107.5
277.031	98.5
277.262	91.5
277.494	120.5
277.726	111.5
277.957	97.5
278.189	110.5
278.421	103.5
278.652	99.5
278.884	108.5
279.115	116.5
279.347	113.5
279.579	106.5
279.81	108.5
280.042	109.5
280.273	107.5
280.505	119.5
280.736	95.5
280.968	111.5
281.199	114.5
281.431	118.5
281.662	98.5
281.894	115.5
282.125	113.5
282.356	114.5
282.588	117.5
282.819	102.5
283.051	115.5
283.282	109.5
283.513	125.5
283.745	107.5
283.976	113.5
284.207	101.5
284.439	121.5
284.67	126.5
284.901	121.5
285.132	102.5
285.364	117.5
285.595	114.5
285.826	109.5
286.057	111.5
286.288	130.5
286.52	119.5
286.751	102.5
286.982	118.5
287.213	107.5
287.444	107.5
287.675	106.5
287.906	111.5
288.138	124.5
288.369	117.5
288.6	120.5
288.831	118.5
289.062	124.5
289.293	121.5
289.524	123.5
289.755	106.5
289.986	102.5
290.217	120.5
290.448	114.5
290.679	110.5
290.91	114.5
291.141	102.5
291.371	121.5
291.602	115.5
291.833	118.5
292.064	108.5
292.295	105.5
292.526	116.5
292.757	112.5
292.987	124.5
293.218	109.5
293.449	107.5
293.68	124.5
293.91	124.5
294.141	114.5
294.372	111.5
294.603	118.5
294.833	125.5
295.064	116.5
295.295	113.5
295.525	104.5
295.756	108.5
295.987	117.5
296.217	105.5
296.448	118.5
296.679	112.5
296.909	126.5
297.14	119.5
297.37	130.5
297.601	119.5
297.831	110.5
298.062	130.5
298.292	127.5
298.523	118.5
298.753	127.5
298.984	132.5
299.214	134.5
299.445	119.5
299.675	125.5
299.905	111.5
300.136	106.5
300.366	99.5
300.597	112.5
300.827	123.5
301.057	127.5
301.288	119.5
301.518	126.5
301.748	114.5
301.979	158.5
302.209	116.5
302.439	102.5
302.669	127.5
302.9	117.5
303.13	124.5
303.36	107.5
303.59	111.5
303.82	125.5
304.051	112.5
304.281	136.5
304.511	125.5
304.741	121.5
304.971	112.5
305.201	133.5
305.431	114.5
305.661	116.5
305.891	108.5
306.121	134.5
306.352	119.5
306.582	123.5
306.812	119.5
307.042	119.5
307.272	117.5
307.502	124.5
307.731	127.5
307.961	131.5
308.191	127.5
308.421	111.5
308.651	122.5
308.881	124.5
309.111	130.5
309.341	111.5
309.571	119.5
309.8	100.5
310.03	126.5
310.26	109.5
310.49	126.5
310.72	118.5
310.949	128.5
311.179	117.5
311.409	123.5
311.639	127.5
311.868	110.5
312.098	115.5
312.328	132.5
312.557	129.5
312.787	107.5
313.017	124.5
313.246	124.5
313.476	118.5
313.706	122.5
313.935	127.5
314.165	128.5
314.394	128.5
314.624	120.5
314.853	118.5
315.083	121.5
315.312	117.5
315.542	113.5
315.771	124.5
316.001	120.5
316.23	123.5
316.46	113.5
316.689	119.5
316.919	118.5
317.148	115.5
317.377	142.5
317.607	124.5
317.836	114.5
318.065	128.5
318.295	138.5
318.524	121.5
318.753	147.5
318.983	121.5
319.212	125.5
319.441	120.5
319.67	121.5
319.9	138.5
320.129	135.5
320.358	110.5
320.587	119.5
320.816	132.5
321.046	123.5
321.275	117.5
321.504	122.5
321.733	135.5
321.962	126.5
322.191	132.5
322.42	109.5
322.649	113.5
322.878	131.5
323.108	121.5
323.337	122.5
323.566	129.5
323.795	113.5
324.024	126.5
324.253	143.5
324.482	122.5
324.71	121.5
324.939	123.5
325.168	129.5
325.397	123.5
325.626	149.5
325.855	130.5
326.084	144.5
326.313	134.5
326.542	134.5
326.77	150.5
326.999	126.5
327.228	125.5
327.457	135.5
327.686	134.5
327.914	137.5
328.143	126.5
328.372	134.5
328.6	117.5
328.829	133.5
329.058	117.5
329.287	131.5
329.515	121.5
329.744	131.5
329.972	119.5
330.201	135.5
330.43	127.5
330.658	106.5
330.887	109.5
331.115	127.5
331.344	127.5
331.572	143.5
331.801	130.5
332.03	129.5
332.258	122.5
332.486	136.5
332.715	138.5
332.943	129.5
333.172	149.5
333.4	146.5
333.629	138.5
333.857	152.5
334.085	136.5
334.314	142.5
334.542	152.5
334.771	149.5
334.999	127.5
335.227	144.5
335.455	160.5
335.684	159.5
335.912	139.5
336.14	138.5
336.369	129.5
336.597	144.5
336.825	137.5
337.053	132.5
337.281	126.5
337.51	135.5
337.738	134.5
337.966	138.5
338.194	129.5
338.422	115.5
338.65	149.5
338.878	134.5
339.106	125.5
339.334	135.5
339.562	131.5
339.79	143.5
340.018	128.5
340.246	120.5
340.474	119.5
340.702	122.5
340.93	136.5
341.158	130.5
341.386	115.5
341.614	140.5
341.842	121.5
342.07	134.5
342.298	120.5
342.526	124.5
342.754	132.5
342.981	126.5
343.209	131.5
343.437	182.5
343.665	149.5
343.893	143.5
344.12	167.5
344.348	137.5
344.576	117.5
344.804	125.5
345.031	129.5
345.259	143.5
345.487	135.5
345.714	116.5
345.942	143.5
346.17	132.5
346.397	123.5
346.625	128.5
346.853	119.5
347.08	123.5
347.308	132.5
347.535	122.5
347.763	133.5
347.99	125.5
348.218	129.5
348.445	137.5
348.673	114.5
348.9	135.5
349.128	131.5
349.355	125.5
349.583	123.5
349.81	125.5
350.037	131.5
350.265	135.5
350.492	125.5
350.72	114.5
350.947	143.5
351.174	116.5
351.402	132.5
351.629	124.5
351.856	118.5
352.083	120.5
352.311	131.5
352.538	120.5
352.765	129.5
352.992	140.5
353.22	123.5
353.447	127.5
353.674	147.5
353.901	153.5
354.128	136.5
354.355	120.5
354.583	118.5
354.81	131.5
355.037	138.5
355.264	118.5
355.491	116.5
355.718	106.5
355.945	135.5
356.172	133.5
356.399	147.5
356.626	118.5
356.853	118.5
357.08	130.5
357.307	145.5
357.534	116.5
357.761	128.5
357.988	147.5
358.215	143.5
358.441	112.5
358.668	124.5
358.895	135.5
359.122	116.5
359.349	126.5
359.576	129.5
359.802	116.5
360.029	131.5
360.256	128.5
360.483	135.5
360.709	132.5
360.936	148.5
361.163	129.5
361.39	128.5
361.616	132.5
361.843	135.5
362.07	137.5
362.296	123.5
362.523	111.5
362.749	114.5
362.976	124.5
363.203	140.5
363.429	118.5
363.656	134.5
363.882	136.5
364.109	122.5
364.335	120.5
364.562	126.5
364.788	120.5
365.015	125.5
365.241	114.5
365.468	119.5
365.694	124.5
365.92	137.5
366.147	135.5
366.373	114.5
366.599	120.5
366.826	129.5
367.052	121.5
367.278	122.5
367.505	127.5
367.731	134.5
367.957	136.5
368.184	141.5
368.41	113.5
368.636	148.5
368.862	147.5
369.089	136.5
369.315	121.5
369.541	126.5
369.767	139.5
369.993	144.5
370.219	130.5
370.445	124.5
370.672	131.5
370.898	127.5
371.124	135.5
371.35	130.5
371.576	127.5
371.802	124.5
372.028	115.5
372.254	145.5
372.48	131.5
372.706	152.5
372.932	139.5
373.158	146.5
373.384	135.5
373.61	136.5
373.835	139.5
374.061	121.5
374.287	146.5
374.513	152.5
374.739	136.5
374.965	135.5
375.191	129.5
375.416	139.5
375.642	160.5
375.868	142.5
376.094	147.5
376.319	138.5
376.545	132.5
376.771	139.5
376.997	142.5
377.222	131.5
377.448	137.5
377.674	137.5
377.899	122.5
378.125	122.5
378.35	124.5
378.576	127.5
378.802	132.5
379.027	138.5
379.253	132.5
379.478	132.5
379.704	124.5
379.929	143.5
380.155	135.5
380.38	126.5
380.606	135.5
380.831	132.5
381.057	143.5
381.282	133.5
381.507	145.5
381.733	126.5
381.958	140.5
382.184	117.5
382.409	115.5
382.634	147.5
382.86	146.5
383.085	138.5
383.31	144.5
383.535	150.5
383.761	133.5
383.986	136.5
384.211	134.5
384.436	150.5
384.662	129.5
384.887	139.5
385.112	136.5
385.337	138.5
385.562	129.5
385.787	149.5
386.013	152.5
386.238	159.5
386.463	148.5
386.688	184.5
386.913	149.5
387.138	142.5
387.363	137.5
387.588	154.5
387.813	148.5
388.038	148.5
388.263	145.5
388.488	143.5
388.713	132.5
388.938	134.5
389.163	139.5
389.387	145.5
389.612	156.5
389.837	130.5
390.062	140.5
390.287	155.5
390.512	150.5
390.736	128.5
390.961	146.5
391.186	134.5
391.411	168.5
391.636	155.5
391.86	152.5
392.085	166.5
392.31	145.5
392.534	145.5
392.759	140.5
392.984	150.5
393.208	135.5
393.433	125.5
393.658	151.5
393.882	135.5
394.107	144.5
394.331	136.5
394.556	147.5
394.78	148.5
395.005	166.5
395.229	137.5
395.454	167.5
395.678	150.5
395.903	147.5
396.127	159.5
396.352	140.5
396.576	138.5
396.801	138.5
397.025	139.5
397.249	169.5
397.474	156.5
397.698	134.5
397.922	156.5
398.147	139.5
398.371	156.5
398.595	161.5
398.82	160.5
399.044	178.5
399.268	187.5
399.492	215.5
399.717	222.5
399.941	207.5
400.165	191.5
400.389	172.5
400.613	144.5
400.837	150.5
401.062	162.5
401.286	150.5
401.51	174.5
401.734	150.5
401.958	148.5
402.182	177.5
402.406	171.5
402.63	176.5
402.854	181.5
403.078	175.5
403.302	171.5
403.526	171.5
403.75	173.5
403.974	193.5
404.198	199.5
404.422	177.5
404.645	161.5
404.869	169.5
405.093	191.5
405.317	175.5
405.541	160.5
405.765	169.5
405.988	184.5
406.212	186.5
406.436	159.5
406.66	184.5
406.883	176.5
407.107	181.5
407.331	194.5
407.555	202.5
407.778	190.5
408.002	180.5
408.226	170.5
408.449	183.5
408.673	154.5
408.896	169.5
409.12	195.5
409.344	159.5
409.567	172.5
409.791	185.5
410.014	177.5
410.238	160.5
410.461	178.5
410.685	197.5
410.908	168.5
411.132	168.5
411.355	167.5
411.578	164.5
411.802	164.5
412.025	171.5
412.249	170.5
412.472	173.5
412.695	172.5
412.919	154.5
413.142	176.5
413.365	158.5
413.589	172.5
413.812	163.5
414.035	167.5
414.258	159.5
414.482	158.5
414.705	173.5
414.928	181.5
415.151	168.5
415.374	161.5
415.597	169.5
415.821	173.5
416.044	164.5
416.267	171.5
416.49	154.5
416.713	156.5
416.936	168.5
417.159	164.5
417.382	169.5
417.605	158.5
417.828	178.5
418.051	165.5
418.274	158.5
418.497	171.5
418.72	166.5
418.943	150.5
419.166	182.5
419.389	184.5
419.611	174.5
419.834	173.5
420.057	174.5
420.28	166.5
420.503	165.5
420.726	170.5
420.948	172.5
421.171	166.5
421.394	145.5
421.617	164.5
421.839	158.5
422.062	162.5
422.285	159.5
422.507	165.5
422.73	160.5
422.953	162.5
423.175	182.5
423.398	171.5
423.621	166.5
423.843	185.5
424.066	180.5
424.288	172.5
424.511	172.5
424.733	166.5
424.956	166.5
425.178	166.5
425.401	167.5
425.623	167.5
425.846	160.5
426.068	152.5
426.291	161.5
426.513	152.5
426.735	160.5
426.958	160.5
427.18	147.5
427.402	170.5
427.625	162.5
427.847	156.5
428.069	162.5
428.292	158.5
428.514	171.5
428.736	159.5
428.958	144.5
429.181	154.5
429.403	137.5
429.625	171.5
429.847	164.5
430.069	138.5
430.292	155.5
430.514	150.5
430.736	154.5
430.958	144.5
431.18	158.5
431.402	142.5
431.624	152.5
431.846	173.5
432.068	182.5
432.29	176.5
432.512	153.5
432.734	148.5
432.956	158.5
433.178	158.5
433.4	148.5
433.622	154.5
433.844	167.5
434.066	155.5
434.287	162.5
434.509	158.5
434.731	170.5
434.953	168.5
435.175	164.5
435.397	167.5
435.618	161.5
435.84	148.5
436.062	160.5
436.284	156.5
436.505	158.5
436.727	148.5
436.949	145.5
437.17	157.5
437.392	148.5
437.614	147.5
437.835	135.5
438.057	140.5
438.278	143.5
438.5	144.5
438.721	139.5
438.943	167.5
439.165	151.5
439.386	139.5
439.608	155.5
439.829	166.5
440.05	172.5
440.272	154.5
440.493	151.5
440.715	155.5
440.936	163.5
441.158	171.5
441.379	159.5
441.6	168.5
441.822	162.5
442.043	170.5
442.264	167.5
442.486	165.5
442.707	168.5
442.928	163.5
443.149	167.5
443.371	179.5
443.592	156.5
443.813	181.5
444.034	156.5
444.255	176.5
444.476	166.5
444.698	195.5
444.919	194.5
445.14	462.5
445.361	306.5
445.582	178.5
445.803	170.5
446.024	165.5
446.245	168.5
446.466	165.5
446.687	150.5
446.908	167.5
447.129	169.5
447.35	155.5
447.571	158.5
447.792	144.5
448.013	147.5
448.234	153.5
448.455	149.5
448.675	148.5
448.896	148.5
449.117	138.5
449.338	146.5
449.559	148.5
449.779	147.5
450	135.5
450.221	138.5
450.442	169.5
450.662	152.5
450.883	146.5
451.104	177.5
451.324	144.5
451.545	134.5
451.766	140.5
451.986	144.5
452.207	161.5
452.428	145.5
452.648	147.5
452.869	146.5
453.089	138.5
453.31	150.5
453.53	154.5
453.751	144.5
453.971	140.5
454.192	146.5
454.412	137.5
454.633	149.5
454.853	145.5
455.073	132.5
455.294	142.5
455.514	135.5
455.734	142.5
455.955	153.5
456.175	139.5
456.395	142.5
456.616	139.5
456.836	148.5
457.056	133.5
457.276	135.5
457.497	131.5
457.717	142.5
457.937	147.5
458.157	134.5
458.377	134.5
458.598	131.5
458.818	131.5
459.038	155.5
459.258	153.5
459.478	151.5
459.698	174.5
459.918	158.5
460.138	166.5
460.358	193.5
460.578	183.5
460.798	170.5
461.018	179.5
461.238	172.5
461.458	184.5
461.678	147.5
461.898	175.5
462.118	184.5
462.338	182.5
462.558	185.5
462.777	191.5
462.997	187.5
463.217	193.5
463.437	203.5
463.657	198.5
463.876	190.5
464.096	181.5
464.316	168.5
464.536	199.5
464.755	188.5
464.975	172.5
465.195	172.5
465.414	162.5
465.634	153.5
465.854	151.5
466.073	159.5
466.293	156.5
466.512	154.5
466.732	140.5
466.951	136.5
467.171	139.5
467.391	147.5
467.61	143.5
467.829	143.5
468.049	155.5
468.268	131.5
468.488	140.5
468.707	160.5
468.927	131.5
469.146	139.5
469.365	156.5
469.585	144.5
469.804	147.5
470.023	149.5
470.243	152.5
470.462	172.5
470.681	157.5
470.901	149.5
471.12	145.5
471.339	160.5
471.558	138.5
471.777	137.5
471.997	151.5
472.216	150.5
472.435	130.5
472.654	143.5
472.873	147.5
473.092	131.5
473.311	144.5
473.53	149.5
473.749	158.5
473.968	163.5
474.187	148.5
474.406	158.5
474.625	148.5
474.844	146.5
475.063	151.5
475.282	135.5
475.501	130.5
475.72	176.5
475.939	155.5
476.158	155.5
476.377	151.5
476.596	142.5
476.814	155.5
477.033	152.5
477.252	147.5
477.471	146.5
477.69	172.5
477.908	176.5
478.127	172.5
478.346	161.5
478.564	153.5
478.783	144.5
479.002	166.5
479.22	172.5
479.439	174.5
479.658	155.5
479.876	191.5
480.095	151.5
480.313	193.5
480.532	170.5
480.751	155.5
480.969	166.5
481.188	176.5
481.406	165.5
481.624	170.5
481.843	146.5
482.061	167.5
482.28	156.5
482.498	155.5
482.717	150.5
482.935	146.5
483.153	171.5
483.372	165.5
483.59	162.5
483.808	157.5
484.027	155.5
484.245	149.5
484.463	160.5
484.681	162.5
484.9	146.5
485.118	164.5
485.336	161.5
485.554	175.5
485.772	174.5
485.99	160.5
486.209	161.5
486.427	178.5
486.645	158.5
486.863	167.5
487.081	161.5
487.299	158.5
487.517	178.5
487.735	181.5
487.953	161.5
488.171	166.5
488.389	178.5
488.607	154.5
488.825	151.5
489.043	171.5
489.261	170.5
489.479	163.5
489.696	159.5
489.914	175.5
490.132	149.5
490.35	173.5
490.568	161.5
490.786	163.5
491.003	162.5
491.221	178.5
491.439	145.5
491.657	169.5
491.874	166.5
492.092	171.5
492.31	169.5
492.527	150.5
492.745	159.5
492.963	151.5
493.18	174.5
493.398	164.5
493.615	162.5
493.833	139.5
494.05	158.5
494.268	166.5
494.485	185.5
494.703	180.5
494.92	175.5
495.138	165.5
495.355	190.5
495.573	188.5
495.79	178.5
496.008	184.5
496.225	186.5
496.442	161.5
496.66	176.5
496.877	180.5
497.094	185.5
497.312	180.5
497.529	181.5
497.746	184.5
497.963	191.5
498.181	197.5
498.398	182.5
498.615	194.5
498.832	212.5
499.049	227.5
499.267	251.5
499.484	271.5
499.701	290.5
499.918	312.5
500.135	340.5
500.352	376.5
500.569	368.5
500.786	350.5
501.003	344.5
501.22	324.5
501.437	294.5
501.654	257.5
501.871	247.5
502.088	229.5
502.305	218.5
502.522	213.5
502.739	208.5
502.956	192.5
503.172	195.5
503.389	186.5
503.606	178.5
503.823	166.5
504.04	205.5
504.256	189.5
504.473	178.5
504.69	202.5
504.907	193.5
505.123	201.5
505.34	186.5
505.557	165.5
505.773	176.5
505.99	163.5
506.207	151.5
506.423	144.5
506.64	167.5
506.856	155.5
507.073	158.5
507.289	147.5
507.506	172.5
507.722	145.5
507.939	144.5
508.155	154.5
508.372	149.5
508.588	145.5
508.805	165.5
509.021	148.5
509.238	156.5
509.454	160.5
509.67	140.5
509.887	143.5
510.103	148.5
510.319	143.5
510.536	159.5
510.752	166.5
510.968	153.5
511.184	135.5
511.401	147.5
511.617	134.5
511.833	130.5
512.049	143.5
512.265	146.5
512.481	129.5
512.698	158.5
512.914	146.5
513.13	160.5
513.346	136.5
513.562	154.5
513.778	148.5
513.994	139.5
514.21	150.5
514.426	154.5
514.642	139.5
514.858	146.5
515.074	138.5
515.29	160.5
515.506	160.5
515.721	171.5
515.937	176.5
516.153	158.5
516.369	144.5
516.585	168.5
516.801	186.5
517.016	176.5
517.232	179.5
517.448	181.5
517.664	201.5
517.879	177.5
518.095	183.5
518.311	178.5
518.527	158.5
518.742	170.5
518.958	166.5
519.173	156.5
519.389	167.5
519.605	150.5
519.82	161.5
520.036	151.5
520.251	151.5
520.467	167.5
520.682	127.5
520.898	146.5
521.113	146.5
521.329	161.5
521.544	139.5
521.76	137.5
521.975	142.5
522.19	142.5
522.406	140.5
522.621	147.5
522.836	140.5
523.052	158.5
523.267	133.5
