Data from SampG_HRD10591_00063.txt Node
Date: Mon Jan 19 11:54:05 EST 2026
User: Yrep
Spectrometer: HR+D1059
Trigger mode: 0
Integration Time (sec): 3.443000E-1
Scans to average: 1
Electric dark correction enabled: true
Nonlinearity correction enabled: false
Boxcar width: 0
XAxis mode: Wavelengths
Number of Pixels in Spectrum: 2048
>>>>>Begin Spectral Data<<<<<
223.165	-17.81
223.4	-17.81
223.635	-17.81
223.869	-21.81
224.104	-28.81
224.338	-13.81
224.573	-8.81
224.808	-13.81
225.042	-12.81
225.277	-13.81
225.511	13.19
225.746	9.19
225.98	5.19
226.215	17.19
226.449	21.19
226.683	24.19
226.918	24.19
227.152	17.19
227.387	47.19
227.621	50.19
227.856	43.19
228.09	50.19
228.324	43.19
228.559	49.19
228.793	56.19
229.027	57.19
229.262	74.19
229.496	59.19
229.73	82.19
229.964	77.19
230.199	84.19
230.433	91.19
230.667	94.19
230.901	78.19
231.136	73.19
231.37	85.19
231.604	88.19
231.838	74.19
232.072	85.19
232.306	96.19
232.541	91.19
232.775	81.19
233.009	89.19
233.243	93.19
233.477	100.19
233.711	81.19
233.945	72.19
234.179	89.19
234.413	87.19
234.647	84.19
234.881	85.19
235.115	83.19
235.349	87.19
235.583	79.19
235.817	78.19
236.051	91.19
236.285	90.19
236.519	84.19
236.753	81.19
236.987	78.19
237.221	97.19
237.455	89.19
237.689	82.19
237.922	87.19
238.156	73.19
238.39	74.19
238.624	90.19
238.858	83.19
239.091	87.19
239.325	76.19
239.559	90.19
239.793	73.19
240.027	79.19
240.26	82.19
240.494	85.19
240.728	90.19
240.961	75.19
241.195	85.19
241.429	99.19
241.662	75.19
241.896	82.19
242.13	81.19
242.363	84.19
242.597	81.19
242.83	91.19
243.064	84.19
243.298	94.19
243.531	81.19
243.765	77.19
243.998	97.19
244.232	85.19
244.465	82.19
244.699	77.19
244.932	85.19
245.166	86.19
245.399	100.19
245.633	88.19
245.866	91.19
246.099	77.19
246.333	85.19
246.566	97.19
246.8	90.19
247.033	89.19
247.266	93.19
247.5	94.19
247.733	91.19
247.966	87.19
248.2	94.19
248.433	80.19
248.666	87.19
248.899	87.19
249.133	102.19
249.366	81.19
249.599	76.19
249.832	79.19
250.066	94.19
250.299	91.19
250.532	96.19
250.765	87.19
250.998	88.19
251.231	94.19
251.465	101.19
251.698	83.19
251.931	96.19
252.164	84.19
252.397	87.19
252.63	100.19
252.863	93.19
253.096	88.19
253.329	93.19
253.562	98.19
253.795	92.19
254.028	99.19
254.261	93.19
254.494	78.19
254.727	91.19
254.96	86.19
255.193	92.19
255.426	100.19
255.659	107.19
255.892	95.19
256.124	90.19
256.357	100.19
256.59	119.19
256.823	87.19
257.056	98.19
257.289	102.19
257.521	110.19
257.754	112.19
257.987	81.19
258.22	95.19
258.452	103.19
258.685	95.19
258.918	96.19
259.151	95.19
259.383	105.19
259.616	103.19
259.849	95.19
260.081	101.19
260.314	106.19
260.547	88.19
260.779	87.19
261.012	97.19
261.244	99.19
261.477	106.19
261.71	86.19
261.942	100.19
262.175	101.19
262.407	106.19
262.64	101.19
262.872	97.19
263.105	88.19
263.337	105.19
263.57	99.19
263.802	82.19
264.035	109.19
264.267	116.19
264.499	91.19
264.732	102.19
264.964	112.19
265.197	104.19
265.429	102.19
265.661	104.19
265.894	103.19
266.126	123.19
266.358	99.19
266.591	87.19
266.823	102.19
267.055	104.19
267.287	97.19
267.52	98.19
267.752	99.19
267.984	109.19
268.216	102.19
268.448	106.19
268.681	118.19
268.913	110.19
269.145	115.19
269.377	108.19
269.609	107.19
269.841	116.19
270.073	99.19
270.306	115.19
270.538	108.19
270.77	99.19
271.002	91.19
271.234	98.19
271.466	117.19
271.698	100.19
271.93	109.19
272.162	118.19
272.394	99.19
272.626	87.19
272.858	94.19
273.09	106.19
273.322	107.19
273.553	101.19
273.785	107.19
274.017	93.19
274.249	124.19
274.481	121.19
274.713	94.19
274.945	102.19
275.176	113.19
275.408	117.19
275.64	105.19
275.872	125.19
276.104	117.19
276.335	113.19
276.567	120.19
276.799	113.19
277.031	114.19
277.262	97.19
277.494	117.19
277.726	118.19
277.957	118.19
278.189	106.19
278.421	109.19
278.652	113.19
278.884	119.19
279.115	109.19
279.347	105.19
279.579	110.19
279.81	116.19
280.042	125.19
280.273	114.19
280.505	107.19
280.736	99.19
280.968	103.19
281.199	108.19
281.431	122.19
281.662	100.19
281.894	113.19
282.125	111.19
282.356	130.19
282.588	121.19
282.819	117.19
283.051	107.19
283.282	107.19
283.513	138.19
283.745	102.19
283.976	98.19
284.207	133.19
284.439	127.19
284.67	130.19
284.901	125.19
285.132	122.19
285.364	115.19
285.595	124.19
285.826	116.19
286.057	116.19
286.288	109.19
286.52	121.19
286.751	116.19
286.982	130.19
287.213	123.19
287.444	102.19
287.675	119.19
287.906	121.19
288.138	121.19
288.369	117.19
288.6	109.19
288.831	112.19
289.062	119.19
289.293	118.19
289.524	111.19
289.755	122.19
289.986	119.19
290.217	127.19
290.448	126.19
290.679	116.19
290.91	105.19
291.141	121.19
291.371	119.19
291.602	115.19
291.833	112.19
292.064	129.19
292.295	125.19
292.526	115.19
292.757	111.19
292.987	118.19
293.218	124.19
293.449	113.19
293.68	125.19
293.91	120.19
294.141	123.19
294.372	130.19
294.603	121.19
294.833	125.19
295.064	125.19
295.295	128.19
295.525	108.19
295.756	111.19
295.987	120.19
296.217	125.19
296.448	127.19
296.679	120.19
296.909	121.19
297.14	117.19
297.37	122.19
297.601	115.19
297.831	125.19
298.062	128.19
298.292	130.19
298.523	129.19
298.753	118.19
298.984	127.19
299.214	133.19
299.445	132.19
299.675	115.19
299.905	122.19
300.136	140.19
300.366	123.19
300.597	124.19
300.827	116.19
301.057	124.19
301.288	127.19
301.518	122.19
301.748	126.19
301.979	160.19
302.209	122.19
302.439	129.19
302.669	126.19
302.9	136.19
303.13	126.19
303.36	135.19
303.59	125.19
303.82	129.19
304.051	141.19
304.281	139.19
304.511	137.19
304.741	134.19
304.971	130.19
305.201	135.19
305.431	149.19
305.661	123.19
305.891	125.19
306.121	132.19
306.352	128.19
306.582	124.19
306.812	119.19
307.042	129.19
307.272	130.19
307.502	128.19
307.731	132.19
307.961	129.19
308.191	134.19
308.421	117.19
308.651	133.19
308.881	133.19
309.111	130.19
309.341	121.19
309.571	131.19
309.8	122.19
310.03	129.19
310.26	126.19
310.49	113.19
310.72	137.19
310.949	117.19
311.179	125.19
311.409	133.19
311.639	132.19
311.868	123.19
312.098	129.19
312.328	128.19
312.557	131.19
312.787	118.19
313.017	133.19
313.246	122.19
313.476	127.19
313.706	132.19
313.935	125.19
314.165	125.19
314.394	131.19
314.624	125.19
314.853	152.19
315.083	126.19
315.312	121.19
315.542	123.19
315.771	130.19
316.001	139.19
316.23	138.19
316.46	114.19
316.689	130.19
316.919	118.19
317.148	131.19
317.377	132.19
317.607	126.19
317.836	122.19
318.065	133.19
318.295	129.19
318.524	117.19
318.753	132.19
318.983	137.19
319.212	124.19
319.441	122.19
319.67	122.19
319.9	126.19
320.129	130.19
320.358	128.19
320.587	123.19
320.816	133.19
321.046	113.19
321.275	131.19
321.504	136.19
321.733	118.19
321.962	133.19
322.191	124.19
322.42	126.19
322.649	146.19
322.878	126.19
323.108	131.19
323.337	137.19
323.566	136.19
323.795	134.19
324.024	141.19
324.253	132.19
324.482	132.19
324.71	135.19
324.939	140.19
325.168	133.19
325.397	136.19
325.626	125.19
325.855	129.19
326.084	148.19
326.313	135.19
326.542	138.19
326.77	131.19
326.999	129.19
327.228	142.19
327.457	137.19
327.686	125.19
327.914	129.19
328.143	155.19
328.372	133.19
328.6	133.19
328.829	137.19
329.058	146.19
329.287	119.19
329.515	128.19
329.744	141.19
329.972	136.19
330.201	132.19
330.43	117.19
330.658	124.19
330.887	130.19
331.115	142.19
331.344	137.19
331.572	148.19
331.801	135.19
332.03	133.19
332.258	147.19
332.486	149.19
332.715	159.19
332.943	142.19
333.172	157.19
333.4	167.19
333.629	180.19
333.857	167.19
334.085	152.19
334.314	142.19
334.542	161.19
334.771	155.19
334.999	137.19
335.227	159.19
335.455	141.19
335.684	165.19
335.912	148.19
336.14	157.19
336.369	143.19
336.597	161.19
336.825	157.19
337.053	145.19
337.281	132.19
337.51	135.19
337.738	154.19
337.966	149.19
338.194	147.19
338.422	149.19
338.65	138.19
338.878	148.19
339.106	131.19
339.334	141.19
339.562	129.19
339.79	134.19
340.018	133.19
340.246	132.19
340.474	137.19
340.702	139.19
340.93	128.19
341.158	128.19
341.386	148.19
341.614	138.19
341.842	149.19
342.07	129.19
342.298	165.19
342.526	142.19
342.754	129.19
342.981	154.19
343.209	137.19
343.437	175.19
343.665	146.19
343.893	157.19
344.12	154.19
344.348	148.19
344.576	151.19
344.804	145.19
345.031	139.19
345.259	126.19
345.487	156.19
345.714	137.19
345.942	129.19
346.17	138.19
346.397	134.19
346.625	134.19
346.853	135.19
347.08	146.19
347.308	143.19
347.535	126.19
347.763	141.19
347.99	139.19
348.218	148.19
348.445	125.19
348.673	138.19
348.9	129.19
349.128	141.19
349.355	132.19
349.583	130.19
349.81	123.19
350.037	130.19
350.265	132.19
350.492	148.19
350.72	125.19
350.947	129.19
351.174	132.19
351.402	127.19
351.629	120.19
351.856	115.19
352.083	124.19
352.311	132.19
352.538	137.19
352.765	162.19
352.992	136.19
353.22	122.19
353.447	126.19
353.674	137.19
353.901	131.19
354.128	150.19
354.355	132.19
354.583	135.19
354.81	144.19
355.037	139.19
355.264	134.19
355.491	140.19
355.718	134.19
355.945	132.19
356.172	149.19
356.399	142.19
356.626	137.19
356.853	153.19
357.08	150.19
357.307	148.19
357.534	145.19
357.761	135.19
357.988	157.19
358.215	140.19
358.441	136.19
358.668	127.19
358.895	139.19
359.122	142.19
359.349	125.19
359.576	144.19
359.802	141.19
360.029	128.19
360.256	125.19
360.483	124.19
360.709	128.19
360.936	142.19
361.163	143.19
361.39	142.19
361.616	135.19
361.843	124.19
362.07	140.19
362.296	130.19
362.523	146.19
362.749	137.19
362.976	143.19
363.203	153.19
363.429	137.19
363.656	138.19
363.882	122.19
364.109	141.19
364.335	145.19
364.562	126.19
364.788	137.19
365.015	126.19
365.241	133.19
365.468	143.19
365.694	142.19
365.92	129.19
366.147	129.19
366.373	139.19
366.599	132.19
366.826	138.19
367.052	132.19
367.278	137.19
367.505	134.19
367.731	163.19
367.957	133.19
368.184	130.19
368.41	121.19
368.636	154.19
368.862	151.19
369.089	132.19
369.315	146.19
369.541	130.19
369.767	140.19
369.993	138.19
370.219	132.19
370.445	123.19
370.672	141.19
370.898	141.19
371.124	139.19
371.35	142.19
371.576	129.19
371.802	125.19
372.028	142.19
372.254	138.19
372.48	136.19
372.706	157.19
372.932	155.19
373.158	134.19
373.384	131.19
373.61	139.19
373.835	133.19
374.061	154.19
374.287	138.19
374.513	132.19
374.739	131.19
374.965	142.19
375.191	150.19
375.416	148.19
375.642	132.19
375.868	150.19
376.094	146.19
376.319	140.19
376.545	133.19
376.771	144.19
376.997	136.19
377.222	146.19
377.448	139.19
377.674	163.19
377.899	138.19
378.125	132.19
378.35	142.19
378.576	139.19
378.802	138.19
379.027	162.19
379.253	146.19
379.478	149.19
379.704	134.19
379.929	134.19
380.155	140.19
380.38	131.19
380.606	149.19
380.831	142.19
381.057	142.19
381.282	125.19
381.507	165.19
381.733	161.19
381.958	149.19
382.184	134.19
382.409	135.19
382.634	150.19
382.86	158.19
383.085	158.19
383.31	143.19
383.535	161.19
383.761	155.19
383.986	145.19
384.211	142.19
384.436	152.19
384.662	149.19
384.887	148.19
385.112	165.19
385.337	145.19
385.562	151.19
385.787	147.19
386.013	152.19
386.238	165.19
386.463	156.19
386.688	186.19
386.913	150.19
387.138	158.19
387.363	165.19
387.588	162.19
387.813	153.19
388.038	165.19
388.263	158.19
388.488	159.19
388.713	140.19
388.938	157.19
389.163	143.19
389.387	154.19
389.612	151.19
389.837	161.19
390.062	164.19
390.287	167.19
390.512	148.19
390.736	149.19
390.961	150.19
391.186	169.19
391.411	141.19
391.636	161.19
391.86	161.19
392.085	169.19
392.31	160.19
392.534	149.19
392.759	153.19
392.984	143.19
393.208	147.19
393.433	162.19
393.658	165.19
393.882	147.19
394.107	167.19
394.331	165.19
394.556	160.19
394.78	167.19
395.005	167.19
395.229	183.19
395.454	184.19
395.678	165.19
395.903	165.19
396.127	166.19
396.352	178.19
396.576	152.19
396.801	167.19
397.025	162.19
397.249	163.19
397.474	180.19
397.698	155.19
397.922	171.19
398.147	170.19
398.371	178.19
398.595	169.19
398.82	175.19
399.044	183.19
399.268	215.19
399.492	220.19
399.717	242.19
399.941	227.19
400.165	215.19
400.389	181.19
400.613	178.19
400.837	173.19
401.062	195.19
401.286	171.19
401.51	166.19
401.734	185.19
401.958	195.19
402.182	176.19
402.406	175.19
402.63	180.19
402.854	169.19
403.078	176.19
403.302	193.19
403.526	194.19
403.75	197.19
403.974	183.19
404.198	181.19
404.422	186.19
404.645	190.19
404.869	193.19
405.093	189.19
405.317	186.19
405.541	193.19
405.765	185.19
405.988	191.19
406.212	193.19
406.436	193.19
406.66	181.19
406.883	191.19
407.107	183.19
407.331	212.19
407.555	210.19
407.778	209.19
408.002	194.19
408.226	185.19
408.449	205.19
408.673	183.19
408.896	185.19
409.12	206.19
409.344	193.19
409.567	189.19
409.791	178.19
410.014	180.19
410.238	192.19
410.461	186.19
410.685	182.19
410.908	173.19
411.132	183.19
411.355	167.19
411.578	185.19
411.802	179.19
412.025	152.19
412.249	182.19
412.472	164.19
412.695	178.19
412.919	179.19
413.142	169.19
413.365	166.19
413.589	165.19
413.812	170.19
414.035	173.19
414.258	179.19
414.482	169.19
414.705	173.19
414.928	165.19
415.151	151.19
415.374	173.19
415.597	170.19
415.821	162.19
416.044	173.19
416.267	175.19
416.49	178.19
416.713	176.19
416.936	185.19
417.159	198.19
417.382	169.19
417.605	164.19
417.828	179.19
418.051	182.19
418.274	174.19
418.497	165.19
418.72	163.19
418.943	191.19
419.166	185.19
419.389	187.19
419.611	180.19
419.834	197.19
420.057	188.19
420.28	177.19
420.503	181.19
420.726	162.19
420.948	171.19
421.171	171.19
421.394	168.19
421.617	180.19
421.839	173.19
422.062	174.19
422.285	188.19
422.507	169.19
422.73	185.19
422.953	153.19
423.175	168.19
423.398	193.19
423.621	189.19
423.843	158.19
424.066	174.19
424.288	192.19
424.511	184.19
424.733	183.19
424.956	190.19
425.178	171.19
425.401	192.19
425.623	177.19
425.846	175.19
426.068	163.19
426.291	166.19
426.513	163.19
426.735	174.19
426.958	163.19
427.18	169.19
427.402	169.19
427.625	159.19
427.847	147.19
428.069	158.19
428.292	168.19
428.514	160.19
428.736	171.19
428.958	162.19
429.181	166.19
429.403	152.19
429.625	169.19
429.847	152.19
430.069	163.19
430.292	167.19
430.514	153.19
430.736	155.19
430.958	153.19
431.18	158.19
431.402	160.19
431.624	160.19
431.846	164.19
432.068	165.19
432.29	168.19
432.512	163.19
432.734	156.19
432.956	172.19
433.178	187.19
433.4	173.19
433.622	179.19
433.844	151.19
434.066	170.19
434.287	169.19
434.509	171.19
434.731	175.19
434.953	174.19
435.175	175.19
435.397	172.19
435.618	166.19
435.84	166.19
436.062	168.19
436.284	164.19
436.505	183.19
436.727	167.19
436.949	168.19
437.17	178.19
437.392	157.19
437.614	170.19
437.835	134.19
438.057	151.19
438.278	156.19
438.5	165.19
438.721	153.19
438.943	167.19
439.165	153.19
439.386	161.19
439.608	175.19
439.829	173.19
440.05	168.19
440.272	163.19
440.493	172.19
440.715	162.19
440.936	183.19
441.158	183.19
441.379	180.19
441.6	194.19
441.822	173.19
442.043	172.19
442.264	167.19
442.486	176.19
442.707	176.19
442.928	183.19
443.149	168.19
443.371	166.19
443.592	166.19
443.813	158.19
444.034	183.19
444.255	186.19
444.476	185.19
444.698	176.19
444.919	200.19
445.14	409.19
445.361	266.19
445.582	190.19
445.803	166.19
446.024	174.19
446.245	165.19
446.466	155.19
446.687	156.19
446.908	162.19
447.129	165.19
447.35	168.19
447.571	156.19
447.792	159.19
448.013	162.19
448.234	152.19
448.455	169.19
448.675	184.19
448.896	157.19
449.117	153.19
449.338	146.19
449.559	171.19
449.779	162.19
450	142.19
450.221	151.19
450.442	158.19
450.662	161.19
450.883	145.19
451.104	157.19
451.324	149.19
451.545	148.19
451.766	150.19
451.986	154.19
452.207	139.19
452.428	143.19
452.648	158.19
452.869	161.19
453.089	154.19
453.31	152.19
453.53	158.19
453.751	153.19
453.971	155.19
454.192	148.19
454.412	143.19
454.633	155.19
454.853	165.19
455.073	135.19
455.294	149.19
455.514	159.19
455.734	151.19
455.955	153.19
456.175	140.19
456.395	166.19
456.616	129.19
456.836	138.19
457.056	140.19
457.276	139.19
457.497	146.19
457.717	152.19
457.937	149.19
458.157	166.19
458.377	138.19
458.598	155.19
458.818	143.19
459.038	141.19
459.258	162.19
459.478	162.19
459.698	172.19
459.918	173.19
460.138	159.19
460.358	182.19
460.578	180.19
460.798	183.19
461.018	191.19
461.238	183.19
461.458	196.19
461.678	188.19
461.898	186.19
462.118	190.19
462.338	197.19
462.558	197.19
462.777	199.19
462.997	200.19
463.217	213.19
463.437	221.19
463.657	223.19
463.876	214.19
464.096	213.19
464.316	202.19
464.536	210.19
464.755	192.19
464.975	196.19
465.195	182.19
465.414	182.19
465.634	176.19
465.854	174.19
466.073	177.19
466.293	150.19
466.512	165.19
466.732	146.19
466.951	150.19
467.171	158.19
467.391	157.19
467.61	161.19
467.829	153.19
468.049	157.19
468.268	153.19
468.488	154.19
468.707	156.19
468.927	170.19
469.146	154.19
469.365	175.19
469.585	174.19
469.804	151.19
470.023	163.19
470.243	168.19
470.462	142.19
470.681	153.19
470.901	154.19
471.12	141.19
471.339	163.19
471.558	161.19
471.777	164.19
471.997	166.19
472.216	153.19
472.435	157.19
472.654	157.19
472.873	154.19
473.092	151.19
473.311	169.19
473.53	147.19
473.749	154.19
473.968	165.19
474.187	142.19
474.406	153.19
474.625	138.19
474.844	166.19
475.063	146.19
475.282	140.19
475.501	149.19
475.72	169.19
475.939	175.19
476.158	160.19
476.377	155.19
476.596	138.19
476.814	177.19
477.033	172.19
477.252	145.19
477.471	163.19
477.69	173.19
477.908	173.19
478.127	192.19
478.346	160.19
478.564	175.19
478.783	175.19
479.002	165.19
479.22	187.19
479.439	192.19
479.658	177.19
479.876	179.19
480.095	178.19
480.313	174.19
480.532	188.19
480.751	179.19
480.969	172.19
481.188	173.19
481.406	185.19
481.624	184.19
481.843	168.19
482.061	162.19
482.28	191.19
482.498	165.19
482.717	179.19
482.935	157.19
483.153	166.19
483.372	146.19
483.59	158.19
483.808	168.19
484.027	183.19
484.245	188.19
484.463	171.19
484.681	189.19
484.9	171.19
485.118	187.19
485.336	152.19
485.554	166.19
485.772	176.19
485.99	171.19
486.209	188.19
486.427	167.19
486.645	179.19
486.863	171.19
487.081	163.19
487.299	165.19
487.517	180.19
487.735	190.19
487.953	168.19
488.171	183.19
488.389	173.19
488.607	160.19
488.825	161.19
489.043	163.19
489.261	184.19
489.479	194.19
489.696	164.19
489.914	170.19
490.132	172.19
490.35	173.19
490.568	173.19
490.786	151.19
491.003	169.19
491.221	171.19
491.439	183.19
491.657	172.19
491.874	179.19
492.092	180.19
492.31	177.19
492.527	169.19
492.745	182.19
492.963	177.19
493.18	200.19
493.398	182.19
493.615	180.19
493.833	184.19
494.05	179.19
494.268	176.19
494.485	191.19
494.703	182.19
494.92	163.19
495.138	177.19
495.355	168.19
495.573	187.19
495.79	180.19
496.008	177.19
496.225	186.19
496.442	189.19
496.66	196.19
496.877	190.19
497.094	193.19
497.312	179.19
497.529	170.19
497.746	200.19
497.963	206.19
498.181	198.19
498.398	209.19
498.615	217.19
498.832	220.19
499.049	243.19
499.267	271.19
499.484	298.19
499.701	309.19
499.918	349.19
500.135	348.19
500.352	383.19
500.569	388.19
500.786	385.19
501.003	356.19
501.22	320.19
501.437	302.19
501.654	273.19
501.871	245.19
502.088	256.19
502.305	231.19
502.522	220.19
502.739	231.19
502.956	205.19
503.172	226.19
503.389	198.19
503.606	191.19
503.823	195.19
504.04	180.19
504.256	192.19
504.473	204.19
504.69	204.19
