Data from SampG_HRD10591_00033.txt Node
Date: Mon Jan 19 11:53:54 EST 2026
User: Yrep
Spectrometer: HR+D1059
Trigger mode: 0
Integration Time (sec): 3.443000E-1
Scans to average: 1
Electric dark correction enabled: true
Nonlinearity correction enabled: false
Boxcar width: 0
XAxis mode: Wavelengths
Number of Pixels in Spectrum: 2048
>>>>>Begin Spectral Data<<<<<
223.165	-19.62
223.4	-19.62
223.635	-19.62
223.869	-19.62
224.104	-32.62
224.338	-14.62
224.573	-8.62
224.808	-12.62
225.042	-16.62
225.277	-3.62
225.511	3.38
225.746	5.38
225.98	4.38
226.215	17.38
226.449	17.38
226.683	11.38
226.918	33.38
227.152	35.38
227.387	40.38
227.621	36.38
227.856	60.38
228.09	58.38
228.324	35.38
228.559	52.38
228.793	54.38
229.027	60.38
229.262	70.38
229.496	71.38
229.73	77.38
229.964	74.38
230.199	75.38
230.433	89.38
230.667	74.38
230.901	99.38
231.136	83.38
231.37	83.38
231.604	95.38
231.838	79.38
232.072	72.38
232.306	89.38
232.541	70.38
232.775	76.38
233.009	80.38
233.243	73.38
233.477	93.38
233.711	83.38
233.945	82.38
234.179	63.38
234.413	84.38
234.647	83.38
234.881	95.38
235.115	81.38
235.349	96.38
235.583	80.38
235.817	96.38
236.051	74.38
236.285	87.38
236.519	82.38
236.753	74.38
236.987	85.38
237.221	71.38
237.455	84.38
237.689	90.38
237.922	81.38
238.156	67.38
238.39	68.38
238.624	60.38
238.858	80.38
239.091	73.38
239.325	81.38
239.559	80.38
239.793	81.38
240.027	98.38
240.26	77.38
240.494	79.38
240.728	91.38
240.961	80.38
241.195	88.38
241.429	87.38
241.662	81.38
241.896	79.38
242.13	86.38
242.363	72.38
242.597	73.38
242.83	76.38
243.064	80.38
243.298	81.38
243.531	107.38
243.765	84.38
243.998	94.38
244.232	88.38
244.465	72.38
244.699	79.38
244.932	97.38
245.166	73.38
245.399	81.38
245.633	71.38
245.866	81.38
246.099	85.38
246.333	90.38
246.566	71.38
246.8	77.38
247.033	81.38
247.266	84.38
247.5	72.38
247.733	89.38
247.966	80.38
248.2	84.38
248.433	93.38
248.666	91.38
248.899	81.38
249.133	85.38
249.366	83.38
249.599	74.38
249.832	92.38
250.066	82.38
250.299	83.38
250.532	87.38
250.765	86.38
250.998	87.38
251.231	79.38
251.465	89.38
251.698	91.38
251.931	100.38
252.164	84.38
252.397	86.38
252.63	93.38
252.863	89.38
253.096	98.38
253.329	91.38
253.562	95.38
253.795	89.38
254.028	88.38
254.261	87.38
254.494	87.38
254.727	92.38
254.96	93.38
255.193	84.38
255.426	97.38
255.659	94.38
255.892	112.38
256.124	98.38
256.357	89.38
256.59	74.38
256.823	90.38
257.056	96.38
257.289	95.38
257.521	98.38
257.754	96.38
257.987	90.38
258.22	93.38
258.452	87.38
258.685	96.38
258.918	103.38
259.151	84.38
259.383	93.38
259.616	102.38
259.849	105.38
260.081	94.38
260.314	104.38
260.547	97.38
260.779	87.38
261.012	87.38
261.244	86.38
261.477	102.38
261.71	81.38
261.942	103.38
262.175	93.38
262.407	87.38
262.64	93.38
262.872	98.38
263.105	95.38
263.337	106.38
263.57	81.38
263.802	95.38
264.035	113.38
264.267	89.38
264.499	100.38
264.732	95.38
264.964	101.38
265.197	93.38
265.429	104.38
265.661	97.38
265.894	108.38
266.126	121.38
266.358	105.38
266.591	100.38
266.823	92.38
267.055	93.38
267.287	101.38
267.52	96.38
267.752	111.38
267.984	113.38
268.216	106.38
268.448	105.38
268.681	88.38
268.913	106.38
269.145	89.38
269.377	98.38
269.609	89.38
269.841	99.38
270.073	110.38
270.306	122.38
270.538	105.38
270.77	100.38
271.002	113.38
271.234	97.38
271.466	101.38
271.698	87.38
271.93	95.38
272.162	116.38
272.394	100.38
272.626	100.38
272.858	107.38
273.09	95.38
273.322	109.38
273.553	97.38
273.785	103.38
274.017	107.38
274.249	115.38
274.481	106.38
274.713	111.38
274.945	112.38
275.176	99.38
275.408	115.38
275.64	89.38
275.872	89.38
276.104	98.38
276.335	97.38
276.567	95.38
276.799	99.38
277.031	102.38
277.262	111.38
277.494	132.38
277.726	91.38
277.957	103.38
278.189	113.38
278.421	106.38
278.652	104.38
278.884	113.38
279.115	102.38
279.347	96.38
279.579	104.38
279.81	99.38
280.042	110.38
280.273	115.38
280.505	105.38
280.736	126.38
280.968	111.38
281.199	103.38
281.431	122.38
281.662	118.38
281.894	110.38
282.125	111.38
282.356	106.38
282.588	100.38
282.819	106.38
283.051	101.38
283.282	119.38
283.513	119.38
283.745	119.38
283.976	117.38
284.207	116.38
284.439	107.38
284.67	111.38
284.901	103.38
285.132	123.38
285.364	110.38
285.595	116.38
285.826	121.38
286.057	115.38
286.288	122.38
286.52	114.38
286.751	120.38
286.982	131.38
287.213	120.38
287.444	117.38
287.675	108.38
287.906	125.38
288.138	103.38
288.369	107.38
288.6	119.38
288.831	107.38
289.062	115.38
289.293	125.38
289.524	108.38
289.755	128.38
289.986	112.38
290.217	113.38
290.448	105.38
290.679	117.38
290.91	121.38
291.141	125.38
291.371	115.38
291.602	119.38
291.833	103.38
292.064	114.38
292.295	112.38
292.526	119.38
292.757	119.38
292.987	121.38
293.218	121.38
293.449	103.38
293.68	121.38
293.91	119.38
294.141	128.38
294.372	107.38
294.603	123.38
294.833	129.38
295.064	116.38
295.295	114.38
295.525	116.38
295.756	114.38
295.987	126.38
296.217	109.38
296.448	118.38
296.679	105.38
296.909	119.38
297.14	119.38
297.37	137.38
297.601	129.38
297.831	118.38
298.062	119.38
298.292	127.38
298.523	120.38
298.753	124.38
298.984	101.38
299.214	118.38
299.445	105.38
299.675	119.38
299.905	138.38
300.136	121.38
300.366	105.38
300.597	124.38
300.827	125.38
301.057	125.38
301.288	129.38
301.518	114.38
301.748	119.38
301.979	159.38
302.209	122.38
302.439	128.38
302.669	96.38
302.9	137.38
303.13	122.38
303.36	122.38
303.59	122.38
303.82	121.38
304.051	121.38
304.281	144.38
304.511	135.38
304.741	129.38
304.971	123.38
305.201	127.38
305.431	132.38
305.661	116.38
305.891	125.38
306.121	126.38
306.352	120.38
306.582	122.38
306.812	104.38
307.042	132.38
307.272	115.38
307.502	109.38
307.731	107.38
307.961	110.38
308.191	115.38
308.421	130.38
308.651	143.38
308.881	106.38
309.111	116.38
309.341	105.38
309.571	117.38
309.8	120.38
310.03	118.38
310.26	123.38
310.49	125.38
310.72	132.38
310.949	105.38
311.179	128.38
311.409	117.38
311.639	115.38
311.868	117.38
312.098	138.38
312.328	116.38
312.557	120.38
312.787	130.38
313.017	131.38
313.246	113.38
313.476	137.38
313.706	116.38
313.935	103.38
314.165	133.38
314.394	117.38
314.624	117.38
314.853	109.38
315.083	124.38
315.312	123.38
315.542	122.38
315.771	122.38
316.001	120.38
316.23	116.38
316.46	133.38
316.689	108.38
316.919	115.38
317.148	103.38
317.377	140.38
317.607	130.38
317.836	111.38
318.065	118.38
318.295	128.38
318.524	122.38
318.753	121.38
318.983	127.38
319.212	129.38
319.441	118.38
319.67	117.38
319.9	113.38
320.129	130.38
320.358	122.38
320.587	111.38
320.816	112.38
321.046	123.38
321.275	121.38
321.504	120.38
321.733	120.38
321.962	109.38
322.191	109.38
322.42	139.38
322.649	137.38
322.878	131.38
323.108	114.38
323.337	131.38
323.566	121.38
323.795	134.38
324.024	143.38
324.253	128.38
324.482	130.38
324.71	135.38
324.939	134.38
325.168	130.38
325.397	131.38
325.626	116.38
325.855	120.38
326.084	134.38
326.313	125.38
326.542	129.38
326.77	131.38
326.999	126.38
327.228	120.38
327.457	118.38
327.686	126.38
327.914	151.38
328.143	136.38
328.372	133.38
328.6	119.38
328.829	127.38
329.058	120.38
329.287	134.38
329.515	122.38
329.744	126.38
329.972	144.38
330.201	140.38
330.43	126.38
330.658	117.38
330.887	118.38
331.115	121.38
331.344	123.38
331.572	141.38
331.801	149.38
332.03	149.38
332.258	142.38
332.486	140.38
332.715	157.38
332.943	146.38
333.172	157.38
333.4	157.38
333.629	165.38
333.857	158.38
334.085	151.38
334.314	152.38
334.542	136.38
334.771	147.38
334.999	148.38
335.227	141.38
335.455	153.38
335.684	156.38
335.912	151.38
336.14	138.38
336.369	123.38
336.597	138.38
336.825	142.38
337.053	140.38
337.281	130.38
337.51	138.38
337.738	149.38
337.966	116.38
338.194	140.38
338.422	127.38
338.65	147.38
338.878	163.38
339.106	137.38
339.334	155.38
339.562	131.38
339.79	146.38
340.018	134.38
340.246	123.38
340.474	133.38
340.702	123.38
340.93	136.38
341.158	134.38
341.386	126.38
341.614	122.38
341.842	126.38
342.07	120.38
342.298	130.38
342.526	127.38
342.754	135.38
342.981	130.38
343.209	130.38
343.437	167.38
343.665	138.38
343.893	152.38
344.12	147.38
344.348	139.38
344.576	141.38
344.804	129.38
345.031	119.38
345.259	121.38
345.487	116.38
345.714	140.38
345.942	125.38
346.17	134.38
346.397	126.38
346.625	130.38
346.853	133.38
347.08	133.38
347.308	126.38
347.535	139.38
347.763	153.38
347.99	140.38
348.218	124.38
348.445	139.38
348.673	145.38
348.9	150.38
349.128	139.38
349.355	130.38
349.583	119.38
349.81	113.38
350.037	121.38
350.265	126.38
350.492	125.38
350.72	132.38
350.947	129.38
351.174	135.38
351.402	105.38
351.629	126.38
351.856	120.38
352.083	131.38
352.311	129.38
352.538	122.38
352.765	124.38
352.992	141.38
353.22	128.38
353.447	132.38
353.674	108.38
353.901	125.38
354.128	124.38
354.355	131.38
354.583	113.38
354.81	130.38
355.037	136.38
355.264	123.38
355.491	119.38
355.718	122.38
355.945	133.38
356.172	136.38
356.399	138.38
356.626	120.38
356.853	131.38
357.08	126.38
357.307	130.38
357.534	133.38
357.761	130.38
357.988	132.38
358.215	137.38
358.441	123.38
358.668	143.38
358.895	124.38
359.122	129.38
359.349	128.38
359.576	123.38
359.802	123.38
360.029	140.38
360.256	124.38
360.483	130.38
360.709	117.38
360.936	157.38
361.163	135.38
361.39	135.38
361.616	126.38
361.843	139.38
362.07	128.38
362.296	137.38
362.523	128.38
362.749	126.38
362.976	122.38
363.203	138.38
363.429	127.38
363.656	124.38
363.882	125.38
364.109	139.38
364.335	135.38
364.562	123.38
364.788	130.38
365.015	118.38
365.241	137.38
365.468	143.38
365.694	127.38
365.92	130.38
366.147	123.38
366.373	132.38
366.599	131.38
366.826	139.38
367.052	132.38
367.278	130.38
367.505	132.38
367.731	148.38
367.957	128.38
368.184	133.38
368.41	133.38
368.636	145.38
368.862	126.38
369.089	135.38
369.315	122.38
369.541	131.38
369.767	140.38
369.993	148.38
370.219	123.38
370.445	144.38
370.672	117.38
370.898	131.38
371.124	149.38
371.35	135.38
371.576	135.38
371.802	133.38
372.028	129.38
372.254	143.38
372.48	132.38
372.706	145.38
372.932	152.38
373.158	131.38
373.384	149.38
373.61	141.38
373.835	132.38
374.061	122.38
374.287	129.38
374.513	150.38
374.739	118.38
374.965	134.38
375.191	143.38
375.416	131.38
375.642	146.38
375.868	136.38
376.094	147.38
376.319	116.38
376.545	148.38
376.771	136.38
376.997	138.38
377.222	128.38
377.448	129.38
377.674	135.38
377.899	133.38
378.125	145.38
378.35	149.38
378.576	132.38
378.802	132.38
379.027	140.38
379.253	144.38
379.478	140.38
379.704	117.38
379.929	134.38
380.155	126.38
380.38	122.38
380.606	136.38
380.831	153.38
381.057	129.38
381.282	145.38
381.507	136.38
381.733	117.38
381.958	134.38
382.184	130.38
382.409	125.38
382.634	140.38
382.86	145.38
383.085	126.38
383.31	143.38
383.535	160.38
383.761	153.38
383.986	144.38
384.211	141.38
384.436	143.38
384.662	159.38
384.887	161.38
385.112	144.38
385.337	150.38
385.562	160.38
385.787	130.38
386.013	140.38
386.238	154.38
386.463	154.38
386.688	189.38
386.913	153.38
387.138	144.38
387.363	124.38
387.588	152.38
387.813	150.38
388.038	157.38
388.263	159.38
388.488	146.38
388.713	149.38
388.938	141.38
389.163	133.38
389.387	152.38
389.612	148.38
389.837	131.38
390.062	163.38
390.287	147.38
390.512	145.38
390.736	144.38
390.961	152.38
391.186	147.38
391.411	141.38
391.636	148.38
391.86	171.38
392.085	161.38
392.31	140.38
392.534	159.38
392.759	186.38
392.984	167.38
393.208	139.38
393.433	159.38
393.658	156.38
393.882	154.38
394.107	173.38
394.331	163.38
394.556	148.38
394.78	151.38
395.005	156.38
395.229	152.38
395.454	164.38
395.678	157.38
395.903	144.38
396.127	180.38
396.352	155.38
396.576	148.38
396.801	164.38
397.025	170.38
397.249	166.38
397.474	173.38
397.698	156.38
397.922	156.38
398.147	152.38
398.371	151.38
398.595	157.38
398.82	167.38
399.044	184.38
399.268	201.38
399.492	210.38
399.717	229.38
399.941	219.38
400.165	206.38
400.389	189.38
400.613	178.38
400.837	172.38
401.062	173.38
401.286	162.38
401.51	171.38
401.734	158.38
401.958	179.38
402.182	157.38
402.406	165.38
402.63	165.38
402.854	179.38
403.078	177.38
403.302	189.38
403.526	182.38
403.75	183.38
403.974	195.38
404.198	172.38
404.422	179.38
404.645	186.38
404.869	179.38
405.093	193.38
405.317	179.38
405.541	186.38
405.765	172.38
405.988	192.38
406.212	192.38
406.436	178.38
406.66	205.38
406.883	176.38
407.107	204.38
407.331	198.38
407.555	194.38
407.778	196.38
408.002	186.38
408.226	190.38
408.449	201.38
408.673	188.38
408.896	179.38
409.12	176.38
409.344	182.38
409.567	183.38
409.791	183.38
410.014	171.38
410.238	189.38
410.461	196.38
410.685	163.38
410.908	185.38
411.132	177.38
411.355	165.38
411.578	186.38
411.802	175.38
412.025	157.38
412.249	182.38
412.472	158.38
412.695	177.38
412.919	169.38
413.142	177.38
413.365	171.38
413.589	177.38
413.812	149.38
414.035	169.38
414.258	173.38
414.482	165.38
414.705	180.38
414.928	169.38
415.151	181.38
415.374	167.38
415.597	176.38
415.821	171.38
416.044	168.38
416.267	171.38
416.49	173.38
416.713	168.38
416.936	184.38
417.159	173.38
417.382	173.38
417.605	171.38
417.828	176.38
418.051	167.38
418.274	196.38
418.497	181.38
418.72	179.38
418.943	192.38
419.166	192.38
419.389	179.38
419.611	194.38
419.834	188.38
420.057	164.38
420.28	164.38
420.503	198.38
420.726	171.38
420.948	170.38
421.171	176.38
421.394	169.38
421.617	149.38
421.839	166.38
422.062	177.38
422.285	168.38
422.507	178.38
422.73	167.38
422.953	176.38
423.175	169.38
423.398	181.38
423.621	175.38
423.843	180.38
424.066	161.38
424.288	171.38
424.511	174.38
424.733	172.38
424.956	173.38
425.178	184.38
425.401	177.38
425.623	160.38
425.846	162.38
426.068	161.38
426.291	179.38
426.513	143.38
426.735	157.38
426.958	171.38
427.18	166.38
427.402	151.38
427.625	162.38
427.847	159.38
428.069	138.38
428.292	171.38
428.514	155.38
428.736	157.38
428.958	170.38
429.181	180.38
429.403	145.38
429.625	137.38
429.847	168.38
430.069	165.38
430.292	159.38
430.514	152.38
430.736	153.38
430.958	149.38
431.18	161.38
431.402	153.38
431.624	158.38
431.846	156.38
432.068	167.38
432.29	161.38
432.512	150.38
432.734	159.38
432.956	166.38
433.178	162.38
433.4	161.38
433.622	157.38
433.844	155.38
434.066	162.38
434.287	144.38
434.509	174.38
434.731	187.38
434.953	163.38
435.175	170.38
435.397	171.38
435.618	161.38
435.84	160.38
436.062	147.38
436.284	147.38
436.505	141.38
436.727	163.38
436.949	165.38
437.17	151.38
437.392	149.38
437.614	139.38
437.835	138.38
438.057	153.38
438.278	146.38
438.5	139.38
438.721	170.38
438.943	157.38
439.165	169.38
439.386	141.38
439.608	158.38
439.829	166.38
440.05	170.38
440.272	165.38
440.493	159.38
440.715	148.38
440.936	151.38
441.158	159.38
441.379	178.38
441.6	162.38
441.822	177.38
442.043	175.38
442.264	167.38
442.486	176.38
442.707	183.38
442.928	167.38
443.149	154.38
443.371	163.38
443.592	152.38
443.813	172.38
444.034	179.38
444.255	169.38
444.476	182.38
444.698	179.38
444.919	191.38
445.14	448.38
445.361	297.38
445.582	171.38
445.803	166.38
446.024	162.38
446.245	167.38
446.466	167.38
446.687	164.38
446.908	176.38
447.129	152.38
447.35	159.38
447.571	145.38
447.792	160.38
448.013	164.38
448.234	158.38
448.455	149.38
448.675	143.38
448.896	149.38
449.117	155.38
449.338	148.38
449.559	165.38
449.779	146.38
450	146.38
450.221	144.38
450.442	149.38
450.662	163.38
450.883	167.38
451.104	158.38
451.324	156.38
451.545	143.38
451.766	147.38
451.986	147.38
452.207	160.38
452.428	151.38
452.648	162.38
452.869	140.38
453.089	140.38
453.31	144.38
453.53	159.38
453.751	151.38
453.971	148.38
454.192	163.38
454.412	153.38
454.633	137.38
454.853	146.38
455.073	143.38
455.294	130.38
455.514	139.38
455.734	134.38
455.955	150.38
456.175	122.38
456.395	136.38
456.616	138.38
456.836	139.38
457.056	134.38
457.276	147.38
457.497	149.38
457.717	139.38
457.937	129.38
458.157	138.38
458.377	147.38
458.598	146.38
458.818	147.38
459.038	149.38
459.258	155.38
459.478	157.38
459.698	150.38
459.918	172.38
460.138	174.38
460.358	168.38
460.578	167.38
460.798	192.38
461.018	176.38
461.238	181.38
461.458	177.38
461.678	174.38
461.898	179.38
462.118	199.38
462.338	180.38
462.558	187.38
462.777	187.38
462.997	204.38
463.217	214.38
463.437	204.38
463.657	212.38
463.876	207.38
464.096	208.38
464.316	199.38
464.536	174.38
464.755	200.38
464.975	183.38
465.195	193.38
465.414	152.38
465.634	166.38
465.854	151.38
466.073	159.38
466.293	166.38
466.512	161.38
466.732	177.38
466.951	146.38
467.171	150.38
467.391	140.38
467.61	147.38
467.829	155.38
468.049	176.38
468.268	152.38
468.488	164.38
468.707	148.38
468.927	141.38
469.146	150.38
469.365	144.38
469.585	151.38
469.804	159.38
470.023	168.38
470.243	177.38
470.462	165.38
470.681	160.38
470.901	160.38
471.12	147.38
471.339	156.38
471.558	161.38
471.777	161.38
471.997	148.38
472.216	151.38
472.435	149.38
472.654	148.38
472.873	164.38
473.092	133.38
473.311	163.38
473.53	150.38
473.749	150.38
473.968	168.38
474.187	146.38
474.406	135.38
474.625	153.38
474.844	159.38
475.063	153.38
475.282	168.38
475.501	165.38
475.72	149.38
475.939	154.38
476.158	136.38
476.377	145.38
476.596	141.38
476.814	161.38
477.033	159.38
477.252	163.38
477.471	174.38
477.69	167.38
477.908	173.38
478.127	190.38
478.346	170.38
478.564	166.38
478.783	169.38
479.002	167.38
479.22	181.38
479.439	173.38
479.658	169.38
479.876	172.38
480.095	181.38
480.313	179.38
480.532	188.38
480.751	174.38
480.969	169.38
481.188	165.38
481.406	168.38
481.624	152.38
481.843	182.38
482.061	155.38
482.28	163.38
482.498	148.38
482.717	150.38
482.935	165.38
483.153	152.38
483.372	167.38
483.59	164.38
483.808	145.38
484.027	156.38
484.245	164.38
484.463	181.38
484.681	177.38
484.9	156.38
485.118	170.38
485.336	168.38
485.554	167.38
485.772	165.38
485.99	165.38
486.209	178.38
486.427	173.38
486.645	175.38
486.863	163.38
487.081	161.38
487.299	183.38
487.517	176.38
487.735	167.38
487.953	170.38
488.171	171.38
488.389	165.38
488.607	165.38
488.825	164.38
489.043	176.38
489.261	175.38
489.479	170.38
489.696	177.38
489.914	183.38
490.132	168.38
490.35	163.38
490.568	155.38
490.786	161.38
491.003	166.38
491.221	154.38
491.439	161.38
491.657	159.38
491.874	177.38
492.092	175.38
492.31	170.38
492.527	166.38
492.745	174.38
492.963	180.38
493.18	181.38
493.398	172.38
493.615	169.38
493.833	173.38
494.05	161.38
494.268	187.38
494.485	201.38
494.703	177.38
494.92	178.38
495.138	198.38
495.355	188.38
495.573	187.38
495.79	178.38
496.008	165.38
496.225	179.38
496.442	180.38
496.66	179.38
496.877	164.38
497.094	187.38
497.312	173.38
497.529	205.38
497.746	196.38
497.963	194.38
498.181	198.38
498.398	196.38
498.615	210.38
498.832	228.38
499.049	246.38
499.267	255.38
499.484	276.38
499.701	290.38
499.918	308.38
500.135	362.38
500.352	390.38
500.569	383.38
500.786	380.38
501.003	363.38
501.22	321.38
501.437	291.38
501.654	267.38
501.871	229.38
502.088	232.38
502.305	233.38
502.522	216.38
502.739	197.38
502.956	208.38
503.172	211.38
503.389	188.38
503.606	191.38
503.823	192.38
504.04	195.38
504.256	189.38
504.473	191.38
504.69	197.38
504.907	214.38
505.123	181.38
