Data from SampG_HRD10591_00045.txt Node
Date: Mon Jan 19 11:53:58 EST 2026
User: Yrep
Spectrometer: HR+D1059
Trigger mode: 0
Integration Time (sec): 3.443000E-1
Scans to average: 1
Electric dark correction enabled: true
Nonlinearity correction enabled: false
Boxcar width: 0
XAxis mode: Wavelengths
Number of Pixels in Spectrum: 2048
>>>>>Begin Spectral Data<<<<<
223.165	-28.38
223.4	-28.38
223.635	-28.38
223.869	-16.38
224.104	-25.38
224.338	-16.38
224.573	-10.38
224.808	1.62
225.042	-4.38
225.277	-1.38
225.511	-10.38
225.746	9.62
225.98	-10.38
226.215	8.62
226.449	15.62
226.683	19.62
226.918	32.62
227.152	35.62
227.387	27.62
227.621	42.62
227.856	44.62
228.09	44.62
228.324	43.62
228.559	67.62
228.793	53.62
229.027	73.62
229.262	81.62
229.496	69.62
229.73	68.62
229.964	79.62
230.199	62.62
230.433	79.62
230.667	78.62
230.901	77.62
231.136	85.62
231.37	80.62
231.604	85.62
231.838	80.62
232.072	90.62
232.306	100.62
232.541	94.62
232.775	94.62
233.009	81.62
233.243	93.62
233.477	72.62
233.711	91.62
233.945	86.62
234.179	91.62
234.413	85.62
234.647	90.62
234.881	91.62
235.115	90.62
235.349	90.62
235.583	95.62
235.817	70.62
236.051	87.62
236.285	91.62
236.519	91.62
236.753	92.62
236.987	82.62
237.221	81.62
237.455	77.62
237.689	83.62
237.922	69.62
238.156	89.62
238.39	83.62
238.624	81.62
238.858	84.62
239.091	83.62
239.325	87.62
239.559	89.62
239.793	88.62
240.027	92.62
240.26	82.62
240.494	86.62
240.728	106.62
240.961	82.62
241.195	87.62
241.429	72.62
241.662	83.62
241.896	72.62
242.13	85.62
242.363	91.62
242.597	79.62
242.83	70.62
243.064	82.62
243.298	99.62
243.531	85.62
243.765	84.62
243.998	101.62
244.232	90.62
244.465	82.62
244.699	74.62
244.932	88.62
245.166	86.62
245.399	82.62
245.633	73.62
245.866	91.62
246.099	97.62
246.333	93.62
246.566	90.62
246.8	91.62
247.033	82.62
247.266	99.62
247.5	86.62
247.733	95.62
247.966	73.62
248.2	79.62
248.433	100.62
248.666	74.62
248.899	84.62
249.133	94.62
249.366	111.62
249.599	90.62
249.832	93.62
250.066	97.62
250.299	82.62
250.532	85.62
250.765	98.62
250.998	95.62
251.231	97.62
251.465	101.62
251.698	92.62
251.931	83.62
252.164	89.62
252.397	85.62
252.63	92.62
252.863	98.62
253.096	115.62
253.329	100.62
253.562	89.62
253.795	109.62
254.028	101.62
254.261	108.62
254.494	93.62
254.727	100.62
254.96	98.62
255.193	92.62
255.426	77.62
255.659	77.62
255.892	93.62
256.124	103.62
256.357	85.62
256.59	101.62
256.823	100.62
257.056	101.62
257.289	73.62
257.521	87.62
257.754	93.62
257.987	96.62
258.22	110.62
258.452	84.62
258.685	105.62
258.918	108.62
259.151	115.62
259.383	116.62
259.616	75.62
259.849	91.62
260.081	107.62
260.314	88.62
260.547	83.62
260.779	94.62
261.012	103.62
261.244	102.62
261.477	106.62
261.71	71.62
261.942	84.62
262.175	103.62
262.407	103.62
262.64	94.62
262.872	101.62
263.105	96.62
263.337	99.62
263.57	105.62
263.802	104.62
264.035	100.62
264.267	103.62
264.499	97.62
264.732	117.62
264.964	99.62
265.197	112.62
265.429	107.62
265.661	123.62
265.894	94.62
266.126	99.62
266.358	103.62
266.591	107.62
266.823	109.62
267.055	102.62
267.287	97.62
267.52	104.62
267.752	108.62
267.984	98.62
268.216	86.62
268.448	106.62
268.681	100.62
268.913	106.62
269.145	106.62
269.377	105.62
269.609	107.62
269.841	98.62
270.073	107.62
270.306	102.62
270.538	114.62
270.77	115.62
271.002	106.62
271.234	125.62
271.466	105.62
271.698	105.62
271.93	102.62
272.162	105.62
272.394	103.62
272.626	101.62
272.858	106.62
273.09	109.62
273.322	106.62
273.553	119.62
273.785	99.62
274.017	107.62
274.249	98.62
274.481	95.62
274.713	114.62
274.945	106.62
275.176	105.62
275.408	121.62
275.64	111.62
275.872	126.62
276.104	125.62
276.335	110.62
276.567	109.62
276.799	106.62
277.031	112.62
277.262	113.62
277.494	136.62
277.726	108.62
277.957	114.62
278.189	108.62
278.421	114.62
278.652	115.62
278.884	117.62
279.115	110.62
279.347	108.62
279.579	110.62
279.81	105.62
280.042	104.62
280.273	111.62
280.505	103.62
280.736	115.62
280.968	95.62
281.199	111.62
281.431	112.62
281.662	124.62
281.894	121.62
282.125	121.62
282.356	118.62
282.588	107.62
282.819	111.62
283.051	119.62
283.282	106.62
283.513	122.62
283.745	117.62
283.976	115.62
284.207	116.62
284.439	130.62
284.67	130.62
284.901	98.62
285.132	105.62
285.364	112.62
285.595	130.62
285.826	119.62
286.057	127.62
286.288	106.62
286.52	118.62
286.751	102.62
286.982	102.62
287.213	125.62
287.444	111.62
287.675	116.62
287.906	122.62
288.138	111.62
288.369	112.62
288.6	135.62
288.831	114.62
289.062	127.62
289.293	125.62
289.524	115.62
289.755	133.62
289.986	113.62
290.217	117.62
290.448	111.62
290.679	127.62
290.91	126.62
291.141	114.62
291.371	125.62
291.602	128.62
291.833	115.62
292.064	111.62
292.295	113.62
292.526	120.62
292.757	129.62
292.987	124.62
293.218	122.62
293.449	115.62
293.68	117.62
293.91	101.62
294.141	137.62
294.372	133.62
294.603	116.62
294.833	118.62
295.064	132.62
295.295	121.62
295.525	107.62
295.756	125.62
295.987	119.62
296.217	113.62
296.448	125.62
296.679	121.62
296.909	125.62
297.14	124.62
297.37	132.62
297.601	135.62
297.831	110.62
298.062	129.62
298.292	120.62
298.523	134.62
298.753	122.62
298.984	128.62
299.214	114.62
299.445	120.62
299.675	129.62
299.905	126.62
300.136	119.62
300.366	117.62
300.597	115.62
300.827	137.62
301.057	138.62
301.288	124.62
301.518	128.62
301.748	134.62
301.979	167.62
302.209	128.62
302.439	126.62
302.669	133.62
302.9	130.62
303.13	119.62
303.36	122.62
303.59	126.62
303.82	134.62
304.051	134.62
304.281	137.62
304.511	141.62
304.741	125.62
304.971	127.62
305.201	132.62
305.431	127.62
305.661	146.62
305.891	123.62
306.121	135.62
306.352	117.62
306.582	119.62
306.812	124.62
307.042	131.62
307.272	118.62
307.502	123.62
307.731	129.62
307.961	122.62
308.191	114.62
308.421	136.62
308.651	107.62
308.881	131.62
309.111	129.62
309.341	117.62
309.571	122.62
309.8	123.62
310.03	130.62
310.26	131.62
310.49	118.62
310.72	123.62
310.949	124.62
311.179	139.62
311.409	131.62
311.639	117.62
311.868	136.62
312.098	123.62
312.328	132.62
312.557	129.62
312.787	123.62
313.017	137.62
313.246	128.62
313.476	120.62
313.706	142.62
313.935	125.62
314.165	131.62
314.394	133.62
314.624	147.62
314.853	136.62
315.083	123.62
315.312	137.62
315.542	125.62
315.771	140.62
316.001	137.62
316.23	122.62
316.46	135.62
316.689	127.62
316.919	128.62
317.148	135.62
317.377	143.62
317.607	138.62
317.836	130.62
318.065	142.62
318.295	135.62
318.524	140.62
318.753	118.62
318.983	125.62
319.212	132.62
319.441	133.62
319.67	127.62
319.9	129.62
320.129	139.62
320.358	129.62
320.587	121.62
320.816	125.62
321.046	134.62
321.275	134.62
321.504	137.62
321.733	143.62
321.962	125.62
322.191	118.62
322.42	119.62
322.649	130.62
322.878	134.62
323.108	135.62
323.337	139.62
323.566	139.62
323.795	112.62
324.024	123.62
324.253	121.62
324.482	130.62
324.71	128.62
324.939	139.62
325.168	141.62
325.397	133.62
325.626	140.62
325.855	112.62
326.084	135.62
326.313	131.62
326.542	108.62
326.77	131.62
326.999	140.62
327.228	132.62
327.457	129.62
327.686	131.62
327.914	140.62
328.143	131.62
328.372	139.62
328.6	130.62
328.829	148.62
329.058	149.62
329.287	131.62
329.515	137.62
329.744	129.62
329.972	134.62
330.201	140.62
330.43	124.62
330.658	129.62
330.887	126.62
331.115	133.62
331.344	137.62
331.572	140.62
331.801	147.62
332.03	141.62
332.258	163.62
332.486	149.62
332.715	151.62
332.943	186.62
333.172	159.62
333.4	153.62
333.629	153.62
333.857	155.62
334.085	150.62
334.314	159.62
334.542	143.62
334.771	153.62
334.999	139.62
335.227	151.62
335.455	153.62
335.684	159.62
335.912	156.62
336.14	148.62
336.369	142.62
336.597	157.62
336.825	149.62
337.053	140.62
337.281	150.62
337.51	140.62
337.738	140.62
337.966	141.62
338.194	133.62
338.422	131.62
338.65	133.62
338.878	131.62
339.106	146.62
339.334	145.62
339.562	145.62
339.79	144.62
340.018	135.62
340.246	155.62
340.474	132.62
340.702	147.62
340.93	138.62
341.158	152.62
341.386	146.62
341.614	145.62
341.842	142.62
342.07	142.62
342.298	139.62
342.526	139.62
342.754	134.62
342.981	132.62
343.209	142.62
343.437	165.62
343.665	163.62
343.893	165.62
344.12	152.62
344.348	155.62
344.576	152.62
344.804	145.62
345.031	131.62
345.259	134.62
345.487	139.62
345.714	115.62
345.942	127.62
346.17	134.62
346.397	134.62
346.625	139.62
346.853	131.62
347.08	129.62
347.308	132.62
347.535	139.62
347.763	132.62
347.99	145.62
348.218	138.62
348.445	130.62
348.673	141.62
348.9	142.62
349.128	137.62
349.355	149.62
349.583	137.62
349.81	124.62
350.037	114.62
350.265	145.62
350.492	125.62
350.72	140.62
350.947	126.62
351.174	138.62
351.402	125.62
351.629	133.62
351.856	138.62
352.083	119.62
352.311	140.62
352.538	135.62
352.765	132.62
352.992	153.62
353.22	132.62
353.447	126.62
353.674	145.62
353.901	153.62
354.128	119.62
354.355	122.62
354.583	139.62
354.81	146.62
355.037	123.62
355.264	139.62
355.491	129.62
355.718	133.62
355.945	128.62
356.172	135.62
356.399	137.62
356.626	125.62
356.853	137.62
357.08	134.62
357.307	145.62
357.534	131.62
357.761	126.62
357.988	134.62
358.215	130.62
358.441	141.62
358.668	136.62
358.895	133.62
359.122	134.62
359.349	106.62
359.576	126.62
359.802	140.62
360.029	131.62
360.256	134.62
360.483	140.62
360.709	111.62
360.936	147.62
361.163	135.62
361.39	129.62
361.616	137.62
361.843	133.62
362.07	146.62
362.296	133.62
362.523	137.62
362.749	112.62
362.976	142.62
363.203	138.62
363.429	139.62
363.656	139.62
363.882	137.62
364.109	130.62
364.335	138.62
364.562	118.62
364.788	126.62
365.015	137.62
365.241	131.62
365.468	142.62
365.694	132.62
365.92	149.62
366.147	141.62
366.373	128.62
366.599	139.62
366.826	131.62
367.052	125.62
367.278	151.62
367.505	126.62
367.731	139.62
367.957	139.62
368.184	155.62
368.41	136.62
368.636	122.62
368.862	127.62
369.089	137.62
369.315	142.62
369.541	141.62
369.767	136.62
369.993	142.62
370.219	129.62
370.445	134.62
370.672	130.62
370.898	125.62
371.124	130.62
371.35	141.62
371.576	139.62
371.802	135.62
372.028	131.62
372.254	137.62
372.48	146.62
372.706	148.62
372.932	149.62
373.158	153.62
373.384	141.62
373.61	138.62
373.835	141.62
374.061	136.62
374.287	147.62
374.513	134.62
374.739	132.62
374.965	146.62
375.191	165.62
375.416	153.62
375.642	129.62
375.868	142.62
376.094	138.62
376.319	140.62
376.545	127.62
376.771	137.62
376.997	139.62
377.222	132.62
377.448	136.62
377.674	126.62
377.899	156.62
378.125	134.62
378.35	138.62
378.576	142.62
378.802	138.62
379.027	169.62
379.253	134.62
379.478	139.62
379.704	146.62
379.929	142.62
380.155	129.62
380.38	143.62
380.606	133.62
380.831	147.62
381.057	144.62
381.282	141.62
381.507	142.62
381.733	131.62
381.958	140.62
382.184	145.62
382.409	147.62
382.634	135.62
382.86	155.62
383.085	146.62
383.31	157.62
383.535	156.62
383.761	140.62
383.986	150.62
384.211	139.62
384.436	154.62
384.662	136.62
384.887	154.62
385.112	157.62
385.337	153.62
385.562	142.62
385.787	172.62
386.013	162.62
386.238	137.62
386.463	158.62
386.688	201.62
386.913	155.62
387.138	146.62
387.363	148.62
387.588	173.62
387.813	139.62
388.038	161.62
388.263	156.62
388.488	149.62
388.713	145.62
388.938	149.62
389.163	152.62
389.387	165.62
389.612	161.62
389.837	152.62
390.062	152.62
390.287	135.62
390.512	138.62
390.736	148.62
390.961	154.62
391.186	160.62
391.411	156.62
391.636	165.62
391.86	166.62
392.085	172.62
392.31	163.62
392.534	162.62
392.759	158.62
392.984	148.62
393.208	146.62
393.433	169.62
393.658	152.62
393.882	152.62
394.107	152.62
394.331	151.62
394.556	149.62
394.78	164.62
395.005	161.62
395.229	155.62
395.454	181.62
395.678	179.62
395.903	165.62
396.127	170.62
396.352	160.62
396.576	146.62
396.801	142.62
397.025	159.62
397.249	167.62
397.474	183.62
397.698	166.62
397.922	162.62
398.147	150.62
398.371	167.62
398.595	175.62
398.82	161.62
399.044	193.62
399.268	214.62
399.492	223.62
399.717	255.62
399.941	230.62
400.165	205.62
400.389	202.62
400.613	174.62
400.837	186.62
401.062	179.62
401.286	171.62
401.51	174.62
401.734	172.62
401.958	189.62
402.182	194.62
402.406	169.62
402.63	189.62
402.854	173.62
403.078	181.62
403.302	186.62
403.526	211.62
403.75	201.62
403.974	183.62
404.198	199.62
404.422	194.62
404.645	193.62
404.869	181.62
405.093	193.62
405.317	189.62
405.541	199.62
405.765	188.62
405.988	175.62
406.212	171.62
406.436	190.62
406.66	200.62
406.883	178.62
407.107	202.62
407.331	206.62
407.555	202.62
407.778	199.62
408.002	211.62
408.226	205.62
408.449	187.62
408.673	176.62
408.896	196.62
409.12	176.62
409.344	200.62
409.567	185.62
409.791	212.62
410.014	178.62
410.238	186.62
410.461	179.62
410.685	181.62
410.908	184.62
411.132	191.62
411.355	167.62
411.578	181.62
411.802	185.62
412.025	173.62
412.249	171.62
412.472	181.62
412.695	171.62
412.919	186.62
413.142	185.62
413.365	191.62
413.589	176.62
413.812	186.62
414.035	161.62
414.258	187.62
414.482	169.62
414.705	176.62
414.928	182.62
415.151	175.62
415.374	178.62
415.597	173.62
415.821	149.62
416.044	173.62
416.267	187.62
416.49	171.62
416.713	172.62
416.936	166.62
417.159	163.62
417.382	191.62
417.605	183.62
417.828	190.62
418.051	191.62
418.274	189.62
418.497	169.62
418.72	194.62
418.943	182.62
419.166	190.62
419.389	174.62
419.611	175.62
419.834	181.62
420.057	199.62
420.28	185.62
420.503	160.62
420.726	167.62
420.948	184.62
421.171	177.62
421.394	182.62
421.617	167.62
421.839	173.62
422.062	183.62
422.285	165.62
422.507	170.62
422.73	163.62
422.953	163.62
423.175	191.62
423.398	171.62
423.621	189.62
423.843	181.62
424.066	186.62
424.288	199.62
424.511	186.62
424.733	187.62
424.956	175.62
425.178	164.62
425.401	181.62
425.623	161.62
425.846	165.62
426.068	162.62
426.291	150.62
426.513	169.62
426.735	170.62
426.958	179.62
427.18	182.62
427.402	184.62
427.625	180.62
427.847	157.62
428.069	149.62
428.292	150.62
428.514	155.62
428.736	149.62
428.958	174.62
429.181	161.62
429.403	173.62
429.625	159.62
429.847	159.62
430.069	153.62
430.292	161.62
430.514	145.62
430.736	154.62
430.958	158.62
431.18	167.62
431.402	161.62
431.624	157.62
431.846	161.62
432.068	173.62
432.29	162.62
432.512	152.62
432.734	155.62
432.956	166.62
433.178	181.62
433.4	161.62
433.622	170.62
433.844	169.62
434.066	181.62
434.287	174.62
434.509	184.62
434.731	176.62
434.953	172.62
435.175	156.62
435.397	180.62
435.618	169.62
435.84	167.62
436.062	167.62
436.284	168.62
436.505	153.62
436.727	154.62
436.949	174.62
437.17	154.62
437.392	148.62
437.614	152.62
437.835	161.62
438.057	162.62
438.278	166.62
438.5	159.62
438.721	161.62
438.943	163.62
439.165	137.62
439.386	168.62
439.608	163.62
439.829	162.62
440.05	171.62
440.272	176.62
440.493	172.62
440.715	157.62
440.936	167.62
441.158	171.62
441.379	159.62
441.6	182.62
441.822	173.62
442.043	158.62
442.264	150.62
442.486	165.62
442.707	172.62
442.928	181.62
443.149	175.62
443.371	183.62
443.592	171.62
443.813	161.62
444.034	171.62
444.255	196.62
444.476	195.62
444.698	206.62
444.919	211.62
445.14	447.62
445.361	301.62
445.582	176.62
445.803	176.62
446.024	181.62
446.245	177.62
446.466	174.62
446.687	166.62
446.908	161.62
447.129	181.62
447.35	165.62
447.571	161.62
447.792	173.62
448.013	145.62
448.234	165.62
448.455	148.62
448.675	155.62
448.896	155.62
449.117	150.62
449.338	158.62
449.559	152.62
449.779	162.62
450	142.62
450.221	152.62
450.442	161.62
450.662	161.62
450.883	163.62
451.104	170.62
451.324	147.62
451.545	144.62
451.766	144.62
451.986	152.62
452.207	149.62
452.428	151.62
452.648	160.62
452.869	176.62
453.089	165.62
453.31	163.62
453.53	160.62
453.751	153.62
453.971	141.62
454.192	148.62
454.412	150.62
454.633	148.62
454.853	152.62
455.073	148.62
455.294	154.62
455.514	126.62
455.734	134.62
455.955	142.62
456.175	142.62
456.395	129.62
456.616	146.62
456.836	137.62
457.056	161.62
457.276	149.62
457.497	156.62
457.717	146.62
457.937	161.62
458.157	143.62
458.377	141.62
458.598	147.62
458.818	141.62
459.038	152.62
459.258	175.62
459.478	155.62
459.698	164.62
459.918	185.62
460.138	178.62
460.358	169.62
460.578	198.62
460.798	190.62
461.018	201.62
461.238	187.62
461.458	182.62
461.678	190.62
461.898	198.62
462.118	186.62
462.338	196.62
462.558	209.62
462.777	196.62
462.997	222.62
463.217	217.62
463.437	203.62
463.657	191.62
463.876	195.62
464.096	206.62
464.316	198.62
464.536	218.62
464.755	203.62
464.975	188.62
465.195	191.62
465.414	185.62
465.634	172.62
465.854	165.62
466.073	185.62
466.293	180.62
466.512	154.62
466.732	154.62
466.951	143.62
467.171	164.62
467.391	154.62
467.61	168.62
467.829	158.62
468.049	156.62
468.268	150.62
468.488	145.62
468.707	175.62
468.927	157.62
469.146	148.62
469.365	153.62
469.585	175.62
469.804	162.62
470.023	134.62
470.243	154.62
470.462	165.62
470.681	159.62
470.901	166.62
471.12	164.62
471.339	173.62
471.558	166.62
471.777	164.62
471.997	151.62
472.216	180.62
472.435	163.62
472.654	165.62
472.873	150.62
473.092	150.62
473.311	147.62
473.53	161.62
473.749	160.62
473.968	182.62
474.187	150.62
474.406	157.62
474.625	167.62
474.844	174.62
475.063	157.62
475.282	162.62
475.501	161.62
475.72	163.62
475.939	171.62
476.158	144.62
476.377	163.62
476.596	147.62
476.814	152.62
477.033	153.62
477.252	178.62
477.471	171.62
477.69	181.62
477.908	167.62
478.127	186.62
478.346	165.62
478.564	170.62
478.783	174.62
479.002	180.62
479.22	168.62
479.439	175.62
479.658	170.62
479.876	177.62
480.095	183.62
480.313	165.62
480.532	196.62
480.751	191.62
480.969	189.62
481.188	170.62
481.406	190.62
481.624	165.62
481.843	175.62
482.061	162.62
482.28	138.62
482.498	145.62
482.717	161.62
482.935	161.62
483.153	170.62
483.372	184.62
483.59	186.62
483.808	155.62
484.027	172.62
484.245	175.62
484.463	163.62
484.681	182.62
484.9	173.62
485.118	165.62
485.336	178.62
485.554	172.62
485.772	178.62
485.99	183.62
486.209	182.62
486.427	176.62
486.645	155.62
486.863	168.62
487.081	180.62
487.299	168.62
487.517	175.62
487.735	173.62
487.953	184.62
488.171	194.62
488.389	182.62
488.607	169.62
488.825	153.62
489.043	174.62
489.261	183.62
489.479	172.62
489.696	187.62
489.914	180.62
490.132	176.62
490.35	187.62
490.568	173.62
490.786	187.62
491.003	171.62
491.221	182.62
491.439	178.62
491.657	179.62
491.874	173.62
492.092	168.62
492.31	170.62
492.527	167.62
492.745	189.62
492.963	192.62
493.18	174.62
493.398	181.62
493.615	179.62
493.833	168.62
494.05	192.62
494.268	170.62
494.485	176.62
494.703	185.62
494.92	169.62
495.138	176.62
495.355	164.62
495.573	161.62
495.79	182.62
496.008	192.62
496.225	176.62
496.442	186.62
496.66	191.62
496.877	182.62
497.094	186.62
497.312	190.62
497.529	205.62
497.746	199.62
497.963	199.62
498.181	196.62
498.398	202.62
498.615	213.62
498.832	242.62
499.049	245.62
499.267	280.62
499.484	274.62
499.701	292.62
499.918	315.62
500.135	354.62
500.352	393.62
500.569	402.62
500.786	409.62
501.003	353.62
501.22	340.62
501.437	311.62
501.654	279.62
501.871	262.62
502.088	237.62
502.305	235.62
502.522	212.62
502.739	217.62
502.956	209.62
503.172	193.62
503.389	199.62
503.606	182.62
503.823	188.62
504.04	188.62
504.256	201.62
504.473	201.62
