Data from SampG_HRD10591_00079.txt Node
Date: Mon Jan 19 11:54:10 EST 2026
User: Yrep
Spectrometer: HR+D1059
Trigger mode: 0
Integration Time (sec): 3.443000E-1
Scans to average: 1
Electric dark correction enabled: true
Nonlinearity correction enabled: false
Boxcar width: 0
XAxis mode: Wavelengths
Number of Pixels in Spectrum: 2048
>>>>>Begin Spectral Data<<<<<
223.165	-16.88
223.4	-16.88
223.635	-16.88
223.869	-19.88
224.104	-7.88
224.338	-12.88
224.573	-12.88
224.808	-3.88
225.042	-2.88
225.277	-12.88
225.511	-4.88
225.746	11.12
225.98	-3.88
226.215	-2.88
226.449	2.12
226.683	13.12
226.918	33.12
227.152	42.12
227.387	43.12
227.621	39.12
227.856	41.12
228.09	42.12
228.324	48.12
228.559	69.12
228.793	64.12
229.027	82.12
229.262	68.12
229.496	67.12
229.73	73.12
229.964	72.12
230.199	67.12
230.433	78.12
230.667	82.12
230.901	75.12
231.136	83.12
231.37	73.12
231.604	86.12
231.838	96.12
232.072	81.12
232.306	85.12
232.541	80.12
232.775	74.12
233.009	95.12
233.243	89.12
233.477	74.12
233.711	85.12
233.945	93.12
234.179	82.12
234.413	82.12
234.647	87.12
234.881	78.12
235.115	98.12
235.349	94.12
235.583	99.12
235.817	91.12
236.051	81.12
236.285	81.12
236.519	80.12
236.753	93.12
236.987	66.12
237.221	76.12
237.455	84.12
237.689	72.12
237.922	79.12
238.156	95.12
238.39	80.12
238.624	79.12
238.858	78.12
239.091	80.12
239.325	73.12
239.559	80.12
239.793	90.12
240.027	87.12
240.26	75.12
240.494	79.12
240.728	79.12
240.961	86.12
241.195	93.12
241.429	81.12
241.662	89.12
241.896	84.12
242.13	93.12
242.363	87.12
242.597	75.12
242.83	79.12
243.064	77.12
243.298	85.12
243.531	79.12
243.765	95.12
243.998	104.12
244.232	96.12
244.465	97.12
244.699	87.12
244.932	85.12
245.166	85.12
245.399	76.12
245.633	86.12
245.866	82.12
246.099	73.12
246.333	82.12
246.566	89.12
246.8	91.12
247.033	79.12
247.266	71.12
247.5	86.12
247.733	80.12
247.966	87.12
248.2	86.12
248.433	89.12
248.666	93.12
248.899	85.12
249.133	88.12
249.366	91.12
249.599	77.12
249.832	90.12
250.066	104.12
250.299	94.12
250.532	91.12
250.765	75.12
250.998	95.12
251.231	87.12
251.465	95.12
251.698	92.12
251.931	87.12
252.164	96.12
252.397	83.12
252.63	90.12
252.863	93.12
253.096	92.12
253.329	93.12
253.562	86.12
253.795	89.12
254.028	99.12
254.261	75.12
254.494	93.12
254.727	96.12
254.96	94.12
255.193	93.12
255.426	81.12
255.659	83.12
255.892	102.12
256.124	88.12
256.357	94.12
256.59	104.12
256.823	91.12
257.056	86.12
257.289	85.12
257.521	91.12
257.754	86.12
257.987	97.12
258.22	120.12
258.452	99.12
258.685	97.12
258.918	81.12
259.151	76.12
259.383	84.12
259.616	97.12
259.849	85.12
260.081	101.12
260.314	93.12
260.547	90.12
260.779	95.12
261.012	101.12
261.244	94.12
261.477	106.12
261.71	91.12
261.942	103.12
262.175	106.12
262.407	95.12
262.64	92.12
262.872	108.12
263.105	93.12
263.337	97.12
263.57	103.12
263.802	92.12
264.035	87.12
264.267	100.12
264.499	94.12
264.732	107.12
264.964	116.12
265.197	102.12
265.429	95.12
265.661	107.12
265.894	94.12
266.126	90.12
266.358	108.12
266.591	95.12
266.823	115.12
267.055	115.12
267.287	99.12
267.52	102.12
267.752	98.12
267.984	98.12
268.216	94.12
268.448	114.12
268.681	107.12
268.913	117.12
269.145	101.12
269.377	95.12
269.609	106.12
269.841	121.12
270.073	103.12
270.306	103.12
270.538	104.12
270.77	90.12
271.002	106.12
271.234	107.12
271.466	107.12
271.698	106.12
271.93	103.12
272.162	100.12
272.394	103.12
272.626	106.12
272.858	97.12
273.09	111.12
273.322	94.12
273.553	93.12
273.785	105.12
274.017	110.12
274.249	97.12
274.481	109.12
274.713	107.12
274.945	115.12
275.176	104.12
275.408	106.12
275.64	105.12
275.872	118.12
276.104	113.12
276.335	102.12
276.567	102.12
276.799	97.12
277.031	107.12
277.262	110.12
277.494	130.12
277.726	114.12
277.957	117.12
278.189	111.12
278.421	111.12
278.652	106.12
278.884	108.12
279.115	133.12
279.347	103.12
279.579	109.12
279.81	109.12
280.042	108.12
280.273	109.12
280.505	110.12
280.736	118.12
280.968	107.12
281.199	109.12
281.431	121.12
281.662	103.12
281.894	123.12
282.125	106.12
282.356	121.12
282.588	124.12
282.819	111.12
283.051	117.12
283.282	120.12
283.513	107.12
283.745	100.12
283.976	99.12
284.207	117.12
284.439	119.12
284.67	126.12
284.901	124.12
285.132	117.12
285.364	116.12
285.595	122.12
285.826	121.12
286.057	130.12
286.288	121.12
286.52	123.12
286.751	116.12
286.982	115.12
287.213	130.12
287.444	114.12
287.675	113.12
287.906	130.12
288.138	117.12
288.369	118.12
288.6	129.12
288.831	112.12
289.062	123.12
289.293	135.12
289.524	123.12
289.755	123.12
289.986	132.12
290.217	129.12
290.448	111.12
290.679	127.12
290.91	134.12
291.141	111.12
291.371	121.12
291.602	130.12
291.833	111.12
292.064	111.12
292.295	118.12
292.526	116.12
292.757	126.12
292.987	133.12
293.218	122.12
293.449	111.12
293.68	131.12
293.91	130.12
294.141	141.12
294.372	105.12
294.603	125.12
294.833	137.12
295.064	116.12
295.295	111.12
295.525	128.12
295.756	133.12
295.987	112.12
296.217	125.12
296.448	116.12
296.679	137.12
296.909	127.12
297.14	110.12
297.37	131.12
297.601	119.12
297.831	129.12
298.062	138.12
298.292	122.12
298.523	134.12
298.753	120.12
298.984	107.12
299.214	127.12
299.445	123.12
299.675	119.12
299.905	121.12
300.136	130.12
300.366	122.12
300.597	121.12
300.827	126.12
301.057	129.12
301.288	121.12
301.518	120.12
301.748	122.12
301.979	174.12
302.209	128.12
302.439	120.12
302.669	131.12
302.9	130.12
303.13	131.12
303.36	119.12
303.59	136.12
303.82	125.12
304.051	136.12
304.281	135.12
304.511	142.12
304.741	126.12
304.971	120.12
305.201	119.12
305.431	136.12
305.661	123.12
305.891	127.12
306.121	130.12
306.352	119.12
306.582	117.12
306.812	113.12
307.042	128.12
307.272	123.12
307.502	135.12
307.731	122.12
307.961	123.12
308.191	136.12
308.421	143.12
308.651	133.12
308.881	120.12
309.111	134.12
309.341	114.12
309.571	130.12
309.8	136.12
310.03	129.12
310.26	121.12
310.49	125.12
310.72	113.12
310.949	118.12
311.179	125.12
311.409	131.12
311.639	131.12
311.868	144.12
312.098	127.12
312.328	137.12
312.557	141.12
312.787	115.12
313.017	137.12
313.246	131.12
313.476	136.12
313.706	125.12
313.935	141.12
314.165	138.12
314.394	146.12
314.624	120.12
314.853	126.12
315.083	138.12
315.312	110.12
315.542	127.12
315.771	123.12
316.001	130.12
316.23	141.12
316.46	126.12
316.689	134.12
316.919	113.12
317.148	121.12
317.377	141.12
317.607	143.12
317.836	133.12
318.065	128.12
318.295	116.12
318.524	141.12
318.753	137.12
318.983	136.12
319.212	129.12
319.441	126.12
319.67	123.12
319.9	122.12
320.129	132.12
320.358	134.12
320.587	129.12
320.816	133.12
321.046	126.12
321.275	142.12
321.504	132.12
321.733	139.12
321.962	134.12
322.191	131.12
322.42	134.12
322.649	134.12
322.878	141.12
323.108	148.12
323.337	142.12
323.566	132.12
323.795	128.12
324.024	117.12
324.253	138.12
324.482	134.12
324.71	128.12
324.939	142.12
325.168	133.12
325.397	141.12
325.626	139.12
325.855	136.12
326.084	147.12
326.313	144.12
326.542	132.12
326.77	137.12
326.999	127.12
327.228	135.12
327.457	115.12
327.686	134.12
327.914	142.12
328.143	135.12
328.372	130.12
328.6	122.12
328.829	144.12
329.058	133.12
329.287	150.12
329.515	138.12
329.744	133.12
329.972	131.12
330.201	119.12
330.43	140.12
330.658	142.12
330.887	138.12
331.115	140.12
331.344	137.12
331.572	149.12
331.801	149.12
332.03	139.12
332.258	147.12
332.486	162.12
332.715	156.12
332.943	155.12
333.172	144.12
333.4	167.12
333.629	170.12
333.857	167.12
334.085	174.12
334.314	166.12
334.542	157.12
334.771	151.12
334.999	170.12
335.227	155.12
335.455	151.12
335.684	159.12
335.912	159.12
336.14	144.12
336.369	142.12
336.597	146.12
336.825	159.12
337.053	134.12
337.281	152.12
337.51	141.12
337.738	146.12
337.966	131.12
338.194	135.12
338.422	136.12
338.65	132.12
338.878	146.12
339.106	134.12
339.334	146.12
339.562	144.12
339.79	133.12
340.018	128.12
340.246	123.12
340.474	153.12
340.702	148.12
340.93	135.12
341.158	144.12
341.386	122.12
341.614	143.12
341.842	142.12
342.07	139.12
342.298	121.12
342.526	142.12
342.754	143.12
342.981	136.12
343.209	145.12
343.437	183.12
343.665	153.12
343.893	163.12
344.12	157.12
344.348	146.12
344.576	149.12
344.804	157.12
345.031	138.12
345.259	145.12
345.487	143.12
345.714	150.12
345.942	143.12
346.17	133.12
346.397	147.12
346.625	131.12
346.853	141.12
347.08	143.12
347.308	144.12
347.535	132.12
347.763	148.12
347.99	157.12
348.218	141.12
348.445	129.12
348.673	134.12
348.9	141.12
349.128	149.12
349.355	123.12
349.583	129.12
349.81	135.12
350.037	128.12
350.265	124.12
350.492	137.12
350.72	117.12
350.947	135.12
351.174	134.12
351.402	115.12
351.629	147.12
351.856	130.12
352.083	121.12
352.311	146.12
352.538	157.12
352.765	145.12
352.992	149.12
353.22	142.12
353.447	124.12
353.674	128.12
353.901	130.12
354.128	136.12
354.355	137.12
354.583	142.12
354.81	149.12
355.037	149.12
355.264	132.12
355.491	116.12
355.718	120.12
355.945	133.12
356.172	151.12
356.399	130.12
356.626	153.12
356.853	125.12
357.08	133.12
357.307	137.12
357.534	137.12
357.761	130.12
357.988	126.12
358.215	153.12
358.441	135.12
358.668	135.12
358.895	151.12
359.122	107.12
359.349	132.12
359.576	129.12
359.802	144.12
360.029	157.12
360.256	141.12
360.483	137.12
360.709	122.12
360.936	139.12
361.163	143.12
361.39	150.12
361.616	127.12
361.843	141.12
362.07	145.12
362.296	134.12
362.523	132.12
362.749	121.12
362.976	126.12
363.203	128.12
363.429	151.12
363.656	138.12
363.882	121.12
364.109	139.12
364.335	150.12
364.562	145.12
364.788	151.12
365.015	134.12
365.241	138.12
365.468	132.12
365.694	130.12
365.92	144.12
366.147	128.12
366.373	128.12
366.599	135.12
366.826	138.12
367.052	141.12
367.278	142.12
367.505	138.12
367.731	159.12
367.957	131.12
368.184	132.12
368.41	132.12
368.636	133.12
368.862	138.12
369.089	127.12
369.315	126.12
369.541	132.12
369.767	162.12
369.993	143.12
370.219	127.12
370.445	144.12
370.672	136.12
370.898	141.12
371.124	135.12
371.35	140.12
371.576	125.12
371.802	130.12
372.028	129.12
372.254	143.12
372.48	145.12
372.706	136.12
372.932	129.12
373.158	125.12
373.384	158.12
373.61	131.12
373.835	135.12
374.061	133.12
374.287	146.12
374.513	156.12
374.739	168.12
374.965	147.12
375.191	135.12
375.416	168.12
375.642	147.12
375.868	149.12
376.094	147.12
376.319	147.12
376.545	136.12
376.771	128.12
376.997	144.12
377.222	137.12
377.448	134.12
377.674	147.12
377.899	146.12
378.125	138.12
378.35	138.12
378.576	133.12
378.802	115.12
379.027	144.12
379.253	145.12
379.478	133.12
379.704	131.12
379.929	129.12
380.155	141.12
380.38	139.12
380.606	133.12
380.831	158.12
381.057	157.12
381.282	125.12
381.507	135.12
381.733	138.12
381.958	149.12
382.184	151.12
382.409	172.12
382.634	160.12
382.86	146.12
383.085	152.12
383.31	146.12
383.535	154.12
383.761	144.12
383.986	155.12
384.211	133.12
384.436	147.12
384.662	179.12
384.887	164.12
385.112	169.12
385.337	157.12
385.562	150.12
385.787	164.12
386.013	167.12
386.238	152.12
386.463	149.12
386.688	186.12
386.913	159.12
387.138	171.12
387.363	145.12
387.588	152.12
387.813	150.12
388.038	171.12
388.263	166.12
388.488	153.12
388.713	168.12
388.938	158.12
389.163	170.12
389.387	148.12
389.612	149.12
389.837	152.12
390.062	155.12
390.287	162.12
390.512	162.12
390.736	174.12
390.961	151.12
391.186	155.12
391.411	163.12
391.636	161.12
391.86	170.12
392.085	161.12
392.31	164.12
392.534	170.12
392.759	171.12
392.984	183.12
393.208	156.12
393.433	171.12
393.658	161.12
393.882	166.12
394.107	150.12
394.331	168.12
394.556	157.12
394.78	175.12
395.005	157.12
395.229	167.12
395.454	154.12
395.678	167.12
395.903	171.12
396.127	169.12
396.352	151.12
396.576	170.12
396.801	159.12
397.025	152.12
397.249	173.12
397.474	169.12
397.698	178.12
397.922	167.12
398.147	189.12
398.371	174.12
398.595	179.12
398.82	180.12
399.044	182.12
399.268	216.12
399.492	243.12
399.717	250.12
399.941	231.12
400.165	208.12
400.389	198.12
400.613	187.12
400.837	180.12
401.062	188.12
401.286	175.12
401.51	197.12
401.734	167.12
401.958	166.12
402.182	183.12
402.406	187.12
402.63	182.12
402.854	190.12
403.078	186.12
403.302	199.12
403.526	194.12
403.75	218.12
403.974	218.12
404.198	203.12
404.422	218.12
404.645	186.12
404.869	196.12
405.093	186.12
405.317	167.12
405.541	184.12
405.765	191.12
405.988	209.12
406.212	193.12
406.436	181.12
406.66	197.12
406.883	212.12
407.107	204.12
407.331	206.12
407.555	204.12
407.778	205.12
408.002	213.12
408.226	210.12
408.449	215.12
408.673	197.12
408.896	198.12
409.12	190.12
409.344	199.12
409.567	201.12
409.791	176.12
410.014	211.12
410.238	208.12
410.461	197.12
410.685	196.12
410.908	186.12
411.132	190.12
411.355	187.12
411.578	183.12
411.802	174.12
412.025	181.12
412.249	188.12
412.472	182.12
412.695	176.12
412.919	168.12
413.142	171.12
413.365	178.12
413.589	185.12
413.812	176.12
414.035	179.12
414.258	178.12
414.482	195.12
414.705	189.12
414.928	192.12
415.151	189.12
415.374	169.12
415.597	169.12
415.821	185.12
416.044	175.12
416.267	185.12
416.49	182.12
416.713	193.12
416.936	177.12
417.159	178.12
417.382	189.12
417.605	163.12
417.828	178.12
418.051	162.12
418.274	193.12
418.497	180.12
418.72	188.12
418.943	186.12
419.166	180.12
419.389	188.12
419.611	195.12
419.834	192.12
420.057	196.12
420.28	170.12
420.503	178.12
420.726	161.12
420.948	172.12
421.171	185.12
421.394	170.12
421.617	181.12
421.839	178.12
422.062	191.12
422.285	184.12
422.507	176.12
422.73	191.12
422.953	189.12
423.175	174.12
423.398	176.12
423.621	166.12
423.843	197.12
424.066	185.12
424.288	197.12
424.511	185.12
424.733	172.12
424.956	178.12
425.178	182.12
425.401	183.12
425.623	206.12
425.846	169.12
426.068	187.12
426.291	178.12
426.513	190.12
426.735	199.12
426.958	183.12
427.18	191.12
427.402	187.12
427.625	177.12
427.847	163.12
428.069	158.12
428.292	166.12
428.514	178.12
428.736	148.12
428.958	169.12
429.181	182.12
429.403	156.12
429.625	165.12
429.847	164.12
430.069	162.12
430.292	170.12
430.514	155.12
430.736	169.12
430.958	169.12
431.18	143.12
431.402	147.12
431.624	190.12
431.846	153.12
432.068	189.12
432.29	169.12
432.512	179.12
432.734	165.12
432.956	185.12
433.178	186.12
433.4	166.12
433.622	183.12
433.844	170.12
434.066	162.12
434.287	182.12
434.509	190.12
434.731	182.12
434.953	183.12
435.175	169.12
435.397	173.12
435.618	175.12
435.84	176.12
436.062	164.12
436.284	177.12
436.505	166.12
436.727	155.12
436.949	164.12
437.17	158.12
437.392	151.12
437.614	162.12
437.835	145.12
438.057	151.12
438.278	126.12
438.5	179.12
438.721	170.12
438.943	170.12
439.165	169.12
439.386	167.12
439.608	185.12
439.829	179.12
440.05	170.12
440.272	180.12
440.493	164.12
440.715	172.12
440.936	170.12
441.158	184.12
441.379	178.12
441.6	189.12
441.822	180.12
442.043	166.12
442.264	189.12
442.486	180.12
442.707	177.12
442.928	179.12
443.149	162.12
443.371	186.12
443.592	177.12
443.813	187.12
444.034	202.12
444.255	207.12
444.476	212.12
444.698	222.12
444.919	202.12
445.14	414.12
445.361	271.12
445.582	181.12
445.803	173.12
446.024	170.12
446.245	180.12
446.466	172.12
446.687	174.12
446.908	170.12
447.129	175.12
447.35	168.12
447.571	168.12
447.792	173.12
448.013	168.12
448.234	168.12
448.455	158.12
448.675	162.12
448.896	153.12
449.117	150.12
449.338	141.12
449.559	165.12
449.779	160.12
450	142.12
450.221	151.12
450.442	161.12
450.662	160.12
450.883	156.12
451.104	175.12
451.324	157.12
451.545	161.12
451.766	160.12
451.986	166.12
452.207	171.12
452.428	154.12
452.648	155.12
452.869	151.12
453.089	157.12
453.31	141.12
453.53	168.12
453.751	162.12
453.971	158.12
454.192	160.12
454.412	149.12
454.633	149.12
454.853	135.12
455.073	152.12
455.294	162.12
455.514	181.12
455.734	158.12
455.955	153.12
456.175	161.12
456.395	141.12
456.616	146.12
456.836	151.12
457.056	161.12
457.276	155.12
457.497	136.12
457.717	145.12
457.937	145.12
458.157	157.12
458.377	151.12
458.598	154.12
458.818	148.12
459.038	157.12
459.258	173.12
459.478	162.12
459.698	167.12
459.918	183.12
460.138	171.12
460.358	194.12
460.578	205.12
460.798	166.12
461.018	191.12
461.238	195.12
461.458	201.12
461.678	176.12
461.898	189.12
462.118	187.12
462.338	202.12
462.558	199.12
462.777	198.12
462.997	217.12
463.217	230.12
463.437	215.12
463.657	224.12
463.876	202.12
464.096	214.12
464.316	206.12
464.536	195.12
464.755	201.12
464.975	202.12
465.195	193.12
465.414	183.12
465.634	191.12
465.854	169.12
466.073	165.12
466.293	174.12
466.512	165.12
466.732	163.12
466.951	151.12
467.171	175.12
467.391	184.12
467.61	169.12
467.829	166.12
468.049	166.12
468.268	162.12
468.488	152.12
468.707	180.12
468.927	161.12
469.146	143.12
469.365	175.12
469.585	183.12
469.804	161.12
470.023	163.12
470.243	181.12
470.462	179.12
470.681	165.12
470.901	180.12
471.12	167.12
471.339	161.12
471.558	165.12
471.777	163.12
471.997	174.12
472.216	157.12
472.435	165.12
472.654	142.12
472.873	163.12
473.092	168.12
473.311	138.12
473.53	163.12
473.749	168.12
473.968	159.12
474.187	143.12
474.406	151.12
474.625	160.12
474.844	157.12
475.063	154.12
475.282	158.12
475.501	152.12
475.72	169.12
475.939	169.12
476.158	157.12
476.377	153.12
476.596	148.12
476.814	162.12
477.033	161.12
477.252	161.12
477.471	151.12
477.69	195.12
477.908	182.12
478.127	183.12
478.346	180.12
478.564	183.12
478.783	168.12
479.002	190.12
479.22	187.12
479.439	180.12
479.658	184.12
479.876	182.12
480.095	175.12
480.313	191.12
480.532	188.12
480.751	201.12
480.969	191.12
481.188	177.12
481.406	171.12
481.624	175.12
481.843	165.12
482.061	166.12
482.28	167.12
482.498	166.12
482.717	170.12
482.935	170.12
483.153	154.12
483.372	171.12
483.59	182.12
483.808	173.12
484.027	171.12
484.245	165.12
484.463	167.12
484.681	194.12
484.9	171.12
485.118	189.12
485.336	193.12
485.554	181.12
485.772	175.12
485.99	173.12
486.209	184.12
486.427	176.12
486.645	167.12
486.863	185.12
487.081	182.12
487.299	177.12
487.517	170.12
487.735	175.12
487.953	184.12
488.171	186.12
488.389	186.12
488.607	170.12
488.825	175.12
489.043	170.12
489.261	186.12
489.479	186.12
489.696	176.12
489.914	183.12
490.132	158.12
490.35	171.12
490.568	184.12
490.786	189.12
491.003	168.12
491.221	182.12
491.439	171.12
491.657	183.12
491.874	187.12
492.092	170.12
492.31	178.12
492.527	185.12
492.745	170.12
492.963	185.12
493.18	191.12
493.398	191.12
493.615	193.12
493.833	164.12
494.05	176.12
494.268	191.12
494.485	201.12
494.703	183.12
494.92	195.12
495.138	187.12
495.355	175.12
495.573	188.12
495.79	190.12
496.008	185.12
496.225	192.12
496.442	185.12
496.66	190.12
496.877	200.12
497.094	216.12
497.312	205.12
497.529	197.12
497.746	185.12
497.963	203.12
498.181	202.12
498.398	222.12
498.615	253.12
498.832	234.12
499.049	259.12
499.267	275.12
499.484	287.12
499.701	321.12
499.918	353.12
500.135	379.12
500.352	433.12
500.569	416.12
500.786	431.12
501.003	395.12
501.22	359.12
501.437	309.12
501.654	293.12
501.871	262.12
502.088	246.12
502.305	262.12
502.522	231.12
502.739	238.12
502.956	216.12
503.172	202.12
503.389	212.12
503.606	192.12
503.823	211.12
504.04	205.12
504.256	220.12
504.473	218.12
504.69	216.12
504.907	206.12
