Data from SampG_HRD10591_00083.txt Node
Date: Mon Jan 19 11:54:11 EST 2026
User: Yrep
Spectrometer: HR+D1059
Trigger mode: 0
Integration Time (sec): 3.443000E-1
Scans to average: 1
Electric dark correction enabled: true
Nonlinearity correction enabled: false
Boxcar width: 0
XAxis mode: Wavelengths
Number of Pixels in Spectrum: 2048
>>>>>Begin Spectral Data<<<<<
223.165	-24.56
223.4	-24.56
223.635	-24.56
223.869	-27.56
224.104	-30.56
224.338	-9.56
224.573	-8.56
224.808	-20.56
225.042	1.44
225.277	-5.56
225.511	-12.56
225.746	22.44
225.98	0.44
226.215	9.44
226.449	23.44
226.683	24.44
226.918	21.44
227.152	36.44
227.387	44.44
227.621	56.44
227.856	50.44
228.09	40.44
228.324	50.44
228.559	62.44
228.793	68.44
229.027	82.44
229.262	70.44
229.496	71.44
229.73	77.44
229.964	63.44
230.199	82.44
230.433	82.44
230.667	91.44
230.901	82.44
231.136	78.44
231.37	83.44
231.604	81.44
231.838	91.44
232.072	73.44
232.306	88.44
232.541	77.44
232.775	74.44
233.009	84.44
233.243	82.44
233.477	87.44
233.711	80.44
233.945	83.44
234.179	80.44
234.413	87.44
234.647	87.44
234.881	82.44
235.115	78.44
235.349	96.44
235.583	73.44
235.817	71.44
236.051	87.44
236.285	80.44
236.519	77.44
236.753	88.44
236.987	73.44
237.221	93.44
237.455	82.44
237.689	77.44
237.922	62.44
238.156	76.44
238.39	82.44
238.624	81.44
238.858	100.44
239.091	104.44
239.325	78.44
239.559	82.44
239.793	82.44
240.027	107.44
240.26	83.44
240.494	85.44
240.728	84.44
240.961	86.44
241.195	87.44
241.429	82.44
241.662	86.44
241.896	88.44
242.13	78.44
242.363	85.44
242.597	87.44
242.83	83.44
243.064	87.44
243.298	88.44
243.531	85.44
243.765	84.44
243.998	91.44
244.232	85.44
244.465	83.44
244.699	84.44
244.932	102.44
245.166	82.44
245.399	87.44
245.633	84.44
245.866	85.44
246.099	92.44
246.333	83.44
246.566	80.44
246.8	84.44
247.033	92.44
247.266	96.44
247.5	84.44
247.733	79.44
247.966	87.44
248.2	89.44
248.433	70.44
248.666	88.44
248.899	93.44
249.133	90.44
249.366	95.44
249.599	82.44
249.832	77.44
250.066	96.44
250.299	82.44
250.532	98.44
250.765	89.44
250.998	85.44
251.231	100.44
251.465	94.44
251.698	72.44
251.931	87.44
252.164	77.44
252.397	99.44
252.63	80.44
252.863	88.44
253.096	85.44
253.329	80.44
253.562	86.44
253.795	101.44
254.028	97.44
254.261	82.44
254.494	95.44
254.727	95.44
254.96	98.44
255.193	78.44
255.426	96.44
255.659	97.44
255.892	85.44
256.124	103.44
256.357	95.44
256.59	103.44
256.823	95.44
257.056	94.44
257.289	107.44
257.521	96.44
257.754	86.44
257.987	101.44
258.22	91.44
258.452	91.44
258.685	89.44
258.918	98.44
259.151	100.44
259.383	108.44
259.616	94.44
259.849	85.44
260.081	97.44
260.314	91.44
260.547	95.44
260.779	97.44
261.012	83.44
261.244	94.44
261.477	104.44
261.71	104.44
261.942	101.44
262.175	89.44
262.407	94.44
262.64	94.44
262.872	98.44
263.105	105.44
263.337	106.44
263.57	106.44
263.802	102.44
264.035	112.44
264.267	91.44
264.499	106.44
264.732	118.44
264.964	114.44
265.197	105.44
265.429	95.44
265.661	109.44
265.894	92.44
266.126	106.44
266.358	101.44
266.591	90.44
266.823	102.44
267.055	91.44
267.287	98.44
267.52	94.44
267.752	95.44
267.984	101.44
268.216	101.44
268.448	112.44
268.681	105.44
268.913	114.44
269.145	90.44
269.377	106.44
269.609	105.44
269.841	101.44
270.073	114.44
270.306	101.44
270.538	116.44
270.77	97.44
271.002	105.44
271.234	113.44
271.466	102.44
271.698	100.44
271.93	107.44
272.162	110.44
272.394	114.44
272.626	102.44
272.858	114.44
273.09	102.44
273.322	105.44
273.553	98.44
273.785	105.44
274.017	102.44
274.249	101.44
274.481	112.44
274.713	109.44
274.945	107.44
275.176	112.44
275.408	107.44
275.64	97.44
275.872	96.44
276.104	97.44
276.335	109.44
276.567	99.44
276.799	101.44
277.031	119.44
277.262	104.44
277.494	121.44
277.726	114.44
277.957	100.44
278.189	111.44
278.421	93.44
278.652	109.44
278.884	98.44
279.115	118.44
279.347	93.44
279.579	94.44
279.81	117.44
280.042	117.44
280.273	112.44
280.505	99.44
280.736	101.44
280.968	113.44
281.199	104.44
281.431	105.44
281.662	113.44
281.894	118.44
282.125	125.44
282.356	112.44
282.588	115.44
282.819	108.44
283.051	106.44
283.282	115.44
283.513	122.44
283.745	121.44
283.976	115.44
284.207	104.44
284.439	108.44
284.67	113.44
284.901	120.44
285.132	117.44
285.364	108.44
285.595	117.44
285.826	123.44
286.057	123.44
286.288	103.44
286.52	128.44
286.751	111.44
286.982	116.44
287.213	102.44
287.444	122.44
287.675	100.44
287.906	123.44
288.138	116.44
288.369	97.44
288.6	120.44
288.831	123.44
289.062	108.44
289.293	120.44
289.524	109.44
289.755	115.44
289.986	122.44
290.217	114.44
290.448	113.44
290.679	112.44
290.91	121.44
291.141	118.44
291.371	108.44
291.602	113.44
291.833	98.44
292.064	127.44
292.295	132.44
292.526	117.44
292.757	123.44
292.987	116.44
293.218	98.44
293.449	124.44
293.68	130.44
293.91	121.44
294.141	117.44
294.372	117.44
294.603	128.44
294.833	119.44
295.064	114.44
295.295	120.44
295.525	103.44
295.756	123.44
295.987	115.44
296.217	121.44
296.448	122.44
296.679	110.44
296.909	113.44
297.14	126.44
297.37	125.44
297.601	99.44
297.831	115.44
298.062	114.44
298.292	120.44
298.523	122.44
298.753	117.44
298.984	130.44
299.214	122.44
299.445	125.44
299.675	125.44
299.905	138.44
300.136	109.44
300.366	110.44
300.597	128.44
300.827	132.44
301.057	106.44
301.288	148.44
301.518	110.44
301.748	129.44
301.979	162.44
302.209	124.44
302.439	109.44
302.669	118.44
302.9	128.44
303.13	116.44
303.36	120.44
303.59	121.44
303.82	125.44
304.051	120.44
304.281	114.44
304.511	134.44
304.741	112.44
304.971	130.44
305.201	137.44
305.431	116.44
305.661	122.44
305.891	130.44
306.121	132.44
306.352	106.44
306.582	122.44
306.812	117.44
307.042	117.44
307.272	120.44
307.502	108.44
307.731	127.44
307.961	123.44
308.191	117.44
308.421	117.44
308.651	118.44
308.881	135.44
309.111	107.44
309.341	123.44
309.571	125.44
309.8	109.44
310.03	128.44
310.26	122.44
310.49	122.44
310.72	134.44
310.949	130.44
311.179	123.44
311.409	98.44
311.639	137.44
311.868	118.44
312.098	138.44
312.328	117.44
312.557	120.44
312.787	126.44
313.017	141.44
313.246	140.44
313.476	133.44
313.706	113.44
313.935	130.44
314.165	122.44
314.394	120.44
314.624	130.44
314.853	128.44
315.083	123.44
315.312	118.44
315.542	121.44
315.771	128.44
316.001	114.44
316.23	137.44
316.46	123.44
316.689	128.44
316.919	118.44
317.148	127.44
317.377	145.44
317.607	123.44
317.836	118.44
318.065	110.44
318.295	110.44
318.524	122.44
318.753	122.44
318.983	123.44
319.212	127.44
319.441	127.44
319.67	126.44
319.9	129.44
320.129	134.44
320.358	131.44
320.587	135.44
320.816	119.44
321.046	110.44
321.275	114.44
321.504	125.44
321.733	103.44
321.962	110.44
322.191	130.44
322.42	111.44
322.649	140.44
322.878	137.44
323.108	127.44
323.337	112.44
323.566	129.44
323.795	138.44
324.024	120.44
324.253	129.44
324.482	140.44
324.71	131.44
324.939	126.44
325.168	122.44
325.397	132.44
325.626	139.44
325.855	132.44
326.084	115.44
326.313	127.44
326.542	120.44
326.77	135.44
326.999	117.44
327.228	110.44
327.457	128.44
327.686	129.44
327.914	128.44
328.143	134.44
328.372	125.44
328.6	133.44
328.829	147.44
329.058	129.44
329.287	120.44
329.515	122.44
329.744	155.44
329.972	123.44
330.201	125.44
330.43	138.44
330.658	136.44
330.887	140.44
331.115	146.44
331.344	117.44
331.572	152.44
331.801	145.44
332.03	131.44
332.258	149.44
332.486	132.44
332.715	139.44
332.943	133.44
333.172	149.44
333.4	139.44
333.629	144.44
333.857	156.44
334.085	147.44
334.314	132.44
334.542	130.44
334.771	162.44
334.999	153.44
335.227	130.44
335.455	141.44
335.684	148.44
335.912	134.44
336.14	160.44
336.369	144.44
336.597	149.44
336.825	136.44
337.053	141.44
337.281	130.44
337.51	144.44
337.738	146.44
337.966	140.44
338.194	133.44
338.422	131.44
338.65	141.44
338.878	147.44
339.106	148.44
339.334	128.44
339.562	118.44
339.79	132.44
340.018	121.44
340.246	128.44
340.474	136.44
340.702	132.44
340.93	123.44
341.158	154.44
341.386	130.44
341.614	133.44
341.842	150.44
342.07	142.44
342.298	134.44
342.526	120.44
342.754	126.44
342.981	133.44
343.209	144.44
343.437	178.44
343.665	163.44
343.893	138.44
344.12	129.44
344.348	140.44
344.576	134.44
344.804	129.44
345.031	126.44
345.259	137.44
345.487	148.44
345.714	130.44
345.942	131.44
346.17	150.44
346.397	133.44
346.625	131.44
346.853	118.44
347.08	117.44
347.308	136.44
347.535	116.44
347.763	130.44
347.99	140.44
348.218	125.44
348.445	136.44
348.673	112.44
348.9	135.44
349.128	138.44
349.355	132.44
349.583	127.44
349.81	118.44
350.037	132.44
350.265	119.44
350.492	120.44
350.72	131.44
350.947	120.44
351.174	119.44
351.402	132.44
351.629	127.44
351.856	121.44
352.083	120.44
352.311	118.44
352.538	132.44
352.765	122.44
352.992	134.44
353.22	126.44
353.447	146.44
353.674	140.44
353.901	129.44
354.128	137.44
354.355	122.44
354.583	133.44
354.81	119.44
355.037	141.44
355.264	129.44
355.491	139.44
355.718	135.44
355.945	115.44
356.172	137.44
356.399	151.44
356.626	129.44
356.853	127.44
357.08	126.44
357.307	138.44
357.534	123.44
357.761	126.44
357.988	143.44
358.215	148.44
358.441	126.44
358.668	135.44
358.895	131.44
359.122	125.44
359.349	112.44
359.576	127.44
359.802	115.44
360.029	120.44
360.256	122.44
360.483	120.44
360.709	139.44
360.936	135.44
361.163	136.44
361.39	129.44
361.616	116.44
361.843	135.44
362.07	145.44
362.296	131.44
362.523	131.44
362.749	130.44
362.976	121.44
363.203	144.44
363.429	127.44
363.656	132.44
363.882	130.44
364.109	132.44
364.335	126.44
364.562	128.44
364.788	123.44
365.015	124.44
365.241	141.44
365.468	151.44
365.694	114.44
365.92	118.44
366.147	108.44
366.373	134.44
366.599	137.44
366.826	130.44
367.052	118.44
367.278	130.44
367.505	136.44
367.731	138.44
367.957	134.44
368.184	124.44
368.41	123.44
368.636	144.44
368.862	134.44
369.089	135.44
369.315	122.44
369.541	130.44
369.767	128.44
369.993	129.44
370.219	124.44
370.445	129.44
370.672	141.44
370.898	137.44
371.124	127.44
371.35	121.44
371.576	141.44
371.802	125.44
372.028	127.44
372.254	131.44
372.48	137.44
372.706	134.44
372.932	124.44
373.158	128.44
373.384	148.44
373.61	130.44
373.835	148.44
374.061	136.44
374.287	141.44
374.513	130.44
374.739	132.44
374.965	135.44
375.191	136.44
375.416	137.44
375.642	146.44
375.868	141.44
376.094	145.44
376.319	121.44
376.545	155.44
376.771	128.44
376.997	134.44
377.222	132.44
377.448	139.44
377.674	134.44
377.899	135.44
378.125	126.44
378.35	141.44
378.576	136.44
378.802	128.44
379.027	123.44
379.253	151.44
379.478	132.44
379.704	123.44
379.929	140.44
380.155	124.44
380.38	126.44
380.606	114.44
380.831	131.44
381.057	154.44
381.282	142.44
381.507	148.44
381.733	137.44
381.958	141.44
382.184	147.44
382.409	126.44
382.634	146.44
382.86	128.44
383.085	132.44
383.31	132.44
383.535	135.44
383.761	155.44
383.986	156.44
384.211	150.44
384.436	136.44
384.662	140.44
384.887	154.44
385.112	129.44
385.337	151.44
385.562	156.44
385.787	151.44
386.013	147.44
386.238	159.44
386.463	162.44
386.688	173.44
386.913	136.44
387.138	149.44
387.363	139.44
387.588	162.44
387.813	139.44
388.038	156.44
388.263	164.44
388.488	157.44
388.713	172.44
388.938	140.44
389.163	140.44
389.387	160.44
389.612	145.44
389.837	146.44
390.062	154.44
390.287	164.44
390.512	161.44
390.736	148.44
390.961	146.44
391.186	154.44
391.411	151.44
391.636	150.44
391.86	148.44
392.085	144.44
392.31	151.44
392.534	173.44
392.759	153.44
392.984	158.44
393.208	156.44
393.433	141.44
393.658	141.44
393.882	148.44
394.107	161.44
394.331	146.44
394.556	137.44
394.78	164.44
395.005	128.44
395.229	153.44
395.454	156.44
395.678	160.44
395.903	168.44
396.127	184.44
396.352	172.44
396.576	165.44
396.801	165.44
397.025	141.44
397.249	153.44
397.474	168.44
397.698	170.44
397.922	178.44
398.147	161.44
398.371	147.44
398.595	174.44
398.82	172.44
399.044	169.44
399.268	188.44
399.492	210.44
399.717	239.44
399.941	215.44
400.165	193.44
400.389	168.44
400.613	171.44
400.837	173.44
401.062	158.44
401.286	170.44
401.51	164.44
401.734	180.44
401.958	167.44
402.182	182.44
402.406	196.44
402.63	158.44
402.854	174.44
403.078	173.44
403.302	192.44
403.526	190.44
403.75	189.44
403.974	183.44
404.198	182.44
404.422	186.44
404.645	185.44
404.869	195.44
405.093	176.44
405.317	182.44
405.541	188.44
405.765	172.44
405.988	171.44
406.212	163.44
406.436	173.44
406.66	194.44
406.883	194.44
407.107	189.44
407.331	192.44
407.555	209.44
407.778	199.44
408.002	186.44
408.226	195.44
408.449	182.44
408.673	162.44
408.896	175.44
409.12	182.44
409.344	179.44
409.567	177.44
409.791	184.44
410.014	189.44
410.238	180.44
410.461	179.44
410.685	173.44
410.908	180.44
411.132	183.44
411.355	172.44
411.578	175.44
411.802	165.44
412.025	162.44
412.249	185.44
412.472	181.44
412.695	175.44
412.919	166.44
413.142	166.44
413.365	168.44
413.589	163.44
413.812	169.44
414.035	171.44
414.258	179.44
414.482	165.44
414.705	180.44
414.928	169.44
415.151	155.44
415.374	181.44
415.597	171.44
415.821	162.44
416.044	155.44
416.267	168.44
416.49	152.44
416.713	173.44
416.936	172.44
417.159	147.44
417.382	160.44
417.605	162.44
417.828	171.44
418.051	172.44
418.274	178.44
418.497	177.44
418.72	174.44
418.943	177.44
419.166	174.44
419.389	173.44
419.611	160.44
419.834	172.44
420.057	168.44
420.28	170.44
420.503	178.44
420.726	150.44
420.948	156.44
421.171	151.44
421.394	174.44
421.617	165.44
421.839	164.44
422.062	183.44
422.285	168.44
422.507	189.44
422.73	177.44
422.953	175.44
423.175	162.44
423.398	185.44
423.621	180.44
423.843	179.44
424.066	169.44
424.288	179.44
424.511	180.44
424.733	170.44
424.956	167.44
425.178	178.44
425.401	173.44
425.623	176.44
425.846	155.44
426.068	162.44
426.291	168.44
426.513	149.44
426.735	151.44
426.958	154.44
427.18	134.44
427.402	161.44
427.625	176.44
427.847	172.44
428.069	176.44
428.292	170.44
428.514	164.44
428.736	152.44
428.958	138.44
429.181	162.44
429.403	163.44
429.625	181.44
429.847	147.44
430.069	153.44
430.292	153.44
430.514	164.44
430.736	155.44
430.958	154.44
431.18	166.44
431.402	156.44
431.624	152.44
431.846	157.44
432.068	164.44
432.29	166.44
432.512	162.44
432.734	151.44
432.956	181.44
433.178	171.44
433.4	163.44
433.622	161.44
433.844	163.44
434.066	156.44
434.287	162.44
434.509	179.44
434.731	164.44
434.953	164.44
435.175	169.44
435.397	158.44
435.618	175.44
435.84	166.44
436.062	148.44
436.284	160.44
436.505	147.44
436.727	149.44
436.949	158.44
437.17	171.44
437.392	156.44
437.614	148.44
437.835	150.44
438.057	161.44
438.278	154.44
438.5	156.44
438.721	142.44
438.943	154.44
439.165	151.44
439.386	163.44
439.608	163.44
439.829	157.44
440.05	172.44
440.272	153.44
440.493	164.44
440.715	156.44
440.936	165.44
441.158	183.44
441.379	180.44
441.6	175.44
441.822	159.44
442.043	179.44
442.264	149.44
442.486	174.44
442.707	171.44
442.928	168.44
443.149	160.44
443.371	185.44
443.592	183.44
443.813	174.44
444.034	172.44
444.255	178.44
444.476	167.44
444.698	176.44
444.919	193.44
445.14	383.44
445.361	261.44
445.582	188.44
445.803	153.44
446.024	149.44
446.245	183.44
446.466	179.44
446.687	160.44
446.908	166.44
447.129	177.44
447.35	152.44
447.571	158.44
447.792	160.44
448.013	162.44
448.234	156.44
448.455	149.44
448.675	132.44
448.896	144.44
449.117	153.44
449.338	149.44
449.559	149.44
449.779	150.44
450	135.44
450.221	150.44
450.442	163.44
450.662	145.44
450.883	147.44
451.104	179.44
451.324	131.44
451.545	150.44
451.766	152.44
451.986	153.44
452.207	147.44
452.428	161.44
452.648	146.44
452.869	144.44
453.089	148.44
453.31	142.44
453.53	145.44
453.751	146.44
453.971	144.44
454.192	155.44
454.412	149.44
454.633	148.44
454.853	141.44
455.073	149.44
455.294	144.44
455.514	147.44
455.734	142.44
455.955	130.44
456.175	153.44
456.395	145.44
456.616	143.44
456.836	159.44
457.056	157.44
457.276	134.44
457.497	145.44
457.717	143.44
457.937	145.44
458.157	147.44
458.377	146.44
458.598	139.44
458.818	154.44
459.038	141.44
459.258	165.44
459.478	172.44
459.698	171.44
459.918	184.44
460.138	169.44
460.358	168.44
460.578	172.44
460.798	166.44
461.018	174.44
461.238	174.44
461.458	187.44
461.678	171.44
461.898	171.44
462.118	181.44
462.338	187.44
462.558	187.44
462.777	192.44
462.997	201.44
463.217	205.44
463.437	213.44
463.657	186.44
463.876	198.44
464.096	186.44
464.316	175.44
464.536	191.44
464.755	206.44
464.975	187.44
465.195	175.44
465.414	182.44
465.634	173.44
465.854	162.44
466.073	148.44
466.293	148.44
466.512	154.44
466.732	160.44
466.951	144.44
467.171	157.44
467.391	166.44
467.61	166.44
467.829	149.44
468.049	152.44
468.268	150.44
468.488	148.44
468.707	138.44
468.927	162.44
469.146	147.44
469.365	160.44
469.585	151.44
469.804	160.44
470.023	156.44
470.243	169.44
470.462	162.44
470.681	157.44
470.901	161.44
471.12	146.44
471.339	142.44
471.558	162.44
471.777	156.44
471.997	160.44
472.216	160.44
472.435	166.44
472.654	165.44
472.873	144.44
473.092	156.44
473.311	149.44
473.53	154.44
473.749	146.44
473.968	159.44
474.187	144.44
474.406	145.44
474.625	169.44
474.844	154.44
475.063	149.44
475.282	141.44
475.501	160.44
475.72	170.44
475.939	148.44
476.158	148.44
476.377	152.44
476.596	156.44
476.814	134.44
477.033	155.44
477.252	162.44
477.471	157.44
477.69	168.44
477.908	169.44
478.127	176.44
478.346	174.44
478.564	172.44
478.783	177.44
479.002	170.44
479.22	160.44
479.439	168.44
479.658	178.44
479.876	176.44
480.095	170.44
480.313	182.44
480.532	197.44
480.751	197.44
480.969	168.44
481.188	175.44
481.406	170.44
481.624	149.44
481.843	164.44
482.061	166.44
482.28	147.44
482.498	158.44
482.717	168.44
482.935	165.44
483.153	158.44
483.372	150.44
483.59	171.44
483.808	157.44
484.027	167.44
484.245	168.44
484.463	150.44
484.681	179.44
484.9	169.44
485.118	161.44
485.336	157.44
485.554	182.44
485.772	180.44
485.99	177.44
486.209	184.44
486.427	168.44
486.645	167.44
486.863	169.44
487.081	165.44
487.299	182.44
487.517	160.44
487.735	173.44
487.953	172.44
488.171	173.44
488.389	171.44
488.607	167.44
488.825	180.44
489.043	161.44
489.261	173.44
489.479	169.44
489.696	164.44
489.914	166.44
490.132	166.44
490.35	165.44
490.568	174.44
490.786	168.44
491.003	173.44
491.221	173.44
491.439	156.44
491.657	169.44
491.874	176.44
492.092	172.44
492.31	176.44
492.527	155.44
492.745	164.44
492.963	181.44
493.18	169.44
493.398	181.44
493.615	186.44
493.833	166.44
494.05	173.44
494.268	156.44
494.485	183.44
494.703	178.44
494.92	156.44
495.138	151.44
495.355	184.44
495.573	183.44
495.79	181.44
496.008	182.44
496.225	170.44
496.442	172.44
496.66	181.44
496.877	192.44
497.094	188.44
497.312	188.44
497.529	198.44
497.746	199.44
497.963	202.44
498.181	197.44
498.398	202.44
498.615	219.44
498.832	224.44
499.049	231.44
499.267	250.44
499.484	269.44
499.701	283.44
499.918	325.44
500.135	338.44
500.352	385.44
500.569	391.44
500.786	381.44
501.003	373.44
501.22	302.44
501.437	275.44
501.654	275.44
501.871	245.44
502.088	237.44
502.305	233.44
502.522	232.44
502.739	197.44
502.956	192.44
503.172	204.44
503.389	170.44
503.606	189.44
503.823	170.44
504.04	198.44
504.256	201.44
504.473	192.44
504.69	207.44
504.907	201.44
