Data from SampG_HRD10591_00064.txt Node
Date: Mon Jan 19 11:54:05 EST 2026
User: Yrep
Spectrometer: HR+D1059
Trigger mode: 0
Integration Time (sec): 3.443000E-1
Scans to average: 1
Electric dark correction enabled: true
Nonlinearity correction enabled: false
Boxcar width: 0
XAxis mode: Wavelengths
Number of Pixels in Spectrum: 2048
>>>>>Begin Spectral Data<<<<<
223.165	-18.81
223.4	-18.81
223.635	-18.81
223.869	-22.81
224.104	-14.81
224.338	-19.81
224.573	-15.81
224.808	0.19
225.042	0.19
225.277	-14.81
225.511	-6.81
225.746	-1.81
225.98	8.19
226.215	11.19
226.449	23.19
226.683	12.19
226.918	40.19
227.152	20.19
227.387	43.19
227.621	43.19
227.856	34.19
228.09	33.19
228.324	56.19
228.559	54.19
228.793	60.19
229.027	69.19
229.262	65.19
229.496	67.19
229.73	73.19
229.964	71.19
230.199	87.19
230.433	71.19
230.667	70.19
230.901	66.19
231.136	82.19
231.37	85.19
231.604	85.19
231.838	84.19
232.072	75.19
232.306	94.19
232.541	81.19
232.775	72.19
233.009	91.19
233.243	82.19
233.477	91.19
233.711	84.19
233.945	87.19
234.179	69.19
234.413	77.19
234.647	100.19
234.881	81.19
235.115	83.19
235.349	69.19
235.583	80.19
235.817	75.19
236.051	75.19
236.285	62.19
236.519	68.19
236.753	63.19
236.987	69.19
237.221	59.19
237.455	85.19
237.689	88.19
237.922	83.19
238.156	86.19
238.39	79.19
238.624	92.19
238.858	85.19
239.091	71.19
239.325	72.19
239.559	79.19
239.793	91.19
240.027	90.19
240.26	85.19
240.494	89.19
240.728	66.19
240.961	83.19
241.195	73.19
241.429	88.19
241.662	82.19
241.896	84.19
242.13	84.19
242.363	72.19
242.597	80.19
242.83	89.19
243.064	76.19
243.298	75.19
243.531	84.19
243.765	81.19
243.998	87.19
244.232	95.19
244.465	88.19
244.699	81.19
244.932	80.19
245.166	84.19
245.399	84.19
245.633	82.19
245.866	79.19
246.099	75.19
246.333	97.19
246.566	74.19
246.8	79.19
247.033	71.19
247.266	80.19
247.5	87.19
247.733	94.19
247.966	70.19
248.2	86.19
248.433	86.19
248.666	76.19
248.899	84.19
249.133	77.19
249.366	101.19
249.599	75.19
249.832	75.19
250.066	100.19
250.299	83.19
250.532	82.19
250.765	77.19
250.998	79.19
251.231	90.19
251.465	95.19
251.698	88.19
251.931	95.19
252.164	74.19
252.397	71.19
252.63	74.19
252.863	74.19
253.096	86.19
253.329	86.19
253.562	88.19
253.795	82.19
254.028	86.19
254.261	98.19
254.494	74.19
254.727	82.19
254.96	100.19
255.193	73.19
255.426	60.19
255.659	91.19
255.892	95.19
256.124	88.19
256.357	76.19
256.59	108.19
256.823	91.19
257.056	77.19
257.289	82.19
257.521	94.19
257.754	87.19
257.987	88.19
258.22	95.19
258.452	92.19
258.685	91.19
258.918	75.19
259.151	85.19
259.383	93.19
259.616	80.19
259.849	93.19
260.081	99.19
260.314	84.19
260.547	99.19
260.779	88.19
261.012	84.19
261.244	92.19
261.477	97.19
261.71	75.19
261.942	76.19
262.175	87.19
262.407	95.19
262.64	87.19
262.872	88.19
263.105	90.19
263.337	99.19
263.57	89.19
263.802	93.19
264.035	81.19
264.267	82.19
264.499	95.19
264.732	93.19
264.964	92.19
265.197	89.19
265.429	97.19
265.661	100.19
265.894	99.19
266.126	84.19
266.358	81.19
266.591	84.19
266.823	91.19
267.055	87.19
267.287	99.19
267.52	79.19
267.752	95.19
267.984	85.19
268.216	89.19
268.448	103.19
268.681	97.19
268.913	104.19
269.145	97.19
269.377	92.19
269.609	74.19
269.841	90.19
270.073	85.19
270.306	90.19
270.538	84.19
270.77	69.19
271.002	85.19
271.234	90.19
271.466	82.19
271.698	97.19
271.93	96.19
272.162	96.19
272.394	92.19
272.626	92.19
272.858	98.19
273.09	95.19
273.322	101.19
273.553	96.19
273.785	99.19
274.017	90.19
274.249	91.19
274.481	76.19
274.713	85.19
274.945	98.19
275.176	105.19
275.408	103.19
275.64	94.19
275.872	96.19
276.104	91.19
276.335	98.19
276.567	88.19
276.799	99.19
277.031	77.19
277.262	95.19
277.494	100.19
277.726	89.19
277.957	79.19
278.189	94.19
278.421	75.19
278.652	92.19
278.884	97.19
279.115	99.19
279.347	105.19
279.579	87.19
279.81	91.19
280.042	93.19
280.273	104.19
280.505	83.19
280.736	84.19
280.968	90.19
281.199	100.19
281.431	111.19
281.662	98.19
281.894	80.19
282.125	103.19
282.356	106.19
282.588	88.19
282.819	95.19
283.051	97.19
283.282	83.19
283.513	93.19
283.745	89.19
283.976	102.19
284.207	109.19
284.439	94.19
284.67	93.19
284.901	105.19
285.132	82.19
285.364	103.19
285.595	99.19
285.826	97.19
286.057	97.19
286.288	83.19
286.52	107.19
286.751	91.19
286.982	103.19
287.213	97.19
287.444	96.19
287.675	93.19
287.906	99.19
288.138	109.19
288.369	103.19
288.6	96.19
288.831	106.19
289.062	107.19
289.293	89.19
289.524	94.19
289.755	113.19
289.986	91.19
290.217	100.19
290.448	85.19
290.679	95.19
290.91	113.19
291.141	101.19
291.371	116.19
291.602	100.19
291.833	104.19
292.064	103.19
292.295	94.19
292.526	95.19
292.757	93.19
292.987	90.19
293.218	108.19
293.449	100.19
293.68	103.19
293.91	105.19
294.141	108.19
294.372	106.19
294.603	114.19
294.833	93.19
295.064	105.19
295.295	94.19
295.525	83.19
295.756	101.19
295.987	98.19
296.217	98.19
296.448	99.19
296.679	90.19
296.909	115.19
297.14	111.19
297.37	112.19
297.601	97.19
297.831	92.19
298.062	105.19
298.292	114.19
298.523	105.19
298.753	103.19
298.984	108.19
299.214	93.19
299.445	100.19
299.675	115.19
299.905	93.19
300.136	101.19
300.366	99.19
300.597	94.19
300.827	99.19
301.057	107.19
301.288	103.19
301.518	104.19
301.748	86.19
301.979	147.19
302.209	105.19
302.439	108.19
302.669	89.19
302.9	91.19
303.13	114.19
303.36	110.19
303.59	107.19
303.82	114.19
304.051	119.19
304.281	97.19
304.511	115.19
304.741	93.19
304.971	87.19
305.201	92.19
305.431	92.19
305.661	93.19
305.891	107.19
306.121	107.19
306.352	97.19
306.582	92.19
306.812	103.19
307.042	96.19
307.272	98.19
307.502	100.19
307.731	98.19
307.961	101.19
308.191	99.19
308.421	100.19
308.651	106.19
308.881	92.19
309.111	90.19
309.341	98.19
309.571	101.19
309.8	108.19
310.03	95.19
310.26	98.19
310.49	97.19
310.72	104.19
310.949	92.19
311.179	113.19
311.409	82.19
311.639	113.19
311.868	109.19
312.098	113.19
312.328	111.19
312.557	120.19
312.787	106.19
313.017	108.19
313.246	98.19
313.476	95.19
313.706	107.19
313.935	100.19
314.165	115.19
314.394	93.19
314.624	115.19
314.853	98.19
315.083	107.19
315.312	115.19
315.542	105.19
315.771	100.19
316.001	101.19
316.23	104.19
316.46	95.19
316.689	110.19
316.919	91.19
317.148	112.19
317.377	110.19
317.607	96.19
317.836	112.19
318.065	105.19
318.295	98.19
318.524	91.19
318.753	96.19
318.983	96.19
319.212	108.19
319.441	112.19
319.67	103.19
319.9	96.19
320.129	91.19
320.358	104.19
320.587	113.19
320.816	102.19
321.046	105.19
321.275	123.19
321.504	97.19
321.733	91.19
321.962	103.19
322.191	109.19
322.42	104.19
322.649	106.19
322.878	112.19
323.108	91.19
323.337	114.19
323.566	120.19
323.795	103.19
324.024	110.19
324.253	104.19
324.482	108.19
324.71	115.19
324.939	123.19
325.168	107.19
325.397	88.19
325.626	97.19
325.855	92.19
326.084	108.19
326.313	109.19
326.542	106.19
326.77	106.19
326.999	96.19
327.228	97.19
327.457	104.19
327.686	103.19
327.914	106.19
328.143	106.19
328.372	112.19
328.6	99.19
328.829	110.19
329.058	103.19
329.287	107.19
329.515	109.19
329.744	118.19
329.972	118.19
330.201	110.19
330.43	99.19
330.658	114.19
330.887	107.19
331.115	106.19
331.344	113.19
331.572	119.19
331.801	93.19
332.03	117.19
332.258	117.19
332.486	112.19
332.715	104.19
332.943	113.19
333.172	126.19
333.4	113.19
333.629	111.19
333.857	125.19
334.085	127.19
334.314	115.19
334.542	116.19
334.771	114.19
334.999	107.19
335.227	121.19
335.455	115.19
335.684	128.19
335.912	125.19
336.14	118.19
336.369	97.19
336.597	116.19
336.825	103.19
337.053	105.19
337.281	113.19
337.51	110.19
337.738	125.19
337.966	97.19
338.194	118.19
338.422	106.19
338.65	114.19
338.878	125.19
339.106	92.19
339.334	102.19
339.562	117.19
339.79	121.19
340.018	98.19
340.246	103.19
340.474	112.19
340.702	113.19
340.93	101.19
341.158	102.19
341.386	115.19
341.614	93.19
341.842	105.19
342.07	113.19
342.298	105.19
342.526	120.19
342.754	108.19
342.981	95.19
343.209	97.19
343.437	154.19
343.665	115.19
343.893	113.19
344.12	119.19
344.348	121.19
344.576	109.19
344.804	115.19
345.031	103.19
345.259	121.19
345.487	104.19
345.714	95.19
345.942	100.19
346.17	105.19
346.397	122.19
346.625	92.19
346.853	105.19
347.08	76.19
347.308	91.19
347.535	93.19
347.763	107.19
347.99	95.19
348.218	115.19
348.445	107.19
348.673	106.19
348.9	99.19
349.128	107.19
349.355	92.19
349.583	105.19
349.81	106.19
350.037	113.19
350.265	111.19
350.492	107.19
350.72	113.19
350.947	108.19
351.174	112.19
351.402	87.19
351.629	100.19
351.856	90.19
352.083	101.19
352.311	106.19
352.538	103.19
352.765	111.19
352.992	122.19
353.22	106.19
353.447	99.19
353.674	113.19
353.901	120.19
354.128	107.19
354.355	101.19
354.583	108.19
354.81	119.19
355.037	115.19
355.264	120.19
355.491	99.19
355.718	103.19
355.945	107.19
356.172	98.19
356.399	104.19
356.626	108.19
356.853	104.19
357.08	102.19
357.307	96.19
357.534	94.19
357.761	121.19
357.988	117.19
358.215	105.19
358.441	105.19
358.668	103.19
358.895	105.19
359.122	112.19
359.349	104.19
359.576	89.19
359.802	82.19
360.029	92.19
360.256	102.19
360.483	98.19
360.709	111.19
360.936	120.19
361.163	102.19
361.39	99.19
361.616	107.19
361.843	120.19
362.07	118.19
362.296	119.19
362.523	108.19
362.749	111.19
362.976	109.19
363.203	127.19
363.429	88.19
363.656	113.19
363.882	81.19
364.109	104.19
364.335	124.19
364.562	119.19
364.788	105.19
365.015	90.19
365.241	99.19
365.468	109.19
365.694	101.19
365.92	96.19
366.147	103.19
366.373	102.19
366.599	98.19
366.826	98.19
367.052	107.19
367.278	99.19
367.505	112.19
367.731	126.19
367.957	110.19
368.184	104.19
368.41	103.19
368.636	122.19
368.862	105.19
369.089	100.19
369.315	99.19
369.541	109.19
369.767	99.19
369.993	109.19
370.219	112.19
370.445	112.19
370.672	105.19
370.898	113.19
371.124	102.19
371.35	104.19
371.576	118.19
371.802	85.19
372.028	119.19
372.254	113.19
372.48	116.19
372.706	105.19
372.932	118.19
373.158	111.19
373.384	128.19
373.61	122.19
373.835	113.19
374.061	103.19
374.287	100.19
374.513	104.19
374.739	103.19
374.965	121.19
375.191	104.19
375.416	86.19
375.642	97.19
375.868	113.19
376.094	103.19
376.319	108.19
376.545	120.19
376.771	110.19
376.997	101.19
377.222	114.19
377.448	107.19
377.674	107.19
377.899	98.19
378.125	81.19
378.35	126.19
378.576	97.19
378.802	106.19
379.027	105.19
379.253	109.19
379.478	102.19
379.704	117.19
379.929	119.19
380.155	91.19
380.38	117.19
380.606	99.19
380.831	114.19
381.057	124.19
381.282	109.19
381.507	107.19
381.733	120.19
381.958	107.19
382.184	98.19
382.409	114.19
382.634	131.19
382.86	100.19
383.085	125.19
383.31	116.19
383.535	123.19
383.761	125.19
383.986	110.19
384.211	107.19
384.436	119.19
384.662	118.19
384.887	112.19
385.112	123.19
385.337	109.19
385.562	115.19
385.787	108.19
386.013	108.19
386.238	93.19
386.463	116.19
386.688	138.19
386.913	116.19
387.138	104.19
387.363	104.19
387.588	121.19
387.813	124.19
388.038	103.19
388.263	113.19
388.488	113.19
388.713	111.19
388.938	106.19
389.163	104.19
389.387	110.19
389.612	107.19
389.837	112.19
390.062	119.19
390.287	115.19
390.512	113.19
390.736	130.19
390.961	110.19
391.186	95.19
391.411	108.19
391.636	115.19
391.86	112.19
392.085	115.19
392.31	129.19
392.534	113.19
392.759	127.19
392.984	122.19
393.208	105.19
393.433	127.19
393.658	104.19
393.882	131.19
394.107	116.19
394.331	106.19
394.556	112.19
394.78	129.19
395.005	108.19
395.229	113.19
395.454	117.19
395.678	118.19
395.903	119.19
396.127	124.19
396.352	132.19
396.576	128.19
396.801	120.19
397.025	105.19
397.249	118.19
397.474	114.19
397.698	109.19
397.922	111.19
398.147	119.19
398.371	106.19
398.595	114.19
398.82	119.19
399.044	111.19
399.268	138.19
399.492	146.19
399.717	160.19
399.941	148.19
400.165	141.19
400.389	125.19
400.613	121.19
400.837	122.19
401.062	123.19
401.286	115.19
401.51	108.19
401.734	117.19
401.958	122.19
402.182	131.19
402.406	127.19
402.63	114.19
402.854	136.19
403.078	135.19
403.302	127.19
403.526	127.19
403.75	136.19
403.974	135.19
404.198	138.19
404.422	129.19
404.645	137.19
404.869	130.19
405.093	131.19
405.317	136.19
405.541	123.19
405.765	138.19
405.988	136.19
406.212	123.19
406.436	122.19
406.66	142.19
406.883	136.19
407.107	141.19
407.331	134.19
407.555	148.19
407.778	127.19
408.002	138.19
408.226	136.19
408.449	146.19
408.673	128.19
408.896	159.19
409.12	129.19
409.344	122.19
409.567	129.19
409.791	119.19
410.014	127.19
410.238	118.19
410.461	128.19
410.685	123.19
410.908	139.19
411.132	130.19
411.355	122.19
411.578	128.19
411.802	131.19
412.025	116.19
412.249	115.19
412.472	130.19
412.695	133.19
412.919	121.19
413.142	119.19
413.365	113.19
413.589	119.19
413.812	121.19
414.035	137.19
414.258	133.19
414.482	116.19
414.705	130.19
414.928	132.19
415.151	118.19
415.374	123.19
415.597	122.19
415.821	124.19
416.044	130.19
416.267	126.19
416.49	127.19
416.713	122.19
416.936	116.19
417.159	121.19
417.382	136.19
417.605	124.19
417.828	124.19
418.051	121.19
418.274	146.19
418.497	134.19
418.72	133.19
418.943	123.19
419.166	124.19
419.389	124.19
419.611	136.19
419.834	136.19
420.057	124.19
420.28	138.19
420.503	127.19
420.726	124.19
420.948	115.19
421.171	109.19
421.394	120.19
421.617	127.19
421.839	112.19
422.062	131.19
422.285	132.19
422.507	134.19
422.73	115.19
422.953	132.19
423.175	138.19
423.398	125.19
423.621	119.19
423.843	123.19
424.066	116.19
424.288	131.19
424.511	123.19
424.733	141.19
424.956	134.19
425.178	122.19
425.401	111.19
425.623	107.19
425.846	126.19
426.068	107.19
426.291	106.19
426.513	127.19
426.735	124.19
426.958	113.19
427.18	127.19
427.402	121.19
427.625	112.19
427.847	107.19
428.069	119.19
428.292	115.19
428.514	116.19
428.736	100.19
428.958	107.19
429.181	127.19
429.403	123.19
429.625	110.19
429.847	108.19
430.069	118.19
430.292	133.19
430.514	121.19
430.736	116.19
430.958	121.19
431.18	105.19
431.402	98.19
431.624	118.19
431.846	112.19
432.068	107.19
432.29	124.19
432.512	104.19
432.734	128.19
432.956	123.19
433.178	124.19
433.4	111.19
433.622	128.19
433.844	130.19
434.066	133.19
434.287	108.19
434.509	127.19
434.731	125.19
434.953	146.19
435.175	127.19
435.397	129.19
435.618	136.19
435.84	118.19
436.062	128.19
436.284	91.19
436.505	115.19
436.727	117.19
436.949	127.19
437.17	117.19
437.392	107.19
437.614	123.19
437.835	116.19
438.057	118.19
438.278	109.19
438.5	107.19
438.721	118.19
438.943	128.19
439.165	134.19
439.386	117.19
439.608	132.19
439.829	109.19
440.05	124.19
440.272	134.19
440.493	120.19
440.715	117.19
440.936	117.19
441.158	142.19
441.379	118.19
441.6	128.19
441.822	122.19
442.043	121.19
442.264	117.19
442.486	114.19
442.707	116.19
442.928	130.19
443.149	128.19
443.371	123.19
443.592	117.19
443.813	124.19
444.034	126.19
444.255	136.19
444.476	127.19
444.698	138.19
444.919	144.19
445.14	337.19
445.361	226.19
445.582	133.19
445.803	109.19
446.024	113.19
446.245	111.19
446.466	121.19
446.687	121.19
446.908	116.19
447.129	116.19
447.35	114.19
447.571	127.19
447.792	97.19
448.013	105.19
448.234	120.19
448.455	110.19
448.675	100.19
448.896	112.19
449.117	114.19
449.338	112.19
449.559	131.19
449.779	114.19
450	121.19
450.221	114.19
450.442	123.19
450.662	106.19
450.883	114.19
451.104	120.19
451.324	111.19
451.545	99.19
451.766	103.19
451.986	108.19
452.207	120.19
452.428	122.19
452.648	113.19
452.869	110.19
453.089	102.19
453.31	114.19
453.53	105.19
453.751	104.19
453.971	106.19
454.192	113.19
454.412	116.19
454.633	109.19
454.853	121.19
455.073	109.19
455.294	109.19
455.514	121.19
455.734	99.19
455.955	113.19
456.175	127.19
456.395	119.19
456.616	122.19
456.836	123.19
457.056	104.19
457.276	110.19
457.497	109.19
457.717	108.19
457.937	116.19
458.157	114.19
458.377	118.19
458.598	109.19
458.818	115.19
459.038	115.19
459.258	112.19
459.478	113.19
459.698	123.19
459.918	132.19
460.138	112.19
460.358	131.19
460.578	124.19
460.798	133.19
461.018	140.19
461.238	127.19
461.458	131.19
461.678	113.19
461.898	136.19
462.118	139.19
462.338	132.19
462.558	140.19
462.777	140.19
462.997	144.19
463.217	138.19
463.437	140.19
463.657	130.19
463.876	138.19
464.096	139.19
464.316	122.19
464.536	145.19
464.755	132.19
464.975	117.19
465.195	122.19
465.414	132.19
465.634	116.19
465.854	115.19
466.073	124.19
466.293	123.19
466.512	116.19
466.732	115.19
466.951	122.19
467.171	109.19
467.391	108.19
467.61	122.19
467.829	111.19
468.049	121.19
468.268	112.19
468.488	116.19
468.707	113.19
468.927	108.19
469.146	128.19
469.365	111.19
469.585	112.19
469.804	115.19
470.023	103.19
470.243	115.19
470.462	115.19
470.681	117.19
470.901	119.19
471.12	120.19
471.339	110.19
471.558	117.19
471.777	123.19
471.997	114.19
472.216	131.19
472.435	110.19
472.654	125.19
472.873	111.19
473.092	117.19
473.311	119.19
473.53	132.19
473.749	123.19
473.968	119.19
474.187	100.19
474.406	119.19
474.625	94.19
474.844	102.19
475.063	109.19
475.282	106.19
475.501	119.19
475.72	135.19
475.939	124.19
476.158	119.19
476.377	116.19
476.596	113.19
476.814	118.19
477.033	122.19
477.252	126.19
477.471	121.19
477.69	119.19
477.908	110.19
478.127	138.19
478.346	115.19
478.564	123.19
478.783	128.19
479.002	129.19
479.22	128.19
479.439	120.19
479.658	140.19
479.876	127.19
480.095	120.19
480.313	124.19
480.532	139.19
480.751	139.19
480.969	134.19
481.188	133.19
481.406	152.19
481.624	142.19
481.843	120.19
482.061	130.19
482.28	127.19
482.498	115.19
482.717	113.19
482.935	128.19
483.153	122.19
483.372	121.19
483.59	122.19
483.808	111.19
484.027	132.19
484.245	118.19
484.463	124.19
484.681	133.19
484.9	128.19
485.118	133.19
485.336	128.19
485.554	122.19
485.772	133.19
485.99	111.19
486.209	114.19
486.427	124.19
486.645	112.19
486.863	121.19
487.081	120.19
487.299	134.19
487.517	119.19
487.735	125.19
487.953	127.19
488.171	119.19
488.389	128.19
488.607	119.19
488.825	133.19
489.043	122.19
489.261	121.19
489.479	122.19
489.696	140.19
489.914	124.19
490.132	134.19
490.35	118.19
490.568	115.19
490.786	127.19
491.003	129.19
491.221	121.19
491.439	127.19
491.657	137.19
491.874	112.19
492.092	122.19
492.31	112.19
492.527	140.19
492.745	122.19
492.963	131.19
493.18	126.19
493.398	131.19
493.615	117.19
493.833	118.19
494.05	113.19
494.268	109.19
494.485	112.19
494.703	135.19
494.92	127.19
495.138	123.19
495.355	122.19
495.573	129.19
495.79	127.19
496.008	126.19
496.225	128.19
496.442	120.19
496.66	137.19
496.877	129.19
497.094	148.19
497.312	139.19
497.529	139.19
497.746	133.19
497.963	125.19
498.181	128.19
498.398	145.19
498.615	162.19
498.832	161.19
499.049	160.19
499.267	156.19
499.484	174.19
499.701	201.19
499.918	203.19
500.135	219.19
500.352	224.19
500.569	227.19
500.786	233.19
501.003	216.19
501.22	188.19
501.437	189.19
501.654	165.19
501.871	175.19
502.088	143.19
502.305	164.19
502.522	142.19
502.739	144.19
502.956	149.19
503.172	128.19
503.389	140.19
503.606	130.19
503.823	137.19
504.04	145.19
504.256	146.19
504.473	136.19
504.69	136.19
504.907	144.19
505.123	119.19
505.34	133.19
505.557	136.19
505.773	124.19
505.99	130.19
506.207	124.19
506.423	129.19
506.64	120.19
506.856	127.19
507.073	130.19
507.289	116.19
507.506	134.19
