Data from SampG_HRD10591_00069.txt Node
Date: Mon Jan 19 11:54:07 EST 2026
User: Yrep
Spectrometer: HR+D1059
Trigger mode: 0
Integration Time (sec): 3.443000E-1
Scans to average: 1
Electric dark correction enabled: true
Nonlinearity correction enabled: false
Boxcar width: 0
XAxis mode: Wavelengths
Number of Pixels in Spectrum: 2048
>>>>>Begin Spectral Data<<<<<
223.165	-14.88
223.4	-14.88
223.635	-14.88
223.869	-30.88
224.104	-23.88
224.338	-10.88
224.573	-0.88
224.808	-9.88
225.042	-4.88
225.277	7.12
225.511	-17.88
225.746	-5.88
225.98	21.12
226.215	4.12
226.449	26.12
226.683	21.12
226.918	24.12
227.152	16.12
227.387	39.12
227.621	37.12
227.856	52.12
228.09	37.12
228.324	52.12
228.559	61.12
228.793	74.12
229.027	62.12
229.262	66.12
229.496	71.12
229.73	80.12
229.964	78.12
230.199	63.12
230.433	70.12
230.667	88.12
230.901	67.12
231.136	91.12
231.37	71.12
231.604	76.12
231.838	67.12
232.072	73.12
232.306	84.12
232.541	84.12
232.775	84.12
233.009	84.12
233.243	78.12
233.477	89.12
233.711	97.12
233.945	105.12
234.179	86.12
234.413	80.12
234.647	78.12
234.881	92.12
235.115	88.12
235.349	78.12
235.583	89.12
235.817	78.12
236.051	76.12
236.285	84.12
236.519	82.12
236.753	83.12
236.987	77.12
237.221	83.12
237.455	89.12
237.689	95.12
237.922	85.12
238.156	83.12
238.39	75.12
238.624	70.12
238.858	83.12
239.091	77.12
239.325	80.12
239.559	100.12
239.793	72.12
240.027	98.12
240.26	83.12
240.494	80.12
240.728	89.12
240.961	85.12
241.195	81.12
241.429	98.12
241.662	94.12
241.896	83.12
242.13	75.12
242.363	81.12
242.597	70.12
242.83	81.12
243.064	84.12
243.298	76.12
243.531	98.12
243.765	92.12
243.998	83.12
244.232	82.12
244.465	97.12
244.699	81.12
244.932	87.12
245.166	87.12
245.399	84.12
245.633	86.12
245.866	86.12
246.099	104.12
246.333	75.12
246.566	87.12
246.8	88.12
247.033	87.12
247.266	84.12
247.5	83.12
247.733	82.12
247.966	95.12
248.2	93.12
248.433	93.12
248.666	92.12
248.899	92.12
249.133	90.12
249.366	103.12
249.599	82.12
249.832	94.12
250.066	108.12
250.299	90.12
250.532	88.12
250.765	97.12
250.998	89.12
251.231	89.12
251.465	107.12
251.698	92.12
251.931	91.12
252.164	93.12
252.397	85.12
252.63	87.12
252.863	77.12
253.096	88.12
253.329	90.12
253.562	110.12
253.795	91.12
254.028	87.12
254.261	95.12
254.494	85.12
254.727	102.12
254.96	95.12
255.193	97.12
255.426	96.12
255.659	99.12
255.892	101.12
256.124	93.12
256.357	94.12
256.59	95.12
256.823	81.12
257.056	90.12
257.289	100.12
257.521	80.12
257.754	91.12
257.987	92.12
258.22	92.12
258.452	96.12
258.685	106.12
258.918	105.12
259.151	123.12
259.383	98.12
259.616	92.12
259.849	101.12
260.081	90.12
260.314	98.12
260.547	97.12
260.779	86.12
261.012	87.12
261.244	87.12
261.477	107.12
261.71	93.12
261.942	100.12
262.175	96.12
262.407	83.12
262.64	97.12
262.872	107.12
263.105	102.12
263.337	109.12
263.57	98.12
263.802	89.12
264.035	93.12
264.267	106.12
264.499	114.12
264.732	109.12
264.964	114.12
265.197	88.12
265.429	103.12
265.661	103.12
265.894	89.12
266.126	93.12
266.358	93.12
266.591	106.12
266.823	110.12
267.055	98.12
267.287	86.12
267.52	100.12
267.752	99.12
267.984	102.12
268.216	96.12
268.448	118.12
268.681	111.12
268.913	96.12
269.145	89.12
269.377	103.12
269.609	108.12
269.841	106.12
270.073	84.12
270.306	103.12
270.538	112.12
270.77	91.12
271.002	94.12
271.234	104.12
271.466	116.12
271.698	109.12
271.93	106.12
272.162	111.12
272.394	101.12
272.626	98.12
272.858	112.12
273.09	106.12
273.322	92.12
273.553	102.12
273.785	104.12
274.017	86.12
274.249	117.12
274.481	108.12
274.713	108.12
274.945	98.12
275.176	92.12
275.408	109.12
275.64	111.12
275.872	108.12
276.104	121.12
276.335	113.12
276.567	121.12
276.799	112.12
277.031	98.12
277.262	101.12
277.494	113.12
277.726	109.12
277.957	84.12
278.189	108.12
278.421	92.12
278.652	100.12
278.884	109.12
279.115	102.12
279.347	104.12
279.579	101.12
279.81	104.12
280.042	115.12
280.273	113.12
280.505	106.12
280.736	99.12
280.968	114.12
281.199	118.12
281.431	106.12
281.662	109.12
281.894	117.12
282.125	103.12
282.356	110.12
282.588	113.12
282.819	123.12
283.051	114.12
283.282	117.12
283.513	116.12
283.745	104.12
283.976	96.12
284.207	123.12
284.439	117.12
284.67	108.12
284.901	107.12
285.132	117.12
285.364	114.12
285.595	110.12
285.826	115.12
286.057	108.12
286.288	105.12
286.52	122.12
286.751	108.12
286.982	109.12
287.213	121.12
287.444	123.12
287.675	121.12
287.906	121.12
288.138	109.12
288.369	126.12
288.6	125.12
288.831	122.12
289.062	129.12
289.293	109.12
289.524	126.12
289.755	108.12
289.986	109.12
290.217	112.12
290.448	113.12
290.679	112.12
290.91	120.12
291.141	117.12
291.371	107.12
291.602	115.12
291.833	121.12
292.064	121.12
292.295	124.12
292.526	122.12
292.757	118.12
292.987	96.12
293.218	105.12
293.449	113.12
293.68	144.12
293.91	104.12
294.141	123.12
294.372	112.12
294.603	104.12
294.833	129.12
295.064	130.12
295.295	111.12
295.525	114.12
295.756	114.12
295.987	116.12
296.217	117.12
296.448	124.12
296.679	107.12
296.909	119.12
297.14	129.12
297.37	130.12
297.601	107.12
297.831	104.12
298.062	140.12
298.292	120.12
298.523	125.12
298.753	121.12
298.984	115.12
299.214	129.12
299.445	122.12
299.675	117.12
299.905	121.12
300.136	115.12
300.366	107.12
300.597	143.12
300.827	103.12
301.057	126.12
301.288	129.12
301.518	132.12
301.748	148.12
301.979	152.12
302.209	133.12
302.439	103.12
302.669	123.12
302.9	131.12
303.13	118.12
303.36	121.12
303.59	127.12
303.82	122.12
304.051	124.12
304.281	120.12
304.511	119.12
304.741	108.12
304.971	119.12
305.201	130.12
305.431	127.12
305.661	115.12
305.891	124.12
306.121	115.12
306.352	118.12
306.582	116.12
306.812	130.12
307.042	110.12
307.272	115.12
307.502	116.12
307.731	127.12
307.961	119.12
308.191	135.12
308.421	128.12
308.651	125.12
308.881	126.12
309.111	124.12
309.341	124.12
309.571	123.12
309.8	122.12
310.03	116.12
310.26	100.12
310.49	124.12
310.72	125.12
310.949	120.12
311.179	111.12
311.409	120.12
311.639	121.12
311.868	119.12
312.098	129.12
312.328	135.12
312.557	120.12
312.787	126.12
313.017	139.12
313.246	136.12
313.476	132.12
313.706	139.12
313.935	129.12
314.165	129.12
314.394	115.12
314.624	125.12
314.853	123.12
315.083	125.12
315.312	129.12
315.542	126.12
315.771	127.12
316.001	132.12
316.23	130.12
316.46	132.12
316.689	111.12
316.919	125.12
317.148	120.12
317.377	127.12
317.607	124.12
317.836	116.12
318.065	117.12
318.295	120.12
318.524	127.12
318.753	120.12
318.983	124.12
319.212	139.12
319.441	113.12
319.67	131.12
319.9	121.12
320.129	116.12
320.358	122.12
320.587	142.12
320.816	124.12
321.046	117.12
321.275	132.12
321.504	128.12
321.733	134.12
321.962	131.12
322.191	128.12
322.42	110.12
322.649	123.12
322.878	115.12
323.108	120.12
323.337	136.12
323.566	133.12
323.795	126.12
324.024	145.12
324.253	133.12
324.482	133.12
324.71	133.12
324.939	140.12
325.168	135.12
325.397	133.12
325.626	128.12
325.855	120.12
326.084	128.12
326.313	138.12
326.542	133.12
326.77	128.12
326.999	122.12
327.228	146.12
327.457	138.12
327.686	131.12
327.914	126.12
328.143	137.12
328.372	136.12
328.6	135.12
328.829	129.12
329.058	137.12
329.287	134.12
329.515	127.12
329.744	122.12
329.972	139.12
330.201	117.12
330.43	145.12
330.658	138.12
330.887	135.12
331.115	128.12
331.344	141.12
331.572	133.12
331.801	131.12
332.03	148.12
332.258	132.12
332.486	139.12
332.715	141.12
332.943	144.12
333.172	161.12
333.4	147.12
333.629	165.12
333.857	150.12
334.085	162.12
334.314	138.12
334.542	143.12
334.771	132.12
334.999	147.12
335.227	155.12
335.455	133.12
335.684	136.12
335.912	131.12
336.14	143.12
336.369	143.12
336.597	149.12
336.825	145.12
337.053	131.12
337.281	147.12
337.51	128.12
337.738	153.12
337.966	123.12
338.194	135.12
338.422	145.12
338.65	155.12
338.878	130.12
339.106	143.12
339.334	139.12
339.562	126.12
339.79	130.12
340.018	136.12
340.246	119.12
340.474	131.12
340.702	133.12
340.93	140.12
341.158	134.12
341.386	140.12
341.614	132.12
341.842	127.12
342.07	135.12
342.298	139.12
342.526	134.12
342.754	151.12
342.981	119.12
343.209	139.12
343.437	173.12
343.665	151.12
343.893	132.12
344.12	163.12
344.348	139.12
344.576	153.12
344.804	132.12
345.031	139.12
345.259	137.12
345.487	130.12
345.714	118.12
345.942	132.12
346.17	128.12
346.397	137.12
346.625	121.12
346.853	116.12
347.08	119.12
347.308	147.12
347.535	134.12
347.763	131.12
347.99	133.12
348.218	155.12
348.445	133.12
348.673	128.12
348.9	121.12
349.128	124.12
349.355	141.12
349.583	135.12
349.81	123.12
350.037	137.12
350.265	140.12
350.492	113.12
350.72	141.12
350.947	138.12
351.174	138.12
351.402	131.12
351.629	111.12
351.856	120.12
352.083	128.12
352.311	137.12
352.538	121.12
352.765	134.12
352.992	138.12
353.22	147.12
353.447	127.12
353.674	136.12
353.901	147.12
354.128	128.12
354.355	125.12
354.583	124.12
354.81	127.12
355.037	141.12
355.264	127.12
355.491	133.12
355.718	130.12
355.945	133.12
356.172	144.12
356.399	129.12
356.626	124.12
356.853	130.12
357.08	120.12
357.307	133.12
357.534	134.12
357.761	140.12
357.988	132.12
358.215	138.12
358.441	150.12
358.668	140.12
358.895	136.12
359.122	127.12
359.349	112.12
359.576	119.12
359.802	127.12
360.029	137.12
360.256	129.12
360.483	118.12
360.709	139.12
360.936	138.12
361.163	124.12
361.39	129.12
361.616	130.12
361.843	127.12
362.07	133.12
362.296	128.12
362.523	135.12
362.749	147.12
362.976	130.12
363.203	141.12
363.429	129.12
363.656	152.12
363.882	130.12
364.109	129.12
364.335	129.12
364.562	126.12
364.788	124.12
365.015	128.12
365.241	133.12
365.468	145.12
365.694	160.12
365.92	130.12
366.147	138.12
366.373	125.12
366.599	125.12
366.826	139.12
367.052	127.12
367.278	118.12
367.505	138.12
367.731	138.12
367.957	122.12
368.184	145.12
368.41	135.12
368.636	138.12
368.862	129.12
369.089	143.12
369.315	119.12
369.541	141.12
369.767	129.12
369.993	138.12
370.219	123.12
370.445	130.12
370.672	135.12
370.898	134.12
371.124	131.12
371.35	147.12
371.576	146.12
371.802	130.12
372.028	134.12
372.254	138.12
372.48	159.12
372.706	128.12
372.932	135.12
373.158	127.12
373.384	139.12
373.61	143.12
373.835	134.12
374.061	131.12
374.287	144.12
374.513	148.12
374.739	146.12
374.965	149.12
375.191	141.12
375.416	147.12
375.642	154.12
375.868	139.12
376.094	132.12
376.319	128.12
376.545	136.12
376.771	144.12
376.997	117.12
377.222	132.12
377.448	154.12
377.674	132.12
377.899	123.12
378.125	137.12
378.35	134.12
378.576	130.12
378.802	134.12
379.027	121.12
379.253	137.12
379.478	144.12
379.704	123.12
379.929	135.12
380.155	121.12
380.38	140.12
380.606	147.12
380.831	140.12
381.057	143.12
381.282	135.12
381.507	145.12
381.733	144.12
381.958	143.12
382.184	131.12
382.409	133.12
382.634	149.12
382.86	137.12
383.085	151.12
383.31	137.12
383.535	152.12
383.761	145.12
383.986	143.12
384.211	111.12
384.436	141.12
384.662	150.12
384.887	148.12
385.112	134.12
385.337	144.12
385.562	154.12
385.787	157.12
386.013	154.12
386.238	159.12
386.463	134.12
386.688	182.12
386.913	154.12
387.138	142.12
387.363	140.12
387.588	151.12
387.813	149.12
388.038	144.12
388.263	149.12
388.488	157.12
388.713	169.12
388.938	145.12
389.163	127.12
389.387	142.12
389.612	146.12
389.837	143.12
390.062	138.12
390.287	166.12
390.512	160.12
390.736	148.12
390.961	149.12
391.186	146.12
391.411	163.12
391.636	153.12
391.86	147.12
392.085	153.12
392.31	153.12
392.534	179.12
392.759	171.12
392.984	137.12
393.208	154.12
393.433	157.12
393.658	159.12
393.882	165.12
394.107	162.12
394.331	156.12
394.556	152.12
394.78	140.12
395.005	160.12
395.229	138.12
395.454	166.12
395.678	160.12
395.903	163.12
396.127	155.12
396.352	149.12
396.576	154.12
396.801	170.12
397.025	168.12
397.249	171.12
397.474	166.12
397.698	158.12
397.922	171.12
398.147	149.12
398.371	161.12
398.595	175.12
398.82	179.12
399.044	179.12
399.268	194.12
399.492	204.12
399.717	228.12
399.941	218.12
400.165	191.12
400.389	189.12
400.613	185.12
400.837	174.12
401.062	178.12
401.286	159.12
401.51	176.12
401.734	164.12
401.958	172.12
402.182	171.12
402.406	175.12
402.63	176.12
402.854	179.12
403.078	168.12
403.302	191.12
403.526	172.12
403.75	177.12
403.974	195.12
404.198	197.12
404.422	179.12
404.645	182.12
404.869	187.12
405.093	166.12
405.317	180.12
405.541	187.12
405.765	193.12
405.988	175.12
406.212	192.12
406.436	192.12
406.66	189.12
406.883	181.12
407.107	190.12
407.331	200.12
407.555	204.12
407.778	212.12
408.002	195.12
408.226	200.12
408.449	161.12
408.673	184.12
408.896	180.12
409.12	182.12
409.344	168.12
409.567	187.12
409.791	167.12
410.014	194.12
410.238	188.12
410.461	185.12
410.685	189.12
410.908	182.12
411.132	163.12
411.355	165.12
411.578	197.12
411.802	171.12
412.025	176.12
412.249	183.12
412.472	168.12
412.695	171.12
412.919	173.12
413.142	171.12
413.365	178.12
413.589	171.12
413.812	172.12
414.035	159.12
414.258	193.12
414.482	173.12
414.705	184.12
414.928	152.12
415.151	169.12
415.374	173.12
415.597	154.12
415.821	173.12
416.044	170.12
416.267	170.12
416.49	170.12
416.713	165.12
416.936	179.12
417.159	180.12
417.382	168.12
417.605	169.12
417.828	175.12
418.051	174.12
418.274	161.12
418.497	165.12
418.72	181.12
418.943	191.12
419.166	182.12
419.389	165.12
419.611	175.12
419.834	173.12
420.057	185.12
420.28	173.12
420.503	161.12
420.726	167.12
420.948	170.12
421.171	171.12
421.394	160.12
421.617	168.12
421.839	152.12
422.062	166.12
422.285	167.12
422.507	154.12
422.73	172.12
422.953	153.12
423.175	191.12
423.398	175.12
423.621	164.12
423.843	175.12
424.066	163.12
424.288	170.12
424.511	182.12
424.733	163.12
424.956	174.12
425.178	194.12
425.401	162.12
425.623	167.12
425.846	172.12
426.068	166.12
426.291	176.12
426.513	170.12
426.735	163.12
426.958	159.12
427.18	152.12
427.402	178.12
427.625	157.12
427.847	161.12
428.069	169.12
428.292	175.12
428.514	150.12
428.736	151.12
428.958	167.12
429.181	173.12
429.403	153.12
429.625	153.12
429.847	159.12
430.069	161.12
430.292	167.12
430.514	148.12
430.736	139.12
430.958	163.12
431.18	146.12
431.402	156.12
431.624	174.12
431.846	141.12
432.068	164.12
432.29	169.12
432.512	164.12
432.734	159.12
432.956	153.12
433.178	179.12
433.4	166.12
433.622	140.12
433.844	163.12
434.066	167.12
434.287	171.12
434.509	151.12
434.731	166.12
434.953	182.12
435.175	182.12
435.397	174.12
435.618	187.12
435.84	145.12
436.062	159.12
436.284	155.12
436.505	168.12
436.727	164.12
436.949	160.12
437.17	139.12
437.392	145.12
437.614	156.12
437.835	168.12
438.057	148.12
438.278	156.12
438.5	147.12
438.721	151.12
438.943	161.12
439.165	157.12
439.386	169.12
439.608	177.12
439.829	152.12
440.05	176.12
440.272	174.12
440.493	167.12
440.715	152.12
440.936	170.12
441.158	171.12
441.379	177.12
441.6	169.12
441.822	190.12
442.043	171.12
442.264	161.12
442.486	182.12
442.707	172.12
442.928	171.12
443.149	174.12
443.371	172.12
443.592	159.12
443.813	171.12
444.034	155.12
444.255	184.12
444.476	189.12
444.698	172.12
444.919	201.12
445.14	394.12
445.361	272.12
445.582	187.12
445.803	171.12
446.024	173.12
446.245	176.12
446.466	149.12
446.687	156.12
446.908	152.12
447.129	162.12
447.35	150.12
447.571	148.12
447.792	153.12
448.013	162.12
448.234	165.12
448.455	140.12
448.675	159.12
448.896	149.12
449.117	146.12
449.338	150.12
449.559	149.12
449.779	145.12
450	153.12
450.221	157.12
450.442	147.12
450.662	141.12
450.883	167.12
451.104	170.12
451.324	162.12
451.545	156.12
451.766	159.12
451.986	159.12
452.207	145.12
452.428	162.12
452.648	163.12
452.869	160.12
453.089	139.12
453.31	134.12
453.53	146.12
453.751	159.12
453.971	148.12
454.192	140.12
454.412	150.12
454.633	148.12
454.853	139.12
455.073	126.12
455.294	144.12
455.514	144.12
455.734	145.12
455.955	147.12
456.175	144.12
456.395	171.12
456.616	143.12
456.836	136.12
457.056	139.12
457.276	147.12
457.497	139.12
457.717	139.12
457.937	149.12
458.157	161.12
458.377	139.12
458.598	122.12
458.818	138.12
459.038	153.12
459.258	171.12
459.478	148.12
459.698	149.12
459.918	161.12
460.138	179.12
460.358	174.12
460.578	178.12
460.798	191.12
461.018	171.12
461.238	184.12
461.458	164.12
461.678	163.12
461.898	178.12
462.118	169.12
462.338	187.12
462.558	193.12
462.777	195.12
462.997	187.12
463.217	214.12
463.437	228.12
463.657	197.12
463.876	191.12
464.096	197.12
464.316	198.12
464.536	186.12
464.755	188.12
464.975	175.12
465.195	183.12
465.414	164.12
465.634	167.12
465.854	163.12
466.073	163.12
466.293	147.12
466.512	150.12
466.732	139.12
466.951	170.12
467.171	152.12
467.391	137.12
467.61	148.12
467.829	161.12
468.049	143.12
468.268	134.12
468.488	150.12
468.707	154.12
468.927	150.12
469.146	158.12
469.365	151.12
469.585	149.12
469.804	163.12
470.023	157.12
470.243	164.12
470.462	166.12
470.681	170.12
470.901	159.12
471.12	133.12
471.339	149.12
471.558	168.12
471.777	157.12
471.997	151.12
472.216	160.12
472.435	145.12
472.654	136.12
472.873	167.12
473.092	159.12
473.311	138.12
473.53	142.12
473.749	133.12
473.968	148.12
474.187	154.12
474.406	142.12
474.625	158.12
474.844	149.12
475.063	161.12
475.282	147.12
475.501	150.12
475.72	164.12
475.939	151.12
476.158	173.12
476.377	149.12
476.596	147.12
476.814	158.12
477.033	148.12
477.252	168.12
477.471	161.12
477.69	161.12
477.908	155.12
478.127	167.12
478.346	183.12
478.564	170.12
478.783	162.12
479.002	177.12
479.22	163.12
479.439	184.12
479.658	175.12
479.876	175.12
480.095	169.12
480.313	183.12
480.532	177.12
480.751	171.12
480.969	169.12
481.188	168.12
481.406	151.12
481.624	146.12
481.843	138.12
482.061	162.12
482.28	175.12
482.498	168.12
482.717	166.12
482.935	168.12
483.153	165.12
483.372	168.12
483.59	150.12
483.808	168.12
484.027	166.12
484.245	172.12
484.463	156.12
484.681	176.12
484.9	170.12
485.118	177.12
485.336	175.12
485.554	164.12
485.772	167.12
485.99	162.12
486.209	182.12
486.427	161.12
486.645	153.12
486.863	177.12
487.081	162.12
487.299	169.12
487.517	169.12
487.735	156.12
487.953	184.12
488.171	177.12
488.389	169.12
488.607	172.12
488.825	184.12
489.043	167.12
489.261	144.12
489.479	162.12
489.696	164.12
489.914	173.12
490.132	168.12
490.35	171.12
490.568	156.12
490.786	178.12
491.003	166.12
491.221	170.12
491.439	172.12
491.657	184.12
491.874	181.12
492.092	166.12
492.31	172.12
492.527	164.12
492.745	149.12
492.963	185.12
493.18	176.12
493.398	173.12
493.615	173.12
493.833	165.12
494.05	174.12
494.268	183.12
494.485	173.12
494.703	165.12
494.92	179.12
495.138	162.12
495.355	185.12
495.573	183.12
495.79	173.12
496.008	174.12
496.225	156.12
496.442	185.12
496.66	188.12
496.877	199.12
497.094	199.12
497.312	185.12
497.529	181.12
497.746	199.12
497.963	201.12
498.181	201.12
498.398	210.12
498.615	215.12
498.832	230.12
499.049	228.12
499.267	256.12
499.484	259.12
499.701	279.12
499.918	309.12
500.135	338.12
500.352	402.12
500.569	389.12
500.786	385.12
501.003	357.12
501.22	317.12
501.437	297.12
501.654	254.12
501.871	242.12
502.088	227.12
502.305	233.12
502.522	212.12
502.739	224.12
502.956	207.12
503.172	189.12
503.389	187.12
503.606	187.12
503.823	185.12
504.04	183.12
504.256	200.12
504.473	207.12
504.69	187.12
504.907	208.12
