Data from SampG_HRD10591_00081.txt Node
Date: Mon Jan 19 11:54:11 EST 2026
User: Yrep
Spectrometer: HR+D1059
Trigger mode: 0
Integration Time (sec): 3.443000E-1
Scans to average: 1
Electric dark correction enabled: true
Nonlinearity correction enabled: false
Boxcar width: 0
XAxis mode: Wavelengths
Number of Pixels in Spectrum: 2048
>>>>>Begin Spectral Data<<<<<
223.165	-27.81
223.4	-27.81
223.635	-27.81
223.869	-31.81
224.104	-21.81
224.338	-20.81
224.573	-8.81
224.808	-4.81
225.042	5.19
225.277	10.19
225.511	-3.81
225.746	-2.81
225.98	-3.81
226.215	19.19
226.449	15.19
226.683	15.19
226.918	29.19
227.152	32.19
227.387	57.19
227.621	35.19
227.856	60.19
228.09	41.19
228.324	49.19
228.559	51.19
228.793	65.19
229.027	68.19
229.262	78.19
229.496	82.19
229.73	59.19
229.964	69.19
230.199	87.19
230.433	83.19
230.667	86.19
230.901	76.19
231.136	85.19
231.37	88.19
231.604	88.19
231.838	87.19
232.072	86.19
232.306	95.19
232.541	84.19
232.775	95.19
233.009	88.19
233.243	76.19
233.477	83.19
233.711	93.19
233.945	96.19
234.179	66.19
234.413	91.19
234.647	77.19
234.881	82.19
235.115	93.19
235.349	96.19
235.583	105.19
235.817	91.19
236.051	88.19
236.285	59.19
236.519	97.19
236.753	79.19
236.987	89.19
237.221	78.19
237.455	87.19
237.689	88.19
237.922	95.19
238.156	95.19
238.39	87.19
238.624	76.19
238.858	83.19
239.091	84.19
239.325	91.19
239.559	80.19
239.793	95.19
240.027	96.19
240.26	92.19
240.494	89.19
240.728	77.19
240.961	85.19
241.195	83.19
241.429	72.19
241.662	68.19
241.896	73.19
242.13	86.19
242.363	71.19
242.597	72.19
242.83	88.19
243.064	86.19
243.298	102.19
243.531	95.19
243.765	102.19
243.998	105.19
244.232	87.19
244.465	80.19
244.699	84.19
244.932	87.19
245.166	94.19
245.399	85.19
245.633	94.19
245.866	96.19
246.099	83.19
246.333	83.19
246.566	86.19
246.8	80.19
247.033	86.19
247.266	89.19
247.5	99.19
247.733	96.19
247.966	90.19
248.2	97.19
248.433	103.19
248.666	89.19
248.899	95.19
249.133	99.19
249.366	96.19
249.599	102.19
249.832	82.19
250.066	106.19
250.299	97.19
250.532	93.19
250.765	95.19
250.998	91.19
251.231	88.19
251.465	103.19
251.698	94.19
251.931	95.19
252.164	102.19
252.397	94.19
252.63	93.19
252.863	103.19
253.096	99.19
253.329	96.19
253.562	97.19
253.795	103.19
254.028	101.19
254.261	103.19
254.494	96.19
254.727	99.19
254.96	106.19
255.193	84.19
255.426	95.19
255.659	97.19
255.892	109.19
256.124	92.19
256.357	92.19
256.59	92.19
256.823	87.19
257.056	91.19
257.289	99.19
257.521	104.19
257.754	89.19
257.987	95.19
258.22	123.19
258.452	96.19
258.685	99.19
258.918	86.19
259.151	79.19
259.383	103.19
259.616	88.19
259.849	99.19
260.081	91.19
260.314	83.19
260.547	87.19
260.779	92.19
261.012	88.19
261.244	95.19
261.477	113.19
261.71	89.19
261.942	93.19
262.175	117.19
262.407	114.19
262.64	99.19
262.872	88.19
263.105	116.19
263.337	111.19
263.57	109.19
263.802	115.19
264.035	100.19
264.267	91.19
264.499	114.19
264.732	108.19
264.964	96.19
265.197	95.19
265.429	95.19
265.661	105.19
265.894	108.19
266.126	126.19
266.358	112.19
266.591	95.19
266.823	95.19
267.055	98.19
267.287	111.19
267.52	110.19
267.752	108.19
267.984	122.19
268.216	84.19
268.448	110.19
268.681	119.19
268.913	105.19
269.145	107.19
269.377	119.19
269.609	92.19
269.841	109.19
270.073	116.19
270.306	104.19
270.538	120.19
270.77	105.19
271.002	117.19
271.234	93.19
271.466	122.19
271.698	106.19
271.93	101.19
272.162	111.19
272.394	113.19
272.626	99.19
272.858	111.19
273.09	113.19
273.322	94.19
273.553	109.19
273.785	117.19
274.017	110.19
274.249	119.19
274.481	109.19
274.713	97.19
274.945	104.19
275.176	107.19
275.408	115.19
275.64	100.19
275.872	113.19
276.104	129.19
276.335	113.19
276.567	102.19
276.799	108.19
277.031	103.19
277.262	114.19
277.494	101.19
277.726	123.19
277.957	106.19
278.189	102.19
278.421	114.19
278.652	115.19
278.884	118.19
279.115	120.19
279.347	115.19
279.579	116.19
279.81	104.19
280.042	121.19
280.273	124.19
280.505	112.19
280.736	122.19
280.968	126.19
281.199	101.19
281.431	113.19
281.662	112.19
281.894	118.19
282.125	109.19
282.356	132.19
282.588	122.19
282.819	117.19
283.051	102.19
283.282	113.19
283.513	112.19
283.745	121.19
283.976	110.19
284.207	120.19
284.439	112.19
284.67	118.19
284.901	117.19
285.132	116.19
285.364	113.19
285.595	116.19
285.826	117.19
286.057	112.19
286.288	117.19
286.52	109.19
286.751	110.19
286.982	117.19
287.213	117.19
287.444	111.19
287.675	110.19
287.906	120.19
288.138	116.19
288.369	126.19
288.6	125.19
288.831	104.19
289.062	128.19
289.293	126.19
289.524	110.19
289.755	124.19
289.986	110.19
290.217	125.19
290.448	119.19
290.679	122.19
290.91	137.19
291.141	117.19
291.371	131.19
291.602	125.19
291.833	110.19
292.064	120.19
292.295	131.19
292.526	121.19
292.757	123.19
292.987	112.19
293.218	117.19
293.449	120.19
293.68	129.19
293.91	109.19
294.141	125.19
294.372	117.19
294.603	121.19
294.833	116.19
295.064	106.19
295.295	128.19
295.525	118.19
295.756	128.19
295.987	125.19
296.217	113.19
296.448	127.19
296.679	109.19
296.909	129.19
297.14	129.19
297.37	117.19
297.601	133.19
297.831	126.19
298.062	135.19
298.292	117.19
298.523	126.19
298.753	115.19
298.984	124.19
299.214	114.19
299.445	115.19
299.675	128.19
299.905	121.19
300.136	112.19
300.366	134.19
300.597	125.19
300.827	114.19
301.057	123.19
301.288	121.19
301.518	128.19
301.748	140.19
301.979	164.19
302.209	116.19
302.439	127.19
302.669	124.19
302.9	119.19
303.13	114.19
303.36	117.19
303.59	133.19
303.82	109.19
304.051	129.19
304.281	141.19
304.511	139.19
304.741	130.19
304.971	111.19
305.201	136.19
305.431	126.19
305.661	134.19
305.891	132.19
306.121	138.19
306.352	113.19
306.582	127.19
306.812	123.19
307.042	140.19
307.272	137.19
307.502	133.19
307.731	136.19
307.961	112.19
308.191	128.19
308.421	120.19
308.651	132.19
308.881	107.19
309.111	119.19
309.341	112.19
309.571	117.19
309.8	122.19
310.03	121.19
310.26	129.19
310.49	128.19
310.72	138.19
310.949	100.19
311.179	135.19
311.409	134.19
311.639	127.19
311.868	128.19
312.098	132.19
312.328	123.19
312.557	126.19
312.787	134.19
313.017	139.19
313.246	141.19
313.476	133.19
313.706	125.19
313.935	132.19
314.165	132.19
314.394	131.19
314.624	128.19
314.853	120.19
315.083	116.19
315.312	125.19
315.542	134.19
315.771	133.19
316.001	120.19
316.23	126.19
316.46	118.19
316.689	126.19
316.919	133.19
317.148	129.19
317.377	136.19
317.607	127.19
317.836	140.19
318.065	117.19
318.295	124.19
318.524	129.19
318.753	131.19
318.983	118.19
319.212	136.19
319.441	126.19
319.67	129.19
319.9	124.19
320.129	130.19
320.358	141.19
320.587	121.19
320.816	124.19
321.046	115.19
321.275	133.19
321.504	113.19
321.733	125.19
321.962	118.19
322.191	136.19
322.42	132.19
322.649	136.19
322.878	142.19
323.108	143.19
323.337	125.19
323.566	123.19
323.795	131.19
324.024	140.19
324.253	109.19
324.482	148.19
324.71	124.19
324.939	121.19
325.168	116.19
325.397	144.19
325.626	137.19
325.855	136.19
326.084	137.19
326.313	137.19
326.542	125.19
326.77	139.19
326.999	123.19
327.228	144.19
327.457	126.19
327.686	138.19
327.914	144.19
328.143	152.19
328.372	134.19
328.6	126.19
328.829	143.19
329.058	120.19
329.287	122.19
329.515	125.19
329.744	131.19
329.972	125.19
330.201	128.19
330.43	131.19
330.658	129.19
330.887	134.19
331.115	135.19
331.344	140.19
331.572	135.19
331.801	150.19
332.03	137.19
332.258	133.19
332.486	143.19
332.715	141.19
332.943	154.19
333.172	164.19
333.4	153.19
333.629	152.19
333.857	143.19
334.085	167.19
334.314	137.19
334.542	133.19
334.771	145.19
334.999	163.19
335.227	142.19
335.455	137.19
335.684	137.19
335.912	163.19
336.14	152.19
336.369	143.19
336.597	137.19
336.825	141.19
337.053	149.19
337.281	133.19
337.51	142.19
337.738	142.19
337.966	128.19
338.194	134.19
338.422	128.19
338.65	135.19
338.878	133.19
339.106	156.19
339.334	157.19
339.562	125.19
339.79	127.19
340.018	129.19
340.246	124.19
340.474	131.19
340.702	137.19
340.93	125.19
341.158	122.19
341.386	125.19
341.614	142.19
341.842	135.19
342.07	134.19
342.298	141.19
342.526	131.19
342.754	132.19
342.981	127.19
343.209	148.19
343.437	165.19
343.665	141.19
343.893	159.19
344.12	143.19
344.348	134.19
344.576	140.19
344.804	131.19
345.031	142.19
345.259	140.19
345.487	128.19
345.714	120.19
345.942	128.19
346.17	133.19
346.397	129.19
346.625	126.19
346.853	132.19
347.08	140.19
347.308	147.19
347.535	139.19
347.763	142.19
347.99	151.19
348.218	134.19
348.445	136.19
348.673	141.19
348.9	142.19
349.128	165.19
349.355	133.19
349.583	129.19
349.81	128.19
350.037	126.19
350.265	129.19
350.492	133.19
350.72	134.19
350.947	115.19
351.174	147.19
351.402	137.19
351.629	124.19
351.856	134.19
352.083	136.19
352.311	143.19
352.538	124.19
352.765	130.19
352.992	132.19
353.22	132.19
353.447	122.19
353.674	137.19
353.901	126.19
354.128	144.19
354.355	145.19
354.583	132.19
354.81	147.19
355.037	126.19
355.264	135.19
355.491	125.19
355.718	120.19
355.945	135.19
356.172	131.19
356.399	131.19
356.626	134.19
356.853	127.19
357.08	140.19
357.307	132.19
357.534	128.19
357.761	134.19
357.988	126.19
358.215	124.19
358.441	135.19
358.668	126.19
358.895	120.19
359.122	132.19
359.349	134.19
359.576	136.19
359.802	127.19
360.029	132.19
360.256	139.19
360.483	135.19
360.709	141.19
360.936	149.19
361.163	139.19
361.39	143.19
361.616	132.19
361.843	126.19
362.07	143.19
362.296	140.19
362.523	129.19
362.749	134.19
362.976	130.19
363.203	145.19
363.429	133.19
363.656	133.19
363.882	124.19
364.109	145.19
364.335	145.19
364.562	140.19
364.788	131.19
365.015	143.19
365.241	140.19
365.468	136.19
365.694	130.19
365.92	137.19
366.147	132.19
366.373	130.19
366.599	128.19
366.826	133.19
367.052	148.19
367.278	135.19
367.505	110.19
367.731	138.19
367.957	136.19
368.184	137.19
368.41	136.19
368.636	132.19
368.862	150.19
369.089	129.19
369.315	131.19
369.541	117.19
369.767	138.19
369.993	124.19
370.219	141.19
370.445	134.19
370.672	125.19
370.898	129.19
371.124	137.19
371.35	127.19
371.576	138.19
371.802	124.19
372.028	132.19
372.254	142.19
372.48	145.19
372.706	146.19
372.932	126.19
373.158	148.19
373.384	139.19
373.61	145.19
373.835	131.19
374.061	136.19
374.287	138.19
374.513	145.19
374.739	129.19
374.965	145.19
375.191	151.19
375.416	139.19
375.642	128.19
375.868	150.19
376.094	144.19
376.319	139.19
376.545	126.19
376.771	137.19
376.997	139.19
377.222	137.19
377.448	156.19
377.674	153.19
377.899	137.19
378.125	142.19
378.35	133.19
378.576	138.19
378.802	139.19
379.027	141.19
379.253	152.19
379.478	145.19
379.704	145.19
379.929	153.19
380.155	132.19
380.38	143.19
380.606	149.19
380.831	141.19
381.057	141.19
381.282	137.19
381.507	136.19
381.733	132.19
381.958	140.19
382.184	144.19
382.409	141.19
382.634	149.19
382.86	142.19
383.085	151.19
383.31	149.19
383.535	161.19
383.761	150.19
383.986	164.19
384.211	140.19
384.436	144.19
384.662	153.19
384.887	135.19
385.112	150.19
385.337	146.19
385.562	138.19
385.787	148.19
386.013	165.19
386.238	148.19
386.463	158.19
386.688	181.19
386.913	145.19
387.138	141.19
387.363	140.19
387.588	163.19
387.813	162.19
388.038	152.19
388.263	150.19
388.488	164.19
388.713	137.19
388.938	139.19
389.163	129.19
389.387	156.19
389.612	135.19
389.837	153.19
390.062	153.19
390.287	156.19
390.512	149.19
390.736	150.19
390.961	155.19
391.186	145.19
391.411	159.19
391.636	173.19
391.86	157.19
392.085	163.19
392.31	164.19
392.534	155.19
392.759	154.19
392.984	148.19
393.208	153.19
393.433	159.19
393.658	154.19
393.882	147.19
394.107	168.19
394.331	174.19
394.556	170.19
394.78	157.19
395.005	163.19
395.229	187.19
395.454	176.19
395.678	163.19
395.903	164.19
396.127	169.19
396.352	176.19
396.576	150.19
396.801	159.19
397.025	166.19
397.249	164.19
397.474	176.19
397.698	166.19
397.922	181.19
398.147	177.19
398.371	169.19
398.595	160.19
398.82	165.19
399.044	188.19
399.268	181.19
399.492	200.19
399.717	225.19
399.941	199.19
400.165	187.19
400.389	199.19
400.613	179.19
400.837	167.19
401.062	151.19
401.286	176.19
401.51	156.19
401.734	171.19
401.958	167.19
402.182	167.19
402.406	185.19
402.63	185.19
402.854	186.19
403.078	171.19
403.302	186.19
403.526	196.19
403.75	189.19
403.974	193.19
404.198	200.19
404.422	186.19
404.645	187.19
404.869	180.19
405.093	185.19
405.317	184.19
405.541	192.19
405.765	185.19
405.988	190.19
406.212	189.19
406.436	188.19
406.66	184.19
406.883	185.19
407.107	189.19
407.331	198.19
407.555	192.19
407.778	192.19
408.002	193.19
408.226	192.19
408.449	193.19
408.673	196.19
408.896	166.19
409.12	185.19
409.344	170.19
409.567	171.19
409.791	188.19
410.014	182.19
410.238	164.19
410.461	199.19
410.685	173.19
410.908	191.19
411.132	186.19
411.355	179.19
411.578	179.19
411.802	166.19
412.025	194.19
412.249	175.19
412.472	182.19
412.695	171.19
412.919	176.19
413.142	159.19
413.365	172.19
413.589	183.19
413.812	175.19
414.035	184.19
414.258	185.19
414.482	177.19
414.705	177.19
414.928	157.19
415.151	169.19
415.374	154.19
415.597	170.19
415.821	180.19
416.044	174.19
416.267	159.19
416.49	165.19
416.713	149.19
416.936	172.19
417.159	164.19
417.382	178.19
417.605	171.19
417.828	181.19
418.051	182.19
418.274	203.19
418.497	177.19
418.72	167.19
418.943	184.19
419.166	185.19
419.389	180.19
419.611	176.19
419.834	188.19
420.057	201.19
420.28	186.19
420.503	167.19
420.726	173.19
420.948	172.19
421.171	175.19
421.394	186.19
421.617	165.19
421.839	178.19
422.062	180.19
422.285	177.19
422.507	183.19
422.73	167.19
422.953	176.19
423.175	177.19
423.398	168.19
423.621	198.19
423.843	173.19
424.066	176.19
424.288	172.19
424.511	175.19
424.733	181.19
424.956	194.19
425.178	187.19
425.401	175.19
425.623	167.19
425.846	163.19
426.068	174.19
426.291	170.19
426.513	173.19
426.735	158.19
426.958	171.19
427.18	162.19
427.402	156.19
427.625	166.19
427.847	171.19
428.069	169.19
428.292	177.19
428.514	177.19
428.736	162.19
428.958	157.19
429.181	162.19
429.403	153.19
429.625	160.19
429.847	164.19
430.069	173.19
430.292	176.19
430.514	164.19
430.736	167.19
430.958	165.19
431.18	152.19
431.402	163.19
431.624	161.19
431.846	163.19
432.068	169.19
432.29	147.19
432.512	164.19
432.734	169.19
432.956	170.19
433.178	171.19
433.4	164.19
433.622	157.19
433.844	175.19
434.066	171.19
434.287	174.19
434.509	182.19
434.731	179.19
434.953	181.19
435.175	170.19
435.397	182.19
435.618	163.19
435.84	167.19
436.062	158.19
436.284	149.19
436.505	167.19
436.727	155.19
436.949	168.19
437.17	175.19
437.392	161.19
437.614	183.19
437.835	153.19
438.057	152.19
438.278	164.19
438.5	155.19
438.721	171.19
438.943	177.19
439.165	157.19
439.386	152.19
439.608	191.19
439.829	160.19
440.05	157.19
440.272	156.19
440.493	152.19
440.715	168.19
440.936	170.19
441.158	163.19
441.379	154.19
441.6	175.19
441.822	182.19
442.043	173.19
442.264	183.19
442.486	159.19
442.707	183.19
442.928	164.19
443.149	140.19
443.371	172.19
443.592	183.19
443.813	167.19
444.034	182.19
444.255	201.19
444.476	182.19
444.698	183.19
444.919	196.19
445.14	382.19
445.361	283.19
445.582	169.19
445.803	153.19
446.024	174.19
446.245	157.19
446.466	153.19
446.687	154.19
446.908	166.19
447.129	181.19
447.35	160.19
447.571	163.19
447.792	163.19
448.013	160.19
448.234	167.19
448.455	153.19
448.675	144.19
448.896	155.19
449.117	139.19
449.338	142.19
449.559	159.19
449.779	147.19
450	163.19
450.221	163.19
450.442	156.19
450.662	163.19
450.883	157.19
451.104	159.19
451.324	163.19
451.545	153.19
451.766	156.19
451.986	156.19
452.207	156.19
452.428	162.19
452.648	150.19
452.869	168.19
453.089	166.19
453.31	156.19
453.53	154.19
453.751	152.19
453.971	175.19
454.192	154.19
454.412	142.19
454.633	157.19
454.853	165.19
455.073	152.19
455.294	158.19
455.514	145.19
455.734	145.19
455.955	155.19
456.175	149.19
456.395	133.19
456.616	149.19
456.836	157.19
457.056	162.19
457.276	126.19
457.497	160.19
457.717	144.19
457.937	148.19
458.157	142.19
458.377	154.19
458.598	161.19
458.818	159.19
459.038	145.19
459.258	159.19
459.478	152.19
459.698	150.19
459.918	168.19
460.138	177.19
460.358	176.19
460.578	189.19
460.798	174.19
461.018	181.19
461.238	182.19
461.458	182.19
461.678	176.19
461.898	201.19
462.118	196.19
462.338	204.19
462.558	189.19
462.777	198.19
462.997	218.19
463.217	207.19
463.437	227.19
463.657	203.19
463.876	201.19
464.096	202.19
464.316	176.19
464.536	189.19
464.755	188.19
464.975	191.19
465.195	168.19
465.414	187.19
465.634	173.19
465.854	164.19
466.073	170.19
466.293	168.19
466.512	160.19
466.732	167.19
466.951	159.19
467.171	142.19
467.391	153.19
467.61	165.19
467.829	164.19
468.049	154.19
468.268	156.19
468.488	147.19
468.707	152.19
468.927	168.19
469.146	151.19
469.365	167.19
469.585	151.19
469.804	149.19
470.023	156.19
470.243	153.19
470.462	163.19
470.681	169.19
470.901	166.19
471.12	141.19
471.339	163.19
471.558	154.19
471.777	154.19
471.997	159.19
472.216	164.19
472.435	171.19
472.654	143.19
472.873	145.19
473.092	164.19
473.311	154.19
473.53	139.19
473.749	157.19
473.968	160.19
474.187	152.19
474.406	137.19
474.625	139.19
474.844	153.19
475.063	157.19
475.282	168.19
475.501	150.19
475.72	156.19
475.939	166.19
476.158	148.19
476.377	162.19
476.596	154.19
476.814	154.19
477.033	163.19
477.252	173.19
477.471	153.19
477.69	177.19
477.908	163.19
478.127	171.19
478.346	164.19
478.564	173.19
478.783	173.19
479.002	178.19
479.22	179.19
479.439	164.19
479.658	171.19
479.876	166.19
480.095	173.19
480.313	177.19
480.532	183.19
480.751	185.19
480.969	168.19
481.188	181.19
481.406	170.19
481.624	169.19
481.843	171.19
482.061	153.19
482.28	156.19
482.498	160.19
482.717	158.19
482.935	165.19
483.153	167.19
483.372	179.19
483.59	169.19
483.808	164.19
484.027	159.19
484.245	161.19
484.463	174.19
484.681	163.19
484.9	172.19
485.118	196.19
485.336	171.19
485.554	177.19
485.772	168.19
485.99	169.19
486.209	169.19
486.427	177.19
486.645	167.19
486.863	176.19
487.081	171.19
487.299	172.19
487.517	165.19
487.735	172.19
487.953	171.19
488.171	177.19
488.389	172.19
488.607	173.19
488.825	147.19
489.043	187.19
489.261	161.19
489.479	174.19
489.696	173.19
489.914	172.19
490.132	171.19
490.35	175.19
490.568	172.19
490.786	166.19
491.003	156.19
491.221	173.19
491.439	172.19
491.657	179.19
491.874	189.19
492.092	172.19
492.31	182.19
492.527	167.19
492.745	172.19
492.963	185.19
493.18	177.19
493.398	166.19
493.615	177.19
493.833	166.19
494.05	173.19
494.268	177.19
494.485	185.19
494.703	175.19
494.92	187.19
495.138	171.19
495.355	176.19
495.573	177.19
495.79	183.19
496.008	183.19
496.225	190.19
496.442	176.19
496.66	188.19
496.877	176.19
497.094	209.19
497.312	193.19
497.529	201.19
497.746	189.19
497.963	174.19
498.181	190.19
498.398	206.19
498.615	204.19
498.832	216.19
499.049	240.19
499.267	255.19
499.484	269.19
499.701	285.19
499.918	321.19
500.135	353.19
500.352	398.19
500.569	399.19
500.786	389.19
501.003	374.19
501.22	325.19
501.437	307.19
501.654	293.19
501.871	271.19
502.088	238.19
502.305	232.19
502.522	240.19
502.739	225.19
502.956	218.19
503.172	208.19
503.389	192.19
503.606	198.19
503.823	187.19
504.04	189.19
504.256	219.19
504.473	212.19
504.69	196.19
