Data from SampG_HRD10591_00062.txt Node
Date: Mon Jan 19 11:54:04 EST 2026
User: Yrep
Spectrometer: HR+D1059
Trigger mode: 0
Integration Time (sec): 3.443000E-1
Scans to average: 1
Electric dark correction enabled: true
Nonlinearity correction enabled: false
Boxcar width: 0
XAxis mode: Wavelengths
Number of Pixels in Spectrum: 2048
>>>>>Begin Spectral Data<<<<<
223.165	-17.5
223.4	-17.5
223.635	-17.5
223.869	-12.5
224.104	-23.5
224.338	-16.5
224.573	-21.5
224.808	-18.5
225.042	-1.5
225.277	0.5
225.511	-4.5
225.746	-2.5
225.98	6.5
226.215	11.5
226.449	15.5
226.683	22.5
226.918	25.5
227.152	36.5
227.387	40.5
227.621	39.5
227.856	58.5
228.09	49.5
228.324	46.5
228.559	59.5
228.793	54.5
229.027	96.5
229.262	62.5
229.496	61.5
229.73	58.5
229.964	83.5
230.199	76.5
230.433	84.5
230.667	70.5
230.901	78.5
231.136	99.5
231.37	98.5
231.604	95.5
231.838	90.5
232.072	92.5
232.306	90.5
232.541	92.5
232.775	96.5
233.009	87.5
233.243	92.5
233.477	68.5
233.711	87.5
233.945	96.5
234.179	90.5
234.413	89.5
234.647	85.5
234.881	71.5
235.115	81.5
235.349	97.5
235.583	96.5
235.817	101.5
236.051	84.5
236.285	88.5
236.519	76.5
236.753	97.5
236.987	74.5
237.221	88.5
237.455	77.5
237.689	84.5
237.922	95.5
238.156	94.5
238.39	92.5
238.624	86.5
238.858	90.5
239.091	87.5
239.325	68.5
239.559	78.5
239.793	88.5
240.027	98.5
240.26	79.5
240.494	91.5
240.728	86.5
240.961	78.5
241.195	86.5
241.429	90.5
241.662	85.5
241.896	87.5
242.13	75.5
242.363	88.5
242.597	81.5
242.83	84.5
243.064	100.5
243.298	108.5
243.531	82.5
243.765	100.5
243.998	98.5
244.232	94.5
244.465	87.5
244.699	104.5
244.932	84.5
245.166	87.5
245.399	93.5
245.633	111.5
245.866	94.5
246.099	88.5
246.333	74.5
246.566	98.5
246.8	90.5
247.033	88.5
247.266	74.5
247.5	84.5
247.733	86.5
247.966	102.5
248.2	97.5
248.433	96.5
248.666	92.5
248.899	101.5
249.133	94.5
249.366	107.5
249.599	87.5
249.832	98.5
250.066	110.5
250.299	95.5
250.532	94.5
250.765	91.5
250.998	88.5
251.231	96.5
251.465	105.5
251.698	94.5
251.931	82.5
252.164	84.5
252.397	98.5
252.63	91.5
252.863	97.5
253.096	98.5
253.329	97.5
253.562	103.5
253.795	97.5
254.028	117.5
254.261	94.5
254.494	94.5
254.727	91.5
254.96	85.5
255.193	94.5
255.426	84.5
255.659	95.5
255.892	100.5
256.124	92.5
256.357	94.5
256.59	87.5
256.823	96.5
257.056	80.5
257.289	96.5
257.521	98.5
257.754	89.5
257.987	94.5
258.22	113.5
258.452	87.5
258.685	106.5
258.918	106.5
259.151	97.5
259.383	94.5
259.616	103.5
259.849	97.5
260.081	106.5
260.314	94.5
260.547	98.5
260.779	86.5
261.012	99.5
261.244	94.5
261.477	116.5
261.71	81.5
261.942	92.5
262.175	108.5
262.407	113.5
262.64	110.5
262.872	111.5
263.105	96.5
263.337	116.5
263.57	95.5
263.802	91.5
264.035	103.5
264.267	113.5
264.499	96.5
264.732	124.5
264.964	103.5
265.197	111.5
265.429	108.5
265.661	100.5
265.894	110.5
266.126	107.5
266.358	99.5
266.591	96.5
266.823	108.5
267.055	95.5
267.287	100.5
267.52	94.5
267.752	114.5
267.984	108.5
268.216	104.5
268.448	108.5
268.681	120.5
268.913	113.5
269.145	106.5
269.377	104.5
269.609	101.5
269.841	119.5
270.073	110.5
270.306	109.5
270.538	108.5
270.77	98.5
271.002	91.5
271.234	114.5
271.466	108.5
271.698	93.5
271.93	116.5
272.162	115.5
272.394	125.5
272.626	111.5
272.858	107.5
273.09	121.5
273.322	103.5
273.553	113.5
273.785	113.5
274.017	105.5
274.249	106.5
274.481	112.5
274.713	118.5
274.945	116.5
275.176	97.5
275.408	133.5
275.64	117.5
275.872	106.5
276.104	115.5
276.335	100.5
276.567	112.5
276.799	100.5
277.031	114.5
277.262	107.5
277.494	118.5
277.726	114.5
277.957	105.5
278.189	117.5
278.421	102.5
278.652	114.5
278.884	128.5
279.115	121.5
279.347	124.5
279.579	118.5
279.81	106.5
280.042	111.5
280.273	109.5
280.505	108.5
280.736	113.5
280.968	123.5
281.199	114.5
281.431	119.5
281.662	120.5
281.894	121.5
282.125	116.5
282.356	120.5
282.588	120.5
282.819	118.5
283.051	122.5
283.282	115.5
283.513	128.5
283.745	120.5
283.976	119.5
284.207	122.5
284.439	131.5
284.67	130.5
284.901	135.5
285.132	114.5
285.364	110.5
285.595	109.5
285.826	107.5
286.057	107.5
286.288	116.5
286.52	119.5
286.751	114.5
286.982	121.5
287.213	127.5
287.444	119.5
287.675	124.5
287.906	125.5
288.138	125.5
288.369	107.5
288.6	105.5
288.831	106.5
289.062	122.5
289.293	118.5
289.524	117.5
289.755	116.5
289.986	116.5
290.217	140.5
290.448	124.5
290.679	128.5
290.91	130.5
291.141	127.5
291.371	127.5
291.602	107.5
291.833	120.5
292.064	119.5
292.295	117.5
292.526	124.5
292.757	115.5
292.987	129.5
293.218	117.5
293.449	120.5
293.68	132.5
293.91	119.5
294.141	120.5
294.372	132.5
294.603	113.5
294.833	123.5
295.064	112.5
295.295	128.5
295.525	129.5
295.756	136.5
295.987	126.5
296.217	126.5
296.448	123.5
296.679	118.5
296.909	120.5
297.14	138.5
297.37	125.5
297.601	134.5
297.831	124.5
298.062	129.5
298.292	128.5
298.523	123.5
298.753	118.5
298.984	117.5
299.214	143.5
299.445	127.5
299.675	140.5
299.905	118.5
300.136	129.5
300.366	131.5
300.597	137.5
300.827	132.5
301.057	127.5
301.288	145.5
301.518	137.5
301.748	125.5
301.979	182.5
302.209	138.5
302.439	128.5
302.669	130.5
302.9	132.5
303.13	130.5
303.36	127.5
303.59	127.5
303.82	131.5
304.051	124.5
304.281	147.5
304.511	134.5
304.741	132.5
304.971	125.5
305.201	132.5
305.431	134.5
305.661	130.5
305.891	118.5
306.121	129.5
306.352	125.5
306.582	138.5
306.812	116.5
307.042	120.5
307.272	116.5
307.502	133.5
307.731	126.5
307.961	127.5
308.191	138.5
308.421	138.5
308.651	125.5
308.881	132.5
309.111	135.5
309.341	122.5
309.571	129.5
309.8	131.5
310.03	114.5
310.26	126.5
310.49	127.5
310.72	128.5
310.949	132.5
311.179	133.5
311.409	121.5
311.639	128.5
311.868	119.5
312.098	124.5
312.328	128.5
312.557	124.5
312.787	111.5
313.017	121.5
313.246	128.5
313.476	130.5
313.706	112.5
313.935	145.5
314.165	135.5
314.394	145.5
314.624	152.5
314.853	127.5
315.083	124.5
315.312	148.5
315.542	131.5
315.771	126.5
316.001	127.5
316.23	136.5
316.46	149.5
316.689	118.5
316.919	127.5
317.148	129.5
317.377	128.5
317.607	128.5
317.836	128.5
318.065	129.5
318.295	120.5
318.524	119.5
318.753	140.5
318.983	141.5
319.212	136.5
319.441	127.5
319.67	123.5
319.9	141.5
320.129	128.5
320.358	124.5
320.587	136.5
320.816	124.5
321.046	133.5
321.275	140.5
321.504	136.5
321.733	123.5
321.962	122.5
322.191	142.5
322.42	122.5
322.649	146.5
322.878	126.5
323.108	137.5
323.337	129.5
323.566	126.5
323.795	141.5
324.024	148.5
324.253	159.5
324.482	133.5
324.71	148.5
324.939	128.5
325.168	121.5
325.397	121.5
325.626	136.5
325.855	119.5
326.084	135.5
326.313	128.5
326.542	146.5
326.77	147.5
326.999	131.5
327.228	129.5
327.457	122.5
327.686	126.5
327.914	134.5
328.143	156.5
328.372	144.5
328.6	153.5
328.829	138.5
329.058	122.5
329.287	128.5
329.515	137.5
329.744	154.5
329.972	132.5
330.201	128.5
330.43	149.5
330.658	139.5
330.887	137.5
331.115	149.5
331.344	139.5
331.572	162.5
331.801	140.5
332.03	152.5
332.258	162.5
332.486	149.5
332.715	148.5
332.943	151.5
333.172	144.5
333.4	144.5
333.629	174.5
333.857	159.5
334.085	178.5
334.314	159.5
334.542	149.5
334.771	155.5
334.999	166.5
335.227	156.5
335.455	148.5
335.684	154.5
335.912	153.5
336.14	144.5
336.369	144.5
336.597	150.5
336.825	143.5
337.053	164.5
337.281	153.5
337.51	137.5
337.738	153.5
337.966	140.5
338.194	136.5
338.422	142.5
338.65	142.5
338.878	150.5
339.106	140.5
339.334	148.5
339.562	136.5
339.79	143.5
340.018	138.5
340.246	117.5
340.474	127.5
340.702	143.5
340.93	145.5
341.158	139.5
341.386	143.5
341.614	152.5
341.842	125.5
342.07	125.5
342.298	141.5
342.526	135.5
342.754	156.5
342.981	140.5
343.209	141.5
343.437	156.5
343.665	148.5
343.893	150.5
344.12	151.5
344.348	135.5
344.576	146.5
344.804	139.5
345.031	134.5
345.259	136.5
345.487	128.5
345.714	142.5
345.942	134.5
346.17	150.5
346.397	149.5
346.625	152.5
346.853	148.5
347.08	129.5
347.308	143.5
347.535	125.5
347.763	126.5
347.99	157.5
348.218	133.5
348.445	136.5
348.673	128.5
348.9	140.5
349.128	151.5
349.355	136.5
349.583	139.5
349.81	126.5
350.037	130.5
350.265	135.5
350.492	141.5
350.72	134.5
350.947	141.5
351.174	153.5
351.402	127.5
351.629	137.5
351.856	150.5
352.083	129.5
352.311	145.5
352.538	137.5
352.765	134.5
352.992	148.5
353.22	120.5
353.447	126.5
353.674	126.5
353.901	129.5
354.128	143.5
354.355	135.5
354.583	140.5
354.81	146.5
355.037	138.5
355.264	137.5
355.491	128.5
355.718	139.5
355.945	144.5
356.172	136.5
356.399	131.5
356.626	119.5
356.853	134.5
357.08	142.5
357.307	149.5
357.534	132.5
357.761	133.5
357.988	149.5
358.215	132.5
358.441	141.5
358.668	134.5
358.895	132.5
359.122	133.5
359.349	135.5
359.576	134.5
359.802	133.5
360.029	127.5
360.256	144.5
360.483	119.5
360.709	129.5
360.936	141.5
361.163	144.5
361.39	139.5
361.616	130.5
361.843	131.5
362.07	142.5
362.296	137.5
362.523	138.5
362.749	142.5
362.976	116.5
363.203	150.5
363.429	136.5
363.656	132.5
363.882	143.5
364.109	144.5
364.335	141.5
364.562	132.5
364.788	125.5
365.015	146.5
365.241	137.5
365.468	134.5
365.694	141.5
365.92	119.5
366.147	140.5
366.373	126.5
366.599	133.5
366.826	141.5
367.052	130.5
367.278	132.5
367.505	148.5
367.731	161.5
367.957	138.5
368.184	131.5
368.41	133.5
368.636	141.5
368.862	131.5
369.089	132.5
369.315	132.5
369.541	137.5
369.767	131.5
369.993	141.5
370.219	133.5
370.445	141.5
370.672	119.5
370.898	141.5
371.124	151.5
371.35	134.5
371.576	155.5
371.802	134.5
372.028	140.5
372.254	141.5
372.48	137.5
372.706	145.5
372.932	141.5
373.158	149.5
373.384	148.5
373.61	161.5
373.835	136.5
374.061	155.5
374.287	136.5
374.513	144.5
374.739	164.5
374.965	140.5
375.191	135.5
375.416	152.5
375.642	151.5
375.868	142.5
376.094	156.5
376.319	153.5
376.545	147.5
376.771	150.5
376.997	133.5
377.222	145.5
377.448	149.5
377.674	145.5
377.899	153.5
378.125	150.5
378.35	128.5
378.576	143.5
378.802	137.5
379.027	143.5
379.253	159.5
379.478	144.5
379.704	146.5
379.929	131.5
380.155	140.5
380.38	161.5
380.606	134.5
380.831	141.5
381.057	163.5
381.282	159.5
381.507	134.5
381.733	147.5
381.958	145.5
382.184	134.5
382.409	132.5
382.634	149.5
382.86	131.5
383.085	158.5
383.31	135.5
383.535	135.5
383.761	146.5
383.986	156.5
384.211	147.5
384.436	143.5
384.662	151.5
384.887	174.5
385.112	153.5
385.337	161.5
385.562	153.5
385.787	158.5
386.013	184.5
386.238	148.5
386.463	168.5
386.688	193.5
386.913	157.5
387.138	153.5
387.363	156.5
387.588	154.5
387.813	164.5
388.038	155.5
388.263	162.5
388.488	160.5
388.713	154.5
388.938	136.5
389.163	135.5
389.387	155.5
389.612	140.5
389.837	162.5
390.062	155.5
390.287	152.5
390.512	159.5
390.736	157.5
390.961	158.5
391.186	185.5
391.411	170.5
391.636	164.5
391.86	168.5
392.085	169.5
392.31	162.5
392.534	156.5
392.759	165.5
392.984	169.5
393.208	166.5
393.433	168.5
393.658	160.5
393.882	159.5
394.107	172.5
394.331	147.5
394.556	168.5
394.78	170.5
395.005	177.5
395.229	167.5
395.454	176.5
395.678	190.5
395.903	169.5
396.127	157.5
396.352	184.5
396.576	160.5
396.801	150.5
397.025	156.5
397.249	169.5
397.474	175.5
397.698	175.5
397.922	188.5
398.147	158.5
398.371	178.5
398.595	178.5
398.82	177.5
399.044	196.5
399.268	192.5
399.492	232.5
399.717	236.5
399.941	224.5
400.165	192.5
400.389	199.5
400.613	173.5
400.837	188.5
401.062	174.5
401.286	175.5
401.51	180.5
401.734	184.5
401.958	159.5
402.182	182.5
402.406	185.5
402.63	166.5
402.854	177.5
403.078	192.5
403.302	189.5
403.526	190.5
403.75	202.5
403.974	180.5
404.198	194.5
404.422	206.5
404.645	196.5
404.869	187.5
405.093	177.5
405.317	197.5
405.541	197.5
405.765	191.5
405.988	197.5
406.212	199.5
406.436	182.5
406.66	186.5
406.883	214.5
407.107	199.5
407.331	203.5
407.555	209.5
407.778	214.5
408.002	218.5
408.226	201.5
408.449	206.5
408.673	193.5
408.896	204.5
409.12	192.5
409.344	192.5
409.567	202.5
409.791	195.5
410.014	184.5
410.238	191.5
410.461	184.5
410.685	192.5
410.908	173.5
411.132	188.5
411.355	194.5
411.578	180.5
411.802	177.5
412.025	188.5
412.249	184.5
412.472	182.5
412.695	177.5
412.919	188.5
413.142	162.5
413.365	188.5
413.589	190.5
413.812	183.5
414.035	198.5
414.258	173.5
414.482	177.5
414.705	191.5
414.928	173.5
415.151	183.5
415.374	191.5
415.597	200.5
415.821	190.5
416.044	177.5
416.267	187.5
416.49	179.5
416.713	168.5
416.936	185.5
417.159	169.5
417.382	173.5
417.605	176.5
417.828	186.5
418.051	184.5
418.274	186.5
418.497	164.5
418.72	180.5
418.943	191.5
419.166	189.5
419.389	183.5
419.611	188.5
419.834	183.5
420.057	172.5
420.28	191.5
420.503	179.5
420.726	187.5
420.948	171.5
421.171	202.5
421.394	171.5
421.617	166.5
421.839	180.5
422.062	171.5
422.285	184.5
422.507	185.5
422.73	185.5
422.953	166.5
423.175	191.5
423.398	199.5
423.621	185.5
423.843	204.5
424.066	197.5
424.288	189.5
424.511	184.5
424.733	184.5
424.956	185.5
425.178	186.5
425.401	178.5
425.623	166.5
425.846	176.5
426.068	167.5
426.291	167.5
426.513	177.5
426.735	175.5
426.958	161.5
427.18	161.5
427.402	172.5
427.625	165.5
427.847	148.5
428.069	169.5
428.292	172.5
428.514	170.5
428.736	161.5
428.958	156.5
429.181	171.5
429.403	153.5
429.625	168.5
429.847	164.5
430.069	155.5
430.292	166.5
430.514	146.5
430.736	152.5
430.958	159.5
431.18	142.5
431.402	165.5
431.624	154.5
431.846	155.5
432.068	165.5
432.29	174.5
432.512	173.5
432.734	173.5
432.956	177.5
433.178	158.5
433.4	176.5
433.622	187.5
433.844	177.5
434.066	175.5
434.287	161.5
434.509	184.5
434.731	186.5
434.953	186.5
435.175	177.5
435.397	152.5
435.618	177.5
435.84	206.5
436.062	180.5
436.284	160.5
436.505	174.5
436.727	172.5
436.949	169.5
437.17	165.5
437.392	155.5
437.614	158.5
437.835	140.5
438.057	174.5
438.278	167.5
438.5	160.5
438.721	151.5
438.943	170.5
439.165	151.5
439.386	166.5
439.608	174.5
439.829	168.5
440.05	170.5
440.272	166.5
440.493	171.5
440.715	158.5
440.936	173.5
441.158	174.5
441.379	177.5
441.6	176.5
441.822	170.5
442.043	185.5
442.264	183.5
442.486	193.5
442.707	171.5
442.928	181.5
443.149	169.5
443.371	177.5
443.592	203.5
443.813	175.5
444.034	184.5
444.255	204.5
444.476	194.5
444.698	207.5
444.919	196.5
445.14	381.5
445.361	280.5
445.582	178.5
445.803	172.5
446.024	168.5
446.245	161.5
446.466	173.5
446.687	165.5
446.908	172.5
447.129	171.5
447.35	152.5
447.571	150.5
447.792	154.5
448.013	148.5
448.234	161.5
448.455	149.5
448.675	162.5
448.896	164.5
449.117	174.5
449.338	156.5
449.559	168.5
449.779	168.5
450	136.5
450.221	173.5
450.442	164.5
450.662	143.5
450.883	157.5
451.104	168.5
451.324	154.5
451.545	157.5
451.766	164.5
451.986	160.5
452.207	154.5
452.428	152.5
452.648	146.5
452.869	165.5
453.089	174.5
453.31	162.5
453.53	157.5
453.751	158.5
453.971	150.5
454.192	143.5
454.412	158.5
454.633	154.5
454.853	139.5
455.073	143.5
455.294	135.5
455.514	148.5
455.734	156.5
455.955	132.5
456.175	155.5
456.395	152.5
456.616	152.5
456.836	158.5
457.056	170.5
457.276	161.5
457.497	146.5
457.717	148.5
457.937	151.5
458.157	153.5
458.377	151.5
458.598	149.5
458.818	158.5
459.038	175.5
459.258	167.5
459.478	186.5
459.698	153.5
459.918	172.5
460.138	158.5
460.358	175.5
460.578	192.5
460.798	186.5
461.018	165.5
461.238	178.5
461.458	176.5
461.678	185.5
461.898	184.5
462.118	174.5
462.338	200.5
462.558	214.5
462.777	199.5
462.997	217.5
463.217	216.5
463.437	217.5
463.657	201.5
463.876	196.5
464.096	188.5
464.316	198.5
464.536	198.5
464.755	196.5
464.975	195.5
465.195	200.5
465.414	176.5
465.634	166.5
465.854	165.5
466.073	162.5
466.293	161.5
466.512	178.5
466.732	158.5
466.951	171.5
467.171	174.5
467.391	168.5
467.61	168.5
467.829	149.5
468.049	166.5
468.268	154.5
468.488	150.5
468.707	145.5
468.927	146.5
469.146	155.5
469.365	177.5
469.585	148.5
469.804	180.5
470.023	170.5
470.243	160.5
470.462	176.5
470.681	158.5
470.901	152.5
471.12	161.5
471.339	172.5
471.558	173.5
471.777	152.5
471.997	146.5
472.216	168.5
472.435	142.5
472.654	154.5
472.873	179.5
473.092	153.5
473.311	155.5
473.53	153.5
473.749	164.5
473.968	181.5
474.187	155.5
474.406	152.5
474.625	164.5
474.844	170.5
475.063	157.5
475.282	159.5
475.501	166.5
475.72	172.5
475.939	151.5
476.158	149.5
476.377	160.5
476.596	163.5
476.814	151.5
477.033	163.5
477.252	150.5
477.471	181.5
477.69	169.5
477.908	173.5
478.127	184.5
478.346	178.5
478.564	173.5
478.783	180.5
479.002	197.5
479.22	172.5
479.439	185.5
479.658	187.5
479.876	185.5
480.095	181.5
480.313	186.5
480.532	198.5
480.751	201.5
480.969	176.5
481.188	195.5
481.406	179.5
481.624	177.5
481.843	169.5
482.061	167.5
482.28	164.5
482.498	175.5
482.717	164.5
482.935	176.5
483.153	169.5
483.372	170.5
483.59	170.5
483.808	181.5
484.027	181.5
484.245	181.5
484.463	158.5
484.681	175.5
484.9	183.5
485.118	186.5
485.336	177.5
485.554	173.5
485.772	177.5
485.99	171.5
486.209	184.5
486.427	178.5
486.645	173.5
486.863	186.5
487.081	170.5
487.299	190.5
487.517	184.5
487.735	190.5
487.953	172.5
488.171	195.5
488.389	164.5
488.607	181.5
488.825	163.5
489.043	160.5
489.261	168.5
489.479	188.5
489.696	174.5
489.914	181.5
490.132	174.5
490.35	175.5
490.568	166.5
490.786	180.5
491.003	153.5
491.221	172.5
491.439	175.5
491.657	170.5
491.874	174.5
492.092	183.5
492.31	186.5
492.527	175.5
492.745	159.5
492.963	182.5
493.18	186.5
493.398	174.5
493.615	173.5
493.833	177.5
494.05	184.5
494.268	185.5
494.485	190.5
494.703	176.5
494.92	179.5
495.138	181.5
495.355	200.5
495.573	186.5
495.79	173.5
496.008	188.5
496.225	175.5
496.442	185.5
496.66	186.5
496.877	190.5
497.094	209.5
497.312	195.5
497.529	184.5
497.746	182.5
497.963	193.5
498.181	196.5
498.398	202.5
498.615	213.5
498.832	245.5
499.049	256.5
499.267	264.5
499.484	287.5
499.701	304.5
499.918	329.5
500.135	346.5
500.352	397.5
500.569	409.5
500.786	416.5
501.003	360.5
501.22	325.5
501.437	307.5
501.654	273.5
501.871	242.5
502.088	237.5
502.305	246.5
502.522	226.5
502.739	218.5
502.956	217.5
503.172	210.5
503.389	197.5
503.606	200.5
503.823	197.5
504.04	214.5
504.256	216.5
504.473	188.5
504.69	205.5
504.907	204.5
505.123	194.5
505.34	182.5
505.557	184.5
505.773	174.5
505.99	186.5
506.207	178.5
506.423	173.5
506.64	188.5
506.856	162.5
507.073	174.5
507.289	180.5
507.506	155.5
507.722	163.5
507.939	175.5
508.155	182.5
508.372	153.5
508.588	178.5
508.805	170.5
509.021	163.5
509.238	155.5
509.454	156.5
509.67	160.5
509.887	168.5
510.103	169.5
510.319	160.5
510.536	187.5
510.752	162.5
510.968	172.5
511.184	165.5
511.401	151.5
511.617	174.5
511.833	168.5
512.049	168.5
512.265	173.5
512.481	175.5
512.698	164.5
512.914	170.5
513.13	153.5
513.346	149.5
513.562	173.5
513.778	179.5
513.994	152.5
514.21	154.5
514.426	164.5
514.642	151.5
514.858	179.5
515.074	169.5
515.29	169.5
515.506	167.5
515.721	154.5
515.937	166.5
516.153	166.5
516.369	179.5
516.585	189.5
516.801	180.5
517.016	182.5
517.232	199.5
517.448	190.5
517.664	216.5
517.879	212.5
518.095	199.5
518.311	216.5
518.527	186.5
518.742	179.5
518.958	183.5
519.173	179.5
519.389	191.5
519.605	188.5
519.82	180.5
520.036	174.5
520.251	161.5
520.467	174.5
520.682	152.5
520.898	170.5
521.113	173.5
521.329	172.5
521.544	148.5
521.76	161.5
521.975	154.5
522.19	153.5
522.406	181.5
522.621	157.5
