Data from SampG_HRD10591_00007.txt Node
Date: Mon Jan 19 11:53:45 EST 2026
User: Yrep
Spectrometer: HR+D1059
Trigger mode: 0
Integration Time (sec): 3.443000E-1
Scans to average: 1
Electric dark correction enabled: true
Nonlinearity correction enabled: false
Boxcar width: 0
XAxis mode: Wavelengths
Number of Pixels in Spectrum: 2048
>>>>>Begin Spectral Data<<<<<
223.165	-29.75
223.4	-29.75
223.635	-29.75
223.869	-16.75
224.104	-11.75
224.338	-11.75
224.573	-21.75
224.808	-1.75
225.042	-17.75
225.277	-13.75
225.511	3.25
225.746	5.25
225.98	27.25
226.215	11.25
226.449	13.25
226.683	16.25
226.918	21.25
227.152	27.25
227.387	32.25
227.621	44.25
227.856	46.25
228.09	52.25
228.324	55.25
228.559	67.25
228.793	66.25
229.027	66.25
229.262	80.25
229.496	57.25
229.73	74.25
229.964	75.25
230.199	73.25
230.433	68.25
230.667	73.25
230.901	77.25
231.136	84.25
231.37	96.25
231.604	70.25
231.838	78.25
232.072	91.25
232.306	75.25
232.541	76.25
232.775	85.25
233.009	82.25
233.243	90.25
233.477	86.25
233.711	92.25
233.945	89.25
234.179	97.25
234.413	99.25
234.647	96.25
234.881	80.25
235.115	70.25
235.349	74.25
235.583	73.25
235.817	82.25
236.051	96.25
236.285	108.25
236.519	71.25
236.753	82.25
236.987	94.25
237.221	85.25
237.455	68.25
237.689	69.25
237.922	67.25
238.156	80.25
238.39	75.25
238.624	76.25
238.858	82.25
239.091	93.25
239.325	73.25
239.559	86.25
239.793	96.25
240.027	97.25
240.26	75.25
240.494	87.25
240.728	72.25
240.961	67.25
241.195	81.25
241.429	81.25
241.662	69.25
241.896	77.25
242.13	72.25
242.363	71.25
242.597	75.25
242.83	81.25
243.064	82.25
243.298	81.25
243.531	72.25
243.765	88.25
243.998	98.25
244.232	83.25
244.465	80.25
244.699	80.25
244.932	78.25
245.166	75.25
245.399	77.25
245.633	83.25
245.866	77.25
246.099	91.25
246.333	82.25
246.566	80.25
246.8	84.25
247.033	89.25
247.266	93.25
247.5	80.25
247.733	77.25
247.966	90.25
248.2	92.25
248.433	81.25
248.666	82.25
248.899	88.25
249.133	71.25
249.366	92.25
249.599	82.25
249.832	85.25
250.066	98.25
250.299	90.25
250.532	84.25
250.765	84.25
250.998	77.25
251.231	87.25
251.465	77.25
251.698	96.25
251.931	80.25
252.164	89.25
252.397	84.25
252.63	83.25
252.863	84.25
253.096	86.25
253.329	90.25
253.562	83.25
253.795	80.25
254.028	77.25
254.261	86.25
254.494	85.25
254.727	96.25
254.96	95.25
255.193	90.25
255.426	76.25
255.659	94.25
255.892	103.25
256.124	89.25
256.357	85.25
256.59	85.25
256.823	80.25
257.056	86.25
257.289	77.25
257.521	90.25
257.754	78.25
257.987	90.25
258.22	101.25
258.452	81.25
258.685	72.25
258.918	91.25
259.151	81.25
259.383	88.25
259.616	88.25
259.849	97.25
260.081	78.25
260.314	104.25
260.547	90.25
260.779	88.25
261.012	90.25
261.244	108.25
261.477	105.25
261.71	82.25
261.942	84.25
262.175	91.25
262.407	83.25
262.64	94.25
262.872	82.25
263.105	75.25
263.337	93.25
263.57	88.25
263.802	91.25
264.035	80.25
264.267	98.25
264.499	92.25
264.732	95.25
264.964	95.25
265.197	85.25
265.429	83.25
265.661	84.25
265.894	74.25
266.126	96.25
266.358	74.25
266.591	72.25
266.823	102.25
267.055	94.25
267.287	89.25
267.52	87.25
267.752	86.25
267.984	92.25
268.216	76.25
268.448	115.25
268.681	92.25
268.913	77.25
269.145	98.25
269.377	89.25
269.609	93.25
269.841	105.25
270.073	96.25
270.306	76.25
270.538	73.25
270.77	95.25
271.002	100.25
271.234	80.25
271.466	92.25
271.698	95.25
271.93	100.25
272.162	104.25
272.394	89.25
272.626	83.25
272.858	107.25
273.09	106.25
273.322	113.25
273.553	87.25
273.785	96.25
274.017	93.25
274.249	91.25
274.481	92.25
274.713	84.25
274.945	99.25
275.176	101.25
275.408	89.25
275.64	96.25
275.872	77.25
276.104	99.25
276.335	90.25
276.567	86.25
276.799	93.25
277.031	87.25
277.262	96.25
277.494	96.25
277.726	98.25
277.957	85.25
278.189	87.25
278.421	98.25
278.652	93.25
278.884	102.25
279.115	86.25
279.347	91.25
279.579	101.25
279.81	88.25
280.042	94.25
280.273	101.25
280.505	106.25
280.736	88.25
280.968	109.25
281.199	96.25
281.431	88.25
281.662	98.25
281.894	102.25
282.125	109.25
282.356	103.25
282.588	104.25
282.819	90.25
283.051	95.25
283.282	77.25
283.513	99.25
283.745	96.25
283.976	91.25
284.207	94.25
284.439	100.25
284.67	103.25
284.901	100.25
285.132	100.25
285.364	94.25
285.595	97.25
285.826	107.25
286.057	108.25
286.288	100.25
286.52	114.25
286.751	105.25
286.982	103.25
287.213	101.25
287.444	99.25
287.675	102.25
287.906	104.25
288.138	106.25
288.369	113.25
288.6	100.25
288.831	85.25
289.062	115.25
289.293	104.25
289.524	106.25
289.755	89.25
289.986	84.25
290.217	99.25
290.448	90.25
290.679	108.25
290.91	123.25
291.141	96.25
291.371	99.25
291.602	96.25
291.833	102.25
292.064	102.25
292.295	102.25
292.526	97.25
292.757	92.25
292.987	95.25
293.218	100.25
293.449	96.25
293.68	98.25
293.91	101.25
294.141	109.25
294.372	100.25
294.603	82.25
294.833	110.25
295.064	96.25
295.295	85.25
295.525	88.25
295.756	106.25
295.987	98.25
296.217	93.25
296.448	95.25
296.679	100.25
296.909	98.25
297.14	110.25
297.37	105.25
297.601	96.25
297.831	107.25
298.062	107.25
298.292	112.25
298.523	112.25
298.753	98.25
298.984	98.25
299.214	93.25
299.445	102.25
299.675	95.25
299.905	99.25
300.136	104.25
300.366	110.25
300.597	117.25
300.827	108.25
301.057	93.25
301.288	87.25
301.518	105.25
301.748	96.25
301.979	135.25
302.209	105.25
302.439	112.25
302.669	101.25
302.9	96.25
303.13	101.25
303.36	106.25
303.59	98.25
303.82	102.25
304.051	105.25
304.281	119.25
304.511	114.25
304.741	101.25
304.971	106.25
305.201	105.25
305.431	99.25
305.661	105.25
305.891	110.25
306.121	100.25
306.352	109.25
306.582	101.25
306.812	85.25
307.042	109.25
307.272	112.25
307.502	113.25
307.731	100.25
307.961	114.25
308.191	102.25
308.421	101.25
308.651	106.25
308.881	91.25
309.111	96.25
309.341	91.25
309.571	106.25
309.8	102.25
310.03	90.25
310.26	106.25
310.49	97.25
310.72	97.25
310.949	106.25
311.179	113.25
311.409	104.25
311.639	103.25
311.868	110.25
312.098	112.25
312.328	102.25
312.557	111.25
312.787	114.25
313.017	114.25
313.246	121.25
313.476	110.25
313.706	105.25
313.935	106.25
314.165	107.25
314.394	98.25
314.624	113.25
314.853	110.25
315.083	93.25
315.312	122.25
315.542	104.25
315.771	105.25
316.001	110.25
316.23	114.25
316.46	100.25
316.689	112.25
316.919	104.25
317.148	121.25
317.377	99.25
317.607	104.25
317.836	108.25
318.065	110.25
318.295	103.25
318.524	94.25
318.753	118.25
318.983	98.25
319.212	111.25
319.441	104.25
319.67	104.25
319.9	96.25
320.129	105.25
320.358	100.25
320.587	111.25
320.816	114.25
321.046	109.25
321.275	102.25
321.504	118.25
321.733	99.25
321.962	106.25
322.191	93.25
322.42	94.25
322.649	109.25
322.878	113.25
323.108	114.25
323.337	115.25
323.566	105.25
323.795	109.25
324.024	107.25
324.253	105.25
324.482	96.25
324.71	113.25
324.939	111.25
325.168	117.25
325.397	97.25
325.626	106.25
325.855	101.25
326.084	98.25
326.313	105.25
326.542	94.25
326.77	120.25
326.999	101.25
327.228	109.25
327.457	115.25
327.686	117.25
327.914	116.25
328.143	124.25
328.372	110.25
328.6	111.25
328.829	98.25
329.058	111.25
329.287	99.25
329.515	120.25
329.744	114.25
329.972	96.25
330.201	103.25
330.43	108.25
330.658	108.25
330.887	108.25
331.115	120.25
331.344	108.25
331.572	114.25
331.801	126.25
332.03	101.25
332.258	107.25
332.486	115.25
332.715	109.25
332.943	112.25
333.172	118.25
333.4	108.25
333.629	114.25
333.857	122.25
334.085	117.25
334.314	89.25
334.542	108.25
334.771	113.25
334.999	114.25
335.227	113.25
335.455	125.25
335.684	115.25
335.912	115.25
336.14	115.25
336.369	125.25
336.597	126.25
336.825	112.25
337.053	120.25
337.281	105.25
337.51	120.25
337.738	128.25
337.966	114.25
338.194	126.25
338.422	98.25
338.65	117.25
338.878	114.25
339.106	120.25
339.334	114.25
339.562	110.25
339.79	108.25
340.018	107.25
340.246	96.25
340.474	116.25
340.702	113.25
340.93	98.25
341.158	114.25
341.386	106.25
341.614	97.25
341.842	92.25
342.07	103.25
342.298	106.25
342.526	117.25
342.754	133.25
342.981	101.25
343.209	111.25
343.437	138.25
343.665	101.25
343.893	134.25
344.12	115.25
344.348	100.25
344.576	118.25
344.804	109.25
345.031	118.25
345.259	115.25
345.487	118.25
345.714	107.25
345.942	109.25
346.17	101.25
346.397	111.25
346.625	104.25
346.853	111.25
347.08	107.25
347.308	108.25
347.535	114.25
347.763	110.25
347.99	119.25
348.218	115.25
348.445	110.25
348.673	115.25
348.9	112.25
349.128	105.25
349.355	104.25
349.583	100.25
349.81	122.25
350.037	88.25
350.265	108.25
350.492	96.25
350.72	106.25
350.947	106.25
351.174	97.25
351.402	111.25
351.629	117.25
351.856	114.25
352.083	102.25
352.311	115.25
352.538	97.25
352.765	109.25
352.992	138.25
353.22	100.25
353.447	102.25
353.674	116.25
353.901	115.25
354.128	100.25
354.355	104.25
354.583	100.25
354.81	115.25
355.037	106.25
355.264	115.25
355.491	105.25
355.718	110.25
355.945	115.25
356.172	92.25
356.399	108.25
356.626	112.25
356.853	120.25
357.08	116.25
357.307	112.25
357.534	99.25
357.761	121.25
357.988	118.25
358.215	105.25
358.441	109.25
358.668	96.25
358.895	122.25
359.122	107.25
359.349	122.25
359.576	120.25
359.802	95.25
360.029	113.25
360.256	113.25
360.483	86.25
360.709	106.25
360.936	116.25
361.163	121.25
361.39	114.25
361.616	102.25
361.843	110.25
362.07	118.25
362.296	110.25
362.523	90.25
362.749	107.25
362.976	116.25
363.203	111.25
363.429	114.25
363.656	114.25
363.882	102.25
364.109	88.25
364.335	106.25
364.562	100.25
364.788	101.25
365.015	110.25
365.241	99.25
365.468	108.25
365.694	112.25
365.92	110.25
366.147	101.25
366.373	102.25
366.599	108.25
366.826	111.25
367.052	116.25
367.278	106.25
367.505	106.25
367.731	129.25
367.957	108.25
368.184	106.25
368.41	109.25
368.636	119.25
368.862	105.25
369.089	104.25
369.315	105.25
369.541	124.25
369.767	108.25
369.993	116.25
370.219	112.25
370.445	101.25
370.672	104.25
370.898	106.25
371.124	101.25
371.35	98.25
371.576	105.25
371.802	109.25
372.028	102.25
372.254	108.25
372.48	108.25
372.706	108.25
372.932	93.25
373.158	109.25
373.384	118.25
373.61	129.25
373.835	114.25
374.061	90.25
374.287	101.25
374.513	100.25
374.739	108.25
374.965	117.25
375.191	114.25
375.416	107.25
375.642	119.25
375.868	122.25
376.094	130.25
376.319	103.25
376.545	112.25
376.771	116.25
376.997	108.25
377.222	118.25
377.448	98.25
377.674	110.25
377.899	104.25
378.125	99.25
378.35	112.25
378.576	104.25
378.802	113.25
379.027	113.25
379.253	114.25
379.478	108.25
379.704	119.25
379.929	96.25
380.155	116.25
380.38	108.25
380.606	92.25
380.831	121.25
381.057	122.25
381.282	112.25
381.507	110.25
381.733	119.25
381.958	105.25
382.184	111.25
382.409	114.25
382.634	117.25
382.86	125.25
383.085	111.25
383.31	108.25
383.535	115.25
383.761	123.25
383.986	116.25
384.211	114.25
384.436	111.25
384.662	100.25
384.887	112.25
385.112	122.25
385.337	123.25
385.562	124.25
385.787	124.25
386.013	115.25
386.238	102.25
386.463	120.25
386.688	146.25
386.913	119.25
387.138	121.25
387.363	120.25
387.588	127.25
387.813	121.25
388.038	114.25
388.263	115.25
388.488	110.25
388.713	120.25
388.938	112.25
389.163	120.25
389.387	111.25
389.612	113.25
389.837	106.25
390.062	116.25
390.287	117.25
390.512	129.25
390.736	109.25
390.961	103.25
391.186	116.25
391.411	113.25
391.636	109.25
391.86	124.25
392.085	118.25
392.31	125.25
392.534	130.25
392.759	115.25
392.984	118.25
393.208	117.25
393.433	118.25
393.658	109.25
393.882	116.25
394.107	119.25
394.331	121.25
394.556	116.25
394.78	110.25
395.005	115.25
395.229	124.25
395.454	122.25
395.678	111.25
395.903	140.25
396.127	121.25
396.352	100.25
396.576	112.25
396.801	123.25
397.025	114.25
397.249	114.25
397.474	137.25
397.698	117.25
397.922	126.25
398.147	110.25
398.371	119.25
398.595	109.25
398.82	120.25
399.044	134.25
399.268	150.25
399.492	159.25
399.717	165.25
399.941	157.25
400.165	138.25
400.389	147.25
400.613	138.25
400.837	133.25
401.062	120.25
401.286	135.25
401.51	126.25
401.734	122.25
401.958	109.25
402.182	119.25
402.406	120.25
402.63	128.25
402.854	132.25
403.078	138.25
403.302	126.25
403.526	137.25
403.75	154.25
403.974	135.25
404.198	133.25
404.422	148.25
404.645	126.25
404.869	130.25
405.093	131.25
405.317	131.25
405.541	140.25
405.765	137.25
405.988	137.25
406.212	146.25
406.436	140.25
406.66	138.25
406.883	134.25
407.107	116.25
407.331	141.25
407.555	149.25
407.778	133.25
408.002	132.25
408.226	129.25
408.449	120.25
408.673	132.25
408.896	128.25
409.12	117.25
409.344	133.25
409.567	132.25
409.791	140.25
410.014	143.25
410.238	134.25
410.461	133.25
410.685	117.25
410.908	145.25
411.132	129.25
411.355	128.25
411.578	140.25
411.802	121.25
412.025	128.25
412.249	126.25
412.472	115.25
412.695	125.25
412.919	115.25
413.142	128.25
413.365	118.25
413.589	129.25
413.812	118.25
414.035	134.25
414.258	119.25
414.482	128.25
414.705	132.25
414.928	131.25
415.151	125.25
415.374	139.25
415.597	125.25
415.821	123.25
416.044	120.25
416.267	130.25
416.49	121.25
416.713	118.25
416.936	123.25
417.159	144.25
417.382	137.25
417.605	115.25
417.828	136.25
418.051	127.25
418.274	147.25
418.497	132.25
418.72	117.25
418.943	133.25
419.166	122.25
419.389	136.25
419.611	126.25
419.834	126.25
420.057	134.25
420.28	126.25
420.503	125.25
420.726	134.25
420.948	131.25
421.171	128.25
421.394	129.25
421.617	138.25
421.839	128.25
422.062	136.25
422.285	129.25
422.507	121.25
422.73	121.25
422.953	124.25
423.175	132.25
423.398	133.25
423.621	150.25
423.843	131.25
424.066	123.25
424.288	118.25
424.511	119.25
424.733	125.25
424.956	141.25
425.178	132.25
425.401	112.25
425.623	117.25
425.846	113.25
426.068	117.25
426.291	115.25
426.513	117.25
426.735	125.25
426.958	127.25
427.18	123.25
427.402	123.25
427.625	132.25
427.847	135.25
428.069	135.25
428.292	123.25
428.514	121.25
428.736	121.25
428.958	122.25
429.181	118.25
429.403	124.25
429.625	119.25
429.847	121.25
430.069	124.25
430.292	116.25
430.514	126.25
430.736	118.25
430.958	117.25
431.18	110.25
431.402	131.25
431.624	115.25
431.846	122.25
432.068	104.25
432.29	127.25
432.512	119.25
432.734	123.25
432.956	121.25
433.178	124.25
433.4	127.25
433.622	126.25
433.844	137.25
434.066	125.25
434.287	121.25
434.509	135.25
434.731	147.25
434.953	138.25
435.175	124.25
435.397	129.25
435.618	126.25
435.84	127.25
436.062	112.25
436.284	119.25
436.505	119.25
436.727	122.25
436.949	117.25
437.17	117.25
437.392	117.25
437.614	118.25
437.835	116.25
438.057	116.25
438.278	113.25
438.5	120.25
438.721	115.25
438.943	131.25
439.165	112.25
439.386	107.25
439.608	118.25
439.829	115.25
440.05	133.25
440.272	119.25
440.493	128.25
440.715	132.25
440.936	126.25
441.158	129.25
441.379	118.25
441.6	138.25
441.822	122.25
442.043	118.25
442.264	123.25
442.486	128.25
442.707	125.25
442.928	132.25
443.149	125.25
443.371	138.25
443.592	140.25
443.813	130.25
444.034	126.25
444.255	129.25
444.476	127.25
444.698	128.25
444.919	121.25
445.14	407.25
445.361	244.25
445.582	127.25
445.803	121.25
446.024	130.25
446.245	121.25
446.466	127.25
446.687	108.25
446.908	113.25
447.129	116.25
447.35	123.25
447.571	125.25
447.792	111.25
448.013	104.25
448.234	115.25
448.455	123.25
448.675	113.25
448.896	110.25
449.117	114.25
449.338	119.25
449.559	120.25
449.779	122.25
450	115.25
450.221	121.25
450.442	118.25
450.662	114.25
450.883	110.25
451.104	117.25
451.324	103.25
451.545	103.25
451.766	123.25
451.986	102.25
452.207	119.25
452.428	107.25
452.648	124.25
452.869	106.25
453.089	123.25
453.31	107.25
453.53	111.25
453.751	117.25
453.971	108.25
454.192	119.25
454.412	121.25
454.633	128.25
454.853	116.25
455.073	106.25
455.294	117.25
455.514	117.25
455.734	114.25
455.955	127.25
456.175	107.25
456.395	110.25
456.616	109.25
456.836	116.25
457.056	118.25
457.276	113.25
457.497	124.25
457.717	112.25
457.937	117.25
458.157	110.25
458.377	123.25
458.598	109.25
458.818	112.25
459.038	115.25
459.258	123.25
459.478	113.25
459.698	125.25
459.918	127.25
460.138	124.25
460.358	147.25
460.578	136.25
460.798	126.25
461.018	136.25
461.238	133.25
461.458	126.25
461.678	137.25
461.898	123.25
462.118	134.25
462.338	130.25
462.558	122.25
462.777	149.25
462.997	135.25
463.217	149.25
463.437	150.25
463.657	138.25
463.876	146.25
464.096	139.25
464.316	148.25
464.536	145.25
464.755	137.25
464.975	123.25
465.195	123.25
465.414	125.25
465.634	125.25
465.854	116.25
466.073	112.25
466.293	120.25
466.512	112.25
466.732	102.25
466.951	119.25
467.171	127.25
467.391	96.25
467.61	110.25
467.829	121.25
468.049	116.25
468.268	114.25
468.488	111.25
468.707	107.25
468.927	113.25
469.146	102.25
469.365	114.25
469.585	115.25
469.804	113.25
470.023	123.25
470.243	123.25
470.462	139.25
470.681	121.25
470.901	126.25
471.12	113.25
471.339	124.25
471.558	114.25
471.777	109.25
471.997	125.25
472.216	120.25
472.435	110.25
472.654	110.25
472.873	123.25
473.092	101.25
473.311	119.25
473.53	107.25
473.749	97.25
473.968	135.25
474.187	105.25
474.406	127.25
474.625	120.25
474.844	110.25
475.063	111.25
475.282	125.25
475.501	108.25
475.72	110.25
475.939	113.25
476.158	114.25
476.377	116.25
476.596	119.25
476.814	109.25
477.033	125.25
477.252	131.25
477.471	127.25
477.69	134.25
477.908	148.25
478.127	136.25
478.346	117.25
478.564	122.25
478.783	122.25
479.002	118.25
479.22	142.25
479.439	134.25
479.658	144.25
479.876	147.25
480.095	114.25
480.313	130.25
480.532	122.25
480.751	133.25
480.969	122.25
481.188	115.25
481.406	128.25
481.624	124.25
481.843	123.25
482.061	123.25
482.28	129.25
482.498	113.25
482.717	123.25
482.935	135.25
483.153	122.25
483.372	122.25
483.59	121.25
483.808	131.25
484.027	134.25
484.245	124.25
484.463	125.25
484.681	140.25
484.9	127.25
485.118	141.25
485.336	118.25
485.554	134.25
485.772	117.25
485.99	140.25
486.209	131.25
486.427	124.25
486.645	115.25
486.863	127.25
487.081	123.25
487.299	130.25
487.517	125.25
487.735	122.25
487.953	126.25
488.171	151.25
488.389	130.25
488.607	114.25
488.825	120.25
489.043	122.25
489.261	141.25
489.479	129.25
489.696	139.25
489.914	130.25
490.132	134.25
490.35	138.25
490.568	120.25
490.786	124.25
491.003	126.25
491.221	130.25
491.439	132.25
491.657	115.25
491.874	131.25
492.092	121.25
492.31	122.25
492.527	134.25
492.745	139.25
492.963	129.25
493.18	129.25
493.398	128.25
493.615	135.25
493.833	134.25
494.05	132.25
494.268	126.25
494.485	134.25
494.703	131.25
494.92	126.25
495.138	124.25
495.355	156.25
495.573	145.25
495.79	132.25
496.008	129.25
496.225	130.25
496.442	124.25
496.66	153.25
496.877	132.25
497.094	137.25
497.312	128.25
497.529	130.25
497.746	157.25
497.963	134.25
498.181	147.25
498.398	132.25
498.615	157.25
498.832	149.25
499.049	161.25
499.267	169.25
499.484	179.25
499.701	187.25
499.918	204.25
500.135	213.25
500.352	252.25
500.569	241.25
500.786	234.25
501.003	220.25
501.22	197.25
501.437	185.25
501.654	182.25
501.871	174.25
502.088	166.25
502.305	149.25
502.522	149.25
502.739	149.25
502.956	163.25
503.172	149.25
503.389	141.25
503.606	150.25
503.823	138.25
504.04	141.25
504.256	123.25
504.473	153.25
504.69	144.25
504.907	155.25
505.123	133.25
505.34	132.25
505.557	147.25
505.773	115.25
505.99	124.25
506.207	104.25
506.423	126.25
506.64	132.25
506.856	119.25
