Data from SampG_HRD10591_00059.txt Node
Date: Mon Jan 19 11:54:03 EST 2026
User: Yrep
Spectrometer: HR+D1059
Trigger mode: 0
Integration Time (sec): 3.443000E-1
Scans to average: 1
Electric dark correction enabled: true
Nonlinearity correction enabled: false
Boxcar width: 0
XAxis mode: Wavelengths
Number of Pixels in Spectrum: 2048
>>>>>Begin Spectral Data<<<<<
223.165	-15.25
223.4	-15.25
223.635	-15.25
223.869	-18.25
224.104	-25.25
224.338	-14.25
224.573	-15.25
224.808	-19.25
225.042	-9.25
225.277	-10.25
225.511	-0.25
225.746	13.75
225.98	10.75
226.215	13.75
226.449	18.75
226.683	6.75
226.918	28.75
227.152	34.75
227.387	35.75
227.621	41.75
227.856	40.75
228.09	42.75
228.324	46.75
228.559	63.75
228.793	61.75
229.027	73.75
229.262	72.75
229.496	72.75
229.73	58.75
229.964	82.75
230.199	64.75
230.433	70.75
230.667	85.75
230.901	83.75
231.136	84.75
231.37	82.75
231.604	81.75
231.838	81.75
232.072	90.75
232.306	78.75
232.541	77.75
232.775	78.75
233.009	76.75
233.243	65.75
233.477	81.75
233.711	69.75
233.945	89.75
234.179	82.75
234.413	92.75
234.647	80.75
234.881	69.75
235.115	73.75
235.349	68.75
235.583	84.75
235.817	84.75
236.051	73.75
236.285	72.75
236.519	72.75
236.753	86.75
236.987	90.75
237.221	84.75
237.455	76.75
237.689	90.75
237.922	80.75
238.156	82.75
238.39	74.75
238.624	74.75
238.858	88.75
239.091	88.75
239.325	86.75
239.559	74.75
239.793	86.75
240.027	74.75
240.26	74.75
240.494	81.75
240.728	68.75
240.961	76.75
241.195	82.75
241.429	96.75
241.662	81.75
241.896	74.75
242.13	83.75
242.363	88.75
242.597	91.75
242.83	91.75
243.064	80.75
243.298	77.75
243.531	70.75
243.765	101.75
243.998	96.75
244.232	104.75
244.465	79.75
244.699	91.75
244.932	88.75
245.166	85.75
245.399	88.75
245.633	73.75
245.866	71.75
246.099	82.75
246.333	84.75
246.566	78.75
246.8	93.75
247.033	98.75
247.266	60.75
247.5	88.75
247.733	86.75
247.966	77.75
248.2	93.75
248.433	90.75
248.666	76.75
248.899	93.75
249.133	83.75
249.366	99.75
249.599	85.75
249.832	76.75
250.066	96.75
250.299	96.75
250.532	93.75
250.765	80.75
250.998	78.75
251.231	85.75
251.465	86.75
251.698	74.75
251.931	100.75
252.164	87.75
252.397	87.75
252.63	76.75
252.863	84.75
253.096	92.75
253.329	99.75
253.562	86.75
253.795	107.75
254.028	98.75
254.261	97.75
254.494	88.75
254.727	100.75
254.96	88.75
255.193	104.75
255.426	97.75
255.659	89.75
255.892	88.75
256.124	80.75
256.357	83.75
256.59	94.75
256.823	91.75
257.056	83.75
257.289	90.75
257.521	76.75
257.754	96.75
257.987	84.75
258.22	106.75
258.452	93.75
258.685	107.75
258.918	92.75
259.151	83.75
259.383	91.75
259.616	91.75
259.849	83.75
260.081	95.75
260.314	107.75
260.547	85.75
260.779	100.75
261.012	89.75
261.244	102.75
261.477	103.75
261.71	94.75
261.942	105.75
262.175	94.75
262.407	90.75
262.64	92.75
262.872	108.75
263.105	80.75
263.337	105.75
263.57	108.75
263.802	106.75
264.035	92.75
264.267	89.75
264.499	76.75
264.732	102.75
264.964	103.75
265.197	104.75
265.429	91.75
265.661	96.75
265.894	98.75
266.126	111.75
266.358	92.75
266.591	87.75
266.823	95.75
267.055	97.75
267.287	103.75
267.52	106.75
267.752	98.75
267.984	109.75
268.216	100.75
268.448	99.75
268.681	92.75
268.913	113.75
269.145	104.75
269.377	104.75
269.609	99.75
269.841	96.75
270.073	93.75
270.306	98.75
270.538	96.75
270.77	92.75
271.002	97.75
271.234	101.75
271.466	113.75
271.698	109.75
271.93	99.75
272.162	104.75
272.394	101.75
272.626	94.75
272.858	104.75
273.09	104.75
273.322	100.75
273.553	101.75
273.785	101.75
274.017	107.75
274.249	103.75
274.481	104.75
274.713	93.75
274.945	111.75
275.176	96.75
275.408	97.75
275.64	101.75
275.872	103.75
276.104	107.75
276.335	115.75
276.567	109.75
276.799	97.75
277.031	86.75
277.262	101.75
277.494	101.75
277.726	116.75
277.957	109.75
278.189	98.75
278.421	110.75
278.652	113.75
278.884	108.75
279.115	90.75
279.347	95.75
279.579	103.75
279.81	105.75
280.042	102.75
280.273	110.75
280.505	120.75
280.736	119.75
280.968	100.75
281.199	102.75
281.431	107.75
281.662	113.75
281.894	101.75
282.125	113.75
282.356	100.75
282.588	103.75
282.819	105.75
283.051	104.75
283.282	105.75
283.513	134.75
283.745	104.75
283.976	105.75
284.207	116.75
284.439	120.75
284.67	121.75
284.901	117.75
285.132	89.75
285.364	99.75
285.595	103.75
285.826	99.75
286.057	124.75
286.288	112.75
286.52	99.75
286.751	116.75
286.982	112.75
287.213	98.75
287.444	123.75
287.675	112.75
287.906	110.75
288.138	109.75
288.369	122.75
288.6	107.75
288.831	102.75
289.062	112.75
289.293	109.75
289.524	116.75
289.755	108.75
289.986	95.75
290.217	120.75
290.448	122.75
290.679	122.75
290.91	101.75
291.141	113.75
291.371	113.75
291.602	125.75
291.833	117.75
292.064	112.75
292.295	97.75
292.526	137.75
292.757	118.75
292.987	118.75
293.218	113.75
293.449	100.75
293.68	116.75
293.91	116.75
294.141	136.75
294.372	110.75
294.603	117.75
294.833	93.75
295.064	106.75
295.295	111.75
295.525	125.75
295.756	128.75
295.987	116.75
296.217	117.75
296.448	111.75
296.679	121.75
296.909	122.75
297.14	131.75
297.37	125.75
297.601	124.75
297.831	113.75
298.062	109.75
298.292	118.75
298.523	133.75
298.753	136.75
298.984	116.75
299.214	123.75
299.445	106.75
299.675	111.75
299.905	109.75
300.136	125.75
300.366	128.75
300.597	129.75
300.827	112.75
301.057	113.75
301.288	101.75
301.518	125.75
301.748	127.75
301.979	168.75
302.209	124.75
302.439	131.75
302.669	122.75
302.9	124.75
303.13	120.75
303.36	104.75
303.59	129.75
303.82	123.75
304.051	117.75
304.281	119.75
304.511	122.75
304.741	108.75
304.971	117.75
305.201	132.75
305.431	109.75
305.661	115.75
305.891	116.75
306.121	141.75
306.352	124.75
306.582	130.75
306.812	132.75
307.042	104.75
307.272	116.75
307.502	107.75
307.731	128.75
307.961	130.75
308.191	112.75
308.421	135.75
308.651	141.75
308.881	122.75
309.111	105.75
309.341	114.75
309.571	120.75
309.8	109.75
310.03	124.75
310.26	119.75
310.49	133.75
310.72	118.75
310.949	127.75
311.179	126.75
311.409	109.75
311.639	103.75
311.868	130.75
312.098	135.75
312.328	140.75
312.557	134.75
312.787	127.75
313.017	135.75
313.246	113.75
313.476	135.75
313.706	117.75
313.935	128.75
314.165	141.75
314.394	120.75
314.624	117.75
314.853	117.75
315.083	116.75
315.312	117.75
315.542	121.75
315.771	103.75
316.001	120.75
316.23	137.75
316.46	120.75
316.689	115.75
316.919	138.75
317.148	119.75
317.377	129.75
317.607	122.75
317.836	120.75
318.065	125.75
318.295	118.75
318.524	105.75
318.753	120.75
318.983	123.75
319.212	118.75
319.441	132.75
319.67	123.75
319.9	117.75
320.129	113.75
320.358	115.75
320.587	125.75
320.816	120.75
321.046	116.75
321.275	122.75
321.504	129.75
321.733	136.75
321.962	126.75
322.191	132.75
322.42	117.75
322.649	134.75
322.878	132.75
323.108	120.75
323.337	129.75
323.566	125.75
323.795	115.75
324.024	125.75
324.253	117.75
324.482	124.75
324.71	139.75
324.939	133.75
325.168	129.75
325.397	128.75
325.626	124.75
325.855	125.75
326.084	125.75
326.313	142.75
326.542	140.75
326.77	122.75
326.999	128.75
327.228	121.75
327.457	142.75
327.686	136.75
327.914	147.75
328.143	133.75
328.372	114.75
328.6	145.75
328.829	126.75
329.058	140.75
329.287	132.75
329.515	124.75
329.744	133.75
329.972	128.75
330.201	141.75
330.43	136.75
330.658	129.75
330.887	128.75
331.115	136.75
331.344	133.75
331.572	133.75
331.801	135.75
332.03	122.75
332.258	136.75
332.486	140.75
332.715	136.75
332.943	147.75
333.172	153.75
333.4	148.75
333.629	155.75
333.857	148.75
334.085	147.75
334.314	149.75
334.542	146.75
334.771	128.75
334.999	142.75
335.227	147.75
335.455	147.75
335.684	157.75
335.912	162.75
336.14	148.75
336.369	140.75
336.597	153.75
336.825	151.75
337.053	142.75
337.281	142.75
337.51	129.75
337.738	146.75
337.966	128.75
338.194	132.75
338.422	130.75
338.65	139.75
338.878	132.75
339.106	124.75
339.334	122.75
339.562	135.75
339.79	129.75
340.018	134.75
340.246	123.75
340.474	115.75
340.702	126.75
340.93	146.75
341.158	148.75
341.386	133.75
341.614	120.75
341.842	116.75
342.07	130.75
342.298	124.75
342.526	125.75
342.754	138.75
342.981	127.75
343.209	140.75
343.437	177.75
343.665	129.75
343.893	148.75
344.12	152.75
344.348	142.75
344.576	142.75
344.804	130.75
345.031	131.75
345.259	130.75
345.487	144.75
345.714	137.75
345.942	137.75
346.17	130.75
346.397	122.75
346.625	130.75
346.853	116.75
347.08	128.75
347.308	138.75
347.535	134.75
347.763	132.75
347.99	145.75
348.218	138.75
348.445	127.75
348.673	130.75
348.9	134.75
349.128	129.75
349.355	125.75
349.583	128.75
349.81	125.75
350.037	142.75
350.265	118.75
350.492	136.75
350.72	123.75
350.947	117.75
351.174	124.75
351.402	125.75
351.629	117.75
351.856	114.75
352.083	114.75
352.311	146.75
352.538	110.75
352.765	139.75
352.992	135.75
353.22	141.75
353.447	119.75
353.674	128.75
353.901	121.75
354.128	144.75
354.355	114.75
354.583	115.75
354.81	128.75
355.037	127.75
355.264	130.75
355.491	140.75
355.718	123.75
355.945	142.75
356.172	120.75
356.399	133.75
356.626	125.75
356.853	140.75
357.08	117.75
357.307	121.75
357.534	125.75
357.761	131.75
357.988	122.75
358.215	115.75
358.441	114.75
358.668	126.75
358.895	130.75
359.122	123.75
359.349	127.75
359.576	132.75
359.802	115.75
360.029	128.75
360.256	123.75
360.483	129.75
360.709	125.75
360.936	151.75
361.163	138.75
361.39	133.75
361.616	136.75
361.843	125.75
362.07	140.75
362.296	138.75
362.523	146.75
362.749	116.75
362.976	128.75
363.203	124.75
363.429	128.75
363.656	140.75
363.882	128.75
364.109	129.75
364.335	104.75
364.562	119.75
364.788	130.75
365.015	129.75
365.241	134.75
365.468	125.75
365.694	133.75
365.92	131.75
366.147	128.75
366.373	137.75
366.599	127.75
366.826	118.75
367.052	130.75
367.278	130.75
367.505	130.75
367.731	153.75
367.957	138.75
368.184	110.75
368.41	114.75
368.636	127.75
368.862	139.75
369.089	131.75
369.315	128.75
369.541	122.75
369.767	137.75
369.993	129.75
370.219	129.75
370.445	122.75
370.672	118.75
370.898	127.75
371.124	127.75
371.35	141.75
371.576	129.75
371.802	126.75
372.028	135.75
372.254	135.75
372.48	138.75
372.706	131.75
372.932	130.75
373.158	123.75
373.384	147.75
373.61	150.75
373.835	142.75
374.061	130.75
374.287	131.75
374.513	136.75
374.739	134.75
374.965	126.75
375.191	154.75
375.416	143.75
375.642	137.75
375.868	153.75
376.094	128.75
376.319	128.75
376.545	123.75
376.771	131.75
376.997	151.75
377.222	158.75
377.448	141.75
377.674	136.75
377.899	124.75
378.125	127.75
378.35	135.75
378.576	132.75
378.802	133.75
379.027	130.75
379.253	141.75
379.478	135.75
379.704	134.75
379.929	130.75
380.155	121.75
380.38	107.75
380.606	126.75
380.831	130.75
381.057	142.75
381.282	126.75
381.507	129.75
381.733	141.75
381.958	130.75
382.184	126.75
382.409	126.75
382.634	141.75
382.86	121.75
383.085	148.75
383.31	152.75
383.535	161.75
383.761	151.75
383.986	126.75
384.211	135.75
384.436	152.75
384.662	147.75
384.887	155.75
385.112	145.75
385.337	155.75
385.562	148.75
385.787	136.75
386.013	162.75
386.238	162.75
386.463	141.75
386.688	182.75
386.913	137.75
387.138	141.75
387.363	155.75
387.588	166.75
387.813	142.75
388.038	144.75
388.263	139.75
388.488	153.75
388.713	133.75
388.938	130.75
389.163	140.75
389.387	140.75
389.612	136.75
389.837	136.75
390.062	153.75
390.287	150.75
390.512	139.75
390.736	146.75
390.961	148.75
391.186	154.75
391.411	140.75
391.636	162.75
391.86	166.75
392.085	155.75
392.31	156.75
392.534	152.75
392.759	168.75
392.984	155.75
393.208	150.75
393.433	162.75
393.658	166.75
393.882	139.75
394.107	153.75
394.331	156.75
394.556	146.75
394.78	154.75
395.005	146.75
395.229	144.75
395.454	163.75
395.678	154.75
395.903	150.75
396.127	151.75
396.352	160.75
396.576	138.75
396.801	154.75
397.025	161.75
397.249	150.75
397.474	168.75
397.698	164.75
397.922	159.75
398.147	146.75
398.371	161.75
398.595	171.75
398.82	170.75
399.044	161.75
399.268	181.75
399.492	204.75
399.717	228.75
399.941	202.75
400.165	196.75
400.389	194.75
400.613	174.75
400.837	168.75
401.062	170.75
401.286	173.75
401.51	165.75
401.734	161.75
401.958	149.75
402.182	168.75
402.406	164.75
402.63	169.75
402.854	162.75
403.078	170.75
403.302	185.75
403.526	187.75
403.75	180.75
403.974	188.75
404.198	178.75
404.422	175.75
404.645	190.75
404.869	184.75
405.093	170.75
405.317	174.75
405.541	178.75
405.765	180.75
405.988	181.75
406.212	185.75
406.436	180.75
406.66	200.75
406.883	194.75
407.107	193.75
407.331	196.75
407.555	176.75
407.778	195.75
408.002	185.75
408.226	184.75
408.449	172.75
408.673	164.75
408.896	184.75
409.12	176.75
409.344	194.75
409.567	190.75
409.791	177.75
410.014	167.75
410.238	177.75
410.461	179.75
410.685	163.75
410.908	152.75
411.132	175.75
411.355	187.75
411.578	182.75
411.802	177.75
412.025	189.75
412.249	162.75
412.472	172.75
412.695	171.75
412.919	159.75
413.142	167.75
413.365	169.75
413.589	182.75
413.812	175.75
414.035	181.75
414.258	149.75
414.482	169.75
414.705	165.75
414.928	179.75
415.151	182.75
415.374	158.75
415.597	161.75
415.821	152.75
416.044	163.75
416.267	152.75
416.49	159.75
416.713	156.75
416.936	172.75
417.159	172.75
417.382	178.75
417.605	165.75
417.828	166.75
418.051	164.75
418.274	166.75
418.497	161.75
418.72	174.75
418.943	194.75
419.166	180.75
419.389	173.75
419.611	173.75
419.834	183.75
420.057	175.75
420.28	182.75
420.503	176.75
420.726	168.75
420.948	169.75
421.171	168.75
421.394	151.75
421.617	171.75
421.839	171.75
422.062	174.75
422.285	155.75
422.507	179.75
422.73	164.75
422.953	159.75
423.175	164.75
423.398	165.75
423.621	173.75
423.843	178.75
424.066	174.75
424.288	177.75
424.511	168.75
424.733	173.75
424.956	164.75
425.178	156.75
425.401	170.75
425.623	173.75
425.846	149.75
426.068	169.75
426.291	139.75
426.513	160.75
426.735	167.75
426.958	150.75
427.18	163.75
427.402	168.75
427.625	155.75
427.847	163.75
428.069	160.75
428.292	167.75
428.514	163.75
428.736	139.75
428.958	146.75
429.181	132.75
429.403	154.75
429.625	162.75
429.847	140.75
430.069	144.75
430.292	131.75
430.514	146.75
430.736	143.75
430.958	165.75
431.18	161.75
431.402	169.75
431.624	145.75
431.846	136.75
432.068	172.75
432.29	149.75
432.512	160.75
432.734	158.75
432.956	153.75
433.178	153.75
433.4	157.75
433.622	177.75
433.844	163.75
434.066	175.75
434.287	141.75
434.509	150.75
434.731	162.75
434.953	164.75
435.175	156.75
435.397	169.75
435.618	157.75
435.84	155.75
436.062	156.75
436.284	144.75
436.505	137.75
436.727	129.75
436.949	167.75
437.17	162.75
437.392	146.75
437.614	152.75
437.835	154.75
438.057	150.75
438.278	145.75
438.5	145.75
438.721	161.75
438.943	154.75
439.165	164.75
439.386	153.75
439.608	164.75
439.829	144.75
440.05	168.75
440.272	168.75
440.493	159.75
440.715	159.75
440.936	170.75
441.158	171.75
441.379	156.75
441.6	174.75
441.822	167.75
442.043	169.75
442.264	162.75
442.486	155.75
442.707	167.75
442.928	160.75
443.149	161.75
443.371	164.75
443.592	164.75
443.813	168.75
444.034	167.75
444.255	164.75
444.476	184.75
444.698	192.75
444.919	177.75
445.14	408.75
445.361	250.75
445.582	188.75
445.803	155.75
446.024	148.75
446.245	157.75
446.466	172.75
446.687	148.75
446.908	162.75
447.129	171.75
447.35	149.75
447.571	152.75
447.792	138.75
448.013	142.75
448.234	153.75
448.455	133.75
448.675	157.75
448.896	152.75
449.117	150.75
449.338	162.75
449.559	151.75
449.779	147.75
450	142.75
450.221	138.75
450.442	136.75
450.662	163.75
450.883	148.75
451.104	164.75
451.324	145.75
451.545	131.75
451.766	146.75
451.986	162.75
452.207	155.75
452.428	147.75
452.648	161.75
452.869	152.75
453.089	155.75
453.31	138.75
453.53	146.75
453.751	138.75
453.971	141.75
454.192	135.75
454.412	142.75
454.633	135.75
454.853	137.75
455.073	139.75
455.294	136.75
455.514	152.75
455.734	130.75
455.955	139.75
456.175	141.75
456.395	132.75
456.616	135.75
456.836	147.75
457.056	146.75
457.276	146.75
457.497	136.75
457.717	152.75
457.937	147.75
458.157	150.75
458.377	139.75
458.598	146.75
458.818	154.75
459.038	142.75
459.258	170.75
459.478	148.75
459.698	124.75
459.918	176.75
460.138	173.75
460.358	151.75
460.578	175.75
460.798	180.75
461.018	181.75
461.238	168.75
461.458	178.75
461.678	170.75
461.898	168.75
462.118	162.75
462.338	194.75
462.558	178.75
462.777	171.75
462.997	197.75
463.217	214.75
463.437	200.75
463.657	204.75
463.876	192.75
464.096	195.75
464.316	198.75
464.536	203.75
464.755	196.75
464.975	155.75
465.195	172.75
465.414	174.75
465.634	170.75
465.854	146.75
466.073	143.75
466.293	158.75
466.512	139.75
466.732	160.75
466.951	157.75
467.171	149.75
467.391	152.75
467.61	149.75
467.829	164.75
468.049	175.75
468.268	141.75
468.488	143.75
468.707	160.75
468.927	143.75
469.146	137.75
469.365	153.75
469.585	143.75
469.804	154.75
470.023	144.75
470.243	171.75
470.462	146.75
470.681	157.75
470.901	160.75
471.12	144.75
471.339	134.75
471.558	137.75
471.777	139.75
471.997	156.75
472.216	168.75
472.435	154.75
472.654	133.75
472.873	153.75
473.092	146.75
473.311	139.75
473.53	136.75
473.749	131.75
473.968	172.75
474.187	145.75
474.406	149.75
474.625	142.75
474.844	149.75
475.063	145.75
475.282	153.75
475.501	147.75
475.72	162.75
475.939	145.75
476.158	142.75
476.377	149.75
476.596	150.75
476.814	135.75
477.033	151.75
477.252	158.75
477.471	147.75
477.69	168.75
477.908	170.75
478.127	170.75
478.346	163.75
478.564	172.75
478.783	164.75
479.002	170.75
479.22	181.75
479.439	181.75
479.658	163.75
479.876	162.75
480.095	171.75
480.313	172.75
480.532	178.75
480.751	173.75
480.969	152.75
481.188	177.75
481.406	163.75
481.624	162.75
481.843	168.75
482.061	169.75
482.28	169.75
482.498	156.75
482.717	162.75
482.935	158.75
483.153	157.75
483.372	182.75
483.59	163.75
483.808	164.75
484.027	166.75
484.245	180.75
484.463	163.75
484.681	171.75
484.9	160.75
485.118	181.75
485.336	152.75
485.554	172.75
485.772	175.75
485.99	153.75
486.209	162.75
486.427	158.75
486.645	164.75
486.863	162.75
487.081	161.75
487.299	152.75
487.517	162.75
487.735	173.75
487.953	156.75
488.171	165.75
488.389	156.75
488.607	161.75
488.825	144.75
489.043	169.75
489.261	159.75
489.479	167.75
489.696	168.75
489.914	168.75
490.132	163.75
490.35	163.75
490.568	168.75
490.786	142.75
491.003	168.75
491.221	170.75
491.439	163.75
491.657	173.75
491.874	180.75
492.092	188.75
492.31	167.75
492.527	165.75
492.745	178.75
492.963	184.75
493.18	163.75
493.398	182.75
493.615	163.75
493.833	172.75
494.05	175.75
494.268	169.75
494.485	168.75
494.703	170.75
494.92	163.75
495.138	162.75
495.355	184.75
495.573	162.75
495.79	175.75
496.008	185.75
496.225	166.75
496.442	156.75
496.66	173.75
496.877	177.75
497.094	182.75
497.312	178.75
497.529	192.75
497.746	194.75
497.963	192.75
498.181	188.75
498.398	180.75
498.615	215.75
498.832	215.75
499.049	214.75
499.267	235.75
499.484	268.75
499.701	283.75
499.918	298.75
500.135	336.75
500.352	392.75
500.569	353.75
500.786	370.75
501.003	348.75
501.22	295.75
501.437	288.75
501.654	265.75
501.871	220.75
502.088	221.75
502.305	222.75
502.522	202.75
502.739	198.75
502.956	204.75
503.172	175.75
503.389	194.75
503.606	202.75
503.823	193.75
504.04	194.75
504.256	192.75
504.473	192.75
504.69	211.75
504.907	201.75
505.123	180.75
