Data from SampG_HRD10591_00036.txt Node
Date: Mon Jan 19 11:53:55 EST 2026
User: Yrep
Spectrometer: HR+D1059
Trigger mode: 0
Integration Time (sec): 3.443000E-1
Scans to average: 1
Electric dark correction enabled: true
Nonlinearity correction enabled: false
Boxcar width: 0
XAxis mode: Wavelengths
Number of Pixels in Spectrum: 2048
>>>>>Begin Spectral Data<<<<<
223.165	-16.12
223.4	-16.12
223.635	-16.12
223.869	-8.12
224.104	-17.12
224.338	-14.12
224.573	-25.12
224.808	-22.12
225.042	-8.12
225.277	2.88
225.511	3.88
225.746	-0.12
225.98	5.88
226.215	9.88
226.449	10.88
226.683	18.88
226.918	20.88
227.152	37.88
227.387	20.88
227.621	33.88
227.856	45.88
228.09	36.88
228.324	53.88
228.559	58.88
228.793	80.88
229.027	70.88
229.262	47.88
229.496	76.88
229.73	68.88
229.964	79.88
230.199	69.88
230.433	64.88
230.667	92.88
230.901	87.88
231.136	82.88
231.37	90.88
231.604	86.88
231.838	82.88
232.072	94.88
232.306	102.88
232.541	77.88
232.775	87.88
233.009	81.88
233.243	84.88
233.477	88.88
233.711	81.88
233.945	85.88
234.179	85.88
234.413	87.88
234.647	84.88
234.881	92.88
235.115	87.88
235.349	86.88
235.583	90.88
235.817	72.88
236.051	70.88
236.285	85.88
236.519	96.88
236.753	91.88
236.987	81.88
237.221	77.88
237.455	77.88
237.689	81.88
237.922	66.88
238.156	85.88
238.39	74.88
238.624	77.88
238.858	69.88
239.091	71.88
239.325	78.88
239.559	67.88
239.793	86.88
240.027	100.88
240.26	74.88
240.494	77.88
240.728	81.88
240.961	78.88
241.195	95.88
241.429	88.88
241.662	84.88
241.896	74.88
242.13	66.88
242.363	81.88
242.597	91.88
242.83	90.88
243.064	82.88
243.298	86.88
243.531	77.88
243.765	95.88
243.998	78.88
244.232	94.88
244.465	93.88
244.699	99.88
244.932	74.88
245.166	80.88
245.399	91.88
245.633	84.88
245.866	104.88
246.099	83.88
246.333	94.88
246.566	89.88
246.8	80.88
247.033	92.88
247.266	84.88
247.5	77.88
247.733	98.88
247.966	100.88
248.2	89.88
248.433	101.88
248.666	99.88
248.899	96.88
249.133	90.88
249.366	114.88
249.599	90.88
249.832	87.88
250.066	105.88
250.299	83.88
250.532	96.88
250.765	80.88
250.998	81.88
251.231	102.88
251.465	92.88
251.698	98.88
251.931	95.88
252.164	84.88
252.397	86.88
252.63	101.88
252.863	84.88
253.096	77.88
253.329	86.88
253.562	93.88
253.795	95.88
254.028	96.88
254.261	99.88
254.494	89.88
254.727	98.88
254.96	107.88
255.193	104.88
255.426	93.88
255.659	81.88
255.892	102.88
256.124	92.88
256.357	97.88
256.59	104.88
256.823	101.88
257.056	102.88
257.289	92.88
257.521	93.88
257.754	86.88
257.987	93.88
258.22	110.88
258.452	108.88
258.685	118.88
258.918	99.88
259.151	102.88
259.383	105.88
259.616	94.88
259.849	108.88
260.081	97.88
260.314	89.88
260.547	99.88
260.779	97.88
261.012	104.88
261.244	100.88
261.477	107.88
261.71	109.88
261.942	101.88
262.175	101.88
262.407	89.88
262.64	102.88
262.872	94.88
263.105	104.88
263.337	106.88
263.57	103.88
263.802	98.88
264.035	105.88
264.267	100.88
264.499	104.88
264.732	116.88
264.964	100.88
265.197	107.88
265.429	95.88
265.661	112.88
265.894	100.88
266.126	118.88
266.358	89.88
266.591	91.88
266.823	97.88
267.055	106.88
267.287	99.88
267.52	104.88
267.752	114.88
267.984	95.88
268.216	96.88
268.448	117.88
268.681	111.88
268.913	98.88
269.145	113.88
269.377	109.88
269.609	85.88
269.841	94.88
270.073	109.88
270.306	96.88
270.538	109.88
270.77	98.88
271.002	108.88
271.234	101.88
271.466	99.88
271.698	101.88
271.93	97.88
272.162	116.88
272.394	116.88
272.626	92.88
272.858	108.88
273.09	117.88
273.322	116.88
273.553	116.88
273.785	115.88
274.017	102.88
274.249	107.88
274.481	106.88
274.713	94.88
274.945	109.88
275.176	97.88
275.408	107.88
275.64	101.88
275.872	109.88
276.104	122.88
276.335	109.88
276.567	110.88
276.799	114.88
277.031	107.88
277.262	120.88
277.494	100.88
277.726	110.88
277.957	114.88
278.189	103.88
278.421	114.88
278.652	110.88
278.884	109.88
279.115	124.88
279.347	137.88
279.579	107.88
279.81	110.88
280.042	111.88
280.273	95.88
280.505	104.88
280.736	96.88
280.968	105.88
281.199	111.88
281.431	121.88
281.662	121.88
281.894	110.88
282.125	136.88
282.356	114.88
282.588	116.88
282.819	109.88
283.051	103.88
283.282	117.88
283.513	133.88
283.745	112.88
283.976	96.88
284.207	123.88
284.439	107.88
284.67	116.88
284.901	109.88
285.132	108.88
285.364	130.88
285.595	114.88
285.826	99.88
286.057	120.88
286.288	117.88
286.52	115.88
286.751	99.88
286.982	125.88
287.213	109.88
287.444	120.88
287.675	104.88
287.906	124.88
288.138	100.88
288.369	117.88
288.6	114.88
288.831	119.88
289.062	122.88
289.293	111.88
289.524	122.88
289.755	121.88
289.986	116.88
290.217	125.88
290.448	106.88
290.679	129.88
290.91	120.88
291.141	110.88
291.371	108.88
291.602	124.88
291.833	123.88
292.064	119.88
292.295	120.88
292.526	121.88
292.757	117.88
292.987	113.88
293.218	128.88
293.449	129.88
293.68	117.88
293.91	118.88
294.141	137.88
294.372	113.88
294.603	129.88
294.833	114.88
295.064	108.88
295.295	119.88
295.525	125.88
295.756	117.88
295.987	128.88
296.217	115.88
296.448	114.88
296.679	125.88
296.909	120.88
297.14	122.88
297.37	132.88
297.601	114.88
297.831	116.88
298.062	133.88
298.292	121.88
298.523	123.88
298.753	120.88
298.984	121.88
299.214	124.88
299.445	130.88
299.675	140.88
299.905	131.88
300.136	126.88
300.366	142.88
300.597	117.88
300.827	128.88
301.057	120.88
301.288	123.88
301.518	122.88
301.748	122.88
301.979	157.88
302.209	121.88
302.439	125.88
302.669	125.88
302.9	125.88
303.13	131.88
303.36	118.88
303.59	114.88
303.82	136.88
304.051	117.88
304.281	131.88
304.511	133.88
304.741	122.88
304.971	123.88
305.201	148.88
305.431	135.88
305.661	121.88
305.891	124.88
306.121	139.88
306.352	117.88
306.582	131.88
306.812	124.88
307.042	109.88
307.272	123.88
307.502	124.88
307.731	132.88
307.961	131.88
308.191	136.88
308.421	111.88
308.651	117.88
308.881	119.88
309.111	114.88
309.341	117.88
309.571	127.88
309.8	126.88
310.03	139.88
310.26	137.88
310.49	124.88
310.72	123.88
310.949	128.88
311.179	138.88
311.409	124.88
311.639	124.88
311.868	130.88
312.098	115.88
312.328	118.88
312.557	131.88
312.787	130.88
313.017	138.88
313.246	117.88
313.476	130.88
313.706	129.88
313.935	140.88
314.165	121.88
314.394	133.88
314.624	133.88
314.853	131.88
315.083	122.88
315.312	134.88
315.542	139.88
315.771	124.88
316.001	117.88
316.23	135.88
316.46	133.88
316.689	134.88
316.919	133.88
317.148	134.88
317.377	130.88
317.607	116.88
317.836	125.88
318.065	124.88
318.295	137.88
318.524	136.88
318.753	129.88
318.983	129.88
319.212	134.88
319.441	139.88
319.67	124.88
319.9	136.88
320.129	138.88
320.358	137.88
320.587	133.88
320.816	133.88
321.046	138.88
321.275	137.88
321.504	122.88
321.733	133.88
321.962	131.88
322.191	140.88
322.42	134.88
322.649	147.88
322.878	119.88
323.108	135.88
323.337	130.88
323.566	132.88
323.795	122.88
324.024	129.88
324.253	131.88
324.482	125.88
324.71	141.88
324.939	137.88
325.168	121.88
325.397	131.88
325.626	145.88
325.855	136.88
326.084	138.88
326.313	137.88
326.542	137.88
326.77	132.88
326.999	124.88
327.228	121.88
327.457	121.88
327.686	132.88
327.914	124.88
328.143	135.88
328.372	133.88
328.6	140.88
328.829	141.88
329.058	128.88
329.287	143.88
329.515	140.88
329.744	140.88
329.972	145.88
330.201	140.88
330.43	139.88
330.658	132.88
330.887	138.88
331.115	132.88
331.344	146.88
331.572	156.88
331.801	141.88
332.03	133.88
332.258	149.88
332.486	165.88
332.715	145.88
332.943	160.88
333.172	165.88
333.4	160.88
333.629	157.88
333.857	148.88
334.085	157.88
334.314	145.88
334.542	150.88
334.771	165.88
334.999	159.88
335.227	149.88
335.455	140.88
335.684	149.88
335.912	154.88
336.14	145.88
336.369	136.88
336.597	147.88
336.825	132.88
337.053	116.88
337.281	136.88
337.51	147.88
337.738	158.88
337.966	131.88
338.194	132.88
338.422	136.88
338.65	148.88
338.878	139.88
339.106	148.88
339.334	164.88
339.562	149.88
339.79	142.88
340.018	122.88
340.246	126.88
340.474	135.88
340.702	138.88
340.93	141.88
341.158	131.88
341.386	142.88
341.614	144.88
341.842	149.88
342.07	130.88
342.298	139.88
342.526	123.88
342.754	140.88
342.981	136.88
343.209	137.88
343.437	156.88
343.665	137.88
343.893	125.88
344.12	160.88
344.348	147.88
344.576	142.88
344.804	145.88
345.031	137.88
345.259	147.88
345.487	141.88
345.714	144.88
345.942	124.88
346.17	142.88
346.397	129.88
346.625	138.88
346.853	130.88
347.08	124.88
347.308	144.88
347.535	137.88
347.763	129.88
347.99	141.88
348.218	150.88
348.445	136.88
348.673	124.88
348.9	140.88
349.128	145.88
349.355	140.88
349.583	146.88
349.81	132.88
350.037	141.88
350.265	139.88
350.492	121.88
350.72	126.88
350.947	135.88
351.174	132.88
351.402	135.88
351.629	133.88
351.856	110.88
352.083	126.88
352.311	145.88
352.538	126.88
352.765	130.88
352.992	146.88
353.22	140.88
353.447	144.88
353.674	146.88
353.901	145.88
354.128	117.88
354.355	145.88
354.583	124.88
354.81	141.88
355.037	145.88
355.264	146.88
355.491	138.88
355.718	123.88
355.945	128.88
356.172	140.88
356.399	126.88
356.626	130.88
356.853	135.88
357.08	128.88
357.307	123.88
357.534	123.88
357.761	130.88
357.988	134.88
358.215	136.88
358.441	147.88
358.668	139.88
358.895	131.88
359.122	145.88
359.349	121.88
359.576	130.88
359.802	147.88
360.029	133.88
360.256	142.88
360.483	136.88
360.709	141.88
360.936	155.88
361.163	136.88
361.39	145.88
361.616	118.88
361.843	133.88
362.07	131.88
362.296	137.88
362.523	122.88
362.749	133.88
362.976	120.88
363.203	137.88
363.429	146.88
363.656	136.88
363.882	132.88
364.109	139.88
364.335	134.88
364.562	139.88
364.788	129.88
365.015	142.88
365.241	148.88
365.468	135.88
365.694	128.88
365.92	134.88
366.147	136.88
366.373	134.88
366.599	136.88
366.826	129.88
367.052	150.88
367.278	137.88
367.505	136.88
367.731	140.88
367.957	121.88
368.184	120.88
368.41	135.88
368.636	146.88
368.862	142.88
369.089	135.88
369.315	131.88
369.541	144.88
369.767	133.88
369.993	129.88
370.219	149.88
370.445	132.88
370.672	129.88
370.898	147.88
371.124	131.88
371.35	152.88
371.576	152.88
371.802	136.88
372.028	142.88
372.254	135.88
372.48	143.88
372.706	137.88
372.932	142.88
373.158	140.88
373.384	146.88
373.61	148.88
373.835	144.88
374.061	137.88
374.287	147.88
374.513	137.88
374.739	125.88
374.965	144.88
375.191	140.88
375.416	134.88
375.642	152.88
375.868	161.88
376.094	150.88
376.319	138.88
376.545	138.88
376.771	144.88
376.997	138.88
377.222	139.88
377.448	153.88
377.674	116.88
377.899	145.88
378.125	138.88
378.35	125.88
378.576	137.88
378.802	131.88
379.027	132.88
379.253	149.88
379.478	139.88
379.704	136.88
379.929	133.88
380.155	148.88
380.38	136.88
380.606	142.88
380.831	132.88
381.057	145.88
381.282	148.88
381.507	132.88
381.733	148.88
381.958	140.88
382.184	137.88
382.409	131.88
382.634	150.88
382.86	142.88
383.085	150.88
383.31	140.88
383.535	157.88
383.761	148.88
383.986	160.88
384.211	144.88
384.436	145.88
384.662	146.88
384.887	146.88
385.112	144.88
385.337	151.88
385.562	138.88
385.787	148.88
386.013	145.88
386.238	152.88
386.463	158.88
386.688	186.88
386.913	145.88
387.138	159.88
387.363	159.88
387.588	160.88
387.813	153.88
388.038	145.88
388.263	157.88
388.488	151.88
388.713	158.88
388.938	140.88
389.163	130.88
389.387	146.88
389.612	140.88
389.837	160.88
390.062	141.88
390.287	137.88
390.512	142.88
390.736	145.88
390.961	166.88
391.186	170.88
391.411	149.88
391.636	145.88
391.86	153.88
392.085	167.88
392.31	159.88
392.534	166.88
392.759	153.88
392.984	172.88
393.208	182.88
393.433	170.88
393.658	152.88
393.882	173.88
394.107	158.88
394.331	162.88
394.556	134.88
394.78	163.88
395.005	156.88
395.229	170.88
395.454	177.88
395.678	162.88
395.903	165.88
396.127	153.88
396.352	172.88
396.576	162.88
396.801	151.88
397.025	157.88
397.249	152.88
397.474	168.88
397.698	163.88
397.922	168.88
398.147	167.88
398.371	153.88
398.595	174.88
398.82	174.88
399.044	193.88
399.268	208.88
399.492	230.88
399.717	260.88
399.941	223.88
400.165	197.88
400.389	181.88
400.613	183.88
400.837	184.88
401.062	183.88
401.286	184.88
401.51	185.88
401.734	176.88
401.958	176.88
402.182	173.88
402.406	165.88
402.63	188.88
402.854	192.88
403.078	194.88
403.302	202.88
403.526	198.88
403.75	180.88
403.974	210.88
404.198	189.88
404.422	195.88
404.645	195.88
404.869	189.88
405.093	185.88
405.317	188.88
405.541	189.88
405.765	164.88
405.988	177.88
406.212	196.88
406.436	191.88
406.66	178.88
406.883	187.88
407.107	192.88
407.331	197.88
407.555	197.88
407.778	222.88
408.002	187.88
408.226	201.88
408.449	185.88
408.673	198.88
408.896	194.88
409.12	195.88
409.344	202.88
409.567	188.88
409.791	198.88
410.014	176.88
410.238	189.88
410.461	184.88
410.685	187.88
410.908	187.88
411.132	205.88
411.355	166.88
411.578	177.88
411.802	164.88
412.025	178.88
412.249	172.88
412.472	159.88
412.695	172.88
412.919	182.88
413.142	170.88
413.365	170.88
413.589	168.88
413.812	174.88
414.035	181.88
414.258	174.88
414.482	181.88
414.705	164.88
414.928	181.88
415.151	172.88
415.374	180.88
415.597	182.88
415.821	176.88
416.044	165.88
416.267	173.88
416.49	157.88
416.713	168.88
416.936	180.88
417.159	174.88
417.382	184.88
417.605	180.88
417.828	179.88
418.051	188.88
418.274	188.88
418.497	179.88
418.72	177.88
418.943	180.88
419.166	183.88
419.389	189.88
419.611	166.88
419.834	192.88
420.057	192.88
420.28	197.88
420.503	185.88
420.726	186.88
420.948	169.88
421.171	182.88
421.394	176.88
421.617	164.88
421.839	173.88
422.062	195.88
422.285	160.88
422.507	196.88
422.73	171.88
422.953	163.88
423.175	173.88
423.398	193.88
423.621	185.88
423.843	163.88
424.066	168.88
424.288	160.88
424.511	176.88
424.733	205.88
424.956	180.88
425.178	184.88
425.401	168.88
425.623	166.88
425.846	182.88
426.068	166.88
426.291	167.88
426.513	182.88
426.735	164.88
426.958	174.88
427.18	158.88
427.402	164.88
427.625	155.88
427.847	162.88
428.069	161.88
428.292	142.88
428.514	154.88
428.736	165.88
428.958	155.88
429.181	158.88
429.403	155.88
429.625	165.88
429.847	160.88
430.069	172.88
430.292	181.88
430.514	172.88
430.736	160.88
430.958	154.88
431.18	155.88
431.402	172.88
431.624	160.88
431.846	150.88
432.068	161.88
432.29	177.88
432.512	170.88
432.734	170.88
432.956	164.88
433.178	169.88
433.4	165.88
433.622	162.88
433.844	172.88
434.066	169.88
434.287	183.88
434.509	164.88
434.731	170.88
434.953	183.88
435.175	168.88
435.397	173.88
435.618	166.88
435.84	162.88
436.062	177.88
436.284	174.88
436.505	173.88
436.727	152.88
436.949	161.88
437.17	155.88
437.392	163.88
437.614	164.88
437.835	168.88
438.057	165.88
438.278	145.88
438.5	149.88
438.721	166.88
438.943	160.88
439.165	141.88
439.386	162.88
439.608	181.88
439.829	162.88
440.05	147.88
440.272	165.88
440.493	180.88
440.715	170.88
440.936	172.88
441.158	167.88
441.379	168.88
441.6	215.88
441.822	180.88
442.043	171.88
442.264	167.88
442.486	155.88
442.707	181.88
442.928	171.88
443.149	180.88
443.371	180.88
443.592	177.88
443.813	166.88
444.034	180.88
444.255	182.88
444.476	189.88
444.698	209.88
444.919	192.88
445.14	462.88
445.361	294.88
445.582	199.88
445.803	179.88
446.024	163.88
446.245	173.88
446.466	149.88
446.687	155.88
446.908	170.88
447.129	167.88
447.35	170.88
447.571	164.88
447.792	155.88
448.013	154.88
448.234	167.88
448.455	156.88
448.675	168.88
448.896	157.88
449.117	159.88
449.338	166.88
449.559	153.88
449.779	149.88
450	158.88
450.221	145.88
450.442	164.88
450.662	147.88
450.883	158.88
451.104	153.88
451.324	151.88
451.545	166.88
451.766	152.88
451.986	139.88
452.207	168.88
452.428	166.88
452.648	169.88
452.869	146.88
453.089	141.88
453.31	148.88
453.53	152.88
453.751	151.88
453.971	160.88
454.192	139.88
454.412	144.88
454.633	147.88
454.853	166.88
455.073	137.88
455.294	160.88
455.514	145.88
455.734	142.88
455.955	149.88
456.175	141.88
456.395	161.88
456.616	149.88
456.836	141.88
457.056	150.88
457.276	135.88
457.497	156.88
457.717	162.88
457.937	141.88
458.157	150.88
458.377	145.88
458.598	144.88
458.818	154.88
459.038	159.88
459.258	160.88
459.478	152.88
459.698	167.88
459.918	174.88
460.138	136.88
460.358	181.88
460.578	179.88
460.798	174.88
461.018	173.88
461.238	172.88
461.458	187.88
461.678	185.88
461.898	199.88
462.118	204.88
462.338	185.88
462.558	185.88
462.777	202.88
462.997	221.88
463.217	227.88
463.437	223.88
463.657	214.88
463.876	201.88
464.096	198.88
464.316	183.88
464.536	195.88
464.755	202.88
464.975	187.88
465.195	188.88
465.414	184.88
465.634	181.88
465.854	163.88
466.073	160.88
466.293	152.88
466.512	169.88
466.732	177.88
466.951	162.88
467.171	166.88
467.391	163.88
467.61	180.88
467.829	157.88
468.049	148.88
468.268	155.88
468.488	163.88
468.707	134.88
468.927	144.88
469.146	146.88
469.365	160.88
469.585	174.88
469.804	156.88
470.023	148.88
470.243	160.88
470.462	172.88
470.681	154.88
470.901	158.88
471.12	146.88
471.339	170.88
471.558	163.88
471.777	161.88
471.997	151.88
472.216	163.88
472.435	182.88
472.654	164.88
472.873	159.88
473.092	167.88
473.311	145.88
473.53	150.88
473.749	160.88
473.968	160.88
474.187	145.88
474.406	127.88
474.625	148.88
474.844	148.88
475.063	145.88
475.282	136.88
475.501	137.88
475.72	165.88
475.939	152.88
476.158	156.88
476.377	161.88
476.596	154.88
476.814	159.88
477.033	148.88
477.252	156.88
477.471	146.88
477.69	174.88
477.908	189.88
478.127	177.88
478.346	174.88
478.564	165.88
478.783	172.88
479.002	188.88
479.22	177.88
479.439	185.88
479.658	187.88
479.876	167.88
480.095	170.88
480.313	179.88
480.532	182.88
480.751	194.88
480.969	180.88
481.188	174.88
481.406	166.88
481.624	169.88
481.843	170.88
482.061	174.88
482.28	169.88
482.498	164.88
482.717	171.88
482.935	174.88
483.153	166.88
483.372	170.88
483.59	166.88
483.808	174.88
484.027	172.88
484.245	173.88
484.463	166.88
484.681	188.88
484.9	166.88
485.118	176.88
485.336	178.88
485.554	183.88
485.772	192.88
485.99	174.88
486.209	171.88
486.427	144.88
486.645	173.88
486.863	190.88
487.081	189.88
487.299	162.88
487.517	172.88
487.735	192.88
487.953	189.88
488.171	169.88
488.389	177.88
488.607	160.88
488.825	177.88
489.043	177.88
489.261	182.88
489.479	169.88
489.696	166.88
489.914	180.88
490.132	177.88
490.35	167.88
490.568	180.88
490.786	192.88
491.003	185.88
491.221	181.88
491.439	180.88
491.657	167.88
491.874	189.88
492.092	182.88
492.31	188.88
492.527	177.88
492.745	182.88
492.963	157.88
493.18	180.88
493.398	168.88
493.615	183.88
493.833	177.88
494.05	185.88
494.268	164.88
494.485	188.88
494.703	162.88
494.92	180.88
495.138	180.88
495.355	188.88
495.573	184.88
495.79	177.88
496.008	180.88
496.225	180.88
496.442	188.88
496.66	203.88
496.877	188.88
497.094	198.88
497.312	209.88
497.529	183.88
497.746	210.88
497.963	209.88
498.181	202.88
498.398	194.88
498.615	227.88
498.832	223.88
499.049	249.88
499.267	274.88
499.484	290.88
499.701	307.88
499.918	324.88
500.135	366.88
500.352	401.88
500.569	405.88
500.786	418.88
501.003	385.88
501.22	328.88
501.437	317.88
501.654	264.88
501.871	251.88
502.088	235.88
502.305	238.88
502.522	225.88
502.739	225.88
502.956	214.88
503.172	199.88
503.389	201.88
503.606	193.88
503.823	197.88
504.04	206.88
504.256	213.88
504.473	205.88
504.69	206.88
