Data from SampG_HRD10591_00005.txt Node
Date: Mon Jan 19 11:53:45 EST 2026
User: Yrep
Spectrometer: HR+D1059
Trigger mode: 0
Integration Time (sec): 3.443000E-1
Scans to average: 1
Electric dark correction enabled: true
Nonlinearity correction enabled: false
Boxcar width: 0
XAxis mode: Wavelengths
Number of Pixels in Spectrum: 2048
>>>>>Begin Spectral Data<<<<<
223.165	-33.06
223.4	-33.06
223.635	-33.06
223.869	-24.06
224.104	-23.06
224.338	-18.06
224.573	-19.06
224.808	-19.06
225.042	-7.06
225.277	2.94
225.511	-0.06
225.746	14.94
225.98	2.94
226.215	10.94
226.449	8.94
226.683	40.94
226.918	26.94
227.152	34.94
227.387	32.94
227.621	31.94
227.856	39.94
228.09	52.94
228.324	44.94
228.559	55.94
228.793	56.94
229.027	68.94
229.262	67.94
229.496	62.94
229.73	57.94
229.964	89.94
230.199	69.94
230.433	89.94
230.667	84.94
230.901	83.94
231.136	75.94
231.37	94.94
231.604	83.94
231.838	90.94
232.072	79.94
232.306	87.94
232.541	78.94
232.775	84.94
233.009	88.94
233.243	81.94
233.477	94.94
233.711	89.94
233.945	84.94
234.179	86.94
234.413	87.94
234.647	90.94
234.881	90.94
235.115	79.94
235.349	88.94
235.583	89.94
235.817	81.94
236.051	82.94
236.285	67.94
236.519	82.94
236.753	85.94
236.987	86.94
237.221	79.94
237.455	78.94
237.689	76.94
237.922	65.94
238.156	78.94
238.39	67.94
238.624	68.94
238.858	79.94
239.091	80.94
239.325	94.94
239.559	82.94
239.793	91.94
240.027	76.94
240.26	74.94
240.494	78.94
240.728	76.94
240.961	75.94
241.195	89.94
241.429	79.94
241.662	86.94
241.896	87.94
242.13	82.94
242.363	78.94
242.597	85.94
242.83	81.94
243.064	82.94
243.298	95.94
243.531	80.94
243.765	84.94
243.998	78.94
244.232	104.94
244.465	83.94
244.699	91.94
244.932	98.94
245.166	85.94
245.399	95.94
245.633	92.94
245.866	87.94
246.099	83.94
246.333	79.94
246.566	95.94
246.8	101.94
247.033	90.94
247.266	84.94
247.5	72.94
247.733	98.94
247.966	99.94
248.2	88.94
248.433	93.94
248.666	84.94
248.899	79.94
249.133	91.94
249.366	93.94
249.599	95.94
249.832	86.94
250.066	100.94
250.299	85.94
250.532	102.94
250.765	95.94
250.998	80.94
251.231	73.94
251.465	86.94
251.698	92.94
251.931	90.94
252.164	91.94
252.397	97.94
252.63	96.94
252.863	92.94
253.096	78.94
253.329	96.94
253.562	90.94
253.795	89.94
254.028	85.94
254.261	98.94
254.494	92.94
254.727	109.94
254.96	81.94
255.193	85.94
255.426	86.94
255.659	75.94
255.892	104.94
256.124	87.94
256.357	90.94
256.59	94.94
256.823	91.94
257.056	79.94
257.289	96.94
257.521	91.94
257.754	96.94
257.987	87.94
258.22	108.94
258.452	81.94
258.685	94.94
258.918	89.94
259.151	110.94
259.383	91.94
259.616	91.94
259.849	94.94
260.081	91.94
260.314	102.94
260.547	96.94
260.779	94.94
261.012	85.94
261.244	87.94
261.477	105.94
261.71	80.94
261.942	95.94
262.175	78.94
262.407	91.94
262.64	87.94
262.872	96.94
263.105	95.94
263.337	100.94
263.57	98.94
263.802	106.94
264.035	99.94
264.267	99.94
264.499	90.94
264.732	99.94
264.964	101.94
265.197	94.94
265.429	86.94
265.661	105.94
265.894	111.94
266.126	115.94
266.358	110.94
266.591	95.94
266.823	94.94
267.055	106.94
267.287	92.94
267.52	91.94
267.752	98.94
267.984	107.94
268.216	89.94
268.448	112.94
268.681	107.94
268.913	94.94
269.145	104.94
269.377	100.94
269.609	89.94
269.841	114.94
270.073	100.94
270.306	92.94
270.538	90.94
270.77	98.94
271.002	91.94
271.234	98.94
271.466	111.94
271.698	86.94
271.93	116.94
272.162	103.94
272.394	105.94
272.626	102.94
272.858	115.94
273.09	99.94
273.322	113.94
273.553	86.94
273.785	98.94
274.017	84.94
274.249	88.94
274.481	106.94
274.713	111.94
274.945	98.94
275.176	101.94
275.408	119.94
275.64	112.94
275.872	102.94
276.104	119.94
276.335	108.94
276.567	116.94
276.799	108.94
277.031	92.94
277.262	107.94
277.494	106.94
277.726	106.94
277.957	121.94
278.189	99.94
278.421	93.94
278.652	100.94
278.884	103.94
279.115	112.94
279.347	102.94
279.579	121.94
279.81	115.94
280.042	91.94
280.273	96.94
280.505	105.94
280.736	106.94
280.968	111.94
281.199	114.94
281.431	106.94
281.662	114.94
281.894	115.94
282.125	103.94
282.356	108.94
282.588	112.94
282.819	114.94
283.051	107.94
283.282	107.94
283.513	120.94
283.745	123.94
283.976	120.94
284.207	112.94
284.439	117.94
284.67	120.94
284.901	111.94
285.132	120.94
285.364	127.94
285.595	122.94
285.826	105.94
286.057	118.94
286.288	118.94
286.52	121.94
286.751	116.94
286.982	114.94
287.213	106.94
287.444	122.94
287.675	108.94
287.906	114.94
288.138	109.94
288.369	118.94
288.6	114.94
288.831	111.94
289.062	120.94
289.293	121.94
289.524	116.94
289.755	117.94
289.986	116.94
290.217	122.94
290.448	106.94
290.679	126.94
290.91	121.94
291.141	122.94
291.371	129.94
291.602	123.94
291.833	106.94
292.064	124.94
292.295	120.94
292.526	115.94
292.757	117.94
292.987	116.94
293.218	115.94
293.449	118.94
293.68	140.94
293.91	118.94
294.141	119.94
294.372	121.94
294.603	112.94
294.833	107.94
295.064	118.94
295.295	120.94
295.525	120.94
295.756	118.94
295.987	124.94
296.217	126.94
296.448	104.94
296.679	121.94
296.909	116.94
297.14	110.94
297.37	123.94
297.601	106.94
297.831	118.94
298.062	131.94
298.292	117.94
298.523	123.94
298.753	127.94
298.984	113.94
299.214	122.94
299.445	131.94
299.675	111.94
299.905	117.94
300.136	137.94
300.366	122.94
300.597	109.94
300.827	105.94
301.057	108.94
301.288	120.94
301.518	130.94
301.748	133.94
301.979	168.94
302.209	132.94
302.439	107.94
302.669	116.94
302.9	129.94
303.13	133.94
303.36	123.94
303.59	131.94
303.82	124.94
304.051	124.94
304.281	132.94
304.511	127.94
304.741	124.94
304.971	112.94
305.201	124.94
305.431	118.94
305.661	122.94
305.891	112.94
306.121	127.94
306.352	120.94
306.582	117.94
306.812	129.94
307.042	109.94
307.272	111.94
307.502	121.94
307.731	137.94
307.961	129.94
308.191	136.94
308.421	132.94
308.651	108.94
308.881	121.94
309.111	110.94
309.341	135.94
309.571	120.94
309.8	129.94
310.03	111.94
310.26	122.94
310.49	127.94
310.72	126.94
310.949	113.94
311.179	135.94
311.409	122.94
311.639	106.94
311.868	112.94
312.098	123.94
312.328	129.94
312.557	118.94
312.787	122.94
313.017	135.94
313.246	122.94
313.476	113.94
313.706	123.94
313.935	123.94
314.165	130.94
314.394	132.94
314.624	131.94
314.853	138.94
315.083	120.94
315.312	128.94
315.542	117.94
315.771	130.94
316.001	121.94
316.23	134.94
316.46	116.94
316.689	121.94
316.919	124.94
317.148	117.94
317.377	136.94
317.607	128.94
317.836	132.94
318.065	136.94
318.295	120.94
318.524	107.94
318.753	129.94
318.983	128.94
319.212	145.94
319.441	142.94
319.67	127.94
319.9	126.94
320.129	126.94
320.358	112.94
320.587	125.94
320.816	130.94
321.046	112.94
321.275	129.94
321.504	119.94
321.733	114.94
321.962	132.94
322.191	127.94
322.42	130.94
322.649	135.94
322.878	113.94
323.108	119.94
323.337	129.94
323.566	127.94
323.795	123.94
324.024	132.94
324.253	118.94
324.482	134.94
324.71	114.94
324.939	129.94
325.168	119.94
325.397	127.94
325.626	110.94
325.855	121.94
326.084	128.94
326.313	132.94
326.542	120.94
326.77	126.94
326.999	130.94
327.228	116.94
327.457	115.94
327.686	129.94
327.914	124.94
328.143	139.94
328.372	121.94
328.6	136.94
328.829	142.94
329.058	142.94
329.287	139.94
329.515	132.94
329.744	126.94
329.972	136.94
330.201	121.94
330.43	124.94
330.658	117.94
330.887	137.94
331.115	147.94
331.344	133.94
331.572	148.94
331.801	132.94
332.03	146.94
332.258	145.94
332.486	139.94
332.715	142.94
332.943	152.94
333.172	149.94
333.4	159.94
333.629	144.94
333.857	176.94
334.085	163.94
334.314	154.94
334.542	154.94
334.771	149.94
334.999	136.94
335.227	147.94
335.455	146.94
335.684	147.94
335.912	145.94
336.14	123.94
336.369	121.94
336.597	149.94
336.825	146.94
337.053	138.94
337.281	143.94
337.51	136.94
337.738	135.94
337.966	132.94
338.194	119.94
338.422	114.94
338.65	143.94
338.878	139.94
339.106	129.94
339.334	149.94
339.562	128.94
339.79	137.94
340.018	135.94
340.246	117.94
340.474	143.94
340.702	128.94
340.93	150.94
341.158	136.94
341.386	130.94
341.614	136.94
341.842	129.94
342.07	134.94
342.298	145.94
342.526	129.94
342.754	113.94
342.981	132.94
343.209	136.94
343.437	166.94
343.665	148.94
343.893	160.94
344.12	159.94
344.348	166.94
344.576	158.94
344.804	139.94
345.031	129.94
345.259	135.94
345.487	131.94
345.714	122.94
345.942	111.94
346.17	124.94
346.397	131.94
346.625	131.94
346.853	120.94
347.08	127.94
347.308	103.94
347.535	134.94
347.763	139.94
347.99	127.94
348.218	150.94
348.445	132.94
348.673	106.94
348.9	133.94
349.128	146.94
349.355	138.94
349.583	127.94
349.81	129.94
350.037	129.94
350.265	135.94
350.492	123.94
350.72	129.94
350.947	132.94
351.174	131.94
351.402	122.94
351.629	123.94
351.856	126.94
352.083	126.94
352.311	119.94
352.538	107.94
352.765	132.94
352.992	154.94
353.22	126.94
353.447	125.94
353.674	139.94
353.901	139.94
354.128	136.94
354.355	127.94
354.583	135.94
354.81	126.94
355.037	134.94
355.264	123.94
355.491	134.94
355.718	129.94
355.945	127.94
356.172	117.94
356.399	122.94
356.626	125.94
356.853	120.94
357.08	126.94
357.307	142.94
357.534	142.94
357.761	130.94
357.988	142.94
358.215	139.94
358.441	140.94
358.668	115.94
358.895	131.94
359.122	131.94
359.349	139.94
359.576	141.94
359.802	117.94
360.029	121.94
360.256	139.94
360.483	135.94
360.709	132.94
360.936	146.94
361.163	139.94
361.39	126.94
361.616	136.94
361.843	128.94
362.07	148.94
362.296	128.94
362.523	110.94
362.749	117.94
362.976	128.94
363.203	136.94
363.429	135.94
363.656	131.94
363.882	119.94
364.109	135.94
364.335	137.94
364.562	137.94
364.788	111.94
365.015	112.94
365.241	134.94
365.468	137.94
365.694	123.94
365.92	134.94
366.147	147.94
366.373	133.94
366.599	124.94
366.826	119.94
367.052	121.94
367.278	128.94
367.505	130.94
367.731	133.94
367.957	121.94
368.184	127.94
368.41	140.94
368.636	125.94
368.862	132.94
369.089	123.94
369.315	131.94
369.541	141.94
369.767	138.94
369.993	142.94
370.219	133.94
370.445	139.94
370.672	134.94
370.898	150.94
371.124	126.94
371.35	139.94
371.576	143.94
371.802	145.94
372.028	137.94
372.254	153.94
372.48	146.94
372.706	143.94
372.932	125.94
373.158	136.94
373.384	131.94
373.61	143.94
373.835	137.94
374.061	135.94
374.287	161.94
374.513	147.94
374.739	148.94
374.965	152.94
375.191	146.94
375.416	148.94
375.642	142.94
375.868	154.94
376.094	133.94
376.319	131.94
376.545	152.94
376.771	131.94
376.997	146.94
377.222	128.94
377.448	132.94
377.674	132.94
377.899	134.94
378.125	136.94
378.35	132.94
378.576	144.94
378.802	136.94
379.027	120.94
379.253	126.94
379.478	143.94
379.704	148.94
379.929	138.94
380.155	132.94
380.38	130.94
380.606	134.94
380.831	139.94
381.057	153.94
381.282	132.94
381.507	127.94
381.733	131.94
381.958	137.94
382.184	122.94
382.409	137.94
382.634	150.94
382.86	147.94
383.085	154.94
383.31	149.94
383.535	148.94
383.761	127.94
383.986	163.94
384.211	141.94
384.436	130.94
384.662	160.94
384.887	150.94
385.112	160.94
385.337	158.94
385.562	150.94
385.787	170.94
386.013	158.94
386.238	147.94
386.463	148.94
386.688	181.94
386.913	139.94
387.138	138.94
387.363	150.94
387.588	156.94
387.813	162.94
388.038	166.94
388.263	151.94
388.488	135.94
388.713	154.94
388.938	146.94
389.163	150.94
389.387	137.94
389.612	150.94
389.837	146.94
390.062	132.94
390.287	155.94
390.512	142.94
390.736	169.94
390.961	147.94
391.186	139.94
391.411	159.94
391.636	164.94
391.86	167.94
392.085	170.94
392.31	171.94
392.534	171.94
392.759	160.94
392.984	160.94
393.208	156.94
393.433	143.94
393.658	158.94
393.882	153.94
394.107	152.94
394.331	152.94
394.556	162.94
394.78	139.94
395.005	147.94
395.229	177.94
395.454	168.94
395.678	147.94
395.903	160.94
396.127	151.94
396.352	156.94
396.576	129.94
396.801	158.94
397.025	151.94
397.249	147.94
397.474	165.94
397.698	157.94
397.922	159.94
398.147	150.94
398.371	162.94
398.595	168.94
398.82	184.94
399.044	196.94
399.268	192.94
399.492	206.94
399.717	218.94
399.941	198.94
400.165	211.94
400.389	176.94
400.613	187.94
400.837	182.94
401.062	169.94
401.286	164.94
401.51	162.94
401.734	155.94
401.958	167.94
402.182	167.94
402.406	172.94
402.63	186.94
402.854	182.94
403.078	191.94
403.302	180.94
403.526	188.94
403.75	201.94
403.974	189.94
404.198	208.94
404.422	186.94
404.645	174.94
404.869	196.94
405.093	201.94
405.317	173.94
405.541	177.94
405.765	175.94
405.988	179.94
406.212	175.94
406.436	183.94
406.66	180.94
406.883	190.94
407.107	198.94
407.331	175.94
407.555	209.94
407.778	190.94
408.002	198.94
408.226	196.94
408.449	202.94
408.673	167.94
408.896	179.94
409.12	173.94
409.344	199.94
409.567	189.94
409.791	181.94
410.014	185.94
410.238	177.94
410.461	192.94
410.685	180.94
410.908	164.94
411.132	188.94
411.355	177.94
411.578	170.94
411.802	174.94
412.025	182.94
412.249	187.94
412.472	171.94
412.695	164.94
412.919	172.94
413.142	184.94
413.365	160.94
413.589	151.94
413.812	166.94
414.035	176.94
414.258	163.94
414.482	164.94
414.705	191.94
414.928	182.94
415.151	163.94
415.374	173.94
415.597	162.94
415.821	163.94
416.044	170.94
416.267	169.94
416.49	170.94
416.713	159.94
416.936	169.94
417.159	169.94
417.382	180.94
417.605	152.94
417.828	184.94
418.051	174.94
418.274	174.94
418.497	172.94
418.72	152.94
418.943	178.94
419.166	187.94
419.389	179.94
419.611	182.94
419.834	172.94
420.057	167.94
420.28	163.94
420.503	179.94
420.726	154.94
420.948	180.94
421.171	170.94
421.394	179.94
421.617	175.94
421.839	184.94
422.062	166.94
422.285	170.94
422.507	189.94
422.73	187.94
422.953	176.94
423.175	180.94
423.398	168.94
423.621	194.94
423.843	184.94
424.066	165.94
424.288	179.94
424.511	173.94
424.733	187.94
424.956	191.94
425.178	170.94
425.401	172.94
425.623	156.94
425.846	159.94
426.068	174.94
426.291	166.94
426.513	163.94
426.735	162.94
426.958	165.94
427.18	165.94
427.402	159.94
427.625	165.94
427.847	152.94
428.069	161.94
428.292	162.94
428.514	154.94
428.736	141.94
428.958	162.94
429.181	170.94
429.403	147.94
429.625	170.94
429.847	156.94
430.069	162.94
430.292	165.94
430.514	164.94
430.736	163.94
430.958	163.94
431.18	147.94
431.402	164.94
431.624	168.94
431.846	161.94
432.068	165.94
432.29	177.94
432.512	159.94
432.734	161.94
432.956	151.94
433.178	160.94
433.4	148.94
433.622	155.94
433.844	147.94
434.066	160.94
434.287	146.94
434.509	167.94
434.731	173.94
434.953	170.94
435.175	186.94
435.397	171.94
435.618	165.94
435.84	157.94
436.062	155.94
436.284	158.94
436.505	154.94
436.727	159.94
436.949	162.94
437.17	144.94
437.392	149.94
437.614	148.94
437.835	162.94
438.057	146.94
438.278	148.94
438.5	159.94
438.721	160.94
438.943	158.94
439.165	154.94
439.386	169.94
439.608	152.94
439.829	145.94
440.05	163.94
440.272	160.94
440.493	138.94
440.715	138.94
440.936	155.94
441.158	162.94
441.379	171.94
441.6	171.94
441.822	177.94
442.043	184.94
442.264	171.94
442.486	166.94
442.707	166.94
442.928	178.94
443.149	172.94
443.371	166.94
443.592	154.94
443.813	180.94
444.034	174.94
444.255	179.94
444.476	193.94
444.698	193.94
444.919	175.94
445.14	456.94
445.361	302.94
445.582	168.94
445.803	162.94
446.024	170.94
446.245	179.94
446.466	159.94
446.687	154.94
446.908	163.94
447.129	174.94
447.35	169.94
447.571	164.94
447.792	165.94
448.013	158.94
448.234	155.94
448.455	163.94
448.675	160.94
448.896	163.94
449.117	155.94
449.338	133.94
449.559	166.94
449.779	139.94
450	139.94
450.221	148.94
450.442	159.94
450.662	149.94
450.883	154.94
451.104	152.94
451.324	163.94
451.545	159.94
451.766	152.94
451.986	150.94
452.207	163.94
452.428	154.94
452.648	150.94
452.869	161.94
453.089	146.94
453.31	143.94
453.53	151.94
453.751	134.94
453.971	148.94
454.192	144.94
454.412	146.94
454.633	150.94
454.853	156.94
455.073	150.94
455.294	149.94
455.514	159.94
455.734	150.94
455.955	144.94
456.175	135.94
456.395	158.94
456.616	136.94
456.836	138.94
457.056	143.94
457.276	144.94
457.497	154.94
457.717	145.94
457.937	140.94
458.157	137.94
458.377	135.94
458.598	163.94
458.818	161.94
459.038	154.94
459.258	160.94
459.478	151.94
459.698	163.94
459.918	175.94
460.138	163.94
460.358	179.94
460.578	182.94
460.798	181.94
461.018	168.94
461.238	178.94
461.458	166.94
461.678	184.94
461.898	190.94
462.118	167.94
462.338	186.94
462.558	170.94
462.777	190.94
462.997	211.94
463.217	235.94
463.437	218.94
463.657	202.94
463.876	196.94
464.096	188.94
464.316	206.94
464.536	197.94
464.755	206.94
464.975	196.94
465.195	193.94
465.414	173.94
465.634	157.94
465.854	182.94
466.073	159.94
466.293	139.94
466.512	143.94
466.732	157.94
466.951	162.94
467.171	147.94
467.391	155.94
467.61	143.94
467.829	150.94
468.049	158.94
468.268	148.94
468.488	164.94
468.707	158.94
468.927	162.94
469.146	147.94
469.365	155.94
469.585	159.94
469.804	160.94
470.023	167.94
470.243	169.94
470.462	160.94
470.681	159.94
470.901	156.94
471.12	150.94
471.339	167.94
471.558	156.94
471.777	158.94
471.997	149.94
472.216	135.94
472.435	144.94
472.654	142.94
472.873	148.94
473.092	149.94
473.311	159.94
473.53	133.94
473.749	166.94
473.968	147.94
474.187	134.94
474.406	158.94
474.625	147.94
474.844	155.94
475.063	155.94
475.282	149.94
475.501	142.94
475.72	146.94
475.939	157.94
476.158	159.94
476.377	161.94
476.596	162.94
476.814	144.94
477.033	168.94
477.252	149.94
477.471	161.94
477.69	159.94
477.908	170.94
478.127	173.94
478.346	168.94
478.564	160.94
478.783	167.94
479.002	187.94
479.22	167.94
479.439	172.94
479.658	170.94
479.876	180.94
480.095	182.94
480.313	173.94
480.532	179.94
480.751	188.94
480.969	180.94
481.188	189.94
481.406	163.94
481.624	173.94
481.843	171.94
482.061	147.94
482.28	150.94
482.498	162.94
482.717	152.94
482.935	161.94
483.153	177.94
483.372	171.94
483.59	172.94
483.808	165.94
484.027	163.94
484.245	170.94
484.463	157.94
484.681	183.94
484.9	178.94
485.118	165.94
485.336	160.94
485.554	163.94
485.772	175.94
485.99	167.94
486.209	187.94
486.427	174.94
486.645	181.94
486.863	170.94
487.081	176.94
487.299	168.94
487.517	180.94
487.735	186.94
487.953	168.94
488.171	184.94
488.389	152.94
488.607	157.94
488.825	161.94
489.043	181.94
489.261	160.94
489.479	164.94
489.696	178.94
489.914	161.94
490.132	177.94
490.35	184.94
490.568	167.94
490.786	169.94
491.003	183.94
491.221	165.94
491.439	175.94
491.657	180.94
491.874	155.94
492.092	186.94
492.31	178.94
492.527	163.94
492.745	162.94
492.963	176.94
493.18	166.94
493.398	171.94
493.615	179.94
493.833	170.94
494.05	172.94
494.268	180.94
494.485	170.94
494.703	168.94
494.92	168.94
495.138	178.94
495.355	178.94
495.573	172.94
495.79	155.94
496.008	175.94
496.225	183.94
496.442	184.94
496.66	181.94
496.877	192.94
497.094	188.94
497.312	185.94
497.529	170.94
497.746	190.94
497.963	197.94
498.181	202.94
498.398	208.94
498.615	224.94
498.832	224.94
499.049	223.94
499.267	259.94
499.484	254.94
499.701	280.94
499.918	331.94
500.135	372.94
500.352	394.94
500.569	395.94
500.786	393.94
501.003	358.94
501.22	317.94
501.437	294.94
501.654	260.94
501.871	243.94
502.088	249.94
502.305	218.94
502.522	229.94
502.739	211.94
502.956	207.94
503.172	206.94
503.389	186.94
503.606	188.94
503.823	198.94
504.04	216.94
504.256	199.94
504.473	195.94
504.69	213.94
504.907	217.94
505.123	195.94
