Data from SampG_HRD10591_00086.txt Node
Date: Mon Jan 19 11:54:12 EST 2026
User: Yrep
Spectrometer: HR+D1059
Trigger mode: 0
Integration Time (sec): 3.443000E-1
Scans to average: 1
Electric dark correction enabled: true
Nonlinearity correction enabled: false
Boxcar width: 0
XAxis mode: Wavelengths
Number of Pixels in Spectrum: 2048
>>>>>Begin Spectral Data<<<<<
223.165	-21.19
223.4	-21.19
223.635	-21.19
223.869	-36.19
224.104	-15.19
224.338	-4.19
224.573	-18.19
224.808	-13.19
225.042	-3.19
225.277	-5.19
225.511	-12.19
225.746	-1.19
225.98	-5.19
226.215	15.81
226.449	16.81
226.683	22.81
226.918	38.81
227.152	40.81
227.387	38.81
227.621	33.81
227.856	41.81
228.09	44.81
228.324	42.81
228.559	55.81
228.793	52.81
229.027	56.81
229.262	69.81
229.496	61.81
229.73	76.81
229.964	69.81
230.199	86.81
230.433	71.81
230.667	91.81
230.901	68.81
231.136	88.81
231.37	91.81
231.604	84.81
231.838	77.81
232.072	77.81
232.306	87.81
232.541	100.81
232.775	89.81
233.009	87.81
233.243	95.81
233.477	81.81
233.711	63.81
233.945	79.81
234.179	85.81
234.413	78.81
234.647	78.81
234.881	83.81
235.115	73.81
235.349	76.81
235.583	87.81
235.817	75.81
236.051	84.81
236.285	80.81
236.519	71.81
236.753	91.81
236.987	84.81
237.221	74.81
237.455	80.81
237.689	96.81
237.922	83.81
238.156	72.81
238.39	78.81
238.624	74.81
238.858	76.81
239.091	87.81
239.325	88.81
239.559	70.81
239.793	92.81
240.027	92.81
240.26	84.81
240.494	76.81
240.728	67.81
240.961	72.81
241.195	88.81
241.429	90.81
241.662	77.81
241.896	91.81
242.13	83.81
242.363	73.81
242.597	90.81
242.83	90.81
243.064	92.81
243.298	76.81
243.531	78.81
243.765	69.81
243.998	91.81
244.232	98.81
244.465	77.81
244.699	90.81
244.932	76.81
245.166	74.81
245.399	81.81
245.633	96.81
245.866	92.81
246.099	95.81
246.333	95.81
246.566	82.81
246.8	81.81
247.033	92.81
247.266	82.81
247.5	86.81
247.733	85.81
247.966	91.81
248.2	89.81
248.433	83.81
248.666	97.81
248.899	95.81
249.133	90.81
249.366	78.81
249.599	95.81
249.832	80.81
250.066	91.81
250.299	104.81
250.532	99.81
250.765	74.81
250.998	83.81
251.231	94.81
251.465	98.81
251.698	80.81
251.931	81.81
252.164	93.81
252.397	91.81
252.63	99.81
252.863	90.81
253.096	64.81
253.329	92.81
253.562	72.81
253.795	93.81
254.028	101.81
254.261	114.81
254.494	96.81
254.727	102.81
254.96	90.81
255.193	101.81
255.426	90.81
255.659	91.81
255.892	113.81
256.124	82.81
256.357	92.81
256.59	99.81
256.823	82.81
257.056	91.81
257.289	94.81
257.521	115.81
257.754	92.81
257.987	86.81
258.22	87.81
258.452	82.81
258.685	89.81
258.918	91.81
259.151	75.81
259.383	95.81
259.616	92.81
259.849	99.81
260.081	101.81
260.314	97.81
260.547	78.81
260.779	93.81
261.012	100.81
261.244	96.81
261.477	96.81
261.71	86.81
261.942	86.81
262.175	104.81
262.407	110.81
262.64	92.81
262.872	93.81
263.105	97.81
263.337	101.81
263.57	94.81
263.802	95.81
264.035	95.81
264.267	88.81
264.499	87.81
264.732	88.81
264.964	100.81
265.197	99.81
265.429	92.81
265.661	104.81
265.894	104.81
266.126	105.81
266.358	101.81
266.591	97.81
266.823	97.81
267.055	91.81
267.287	109.81
267.52	103.81
267.752	105.81
267.984	101.81
268.216	95.81
268.448	115.81
268.681	127.81
268.913	95.81
269.145	98.81
269.377	107.81
269.609	100.81
269.841	107.81
270.073	112.81
270.306	102.81
270.538	104.81
270.77	101.81
271.002	101.81
271.234	101.81
271.466	112.81
271.698	96.81
271.93	103.81
272.162	106.81
272.394	103.81
272.626	107.81
272.858	95.81
273.09	89.81
273.322	84.81
273.553	107.81
273.785	115.81
274.017	113.81
274.249	111.81
274.481	109.81
274.713	105.81
274.945	119.81
275.176	107.81
275.408	111.81
275.64	110.81
275.872	102.81
276.104	104.81
276.335	91.81
276.567	101.81
276.799	112.81
277.031	100.81
277.262	109.81
277.494	95.81
277.726	102.81
277.957	95.81
278.189	98.81
278.421	100.81
278.652	96.81
278.884	108.81
279.115	104.81
279.347	109.81
279.579	106.81
279.81	109.81
280.042	102.81
280.273	109.81
280.505	111.81
280.736	112.81
280.968	111.81
281.199	101.81
281.431	123.81
281.662	103.81
281.894	99.81
282.125	105.81
282.356	102.81
282.588	108.81
282.819	110.81
283.051	120.81
283.282	89.81
283.513	113.81
283.745	122.81
283.976	114.81
284.207	110.81
284.439	114.81
284.67	112.81
284.901	119.81
285.132	115.81
285.364	90.81
285.595	110.81
285.826	86.81
286.057	114.81
286.288	98.81
286.52	118.81
286.751	115.81
286.982	119.81
287.213	115.81
287.444	101.81
287.675	118.81
287.906	111.81
288.138	118.81
288.369	110.81
288.6	104.81
288.831	129.81
289.062	122.81
289.293	125.81
289.524	107.81
289.755	105.81
289.986	114.81
290.217	115.81
290.448	116.81
290.679	124.81
290.91	128.81
291.141	118.81
291.371	102.81
291.602	136.81
291.833	113.81
292.064	113.81
292.295	114.81
292.526	112.81
292.757	107.81
292.987	105.81
293.218	114.81
293.449	108.81
293.68	117.81
293.91	112.81
294.141	120.81
294.372	118.81
294.603	114.81
294.833	117.81
295.064	110.81
295.295	112.81
295.525	101.81
295.756	122.81
295.987	132.81
296.217	109.81
296.448	105.81
296.679	122.81
296.909	124.81
297.14	128.81
297.37	136.81
297.601	116.81
297.831	109.81
298.062	120.81
298.292	111.81
298.523	130.81
298.753	97.81
298.984	126.81
299.214	115.81
299.445	126.81
299.675	119.81
299.905	109.81
300.136	129.81
300.366	111.81
300.597	127.81
300.827	140.81
301.057	124.81
301.288	125.81
301.518	136.81
301.748	125.81
301.979	160.81
302.209	115.81
302.439	122.81
302.669	122.81
302.9	121.81
303.13	128.81
303.36	124.81
303.59	138.81
303.82	133.81
304.051	116.81
304.281	128.81
304.511	132.81
304.741	140.81
304.971	138.81
305.201	131.81
305.431	137.81
305.661	117.81
305.891	124.81
306.121	120.81
306.352	133.81
306.582	136.81
306.812	113.81
307.042	130.81
307.272	130.81
307.502	121.81
307.731	145.81
307.961	123.81
308.191	120.81
308.421	130.81
308.651	105.81
308.881	106.81
309.111	114.81
309.341	107.81
309.571	112.81
309.8	115.81
310.03	109.81
310.26	126.81
310.49	129.81
310.72	121.81
310.949	126.81
311.179	121.81
311.409	123.81
311.639	110.81
311.868	128.81
312.098	131.81
312.328	120.81
312.557	125.81
312.787	121.81
313.017	134.81
313.246	112.81
313.476	124.81
313.706	133.81
313.935	118.81
314.165	116.81
314.394	116.81
314.624	131.81
314.853	130.81
315.083	123.81
315.312	134.81
315.542	112.81
315.771	115.81
316.001	124.81
316.23	130.81
316.46	106.81
316.689	138.81
316.919	121.81
317.148	126.81
317.377	121.81
317.607	125.81
317.836	114.81
318.065	123.81
318.295	129.81
318.524	118.81
318.753	132.81
318.983	123.81
319.212	115.81
319.441	118.81
319.67	115.81
319.9	129.81
320.129	125.81
320.358	125.81
320.587	112.81
320.816	124.81
321.046	122.81
321.275	117.81
321.504	126.81
321.733	128.81
321.962	133.81
322.191	113.81
322.42	120.81
322.649	114.81
322.878	128.81
323.108	124.81
323.337	110.81
323.566	131.81
323.795	134.81
324.024	139.81
324.253	117.81
324.482	125.81
324.71	117.81
324.939	135.81
325.168	128.81
325.397	139.81
325.626	123.81
325.855	123.81
326.084	124.81
326.313	130.81
326.542	125.81
326.77	119.81
326.999	134.81
327.228	118.81
327.457	112.81
327.686	129.81
327.914	141.81
328.143	139.81
328.372	134.81
328.6	133.81
328.829	124.81
329.058	129.81
329.287	127.81
329.515	124.81
329.744	136.81
329.972	120.81
330.201	127.81
330.43	133.81
330.658	131.81
330.887	142.81
331.115	145.81
331.344	124.81
331.572	140.81
331.801	127.81
332.03	150.81
332.258	136.81
332.486	139.81
332.715	151.81
332.943	133.81
333.172	152.81
333.4	144.81
333.629	156.81
333.857	153.81
334.085	153.81
334.314	140.81
334.542	141.81
334.771	151.81
334.999	137.81
335.227	144.81
335.455	137.81
335.684	131.81
335.912	151.81
336.14	149.81
336.369	146.81
336.597	131.81
336.825	142.81
337.053	134.81
337.281	129.81
337.51	130.81
337.738	144.81
337.966	141.81
338.194	128.81
338.422	123.81
338.65	142.81
338.878	128.81
339.106	135.81
339.334	132.81
339.562	123.81
339.79	134.81
340.018	140.81
340.246	117.81
340.474	134.81
340.702	141.81
340.93	134.81
341.158	140.81
341.386	131.81
341.614	135.81
341.842	121.81
342.07	118.81
342.298	147.81
342.526	137.81
342.754	126.81
342.981	123.81
343.209	131.81
343.437	172.81
343.665	161.81
343.893	147.81
344.12	150.81
344.348	133.81
344.576	130.81
344.804	141.81
345.031	141.81
345.259	135.81
345.487	133.81
345.714	141.81
345.942	132.81
346.17	120.81
346.397	126.81
346.625	127.81
346.853	118.81
347.08	137.81
347.308	146.81
347.535	140.81
347.763	123.81
347.99	149.81
348.218	141.81
348.445	134.81
348.673	124.81
348.9	138.81
349.128	128.81
349.355	129.81
349.583	141.81
349.81	123.81
350.037	129.81
350.265	125.81
350.492	125.81
350.72	113.81
350.947	116.81
351.174	122.81
351.402	121.81
351.629	129.81
351.856	119.81
352.083	124.81
352.311	125.81
352.538	124.81
352.765	128.81
352.992	162.81
353.22	133.81
353.447	114.81
353.674	144.81
353.901	151.81
354.128	137.81
354.355	119.81
354.583	141.81
354.81	124.81
355.037	130.81
355.264	129.81
355.491	116.81
355.718	131.81
355.945	136.81
356.172	128.81
356.399	140.81
356.626	144.81
356.853	133.81
357.08	131.81
357.307	119.81
357.534	130.81
357.761	137.81
357.988	133.81
358.215	137.81
358.441	135.81
358.668	121.81
358.895	117.81
359.122	131.81
359.349	131.81
359.576	124.81
359.802	138.81
360.029	133.81
360.256	133.81
360.483	135.81
360.709	123.81
360.936	144.81
361.163	120.81
361.39	121.81
361.616	114.81
361.843	144.81
362.07	118.81
362.296	127.81
362.523	122.81
362.749	133.81
362.976	121.81
363.203	133.81
363.429	127.81
363.656	125.81
363.882	120.81
364.109	150.81
364.335	146.81
364.562	138.81
364.788	122.81
365.015	126.81
365.241	128.81
365.468	126.81
365.694	139.81
365.92	140.81
366.147	132.81
366.373	133.81
366.599	124.81
366.826	144.81
367.052	135.81
367.278	131.81
367.505	115.81
367.731	158.81
367.957	125.81
368.184	122.81
368.41	139.81
368.636	123.81
368.862	131.81
369.089	133.81
369.315	130.81
369.541	122.81
369.767	129.81
369.993	143.81
370.219	124.81
370.445	129.81
370.672	134.81
370.898	127.81
371.124	140.81
371.35	117.81
371.576	131.81
371.802	128.81
372.028	130.81
372.254	135.81
372.48	138.81
372.706	129.81
372.932	138.81
373.158	146.81
373.384	133.81
373.61	125.81
373.835	145.81
374.061	125.81
374.287	128.81
374.513	134.81
374.739	148.81
374.965	150.81
375.191	150.81
375.416	146.81
375.642	141.81
375.868	145.81
376.094	131.81
376.319	160.81
376.545	124.81
376.771	118.81
376.997	142.81
377.222	125.81
377.448	139.81
377.674	130.81
377.899	133.81
378.125	133.81
378.35	136.81
378.576	143.81
378.802	123.81
379.027	128.81
379.253	135.81
379.478	136.81
379.704	118.81
379.929	132.81
380.155	131.81
380.38	144.81
380.606	140.81
380.831	129.81
381.057	151.81
381.282	132.81
381.507	135.81
381.733	139.81
381.958	142.81
382.184	135.81
382.409	121.81
382.634	140.81
382.86	140.81
383.085	146.81
383.31	128.81
383.535	140.81
383.761	132.81
383.986	141.81
384.211	151.81
384.436	168.81
384.662	151.81
384.887	139.81
385.112	152.81
385.337	137.81
385.562	144.81
385.787	145.81
386.013	171.81
386.238	140.81
386.463	146.81
386.688	166.81
386.913	145.81
387.138	140.81
387.363	142.81
387.588	158.81
387.813	162.81
388.038	134.81
388.263	150.81
388.488	140.81
388.713	145.81
388.938	166.81
389.163	141.81
389.387	145.81
389.612	136.81
389.837	144.81
390.062	154.81
390.287	147.81
390.512	151.81
390.736	157.81
390.961	154.81
391.186	161.81
391.411	166.81
391.636	163.81
391.86	153.81
392.085	164.81
392.31	147.81
392.534	155.81
392.759	151.81
392.984	161.81
393.208	142.81
393.433	156.81
393.658	153.81
393.882	166.81
394.107	147.81
394.331	148.81
394.556	150.81
394.78	150.81
395.005	161.81
395.229	149.81
395.454	171.81
395.678	158.81
395.903	170.81
396.127	157.81
396.352	164.81
396.576	161.81
396.801	161.81
397.025	156.81
397.249	162.81
397.474	160.81
397.698	146.81
397.922	159.81
398.147	157.81
398.371	161.81
398.595	167.81
398.82	175.81
399.044	192.81
399.268	185.81
399.492	209.81
399.717	226.81
399.941	217.81
400.165	179.81
400.389	181.81
400.613	197.81
400.837	173.81
401.062	179.81
401.286	167.81
401.51	165.81
401.734	177.81
401.958	170.81
402.182	183.81
402.406	169.81
402.63	178.81
402.854	188.81
403.078	177.81
403.302	187.81
403.526	184.81
403.75	188.81
403.974	182.81
404.198	194.81
404.422	201.81
404.645	162.81
404.869	188.81
405.093	186.81
405.317	174.81
405.541	178.81
405.765	187.81
405.988	167.81
406.212	192.81
406.436	171.81
406.66	169.81
406.883	192.81
407.107	196.81
407.331	193.81
407.555	192.81
407.778	199.81
408.002	185.81
408.226	180.81
408.449	184.81
408.673	180.81
408.896	179.81
409.12	192.81
409.344	186.81
409.567	187.81
409.791	189.81
410.014	185.81
410.238	175.81
410.461	175.81
410.685	170.81
410.908	186.81
411.132	184.81
411.355	180.81
411.578	183.81
411.802	169.81
412.025	160.81
412.249	182.81
412.472	178.81
412.695	173.81
412.919	178.81
413.142	166.81
413.365	164.81
413.589	177.81
413.812	179.81
414.035	167.81
414.258	172.81
414.482	171.81
414.705	173.81
414.928	166.81
415.151	168.81
415.374	173.81
415.597	174.81
415.821	165.81
416.044	161.81
416.267	169.81
416.49	173.81
416.713	163.81
416.936	173.81
417.159	156.81
417.382	164.81
417.605	157.81
417.828	182.81
418.051	169.81
418.274	196.81
418.497	173.81
418.72	172.81
418.943	173.81
419.166	193.81
419.389	190.81
419.611	167.81
419.834	170.81
420.057	164.81
420.28	153.81
420.503	158.81
420.726	170.81
420.948	167.81
421.171	185.81
421.394	178.81
421.617	178.81
421.839	164.81
422.062	177.81
422.285	158.81
422.507	175.81
422.73	179.81
422.953	147.81
423.175	167.81
423.398	167.81
423.621	167.81
423.843	184.81
424.066	159.81
424.288	157.81
424.511	163.81
424.733	171.81
424.956	169.81
425.178	178.81
425.401	162.81
425.623	166.81
425.846	153.81
426.068	156.81
426.291	172.81
426.513	161.81
426.735	146.81
426.958	163.81
427.18	180.81
427.402	161.81
427.625	166.81
427.847	163.81
428.069	164.81
428.292	140.81
428.514	161.81
428.736	144.81
428.958	163.81
429.181	152.81
429.403	158.81
429.625	155.81
429.847	140.81
430.069	154.81
430.292	162.81
430.514	155.81
430.736	162.81
430.958	171.81
431.18	129.81
431.402	132.81
431.624	144.81
431.846	169.81
432.068	170.81
432.29	161.81
432.512	182.81
432.734	164.81
432.956	151.81
433.178	174.81
433.4	160.81
433.622	157.81
433.844	151.81
434.066	160.81
434.287	173.81
434.509	170.81
434.731	144.81
434.953	178.81
435.175	167.81
435.397	164.81
435.618	164.81
435.84	160.81
436.062	156.81
436.284	172.81
436.505	154.81
436.727	160.81
436.949	161.81
437.17	147.81
437.392	174.81
437.614	157.81
437.835	155.81
438.057	164.81
438.278	150.81
438.5	147.81
438.721	164.81
438.943	159.81
439.165	154.81
439.386	154.81
439.608	155.81
439.829	150.81
440.05	189.81
440.272	165.81
440.493	171.81
440.715	167.81
440.936	165.81
441.158	173.81
441.379	168.81
441.6	171.81
441.822	152.81
442.043	166.81
442.264	175.81
442.486	173.81
442.707	175.81
442.928	160.81
443.149	160.81
443.371	177.81
443.592	167.81
443.813	173.81
444.034	171.81
444.255	187.81
444.476	184.81
444.698	188.81
444.919	184.81
445.14	362.81
445.361	243.81
445.582	192.81
445.803	169.81
446.024	165.81
446.245	186.81
446.466	171.81
446.687	160.81
446.908	165.81
447.129	156.81
447.35	149.81
447.571	162.81
447.792	161.81
448.013	163.81
448.234	158.81
448.455	144.81
448.675	145.81
448.896	150.81
449.117	148.81
449.338	150.81
449.559	140.81
449.779	149.81
450	141.81
450.221	140.81
450.442	146.81
450.662	154.81
450.883	164.81
451.104	155.81
451.324	166.81
451.545	161.81
451.766	148.81
451.986	144.81
452.207	163.81
452.428	147.81
452.648	146.81
452.869	146.81
453.089	146.81
453.31	141.81
453.53	137.81
453.751	152.81
453.971	146.81
454.192	146.81
454.412	143.81
454.633	152.81
454.853	135.81
455.073	138.81
455.294	143.81
455.514	146.81
455.734	131.81
455.955	139.81
456.175	142.81
456.395	136.81
456.616	130.81
456.836	146.81
457.056	147.81
457.276	136.81
457.497	144.81
457.717	156.81
457.937	152.81
458.157	131.81
458.377	141.81
458.598	143.81
458.818	149.81
459.038	165.81
459.258	149.81
459.478	162.81
459.698	169.81
459.918	176.81
460.138	162.81
460.358	176.81
460.578	191.81
460.798	181.81
461.018	167.81
461.238	157.81
461.458	173.81
461.678	180.81
461.898	176.81
462.118	180.81
462.338	185.81
462.558	196.81
462.777	204.81
462.997	212.81
463.217	208.81
463.437	209.81
463.657	205.81
463.876	184.81
464.096	197.81
464.316	180.81
464.536	196.81
464.755	173.81
464.975	174.81
465.195	184.81
465.414	179.81
465.634	164.81
465.854	155.81
466.073	161.81
466.293	148.81
466.512	147.81
466.732	146.81
466.951	134.81
467.171	156.81
467.391	152.81
467.61	151.81
467.829	159.81
468.049	152.81
468.268	143.81
468.488	147.81
468.707	162.81
468.927	164.81
469.146	142.81
469.365	174.81
469.585	156.81
469.804	146.81
470.023	153.81
470.243	151.81
470.462	142.81
470.681	158.81
470.901	166.81
471.12	150.81
471.339	153.81
471.558	151.81
471.777	161.81
471.997	142.81
472.216	154.81
472.435	151.81
472.654	146.81
472.873	152.81
473.092	166.81
473.311	140.81
473.53	132.81
473.749	140.81
473.968	154.81
474.187	157.81
474.406	149.81
474.625	153.81
474.844	157.81
475.063	155.81
475.282	141.81
475.501	139.81
475.72	170.81
475.939	153.81
476.158	147.81
476.377	144.81
476.596	146.81
476.814	152.81
477.033	161.81
477.252	160.81
477.471	160.81
477.69	165.81
477.908	162.81
478.127	192.81
478.346	158.81
478.564	168.81
478.783	172.81
479.002	172.81
479.22	173.81
479.439	172.81
479.658	180.81
479.876	163.81
480.095	181.81
480.313	182.81
480.532	182.81
480.751	179.81
480.969	153.81
481.188	167.81
481.406	162.81
481.624	178.81
481.843	157.81
482.061	154.81
482.28	172.81
482.498	162.81
482.717	151.81
482.935	144.81
483.153	171.81
483.372	180.81
483.59	157.81
483.808	160.81
484.027	164.81
484.245	168.81
484.463	157.81
484.681	176.81
484.9	174.81
485.118	172.81
485.336	148.81
485.554	156.81
485.772	156.81
485.99	166.81
486.209	178.81
486.427	171.81
486.645	157.81
486.863	172.81
487.081	154.81
487.299	164.81
487.517	172.81
487.735	166.81
487.953	152.81
488.171	149.81
488.389	162.81
488.607	162.81
488.825	157.81
489.043	176.81
489.261	168.81
489.479	175.81
489.696	180.81
489.914	170.81
490.132	164.81
490.35	183.81
490.568	168.81
490.786	174.81
491.003	163.81
491.221	136.81
491.439	163.81
491.657	171.81
491.874	169.81
492.092	162.81
492.31	174.81
492.527	156.81
492.745	168.81
492.963	153.81
493.18	182.81
493.398	171.81
493.615	168.81
493.833	166.81
494.05	155.81
494.268	178.81
494.485	179.81
494.703	178.81
494.92	171.81
495.138	170.81
495.355	177.81
495.573	184.81
495.79	183.81
496.008	180.81
496.225	181.81
496.442	176.81
496.66	182.81
496.877	177.81
497.094	196.81
497.312	195.81
497.529	181.81
497.746	192.81
497.963	190.81
498.181	185.81
498.398	196.81
498.615	222.81
498.832	209.81
499.049	247.81
499.267	235.81
499.484	254.81
499.701	281.81
499.918	317.81
500.135	339.81
500.352	382.81
500.569	405.81
500.786	381.81
501.003	340.81
501.22	296.81
501.437	298.81
501.654	263.81
501.871	256.81
502.088	240.81
502.305	243.81
502.522	227.81
502.739	202.81
502.956	215.81
503.172	221.81
503.389	201.81
503.606	197.81
503.823	187.81
504.04	196.81
504.256	197.81
504.473	176.81
504.69	184.81
504.907	197.81
