Data from SampG_HRD10591_00067.txt Node
Date: Mon Jan 19 11:54:06 EST 2026
User: Yrep
Spectrometer: HR+D1059
Trigger mode: 0
Integration Time (sec): 3.443000E-1
Scans to average: 1
Electric dark correction enabled: true
Nonlinearity correction enabled: false
Boxcar width: 0
XAxis mode: Wavelengths
Number of Pixels in Spectrum: 2048
>>>>>Begin Spectral Data<<<<<
223.165	-20.62
223.4	-20.62
223.635	-20.62
223.869	-21.62
224.104	-20.62
224.338	-21.62
224.573	-14.62
224.808	-12.62
225.042	-5.62
225.277	-3.62
225.511	1.38
225.746	-5.62
225.98	7.38
226.215	21.38
226.449	14.38
226.683	29.38
226.918	17.38
227.152	35.38
227.387	43.38
227.621	54.38
227.856	55.38
228.09	39.38
228.324	41.38
228.559	59.38
228.793	56.38
229.027	61.38
229.262	81.38
229.496	80.38
229.73	81.38
229.964	92.38
230.199	76.38
230.433	70.38
230.667	78.38
230.901	76.38
231.136	88.38
231.37	91.38
231.604	97.38
231.838	85.38
232.072	81.38
232.306	86.38
232.541	84.38
232.775	79.38
233.009	93.38
233.243	79.38
233.477	86.38
233.711	94.38
233.945	86.38
234.179	86.38
234.413	80.38
234.647	84.38
234.881	84.38
235.115	92.38
235.349	96.38
235.583	84.38
235.817	94.38
236.051	84.38
236.285	86.38
236.519	90.38
236.753	91.38
236.987	81.38
237.221	85.38
237.455	79.38
237.689	89.38
237.922	95.38
238.156	75.38
238.39	76.38
238.624	78.38
238.858	96.38
239.091	81.38
239.325	81.38
239.559	91.38
239.793	74.38
240.027	85.38
240.26	72.38
240.494	89.38
240.728	85.38
240.961	84.38
241.195	88.38
241.429	92.38
241.662	80.38
241.896	87.38
242.13	77.38
242.363	91.38
242.597	86.38
242.83	83.38
243.064	88.38
243.298	103.38
243.531	87.38
243.765	96.38
243.998	78.38
244.232	106.38
244.465	88.38
244.699	102.38
244.932	72.38
245.166	92.38
245.399	85.38
245.633	94.38
245.866	83.38
246.099	93.38
246.333	101.38
246.566	88.38
246.8	89.38
247.033	78.38
247.266	72.38
247.5	87.38
247.733	87.38
247.966	90.38
248.2	97.38
248.433	84.38
248.666	90.38
248.899	103.38
249.133	102.38
249.366	110.38
249.599	94.38
249.832	85.38
250.066	92.38
250.299	90.38
250.532	88.38
250.765	78.38
250.998	92.38
251.231	90.38
251.465	116.38
251.698	85.38
251.931	85.38
252.164	79.38
252.397	86.38
252.63	100.38
252.863	96.38
253.096	97.38
253.329	91.38
253.562	100.38
253.795	99.38
254.028	91.38
254.261	97.38
254.494	105.38
254.727	101.38
254.96	98.38
255.193	94.38
255.426	87.38
255.659	83.38
255.892	97.38
256.124	101.38
256.357	87.38
256.59	103.38
256.823	101.38
257.056	108.38
257.289	90.38
257.521	97.38
257.754	104.38
257.987	94.38
258.22	115.38
258.452	97.38
258.685	105.38
258.918	115.38
259.151	91.38
259.383	100.38
259.616	104.38
259.849	89.38
260.081	99.38
260.314	87.38
260.547	96.38
260.779	80.38
261.012	92.38
261.244	92.38
261.477	128.38
261.71	99.38
261.942	97.38
262.175	103.38
262.407	99.38
262.64	110.38
262.872	116.38
263.105	97.38
263.337	93.38
263.57	99.38
263.802	112.38
264.035	97.38
264.267	97.38
264.499	107.38
264.732	96.38
264.964	109.38
265.197	99.38
265.429	100.38
265.661	102.38
265.894	99.38
266.126	101.38
266.358	103.38
266.591	113.38
266.823	96.38
267.055	99.38
267.287	100.38
267.52	99.38
267.752	105.38
267.984	106.38
268.216	108.38
268.448	113.38
268.681	114.38
268.913	106.38
269.145	117.38
269.377	109.38
269.609	112.38
269.841	106.38
270.073	102.38
270.306	109.38
270.538	108.38
270.77	102.38
271.002	97.38
271.234	101.38
271.466	116.38
271.698	101.38
271.93	103.38
272.162	119.38
272.394	102.38
272.626	88.38
272.858	111.38
273.09	105.38
273.322	95.38
273.553	95.38
273.785	111.38
274.017	106.38
274.249	115.38
274.481	101.38
274.713	98.38
274.945	109.38
275.176	95.38
275.408	125.38
275.64	119.38
275.872	112.38
276.104	111.38
276.335	110.38
276.567	106.38
276.799	107.38
277.031	123.38
277.262	110.38
277.494	111.38
277.726	126.38
277.957	99.38
278.189	113.38
278.421	118.38
278.652	114.38
278.884	108.38
279.115	111.38
279.347	109.38
279.579	110.38
279.81	103.38
280.042	122.38
280.273	105.38
280.505	115.38
280.736	111.38
280.968	115.38
281.199	123.38
281.431	118.38
281.662	116.38
281.894	144.38
282.125	113.38
282.356	108.38
282.588	113.38
282.819	122.38
283.051	104.38
283.282	120.38
283.513	120.38
283.745	110.38
283.976	111.38
284.207	124.38
284.439	121.38
284.67	121.38
284.901	116.38
285.132	121.38
285.364	116.38
285.595	120.38
285.826	116.38
286.057	123.38
286.288	115.38
286.52	110.38
286.751	117.38
286.982	127.38
287.213	112.38
287.444	113.38
287.675	113.38
287.906	125.38
288.138	106.38
288.369	116.38
288.6	110.38
288.831	93.38
289.062	116.38
289.293	125.38
289.524	121.38
289.755	113.38
289.986	123.38
290.217	119.38
290.448	116.38
290.679	130.38
290.91	135.38
291.141	103.38
291.371	118.38
291.602	122.38
291.833	122.38
292.064	121.38
292.295	120.38
292.526	122.38
292.757	112.38
292.987	111.38
293.218	125.38
293.449	114.38
293.68	108.38
293.91	120.38
294.141	123.38
294.372	125.38
294.603	128.38
294.833	113.38
295.064	125.38
295.295	128.38
295.525	134.38
295.756	123.38
295.987	126.38
296.217	111.38
296.448	96.38
296.679	121.38
296.909	137.38
297.14	134.38
297.37	131.38
297.601	132.38
297.831	134.38
298.062	121.38
298.292	124.38
298.523	134.38
298.753	128.38
298.984	120.38
299.214	124.38
299.445	102.38
299.675	120.38
299.905	120.38
300.136	123.38
300.366	113.38
300.597	127.38
300.827	135.38
301.057	127.38
301.288	130.38
301.518	125.38
301.748	120.38
301.979	168.38
302.209	118.38
302.439	138.38
302.669	113.38
302.9	120.38
303.13	130.38
303.36	129.38
303.59	127.38
303.82	114.38
304.051	125.38
304.281	140.38
304.511	143.38
304.741	128.38
304.971	128.38
305.201	131.38
305.431	129.38
305.661	126.38
305.891	133.38
306.121	131.38
306.352	118.38
306.582	125.38
306.812	136.38
307.042	118.38
307.272	124.38
307.502	118.38
307.731	137.38
307.961	117.38
308.191	131.38
308.421	124.38
308.651	136.38
308.881	123.38
309.111	121.38
309.341	138.38
309.571	124.38
309.8	113.38
310.03	134.38
310.26	113.38
310.49	117.38
310.72	121.38
310.949	124.38
311.179	112.38
311.409	121.38
311.639	136.38
311.868	141.38
312.098	132.38
312.328	140.38
312.557	135.38
312.787	138.38
313.017	133.38
313.246	149.38
313.476	127.38
313.706	122.38
313.935	124.38
314.165	151.38
314.394	135.38
314.624	129.38
314.853	131.38
315.083	140.38
315.312	121.38
315.542	135.38
315.771	121.38
316.001	132.38
316.23	130.38
316.46	126.38
316.689	128.38
316.919	123.38
317.148	138.38
317.377	142.38
317.607	128.38
317.836	132.38
318.065	136.38
318.295	147.38
318.524	127.38
318.753	121.38
318.983	128.38
319.212	129.38
319.441	132.38
319.67	135.38
319.9	117.38
320.129	140.38
320.358	128.38
320.587	124.38
320.816	127.38
321.046	123.38
321.275	127.38
321.504	130.38
321.733	128.38
321.962	127.38
322.191	128.38
322.42	129.38
322.649	132.38
322.878	138.38
323.108	135.38
323.337	127.38
323.566	124.38
323.795	139.38
324.024	128.38
324.253	129.38
324.482	122.38
324.71	127.38
324.939	147.38
325.168	128.38
325.397	135.38
325.626	127.38
325.855	134.38
326.084	147.38
326.313	138.38
326.542	135.38
326.77	133.38
326.999	121.38
327.228	116.38
327.457	128.38
327.686	123.38
327.914	144.38
328.143	119.38
328.372	124.38
328.6	114.38
328.829	130.38
329.058	152.38
329.287	117.38
329.515	133.38
329.744	131.38
329.972	129.38
330.201	139.38
330.43	134.38
330.658	131.38
330.887	137.38
331.115	138.38
331.344	143.38
331.572	132.38
331.801	131.38
332.03	147.38
332.258	140.38
332.486	163.38
332.715	151.38
332.943	160.38
333.172	166.38
333.4	171.38
333.629	149.38
333.857	154.38
334.085	166.38
334.314	149.38
334.542	145.38
334.771	153.38
334.999	148.38
335.227	148.38
335.455	142.38
335.684	163.38
335.912	163.38
336.14	143.38
336.369	147.38
336.597	137.38
336.825	145.38
337.053	135.38
337.281	132.38
337.51	164.38
337.738	139.38
337.966	135.38
338.194	132.38
338.422	160.38
338.65	151.38
338.878	157.38
339.106	134.38
339.334	139.38
339.562	124.38
339.79	127.38
340.018	128.38
340.246	137.38
340.474	127.38
340.702	138.38
340.93	128.38
341.158	135.38
341.386	130.38
341.614	141.38
341.842	128.38
342.07	126.38
342.298	135.38
342.526	136.38
342.754	137.38
342.981	143.38
343.209	142.38
343.437	164.38
343.665	146.38
343.893	157.38
344.12	157.38
344.348	173.38
344.576	151.38
344.804	139.38
345.031	130.38
345.259	142.38
345.487	141.38
345.714	147.38
345.942	135.38
346.17	128.38
346.397	148.38
346.625	146.38
346.853	140.38
347.08	137.38
347.308	138.38
347.535	124.38
347.763	124.38
347.99	143.38
348.218	137.38
348.445	124.38
348.673	128.38
348.9	142.38
349.128	142.38
349.355	140.38
349.583	156.38
349.81	129.38
350.037	126.38
350.265	139.38
350.492	126.38
350.72	144.38
350.947	127.38
351.174	141.38
351.402	124.38
351.629	141.38
351.856	150.38
352.083	124.38
352.311	150.38
352.538	123.38
352.765	135.38
352.992	168.38
353.22	150.38
353.447	139.38
353.674	126.38
353.901	149.38
354.128	133.38
354.355	133.38
354.583	138.38
354.81	134.38
355.037	146.38
355.264	152.38
355.491	136.38
355.718	143.38
355.945	133.38
356.172	154.38
356.399	128.38
356.626	142.38
356.853	139.38
357.08	127.38
357.307	148.38
357.534	139.38
357.761	140.38
357.988	138.38
358.215	119.38
358.441	136.38
358.668	147.38
358.895	137.38
359.122	120.38
359.349	134.38
359.576	126.38
359.802	131.38
360.029	150.38
360.256	127.38
360.483	138.38
360.709	136.38
360.936	147.38
361.163	147.38
361.39	138.38
361.616	139.38
361.843	138.38
362.07	144.38
362.296	137.38
362.523	128.38
362.749	137.38
362.976	133.38
363.203	135.38
363.429	150.38
363.656	138.38
363.882	133.38
364.109	131.38
364.335	147.38
364.562	135.38
364.788	141.38
365.015	144.38
365.241	142.38
365.468	143.38
365.694	145.38
365.92	133.38
366.147	139.38
366.373	132.38
366.599	131.38
366.826	136.38
367.052	135.38
367.278	129.38
367.505	133.38
367.731	152.38
367.957	113.38
368.184	134.38
368.41	124.38
368.636	133.38
368.862	135.38
369.089	140.38
369.315	128.38
369.541	131.38
369.767	141.38
369.993	139.38
370.219	143.38
370.445	128.38
370.672	134.38
370.898	140.38
371.124	147.38
371.35	132.38
371.576	144.38
371.802	143.38
372.028	136.38
372.254	151.38
372.48	132.38
372.706	129.38
372.932	146.38
373.158	132.38
373.384	162.38
373.61	137.38
373.835	132.38
374.061	143.38
374.287	148.38
374.513	141.38
374.739	149.38
374.965	157.38
375.191	149.38
375.416	141.38
375.642	143.38
375.868	153.38
376.094	145.38
376.319	157.38
376.545	154.38
376.771	143.38
376.997	149.38
377.222	138.38
377.448	143.38
377.674	125.38
377.899	129.38
378.125	153.38
378.35	142.38
378.576	141.38
378.802	148.38
379.027	127.38
379.253	151.38
379.478	156.38
379.704	132.38
379.929	139.38
380.155	146.38
380.38	151.38
380.606	120.38
380.831	134.38
381.057	166.38
381.282	149.38
381.507	140.38
381.733	139.38
381.958	144.38
382.184	145.38
382.409	139.38
382.634	153.38
382.86	125.38
383.085	146.38
383.31	163.38
383.535	153.38
383.761	161.38
383.986	149.38
384.211	149.38
384.436	153.38
384.662	155.38
384.887	152.38
385.112	155.38
385.337	156.38
385.562	145.38
385.787	161.38
386.013	140.38
386.238	164.38
386.463	176.38
386.688	172.38
386.913	168.38
387.138	155.38
387.363	147.38
387.588	168.38
387.813	155.38
388.038	147.38
388.263	160.38
388.488	155.38
388.713	142.38
388.938	149.38
389.163	138.38
389.387	150.38
389.612	147.38
389.837	165.38
390.062	164.38
390.287	164.38
390.512	150.38
390.736	163.38
390.961	150.38
391.186	174.38
391.411	143.38
391.636	156.38
391.86	165.38
392.085	179.38
392.31	174.38
392.534	163.38
392.759	154.38
392.984	158.38
393.208	162.38
393.433	156.38
393.658	155.38
393.882	159.38
394.107	151.38
394.331	167.38
394.556	159.38
394.78	153.38
395.005	170.38
395.229	157.38
395.454	163.38
395.678	160.38
395.903	176.38
396.127	155.38
396.352	173.38
396.576	151.38
396.801	165.38
397.025	159.38
397.249	177.38
397.474	187.38
397.698	150.38
397.922	169.38
398.147	156.38
398.371	166.38
398.595	169.38
398.82	166.38
399.044	184.38
399.268	201.38
399.492	223.38
399.717	227.38
399.941	215.38
400.165	202.38
400.389	181.38
400.613	182.38
400.837	190.38
401.062	176.38
401.286	175.38
401.51	182.38
401.734	168.38
401.958	170.38
402.182	190.38
402.406	180.38
402.63	179.38
402.854	192.38
403.078	176.38
403.302	190.38
403.526	206.38
403.75	211.38
403.974	204.38
404.198	208.38
404.422	206.38
404.645	196.38
404.869	189.38
405.093	204.38
405.317	187.38
405.541	188.38
405.765	182.38
405.988	177.38
406.212	177.38
406.436	180.38
406.66	195.38
406.883	189.38
407.107	200.38
407.331	199.38
407.555	197.38
407.778	211.38
408.002	193.38
408.226	205.38
408.449	188.38
408.673	191.38
408.896	195.38
409.12	199.38
409.344	199.38
409.567	173.38
409.791	186.38
410.014	191.38
410.238	183.38
410.461	181.38
410.685	180.38
410.908	189.38
411.132	206.38
411.355	184.38
411.578	195.38
411.802	171.38
412.025	192.38
412.249	176.38
412.472	183.38
412.695	184.38
412.919	166.38
413.142	193.38
413.365	169.38
413.589	191.38
413.812	180.38
414.035	175.38
414.258	166.38
414.482	179.38
414.705	183.38
414.928	189.38
415.151	174.38
415.374	172.38
415.597	167.38
415.821	172.38
416.044	171.38
416.267	176.38
416.49	184.38
416.713	173.38
416.936	168.38
417.159	173.38
417.382	173.38
417.605	158.38
417.828	193.38
418.051	178.38
418.274	185.38
418.497	187.38
418.72	179.38
418.943	188.38
419.166	187.38
419.389	191.38
419.611	192.38
419.834	169.38
420.057	196.38
420.28	181.38
420.503	180.38
420.726	174.38
420.948	154.38
421.171	182.38
421.394	175.38
421.617	172.38
421.839	187.38
422.062	187.38
422.285	181.38
422.507	189.38
422.73	180.38
422.953	176.38
423.175	186.38
423.398	193.38
423.621	178.38
423.843	185.38
424.066	183.38
424.288	173.38
424.511	190.38
424.733	183.38
424.956	193.38
425.178	195.38
425.401	175.38
425.623	194.38
425.846	182.38
426.068	168.38
426.291	162.38
426.513	170.38
426.735	174.38
426.958	177.38
427.18	187.38
427.402	159.38
427.625	174.38
427.847	166.38
428.069	184.38
428.292	175.38
428.514	166.38
428.736	158.38
428.958	168.38
429.181	172.38
429.403	153.38
429.625	155.38
429.847	171.38
430.069	180.38
430.292	167.38
430.514	167.38
430.736	169.38
430.958	163.38
431.18	175.38
431.402	160.38
431.624	158.38
431.846	157.38
432.068	162.38
432.29	172.38
432.512	170.38
432.734	170.38
432.956	163.38
433.178	171.38
433.4	160.38
433.622	163.38
433.844	167.38
434.066	167.38
434.287	171.38
434.509	177.38
434.731	181.38
434.953	184.38
435.175	170.38
435.397	186.38
435.618	147.38
435.84	188.38
436.062	162.38
436.284	165.38
436.505	167.38
436.727	184.38
436.949	168.38
437.17	160.38
437.392	164.38
437.614	163.38
437.835	156.38
438.057	159.38
438.278	164.38
438.5	157.38
438.721	167.38
438.943	161.38
439.165	162.38
439.386	157.38
439.608	152.38
439.829	169.38
440.05	174.38
440.272	158.38
440.493	175.38
440.715	179.38
440.936	185.38
441.158	175.38
441.379	181.38
441.6	168.38
441.822	178.38
442.043	166.38
442.264	185.38
442.486	187.38
442.707	181.38
442.928	188.38
443.149	170.38
443.371	177.38
443.592	167.38
443.813	183.38
444.034	195.38
444.255	199.38
444.476	213.38
444.698	201.38
444.919	208.38
445.14	397.38
445.361	293.38
445.582	191.38
445.803	181.38
446.024	175.38
446.245	173.38
446.466	181.38
446.687	163.38
446.908	171.38
447.129	180.38
447.35	150.38
447.571	161.38
447.792	144.38
448.013	160.38
448.234	164.38
448.455	151.38
448.675	179.38
448.896	156.38
449.117	171.38
449.338	141.38
449.559	156.38
449.779	145.38
450	167.38
450.221	163.38
450.442	155.38
450.662	168.38
450.883	160.38
451.104	169.38
451.324	151.38
451.545	148.38
451.766	154.38
451.986	153.38
452.207	169.38
452.428	156.38
452.648	175.38
452.869	160.38
453.089	161.38
453.31	167.38
453.53	161.38
453.751	159.38
453.971	158.38
454.192	154.38
454.412	142.38
454.633	169.38
454.853	155.38
455.073	144.38
455.294	141.38
455.514	156.38
455.734	138.38
455.955	148.38
456.175	151.38
456.395	150.38
456.616	165.38
456.836	147.38
457.056	155.38
457.276	152.38
457.497	142.38
457.717	162.38
457.937	157.38
458.157	142.38
458.377	126.38
458.598	158.38
458.818	166.38
459.038	155.38
459.258	163.38
459.478	156.38
459.698	175.38
459.918	177.38
460.138	177.38
460.358	191.38
460.578	185.38
460.798	179.38
461.018	183.38
461.238	190.38
461.458	184.38
461.678	190.38
461.898	201.38
462.118	190.38
462.338	206.38
462.558	199.38
462.777	208.38
462.997	219.38
463.217	235.38
463.437	236.38
463.657	205.38
463.876	203.38
464.096	207.38
464.316	192.38
464.536	211.38
464.755	200.38
464.975	184.38
465.195	182.38
465.414	187.38
465.634	173.38
465.854	163.38
466.073	184.38
466.293	169.38
466.512	161.38
466.732	157.38
466.951	158.38
467.171	163.38
467.391	168.38
467.61	152.38
467.829	157.38
468.049	169.38
468.268	161.38
468.488	157.38
468.707	159.38
468.927	155.38
469.146	164.38
469.365	159.38
469.585	155.38
469.804	180.38
470.023	173.38
470.243	163.38
470.462	176.38
470.681	170.38
470.901	164.38
471.12	160.38
471.339	172.38
471.558	157.38
471.777	154.38
471.997	153.38
472.216	166.38
472.435	154.38
472.654	159.38
472.873	149.38
473.092	171.38
473.311	152.38
473.53	163.38
473.749	171.38
473.968	182.38
474.187	167.38
474.406	151.38
474.625	169.38
474.844	167.38
475.063	156.38
475.282	158.38
475.501	174.38
475.72	168.38
475.939	164.38
476.158	164.38
476.377	164.38
476.596	149.38
476.814	164.38
477.033	165.38
477.252	155.38
477.471	152.38
477.69	172.38
477.908	173.38
478.127	172.38
478.346	172.38
478.564	186.38
478.783	180.38
479.002	179.38
479.22	177.38
479.439	207.38
479.658	177.38
479.876	167.38
480.095	180.38
480.313	191.38
480.532	206.38
480.751	193.38
480.969	178.38
481.188	183.38
481.406	176.38
481.624	177.38
481.843	172.38
482.061	169.38
482.28	186.38
482.498	167.38
482.717	179.38
482.935	174.38
483.153	165.38
483.372	176.38
483.59	167.38
483.808	168.38
484.027	191.38
484.245	174.38
484.463	174.38
484.681	186.38
484.9	156.38
485.118	170.38
485.336	180.38
485.554	183.38
485.772	188.38
485.99	196.38
486.209	172.38
486.427	176.38
486.645	162.38
486.863	185.38
487.081	175.38
487.299	166.38
487.517	181.38
487.735	199.38
487.953	171.38
488.171	181.38
488.389	171.38
488.607	164.38
488.825	165.38
489.043	166.38
489.261	191.38
489.479	161.38
489.696	183.38
489.914	184.38
490.132	165.38
490.35	187.38
490.568	175.38
490.786	186.38
491.003	184.38
491.221	181.38
491.439	171.38
491.657	174.38
491.874	179.38
492.092	177.38
492.31	193.38
492.527	169.38
492.745	170.38
492.963	176.38
493.18	189.38
493.398	177.38
493.615	197.38
493.833	183.38
494.05	179.38
494.268	181.38
494.485	169.38
494.703	185.38
494.92	193.38
495.138	177.38
495.355	181.38
495.573	192.38
495.79	169.38
496.008	190.38
496.225	194.38
496.442	189.38
496.66	177.38
496.877	192.38
497.094	192.38
497.312	187.38
497.529	179.38
497.746	193.38
497.963	189.38
498.181	200.38
498.398	209.38
498.615	236.38
498.832	244.38
499.049	277.38
499.267	283.38
499.484	294.38
499.701	322.38
499.918	345.38
500.135	378.38
500.352	422.38
500.569	407.38
500.786	412.38
501.003	395.38
501.22	331.38
501.437	306.38
501.654	269.38
501.871	252.38
502.088	239.38
502.305	247.38
502.522	220.38
502.739	230.38
502.956	221.38
503.172	207.38
503.389	213.38
503.606	204.38
503.823	176.38
504.04	200.38
504.256	210.38
504.473	199.38
504.69	211.38
