Data from SampG_HRD10591_00084.txt Node
Date: Mon Jan 19 11:54:12 EST 2026
User: Yrep
Spectrometer: HR+D1059
Trigger mode: 0
Integration Time (sec): 3.443000E-1
Scans to average: 1
Electric dark correction enabled: true
Nonlinearity correction enabled: false
Boxcar width: 0
XAxis mode: Wavelengths
Number of Pixels in Spectrum: 2048
>>>>>Begin Spectral Data<<<<<
223.165	-21.69
223.4	-21.69
223.635	-21.69
223.869	-20.69
224.104	-15.69
224.338	-12.69
224.573	-7.69
224.808	-18.69
225.042	-2.69
225.277	-14.69
225.511	-6.69
225.746	11.31
225.98	-5.69
226.215	13.31
226.449	5.31
226.683	25.31
226.918	39.31
227.152	32.31
227.387	31.31
227.621	43.31
227.856	53.31
228.09	58.31
228.324	53.31
228.559	63.31
228.793	49.31
229.027	60.31
229.262	68.31
229.496	70.31
229.73	76.31
229.964	68.31
230.199	66.31
230.433	87.31
230.667	86.31
230.901	73.31
231.136	76.31
231.37	94.31
231.604	84.31
231.838	74.31
232.072	83.31
232.306	89.31
232.541	88.31
232.775	72.31
233.009	73.31
233.243	74.31
233.477	92.31
233.711	90.31
233.945	70.31
234.179	92.31
234.413	78.31
234.647	84.31
234.881	84.31
235.115	80.31
235.349	88.31
235.583	87.31
235.817	74.31
236.051	76.31
236.285	82.31
236.519	91.31
236.753	76.31
236.987	84.31
237.221	71.31
237.455	65.31
237.689	73.31
237.922	84.31
238.156	75.31
238.39	83.31
238.624	72.31
238.858	74.31
239.091	74.31
239.325	73.31
239.559	86.31
239.793	73.31
240.027	104.31
240.26	79.31
240.494	86.31
240.728	74.31
240.961	81.31
241.195	71.31
241.429	89.31
241.662	89.31
241.896	74.31
242.13	92.31
242.363	71.31
242.597	83.31
242.83	76.31
243.064	81.31
243.298	92.31
243.531	97.31
243.765	87.31
243.998	75.31
244.232	77.31
244.465	89.31
244.699	91.31
244.932	83.31
245.166	73.31
245.399	99.31
245.633	79.31
245.866	90.31
246.099	88.31
246.333	86.31
246.566	81.31
246.8	82.31
247.033	90.31
247.266	84.31
247.5	87.31
247.733	87.31
247.966	87.31
248.2	85.31
248.433	88.31
248.666	83.31
248.899	84.31
249.133	101.31
249.366	100.31
249.599	79.31
249.832	89.31
250.066	92.31
250.299	102.31
250.532	81.31
250.765	89.31
250.998	97.31
251.231	88.31
251.465	82.31
251.698	85.31
251.931	96.31
252.164	93.31
252.397	82.31
252.63	95.31
252.863	89.31
253.096	102.31
253.329	103.31
253.562	81.31
253.795	87.31
254.028	81.31
254.261	87.31
254.494	87.31
254.727	97.31
254.96	103.31
255.193	89.31
255.426	91.31
255.659	86.31
255.892	93.31
256.124	93.31
256.357	102.31
256.59	97.31
256.823	102.31
257.056	95.31
257.289	96.31
257.521	89.31
257.754	95.31
257.987	80.31
258.22	103.31
258.452	100.31
258.685	93.31
258.918	100.31
259.151	94.31
259.383	107.31
259.616	74.31
259.849	81.31
260.081	95.31
260.314	94.31
260.547	99.31
260.779	108.31
261.012	100.31
261.244	91.31
261.477	121.31
261.71	100.31
261.942	81.31
262.175	91.31
262.407	100.31
262.64	85.31
262.872	103.31
263.105	93.31
263.337	115.31
263.57	95.31
263.802	100.31
264.035	94.31
264.267	89.31
264.499	89.31
264.732	104.31
264.964	87.31
265.197	109.31
265.429	97.31
265.661	103.31
265.894	103.31
266.126	109.31
266.358	111.31
266.591	95.31
266.823	100.31
267.055	105.31
267.287	98.31
267.52	110.31
267.752	101.31
267.984	100.31
268.216	98.31
268.448	109.31
268.681	119.31
268.913	91.31
269.145	81.31
269.377	101.31
269.609	87.31
269.841	115.31
270.073	95.31
270.306	107.31
270.538	91.31
270.77	100.31
271.002	97.31
271.234	101.31
271.466	109.31
271.698	94.31
271.93	95.31
272.162	92.31
272.394	105.31
272.626	113.31
272.858	111.31
273.09	119.31
273.322	92.31
273.553	93.31
273.785	100.31
274.017	96.31
274.249	91.31
274.481	106.31
274.713	91.31
274.945	107.31
275.176	107.31
275.408	95.31
275.64	86.31
275.872	103.31
276.104	115.31
276.335	112.31
276.567	95.31
276.799	99.31
277.031	112.31
277.262	101.31
277.494	108.31
277.726	98.31
277.957	93.31
278.189	106.31
278.421	114.31
278.652	105.31
278.884	103.31
279.115	109.31
279.347	107.31
279.579	104.31
279.81	108.31
280.042	111.31
280.273	97.31
280.505	99.31
280.736	96.31
280.968	107.31
281.199	112.31
281.431	111.31
281.662	117.31
281.894	99.31
282.125	107.31
282.356	86.31
282.588	115.31
282.819	101.31
283.051	115.31
283.282	109.31
283.513	105.31
283.745	118.31
283.976	109.31
284.207	109.31
284.439	105.31
284.67	112.31
284.901	120.31
285.132	103.31
285.364	116.31
285.595	113.31
285.826	109.31
286.057	134.31
286.288	113.31
286.52	111.31
286.751	123.31
286.982	104.31
287.213	109.31
287.444	114.31
287.675	113.31
287.906	98.31
288.138	109.31
288.369	110.31
288.6	113.31
288.831	107.31
289.062	125.31
289.293	119.31
289.524	105.31
289.755	120.31
289.986	121.31
290.217	103.31
290.448	106.31
290.679	113.31
290.91	128.31
291.141	95.31
291.371	117.31
291.602	135.31
291.833	101.31
292.064	112.31
292.295	115.31
292.526	121.31
292.757	122.31
292.987	113.31
293.218	116.31
293.449	114.31
293.68	122.31
293.91	132.31
294.141	127.31
294.372	115.31
294.603	131.31
294.833	105.31
295.064	111.31
295.295	114.31
295.525	106.31
295.756	131.31
295.987	120.31
296.217	122.31
296.448	109.31
296.679	123.31
296.909	120.31
297.14	128.31
297.37	127.31
297.601	123.31
297.831	115.31
298.062	121.31
298.292	115.31
298.523	105.31
298.753	119.31
298.984	120.31
299.214	121.31
299.445	106.31
299.675	132.31
299.905	130.31
300.136	119.31
300.366	118.31
300.597	110.31
300.827	120.31
301.057	127.31
301.288	129.31
301.518	116.31
301.748	120.31
301.979	166.31
302.209	131.31
302.439	111.31
302.669	124.31
302.9	119.31
303.13	129.31
303.36	124.31
303.59	116.31
303.82	120.31
304.051	113.31
304.281	122.31
304.511	124.31
304.741	128.31
304.971	117.31
305.201	131.31
305.431	126.31
305.661	136.31
305.891	106.31
306.121	137.31
306.352	118.31
306.582	103.31
306.812	112.31
307.042	116.31
307.272	109.31
307.502	118.31
307.731	127.31
307.961	120.31
308.191	116.31
308.421	127.31
308.651	101.31
308.881	143.31
309.111	122.31
309.341	132.31
309.571	120.31
309.8	116.31
310.03	127.31
310.26	132.31
310.49	127.31
310.72	121.31
310.949	116.31
311.179	117.31
311.409	109.31
311.639	117.31
311.868	134.31
312.098	113.31
312.328	135.31
312.557	119.31
312.787	117.31
313.017	128.31
313.246	123.31
313.476	138.31
313.706	115.31
313.935	117.31
314.165	119.31
314.394	110.31
314.624	131.31
314.853	132.31
315.083	130.31
315.312	123.31
315.542	122.31
315.771	130.31
316.001	117.31
316.23	127.31
316.46	112.31
316.689	118.31
316.919	131.31
317.148	130.31
317.377	150.31
317.607	143.31
317.836	136.31
318.065	128.31
318.295	118.31
318.524	127.31
318.753	124.31
318.983	122.31
319.212	130.31
319.441	121.31
319.67	129.31
319.9	110.31
320.129	125.31
320.358	120.31
320.587	111.31
320.816	115.31
321.046	114.31
321.275	109.31
321.504	123.31
321.733	121.31
321.962	131.31
322.191	131.31
322.42	122.31
322.649	124.31
322.878	145.31
323.108	133.31
323.337	112.31
323.566	132.31
323.795	127.31
324.024	112.31
324.253	135.31
324.482	119.31
324.71	124.31
324.939	122.31
325.168	124.31
325.397	132.31
325.626	132.31
325.855	128.31
326.084	120.31
326.313	119.31
326.542	113.31
326.77	131.31
326.999	122.31
327.228	125.31
327.457	123.31
327.686	136.31
327.914	137.31
328.143	139.31
328.372	123.31
328.6	133.31
328.829	124.31
329.058	118.31
329.287	127.31
329.515	120.31
329.744	133.31
329.972	126.31
330.201	127.31
330.43	129.31
330.658	120.31
330.887	133.31
331.115	128.31
331.344	133.31
331.572	147.31
331.801	140.31
332.03	135.31
332.258	153.31
332.486	130.31
332.715	136.31
332.943	140.31
333.172	151.31
333.4	149.31
333.629	162.31
333.857	145.31
334.085	163.31
334.314	136.31
334.542	142.31
334.771	138.31
334.999	149.31
335.227	143.31
335.455	151.31
335.684	135.31
335.912	135.31
336.14	130.31
336.369	152.31
336.597	138.31
336.825	140.31
337.053	135.31
337.281	138.31
337.51	137.31
337.738	145.31
337.966	135.31
338.194	123.31
338.422	113.31
338.65	138.31
338.878	131.31
339.106	132.31
339.334	133.31
339.562	121.31
339.79	138.31
340.018	124.31
340.246	122.31
340.474	122.31
340.702	155.31
340.93	127.31
341.158	132.31
341.386	140.31
341.614	134.31
341.842	134.31
342.07	115.31
342.298	139.31
342.526	131.31
342.754	124.31
342.981	123.31
343.209	137.31
343.437	164.31
343.665	136.31
343.893	159.31
344.12	145.31
344.348	143.31
344.576	134.31
344.804	145.31
345.031	128.31
345.259	131.31
345.487	129.31
345.714	126.31
345.942	126.31
346.17	129.31
346.397	139.31
346.625	128.31
346.853	128.31
347.08	114.31
347.308	128.31
347.535	126.31
347.763	148.31
347.99	139.31
348.218	139.31
348.445	124.31
348.673	127.31
348.9	137.31
349.128	127.31
349.355	143.31
349.583	121.31
349.81	132.31
350.037	125.31
350.265	136.31
350.492	138.31
350.72	133.31
350.947	125.31
351.174	133.31
351.402	137.31
351.629	118.31
351.856	127.31
352.083	113.31
352.311	116.31
352.538	112.31
352.765	116.31
352.992	128.31
353.22	140.31
353.447	121.31
353.674	125.31
353.901	127.31
354.128	126.31
354.355	115.31
354.583	137.31
354.81	138.31
355.037	138.31
355.264	129.31
355.491	127.31
355.718	125.31
355.945	127.31
356.172	115.31
356.399	126.31
356.626	128.31
356.853	134.31
357.08	121.31
357.307	143.31
357.534	127.31
357.761	130.31
357.988	133.31
358.215	125.31
358.441	120.31
358.668	136.31
358.895	123.31
359.122	128.31
359.349	133.31
359.576	138.31
359.802	123.31
360.029	131.31
360.256	134.31
360.483	120.31
360.709	124.31
360.936	129.31
361.163	123.31
361.39	134.31
361.616	132.31
361.843	133.31
362.07	132.31
362.296	133.31
362.523	122.31
362.749	106.31
362.976	120.31
363.203	150.31
363.429	127.31
363.656	140.31
363.882	131.31
364.109	125.31
364.335	127.31
364.562	124.31
364.788	117.31
365.015	130.31
365.241	134.31
365.468	126.31
365.694	116.31
365.92	120.31
366.147	123.31
366.373	128.31
366.599	139.31
366.826	123.31
367.052	145.31
367.278	146.31
367.505	144.31
367.731	132.31
367.957	130.31
368.184	137.31
368.41	147.31
368.636	132.31
368.862	126.31
369.089	127.31
369.315	129.31
369.541	133.31
369.767	127.31
369.993	143.31
370.219	124.31
370.445	121.31
370.672	125.31
370.898	127.31
371.124	132.31
371.35	128.31
371.576	143.31
371.802	131.31
372.028	128.31
372.254	136.31
372.48	136.31
372.706	129.31
372.932	135.31
373.158	143.31
373.384	143.31
373.61	147.31
373.835	137.31
374.061	140.31
374.287	125.31
374.513	129.31
374.739	123.31
374.965	134.31
375.191	137.31
375.416	158.31
375.642	131.31
375.868	148.31
376.094	128.31
376.319	136.31
376.545	120.31
376.771	124.31
376.997	133.31
377.222	121.31
377.448	151.31
377.674	143.31
377.899	119.31
378.125	143.31
378.35	133.31
378.576	131.31
378.802	141.31
379.027	134.31
379.253	152.31
379.478	135.31
379.704	137.31
379.929	134.31
380.155	117.31
380.38	139.31
380.606	136.31
380.831	134.31
381.057	145.31
381.282	125.31
381.507	140.31
381.733	143.31
381.958	123.31
382.184	129.31
382.409	132.31
382.634	155.31
382.86	139.31
383.085	148.31
383.31	139.31
383.535	148.31
383.761	149.31
383.986	140.31
384.211	128.31
384.436	138.31
384.662	150.31
384.887	156.31
385.112	151.31
385.337	152.31
385.562	132.31
385.787	155.31
386.013	140.31
386.238	148.31
386.463	140.31
386.688	167.31
386.913	137.31
387.138	134.31
387.363	153.31
387.588	157.31
387.813	146.31
388.038	141.31
388.263	151.31
388.488	155.31
388.713	138.31
388.938	144.31
389.163	140.31
389.387	136.31
389.612	149.31
389.837	156.31
390.062	138.31
390.287	147.31
390.512	139.31
390.736	141.31
390.961	139.31
391.186	147.31
391.411	162.31
391.636	160.31
391.86	155.31
392.085	150.31
392.31	149.31
392.534	142.31
392.759	159.31
392.984	147.31
393.208	147.31
393.433	145.31
393.658	145.31
393.882	144.31
394.107	157.31
394.331	136.31
394.556	143.31
394.78	153.31
395.005	144.31
395.229	136.31
395.454	160.31
395.678	161.31
395.903	155.31
396.127	141.31
396.352	150.31
396.576	151.31
396.801	147.31
397.025	155.31
397.249	160.31
397.474	158.31
397.698	165.31
397.922	144.31
398.147	147.31
398.371	137.31
398.595	167.31
398.82	180.31
399.044	177.31
399.268	173.31
399.492	204.31
399.717	234.31
399.941	196.31
400.165	188.31
400.389	181.31
400.613	173.31
400.837	185.31
401.062	183.31
401.286	170.31
401.51	157.31
401.734	172.31
401.958	165.31
402.182	172.31
402.406	173.31
402.63	160.31
402.854	180.31
403.078	179.31
403.302	174.31
403.526	193.31
403.75	191.31
403.974	196.31
404.198	173.31
404.422	195.31
404.645	172.31
404.869	177.31
405.093	184.31
405.317	180.31
405.541	168.31
405.765	161.31
405.988	177.31
406.212	179.31
406.436	166.31
406.66	183.31
406.883	187.31
407.107	203.31
407.331	194.31
407.555	185.31
407.778	191.31
408.002	182.31
408.226	198.31
408.449	181.31
408.673	178.31
408.896	176.31
409.12	193.31
409.344	195.31
409.567	180.31
409.791	197.31
410.014	163.31
410.238	177.31
410.461	170.31
410.685	153.31
410.908	154.31
411.132	179.31
411.355	157.31
411.578	170.31
411.802	163.31
412.025	163.31
412.249	171.31
412.472	154.31
412.695	176.31
412.919	178.31
413.142	176.31
413.365	156.31
413.589	176.31
413.812	169.31
414.035	159.31
414.258	163.31
414.482	156.31
414.705	170.31
414.928	177.31
415.151	173.31
415.374	171.31
415.597	161.31
415.821	179.31
416.044	161.31
416.267	167.31
416.49	162.31
416.713	164.31
416.936	154.31
417.159	163.31
417.382	171.31
417.605	160.31
417.828	169.31
418.051	162.31
418.274	183.31
418.497	167.31
418.72	169.31
418.943	184.31
419.166	193.31
419.389	166.31
419.611	165.31
419.834	181.31
420.057	175.31
420.28	163.31
420.503	170.31
420.726	159.31
420.948	169.31
421.171	179.31
421.394	157.31
421.617	154.31
421.839	172.31
422.062	156.31
422.285	174.31
422.507	167.31
422.73	179.31
422.953	161.31
423.175	166.31
423.398	156.31
423.621	178.31
423.843	173.31
424.066	160.31
424.288	181.31
424.511	168.31
424.733	180.31
424.956	158.31
425.178	184.31
425.401	179.31
425.623	164.31
425.846	169.31
426.068	159.31
426.291	163.31
426.513	169.31
426.735	163.31
426.958	146.31
427.18	172.31
427.402	150.31
427.625	163.31
427.847	167.31
428.069	149.31
428.292	159.31
428.514	157.31
428.736	147.31
428.958	138.31
429.181	175.31
429.403	151.31
429.625	149.31
429.847	157.31
430.069	164.31
430.292	171.31
430.514	156.31
430.736	163.31
430.958	147.31
431.18	145.31
431.402	163.31
431.624	155.31
431.846	137.31
432.068	161.31
432.29	171.31
432.512	174.31
432.734	148.31
432.956	149.31
433.178	160.31
433.4	159.31
433.622	170.31
433.844	158.31
434.066	181.31
434.287	149.31
434.509	171.31
434.731	160.31
434.953	177.31
435.175	175.31
435.397	158.31
435.618	152.31
435.84	157.31
436.062	154.31
436.284	159.31
436.505	147.31
436.727	151.31
436.949	178.31
437.17	150.31
437.392	160.31
437.614	154.31
437.835	144.31
438.057	148.31
438.278	151.31
438.5	137.31
438.721	145.31
438.943	162.31
439.165	155.31
439.386	151.31
439.608	163.31
439.829	156.31
440.05	170.31
440.272	163.31
440.493	151.31
440.715	143.31
440.936	164.31
441.158	168.31
441.379	165.31
441.6	155.31
441.822	172.31
442.043	153.31
442.264	170.31
442.486	178.31
442.707	156.31
442.928	172.31
443.149	161.31
443.371	171.31
443.592	165.31
443.813	171.31
444.034	174.31
444.255	188.31
444.476	190.31
444.698	200.31
444.919	201.31
445.14	376.31
445.361	268.31
445.582	177.31
445.803	160.31
446.024	165.31
446.245	165.31
446.466	177.31
446.687	166.31
446.908	139.31
447.129	148.31
447.35	143.31
447.571	159.31
447.792	151.31
448.013	137.31
448.234	149.31
448.455	147.31
448.675	152.31
448.896	147.31
449.117	161.31
449.338	149.31
449.559	147.31
449.779	137.31
450	159.31
450.221	149.31
450.442	161.31
450.662	145.31
450.883	148.31
451.104	139.31
451.324	156.31
451.545	136.31
451.766	164.31
451.986	141.31
452.207	154.31
452.428	136.31
452.648	159.31
452.869	145.31
453.089	152.31
453.31	134.31
453.53	133.31
453.751	138.31
453.971	145.31
454.192	147.31
454.412	160.31
454.633	148.31
454.853	137.31
455.073	145.31
455.294	148.31
455.514	137.31
455.734	141.31
455.955	135.31
456.175	124.31
456.395	136.31
456.616	140.31
456.836	152.31
457.056	151.31
457.276	129.31
457.497	145.31
457.717	149.31
457.937	141.31
458.157	145.31
458.377	150.31
458.598	143.31
458.818	143.31
459.038	147.31
459.258	151.31
459.478	147.31
459.698	147.31
459.918	183.31
460.138	179.31
460.358	178.31
460.578	178.31
460.798	177.31
461.018	181.31
461.238	179.31
461.458	156.31
461.678	164.31
461.898	198.31
462.118	191.31
462.338	172.31
462.558	185.31
462.777	167.31
462.997	209.31
463.217	216.31
463.437	201.31
463.657	178.31
463.876	204.31
464.096	193.31
464.316	190.31
464.536	193.31
464.755	181.31
464.975	175.31
465.195	184.31
465.414	183.31
465.634	162.31
465.854	152.31
466.073	165.31
466.293	161.31
466.512	150.31
466.732	151.31
466.951	154.31
467.171	156.31
467.391	148.31
467.61	154.31
467.829	152.31
468.049	137.31
468.268	140.31
468.488	141.31
468.707	159.31
468.927	144.31
469.146	146.31
469.365	149.31
469.585	161.31
469.804	161.31
470.023	162.31
470.243	162.31
470.462	159.31
470.681	160.31
470.901	144.31
471.12	150.31
471.339	157.31
471.558	152.31
471.777	163.31
471.997	158.31
472.216	167.31
472.435	159.31
472.654	133.31
472.873	146.31
473.092	152.31
473.311	150.31
473.53	151.31
473.749	148.31
473.968	160.31
474.187	145.31
474.406	149.31
474.625	137.31
474.844	156.31
475.063	160.31
475.282	149.31
475.501	145.31
475.72	160.31
475.939	131.31
476.158	147.31
476.377	149.31
476.596	149.31
476.814	155.31
477.033	152.31
477.252	149.31
477.471	154.31
477.69	166.31
477.908	168.31
478.127	173.31
478.346	152.31
478.564	156.31
478.783	155.31
479.002	159.31
479.22	172.31
479.439	184.31
479.658	180.31
479.876	182.31
480.095	190.31
480.313	180.31
480.532	175.31
480.751	184.31
480.969	160.31
481.188	159.31
481.406	174.31
481.624	159.31
481.843	148.31
482.061	164.31
482.28	162.31
482.498	151.31
482.717	156.31
482.935	167.31
483.153	161.31
483.372	144.31
483.59	160.31
483.808	159.31
484.027	160.31
484.245	158.31
484.463	148.31
484.681	173.31
484.9	181.31
485.118	168.31
485.336	159.31
485.554	164.31
485.772	172.31
485.99	164.31
486.209	170.31
486.427	161.31
486.645	173.31
486.863	166.31
487.081	162.31
487.299	163.31
487.517	179.31
487.735	177.31
487.953	173.31
488.171	177.31
488.389	161.31
488.607	144.31
488.825	141.31
489.043	169.31
489.261	189.31
489.479	167.31
489.696	152.31
489.914	173.31
490.132	164.31
490.35	171.31
490.568	160.31
490.786	177.31
491.003	164.31
491.221	173.31
491.439	154.31
491.657	166.31
491.874	159.31
492.092	170.31
492.31	165.31
492.527	166.31
492.745	154.31
492.963	148.31
493.18	168.31
493.398	179.31
493.615	166.31
493.833	182.31
494.05	160.31
494.268	165.31
494.485	161.31
494.703	180.31
494.92	186.31
495.138	172.31
495.355	174.31
495.573	184.31
495.79	174.31
496.008	193.31
496.225	191.31
496.442	183.31
496.66	196.31
496.877	173.31
497.094	199.31
497.312	170.31
497.529	161.31
497.746	187.31
497.963	182.31
498.181	197.31
498.398	195.31
498.615	201.31
498.832	221.31
499.049	227.31
499.267	252.31
499.484	265.31
499.701	278.31
499.918	301.31
500.135	331.31
500.352	379.31
500.569	392.31
500.786	410.31
501.003	340.31
501.22	307.31
501.437	276.31
501.654	260.31
501.871	235.31
502.088	230.31
502.305	225.31
502.522	197.31
502.739	209.31
502.956	198.31
503.172	187.31
503.389	192.31
503.606	193.31
503.823	193.31
504.04	198.31
504.256	195.31
504.473	196.31
504.69	190.31
504.907	198.31
