Data from SampG_HRD10591_00017.txt Node
Date: Mon Jan 19 11:53:49 EST 2026
User: Yrep
Spectrometer: HR+D1059
Trigger mode: 0
Integration Time (sec): 3.443000E-1
Scans to average: 1
Electric dark correction enabled: true
Nonlinearity correction enabled: false
Boxcar width: 0
XAxis mode: Wavelengths
Number of Pixels in Spectrum: 2048
>>>>>Begin Spectral Data<<<<<
223.165	-20.62
223.4	-20.62
223.635	-20.62
223.869	-16.62
224.104	-24.62
224.338	-8.62
224.573	-13.62
224.808	-17.62
225.042	4.38
225.277	4.38
225.511	-1.62
225.746	10.38
225.98	9.38
226.215	7.38
226.449	-1.62
226.683	22.38
226.918	27.38
227.152	19.38
227.387	29.38
227.621	34.38
227.856	43.38
228.09	39.38
228.324	57.38
228.559	70.38
228.793	67.38
229.027	77.38
229.262	73.38
229.496	76.38
229.73	78.38
229.964	80.38
230.199	72.38
230.433	94.38
230.667	87.38
230.901	78.38
231.136	81.38
231.37	96.38
231.604	85.38
231.838	86.38
232.072	76.38
232.306	88.38
232.541	87.38
232.775	71.38
233.009	75.38
233.243	78.38
233.477	86.38
233.711	95.38
233.945	71.38
234.179	75.38
234.413	75.38
234.647	90.38
234.881	67.38
235.115	69.38
235.349	88.38
235.583	76.38
235.817	98.38
236.051	82.38
236.285	83.38
236.519	73.38
236.753	86.38
236.987	82.38
237.221	83.38
237.455	74.38
237.689	75.38
237.922	92.38
238.156	88.38
238.39	92.38
238.624	73.38
238.858	94.38
239.091	60.38
239.325	80.38
239.559	89.38
239.793	71.38
240.027	82.38
240.26	90.38
240.494	71.38
240.728	76.38
240.961	75.38
241.195	91.38
241.429	70.38
241.662	76.38
241.896	77.38
242.13	74.38
242.363	77.38
242.597	71.38
242.83	83.38
243.064	90.38
243.298	81.38
243.531	90.38
243.765	82.38
243.998	82.38
244.232	76.38
244.465	76.38
244.699	75.38
244.932	90.38
245.166	90.38
245.399	74.38
245.633	75.38
245.866	88.38
246.099	101.38
246.333	67.38
246.566	90.38
246.8	72.38
247.033	70.38
247.266	72.38
247.5	76.38
247.733	88.38
247.966	97.38
248.2	74.38
248.433	59.38
248.666	89.38
248.899	80.38
249.133	86.38
249.366	78.38
249.599	93.38
249.832	71.38
250.066	94.38
250.299	77.38
250.532	84.38
250.765	84.38
250.998	97.38
251.231	74.38
251.465	87.38
251.698	85.38
251.931	92.38
252.164	89.38
252.397	80.38
252.63	83.38
252.863	88.38
253.096	89.38
253.329	93.38
253.562	82.38
253.795	90.38
254.028	90.38
254.261	83.38
254.494	84.38
254.727	81.38
254.96	69.38
255.193	92.38
255.426	85.38
255.659	81.38
255.892	99.38
256.124	98.38
256.357	88.38
256.59	95.38
256.823	76.38
257.056	90.38
257.289	82.38
257.521	89.38
257.754	81.38
257.987	100.38
258.22	90.38
258.452	81.38
258.685	88.38
258.918	82.38
259.151	77.38
259.383	92.38
259.616	89.38
259.849	98.38
260.081	105.38
260.314	92.38
260.547	92.38
260.779	85.38
261.012	82.38
261.244	88.38
261.477	100.38
261.71	84.38
261.942	101.38
262.175	96.38
262.407	81.38
262.64	96.38
262.872	93.38
263.105	100.38
263.337	116.38
263.57	90.38
263.802	77.38
264.035	102.38
264.267	89.38
264.499	80.38
264.732	90.38
264.964	99.38
265.197	83.38
265.429	85.38
265.661	80.38
265.894	86.38
266.126	106.38
266.358	89.38
266.591	76.38
266.823	84.38
267.055	82.38
267.287	80.38
267.52	92.38
267.752	102.38
267.984	108.38
268.216	91.38
268.448	98.38
268.681	116.38
268.913	98.38
269.145	82.38
269.377	100.38
269.609	105.38
269.841	86.38
270.073	84.38
270.306	99.38
270.538	104.38
270.77	91.38
271.002	87.38
271.234	101.38
271.466	99.38
271.698	72.38
271.93	97.38
272.162	95.38
272.394	106.38
272.626	93.38
272.858	93.38
273.09	101.38
273.322	91.38
273.553	85.38
273.785	91.38
274.017	89.38
274.249	87.38
274.481	99.38
274.713	93.38
274.945	94.38
275.176	91.38
275.408	89.38
275.64	91.38
275.872	94.38
276.104	84.38
276.335	88.38
276.567	84.38
276.799	86.38
277.031	86.38
277.262	97.38
277.494	110.38
277.726	97.38
277.957	90.38
278.189	106.38
278.421	96.38
278.652	110.38
278.884	99.38
279.115	98.38
279.347	74.38
279.579	96.38
279.81	65.38
280.042	90.38
280.273	110.38
280.505	94.38
280.736	93.38
280.968	97.38
281.199	90.38
281.431	101.38
281.662	100.38
281.894	99.38
282.125	98.38
282.356	96.38
282.588	99.38
282.819	101.38
283.051	83.38
283.282	105.38
283.513	94.38
283.745	104.38
283.976	96.38
284.207	110.38
284.439	102.38
284.67	89.38
284.901	93.38
285.132	101.38
285.364	97.38
285.595	91.38
285.826	90.38
286.057	100.38
286.288	110.38
286.52	102.38
286.751	84.38
286.982	106.38
287.213	96.38
287.444	85.38
287.675	90.38
287.906	89.38
288.138	102.38
288.369	105.38
288.6	103.38
288.831	113.38
289.062	92.38
289.293	85.38
289.524	104.38
289.755	105.38
289.986	102.38
290.217	102.38
290.448	121.38
290.679	101.38
290.91	120.38
291.141	102.38
291.371	118.38
291.602	98.38
291.833	94.38
292.064	97.38
292.295	97.38
292.526	110.38
292.757	101.38
292.987	92.38
293.218	89.38
293.449	99.38
293.68	112.38
293.91	91.38
294.141	108.38
294.372	106.38
294.603	103.38
294.833	98.38
295.064	101.38
295.295	106.38
295.525	104.38
295.756	121.38
295.987	87.38
296.217	93.38
296.448	93.38
296.679	105.38
296.909	104.38
297.14	109.38
297.37	91.38
297.601	96.38
297.831	90.38
298.062	109.38
298.292	125.38
298.523	106.38
298.753	101.38
298.984	106.38
299.214	91.38
299.445	94.38
299.675	102.38
299.905	103.38
300.136	103.38
300.366	100.38
300.597	114.38
300.827	99.38
301.057	99.38
301.288	90.38
301.518	102.38
301.748	103.38
301.979	136.38
302.209	103.38
302.439	97.38
302.669	104.38
302.9	105.38
303.13	115.38
303.36	92.38
303.59	110.38
303.82	116.38
304.051	102.38
304.281	114.38
304.511	107.38
304.741	100.38
304.971	95.38
305.201	109.38
305.431	116.38
305.661	95.38
305.891	97.38
306.121	97.38
306.352	99.38
306.582	107.38
306.812	112.38
307.042	99.38
307.272	86.38
307.502	104.38
307.731	109.38
307.961	105.38
308.191	124.38
308.421	108.38
308.651	104.38
308.881	111.38
309.111	100.38
309.341	92.38
309.571	110.38
309.8	98.38
310.03	101.38
310.26	103.38
310.49	104.38
310.72	106.38
310.949	103.38
311.179	107.38
311.409	91.38
311.639	112.38
311.868	100.38
312.098	110.38
312.328	105.38
312.557	102.38
312.787	114.38
313.017	109.38
313.246	116.38
313.476	111.38
313.706	105.38
313.935	109.38
314.165	96.38
314.394	108.38
314.624	109.38
314.853	109.38
315.083	101.38
315.312	114.38
315.542	103.38
315.771	107.38
316.001	106.38
316.23	102.38
316.46	95.38
316.689	109.38
316.919	104.38
317.148	109.38
317.377	98.38
317.607	99.38
317.836	99.38
318.065	98.38
318.295	84.38
318.524	110.38
318.753	97.38
318.983	94.38
319.212	106.38
319.441	109.38
319.67	104.38
319.9	96.38
320.129	105.38
320.358	117.38
320.587	109.38
320.816	94.38
321.046	101.38
321.275	110.38
321.504	113.38
321.733	103.38
321.962	111.38
322.191	88.38
322.42	88.38
322.649	117.38
322.878	96.38
323.108	108.38
323.337	94.38
323.566	117.38
323.795	102.38
324.024	109.38
324.253	105.38
324.482	111.38
324.71	100.38
324.939	122.38
325.168	114.38
325.397	96.38
325.626	106.38
325.855	100.38
326.084	101.38
326.313	99.38
326.542	97.38
326.77	112.38
326.999	105.38
327.228	101.38
327.457	102.38
327.686	110.38
327.914	109.38
328.143	100.38
328.372	114.38
328.6	80.38
328.829	100.38
329.058	115.38
329.287	107.38
329.515	104.38
329.744	110.38
329.972	104.38
330.201	106.38
330.43	114.38
330.658	97.38
330.887	100.38
331.115	99.38
331.344	108.38
331.572	116.38
331.801	112.38
332.03	117.38
332.258	118.38
332.486	103.38
332.715	116.38
332.943	110.38
333.172	116.38
333.4	127.38
333.629	111.38
333.857	104.38
334.085	124.38
334.314	118.38
334.542	108.38
334.771	122.38
334.999	116.38
335.227	117.38
335.455	100.38
335.684	119.38
335.912	121.38
336.14	105.38
336.369	107.38
336.597	112.38
336.825	117.38
337.053	99.38
337.281	103.38
337.51	108.38
337.738	107.38
337.966	115.38
338.194	117.38
338.422	98.38
338.65	110.38
338.878	114.38
339.106	97.38
339.334	128.38
339.562	105.38
339.79	104.38
340.018	116.38
340.246	94.38
340.474	89.38
340.702	105.38
340.93	103.38
341.158	98.38
341.386	107.38
341.614	106.38
341.842	94.38
342.07	100.38
342.298	107.38
342.526	110.38
342.754	124.38
342.981	114.38
343.209	100.38
343.437	135.38
343.665	128.38
343.893	109.38
344.12	121.38
344.348	121.38
344.576	113.38
344.804	93.38
345.031	107.38
345.259	109.38
345.487	104.38
345.714	109.38
345.942	103.38
346.17	119.38
346.397	97.38
346.625	107.38
346.853	107.38
347.08	109.38
347.308	101.38
347.535	117.38
347.763	98.38
347.99	112.38
348.218	111.38
348.445	107.38
348.673	100.38
348.9	117.38
349.128	111.38
349.355	112.38
349.583	110.38
349.81	104.38
350.037	100.38
350.265	116.38
350.492	101.38
350.72	93.38
350.947	111.38
351.174	118.38
351.402	104.38
351.629	115.38
351.856	106.38
352.083	107.38
352.311	110.38
352.538	104.38
352.765	120.38
352.992	130.38
353.22	125.38
353.447	104.38
353.674	121.38
353.901	122.38
354.128	96.38
354.355	104.38
354.583	113.38
354.81	106.38
355.037	98.38
355.264	106.38
355.491	103.38
355.718	103.38
355.945	119.38
356.172	108.38
356.399	99.38
356.626	106.38
356.853	93.38
357.08	116.38
357.307	107.38
357.534	99.38
357.761	107.38
357.988	106.38
358.215	97.38
358.441	108.38
358.668	119.38
358.895	116.38
359.122	105.38
359.349	105.38
359.576	90.38
359.802	106.38
360.029	106.38
360.256	99.38
360.483	98.38
360.709	93.38
360.936	114.38
361.163	113.38
361.39	107.38
361.616	114.38
361.843	120.38
362.07	108.38
362.296	100.38
362.523	108.38
362.749	103.38
362.976	101.38
363.203	132.38
363.429	93.38
363.656	96.38
363.882	97.38
364.109	110.38
364.335	113.38
364.562	116.38
364.788	99.38
365.015	96.38
365.241	94.38
365.468	107.38
365.694	97.38
365.92	106.38
366.147	103.38
366.373	104.38
366.599	104.38
366.826	109.38
367.052	100.38
367.278	104.38
367.505	104.38
367.731	127.38
367.957	103.38
368.184	108.38
368.41	106.38
368.636	112.38
368.862	112.38
369.089	101.38
369.315	101.38
369.541	109.38
369.767	90.38
369.993	116.38
370.219	96.38
370.445	95.38
370.672	93.38
370.898	114.38
371.124	111.38
371.35	105.38
371.576	95.38
371.802	108.38
372.028	109.38
372.254	115.38
372.48	115.38
372.706	101.38
372.932	109.38
373.158	91.38
373.384	105.38
373.61	117.38
373.835	115.38
374.061	108.38
374.287	123.38
374.513	105.38
374.739	91.38
374.965	116.38
375.191	118.38
375.416	92.38
375.642	96.38
375.868	122.38
376.094	102.38
376.319	104.38
376.545	115.38
376.771	108.38
376.997	116.38
377.222	110.38
377.448	127.38
377.674	98.38
377.899	109.38
378.125	115.38
378.35	109.38
378.576	101.38
378.802	100.38
379.027	115.38
379.253	104.38
379.478	100.38
379.704	119.38
379.929	97.38
380.155	113.38
380.38	110.38
380.606	108.38
380.831	116.38
381.057	129.38
381.282	110.38
381.507	98.38
381.733	107.38
381.958	92.38
382.184	105.38
382.409	108.38
382.634	118.38
382.86	109.38
383.085	125.38
383.31	109.38
383.535	109.38
383.761	117.38
383.986	115.38
384.211	104.38
384.436	116.38
384.662	113.38
384.887	116.38
385.112	120.38
385.337	110.38
385.562	109.38
385.787	117.38
386.013	124.38
386.238	138.38
386.463	114.38
386.688	137.38
386.913	106.38
387.138	107.38
387.363	123.38
387.588	118.38
387.813	124.38
388.038	131.38
388.263	135.38
388.488	104.38
388.713	121.38
388.938	116.38
389.163	116.38
389.387	108.38
389.612	114.38
389.837	108.38
390.062	121.38
390.287	117.38
390.512	109.38
390.736	97.38
390.961	122.38
391.186	120.38
391.411	112.38
391.636	121.38
391.86	129.38
392.085	101.38
392.31	119.38
392.534	117.38
392.759	110.38
392.984	122.38
393.208	114.38
393.433	113.38
393.658	114.38
393.882	110.38
394.107	124.38
394.331	110.38
394.556	108.38
394.78	108.38
395.005	115.38
395.229	107.38
395.454	110.38
395.678	115.38
395.903	124.38
396.127	124.38
396.352	115.38
396.576	109.38
396.801	121.38
397.025	113.38
397.249	123.38
397.474	133.38
397.698	115.38
397.922	116.38
398.147	107.38
398.371	109.38
398.595	129.38
398.82	122.38
399.044	104.38
399.268	143.38
399.492	138.38
399.717	152.38
399.941	144.38
400.165	138.38
400.389	112.38
400.613	130.38
400.837	130.38
401.062	117.38
401.286	125.38
401.51	116.38
401.734	128.38
401.958	118.38
402.182	120.38
402.406	118.38
402.63	125.38
402.854	123.38
403.078	124.38
403.302	130.38
403.526	136.38
403.75	134.38
403.974	136.38
404.198	137.38
404.422	128.38
404.645	116.38
404.869	135.38
405.093	124.38
405.317	124.38
405.541	131.38
405.765	131.38
405.988	120.38
406.212	125.38
406.436	123.38
406.66	151.38
406.883	141.38
407.107	134.38
407.331	123.38
407.555	144.38
407.778	123.38
408.002	134.38
408.226	145.38
408.449	130.38
408.673	121.38
408.896	126.38
409.12	118.38
409.344	125.38
409.567	141.38
409.791	128.38
410.014	148.38
410.238	125.38
410.461	120.38
410.685	126.38
410.908	126.38
411.132	131.38
411.355	129.38
411.578	135.38
411.802	128.38
412.025	145.38
412.249	144.38
412.472	126.38
412.695	134.38
412.919	122.38
413.142	122.38
413.365	136.38
413.589	123.38
413.812	110.38
414.035	125.38
414.258	119.38
414.482	126.38
414.705	122.38
414.928	113.38
415.151	128.38
415.374	118.38
415.597	119.38
415.821	125.38
416.044	135.38
416.267	117.38
416.49	111.38
416.713	117.38
416.936	117.38
417.159	125.38
417.382	116.38
417.605	121.38
417.828	116.38
418.051	125.38
418.274	119.38
418.497	134.38
418.72	118.38
418.943	123.38
419.166	115.38
419.389	124.38
419.611	122.38
419.834	125.38
420.057	130.38
420.28	123.38
420.503	128.38
420.726	127.38
420.948	122.38
421.171	127.38
421.394	111.38
421.617	134.38
421.839	137.38
422.062	133.38
422.285	130.38
422.507	119.38
422.73	114.38
422.953	119.38
423.175	108.38
423.398	133.38
423.621	137.38
423.843	129.38
424.066	137.38
424.288	136.38
424.511	140.38
424.733	115.38
424.956	123.38
425.178	117.38
425.401	124.38
425.623	112.38
425.846	125.38
426.068	115.38
426.291	122.38
426.513	105.38
426.735	118.38
426.958	110.38
427.18	101.38
427.402	125.38
427.625	104.38
427.847	116.38
428.069	112.38
428.292	109.38
428.514	104.38
428.736	106.38
428.958	116.38
429.181	110.38
429.403	106.38
429.625	112.38
429.847	117.38
430.069	121.38
430.292	126.38
430.514	120.38
430.736	124.38
430.958	121.38
431.18	110.38
431.402	123.38
431.624	96.38
431.846	110.38
432.068	116.38
432.29	104.38
432.512	116.38
432.734	102.38
432.956	128.38
433.178	121.38
433.4	124.38
433.622	117.38
433.844	137.38
434.066	133.38
434.287	124.38
434.509	132.38
434.731	131.38
434.953	113.38
435.175	113.38
435.397	127.38
435.618	126.38
435.84	117.38
436.062	120.38
436.284	111.38
436.505	113.38
436.727	120.38
436.949	118.38
437.17	128.38
437.392	110.38
437.614	121.38
437.835	119.38
438.057	103.38
438.278	110.38
438.5	110.38
438.721	117.38
438.943	118.38
439.165	117.38
439.386	129.38
439.608	120.38
439.829	121.38
440.05	115.38
440.272	120.38
440.493	120.38
440.715	114.38
440.936	110.38
441.158	125.38
441.379	119.38
441.6	136.38
441.822	116.38
442.043	107.38
442.264	109.38
442.486	128.38
442.707	120.38
442.928	127.38
443.149	130.38
443.371	114.38
443.592	99.38
443.813	122.38
444.034	136.38
444.255	131.38
444.476	124.38
444.698	140.38
444.919	133.38
445.14	416.38
445.361	256.38
445.582	141.38
445.803	116.38
446.024	109.38
446.245	125.38
446.466	123.38
446.687	120.38
446.908	128.38
447.129	122.38
447.35	126.38
447.571	111.38
447.792	109.38
448.013	125.38
448.234	111.38
448.455	118.38
448.675	113.38
448.896	104.38
449.117	128.38
449.338	116.38
449.559	130.38
449.779	107.38
450	91.38
450.221	129.38
450.442	123.38
450.662	108.38
450.883	130.38
451.104	131.38
451.324	119.38
451.545	102.38
451.766	107.38
451.986	103.38
452.207	108.38
452.428	116.38
452.648	120.38
452.869	106.38
453.089	127.38
453.31	116.38
453.53	129.38
453.751	116.38
453.971	118.38
454.192	120.38
454.412	118.38
454.633	108.38
454.853	116.38
455.073	121.38
455.294	116.38
455.514	107.38
455.734	108.38
455.955	127.38
456.175	109.38
456.395	103.38
456.616	110.38
456.836	116.38
457.056	108.38
457.276	109.38
457.497	108.38
457.717	100.38
457.937	114.38
458.157	106.38
458.377	106.38
458.598	105.38
458.818	103.38
459.038	123.38
459.258	115.38
459.478	113.38
459.698	125.38
459.918	118.38
460.138	119.38
460.358	129.38
460.578	138.38
460.798	125.38
461.018	114.38
461.238	138.38
461.458	132.38
461.678	132.38
461.898	138.38
462.118	129.38
462.338	122.38
462.558	144.38
462.777	124.38
462.997	138.38
463.217	137.38
463.437	134.38
463.657	138.38
463.876	142.38
464.096	123.38
464.316	118.38
464.536	116.38
464.755	128.38
464.975	116.38
465.195	123.38
465.414	140.38
465.634	121.38
465.854	113.38
466.073	121.38
466.293	108.38
466.512	117.38
466.732	112.38
466.951	110.38
467.171	108.38
467.391	112.38
467.61	115.38
467.829	118.38
468.049	117.38
468.268	111.38
468.488	106.38
468.707	115.38
468.927	121.38
469.146	110.38
469.365	103.38
469.585	107.38
469.804	132.38
470.023	112.38
470.243	129.38
470.462	115.38
470.681	114.38
470.901	114.38
471.12	100.38
471.339	122.38
471.558	113.38
471.777	117.38
471.997	121.38
472.216	113.38
472.435	106.38
472.654	115.38
472.873	121.38
473.092	120.38
473.311	122.38
473.53	112.38
473.749	115.38
473.968	120.38
474.187	110.38
474.406	106.38
474.625	110.38
474.844	100.38
475.063	118.38
475.282	107.38
475.501	134.38
475.72	117.38
475.939	120.38
476.158	117.38
476.377	123.38
476.596	113.38
476.814	120.38
477.033	113.38
477.252	125.38
477.471	121.38
477.69	107.38
477.908	112.38
478.127	119.38
478.346	137.38
478.564	130.38
478.783	129.38
479.002	131.38
479.22	118.38
479.439	128.38
479.658	129.38
479.876	136.38
480.095	139.38
480.313	128.38
480.532	122.38
480.751	124.38
480.969	115.38
481.188	114.38
481.406	124.38
481.624	116.38
481.843	121.38
482.061	107.38
482.28	115.38
482.498	109.38
482.717	109.38
482.935	108.38
483.153	114.38
483.372	110.38
483.59	114.38
483.808	128.38
484.027	109.38
484.245	125.38
484.463	138.38
484.681	148.38
484.9	122.38
485.118	120.38
485.336	124.38
485.554	118.38
485.772	133.38
485.99	129.38
486.209	131.38
486.427	129.38
486.645	105.38
486.863	123.38
487.081	121.38
487.299	131.38
487.517	114.38
487.735	116.38
487.953	127.38
488.171	134.38
488.389	117.38
488.607	116.38
488.825	124.38
489.043	118.38
489.261	113.38
489.479	111.38
489.696	132.38
489.914	117.38
490.132	123.38
490.35	131.38
490.568	132.38
490.786	137.38
491.003	134.38
491.221	109.38
491.439	116.38
491.657	121.38
491.874	133.38
492.092	116.38
492.31	123.38
492.527	119.38
492.745	135.38
492.963	136.38
493.18	123.38
493.398	140.38
493.615	111.38
493.833	131.38
494.05	123.38
494.268	130.38
494.485	125.38
494.703	122.38
494.92	114.38
495.138	110.38
495.355	118.38
495.573	133.38
495.79	122.38
496.008	123.38
496.225	139.38
496.442	128.38
496.66	131.38
496.877	126.38
497.094	144.38
497.312	126.38
497.529	129.38
497.746	153.38
497.963	125.38
498.181	125.38
498.398	141.38
498.615	145.38
498.832	138.38
499.049	149.38
499.267	166.38
499.484	180.38
499.701	205.38
499.918	204.38
500.135	193.38
500.352	238.38
500.569	205.38
500.786	246.38
501.003	214.38
501.22	197.38
501.437	184.38
501.654	178.38
501.871	167.38
502.088	146.38
502.305	158.38
502.522	136.38
502.739	125.38
502.956	137.38
503.172	151.38
503.389	134.38
503.606	140.38
503.823	137.38
504.04	137.38
504.256	150.38
504.473	134.38
504.69	137.38
504.907	137.38
505.123	123.38
505.34	114.38
505.557	130.38
505.773	133.38
505.99	121.38
506.207	131.38
506.423	112.38
506.64	136.38
506.856	115.38
507.073	106.38
