Data from SampG_HRD10591_00075.txt Node
Date: Mon Jan 19 11:54:09 EST 2026
User: Yrep
Spectrometer: HR+D1059
Trigger mode: 0
Integration Time (sec): 3.443000E-1
Scans to average: 1
Electric dark correction enabled: true
Nonlinearity correction enabled: false
Boxcar width: 0
XAxis mode: Wavelengths
Number of Pixels in Spectrum: 2048
>>>>>Begin Spectral Data<<<<<
223.165	-27.19
223.4	-27.19
223.635	-27.19
223.869	-24.19
224.104	-20.19
224.338	-17.19
224.573	-8.19
224.808	-18.19
225.042	-12.19
225.277	-8.19
225.511	-1.19
225.746	12.81
225.98	6.81
226.215	14.81
226.449	22.81
226.683	17.81
226.918	32.81
227.152	28.81
227.387	33.81
227.621	34.81
227.856	55.81
228.09	51.81
228.324	70.81
228.559	67.81
228.793	57.81
229.027	79.81
229.262	70.81
229.496	73.81
229.73	85.81
229.964	80.81
230.199	74.81
230.433	63.81
230.667	86.81
230.901	79.81
231.136	81.81
231.37	80.81
231.604	71.81
231.838	83.81
232.072	97.81
232.306	95.81
232.541	90.81
232.775	77.81
233.009	70.81
233.243	72.81
233.477	88.81
233.711	83.81
233.945	89.81
234.179	91.81
234.413	79.81
234.647	91.81
234.881	79.81
235.115	85.81
235.349	93.81
235.583	90.81
235.817	76.81
236.051	78.81
236.285	87.81
236.519	88.81
236.753	91.81
236.987	84.81
237.221	80.81
237.455	78.81
237.689	71.81
237.922	83.81
238.156	81.81
238.39	78.81
238.624	74.81
238.858	84.81
239.091	84.81
239.325	73.81
239.559	88.81
239.793	74.81
240.027	95.81
240.26	75.81
240.494	79.81
240.728	80.81
240.961	63.81
241.195	82.81
241.429	95.81
241.662	98.81
241.896	77.81
242.13	75.81
242.363	77.81
242.597	75.81
242.83	89.81
243.064	79.81
243.298	85.81
243.531	83.81
243.765	79.81
243.998	83.81
244.232	85.81
244.465	75.81
244.699	73.81
244.932	76.81
245.166	78.81
245.399	92.81
245.633	95.81
245.866	94.81
246.099	101.81
246.333	78.81
246.566	84.81
246.8	69.81
247.033	88.81
247.266	87.81
247.5	86.81
247.733	87.81
247.966	86.81
248.2	86.81
248.433	94.81
248.666	86.81
248.899	79.81
249.133	94.81
249.366	102.81
249.599	81.81
249.832	79.81
250.066	84.81
250.299	89.81
250.532	81.81
250.765	77.81
250.998	96.81
251.231	84.81
251.465	86.81
251.698	83.81
251.931	87.81
252.164	76.81
252.397	85.81
252.63	91.81
252.863	85.81
253.096	99.81
253.329	96.81
253.562	98.81
253.795	101.81
254.028	105.81
254.261	83.81
254.494	69.81
254.727	88.81
254.96	97.81
255.193	90.81
255.426	83.81
255.659	78.81
255.892	99.81
256.124	92.81
256.357	86.81
256.59	98.81
256.823	80.81
257.056	89.81
257.289	86.81
257.521	88.81
257.754	70.81
257.987	88.81
258.22	96.81
258.452	89.81
258.685	99.81
258.918	94.81
259.151	87.81
259.383	75.81
259.616	90.81
259.849	87.81
260.081	87.81
260.314	89.81
260.547	79.81
260.779	99.81
261.012	83.81
261.244	92.81
261.477	102.81
261.71	77.81
261.942	97.81
262.175	83.81
262.407	75.81
262.64	85.81
262.872	93.81
263.105	86.81
263.337	97.81
263.57	95.81
263.802	87.81
264.035	97.81
264.267	99.81
264.499	89.81
264.732	105.81
264.964	80.81
265.197	91.81
265.429	98.81
265.661	93.81
265.894	107.81
266.126	102.81
266.358	102.81
266.591	90.81
266.823	107.81
267.055	85.81
267.287	89.81
267.52	95.81
267.752	102.81
267.984	106.81
268.216	102.81
268.448	91.81
268.681	99.81
268.913	93.81
269.145	97.81
269.377	103.81
269.609	90.81
269.841	85.81
270.073	110.81
270.306	91.81
270.538	94.81
270.77	94.81
271.002	89.81
271.234	79.81
271.466	94.81
271.698	90.81
271.93	85.81
272.162	98.81
272.394	110.81
272.626	94.81
272.858	99.81
273.09	93.81
273.322	91.81
273.553	84.81
273.785	98.81
274.017	103.81
274.249	101.81
274.481	94.81
274.713	85.81
274.945	81.81
275.176	87.81
275.408	101.81
275.64	107.81
275.872	99.81
276.104	104.81
276.335	103.81
276.567	93.81
276.799	108.81
277.031	89.81
277.262	75.81
277.494	102.81
277.726	103.81
277.957	109.81
278.189	83.81
278.421	95.81
278.652	106.81
278.884	92.81
279.115	89.81
279.347	102.81
279.579	93.81
279.81	84.81
280.042	91.81
280.273	95.81
280.505	99.81
280.736	103.81
280.968	116.81
281.199	114.81
281.431	95.81
281.662	104.81
281.894	111.81
282.125	95.81
282.356	104.81
282.588	105.81
282.819	107.81
283.051	88.81
283.282	96.81
283.513	105.81
283.745	111.81
283.976	105.81
284.207	102.81
284.439	93.81
284.67	95.81
284.901	102.81
285.132	105.81
285.364	106.81
285.595	106.81
285.826	102.81
286.057	108.81
286.288	116.81
286.52	113.81
286.751	111.81
286.982	100.81
287.213	111.81
287.444	100.81
287.675	99.81
287.906	106.81
288.138	103.81
288.369	107.81
288.6	109.81
288.831	97.81
289.062	106.81
289.293	100.81
289.524	108.81
289.755	102.81
289.986	104.81
290.217	101.81
290.448	105.81
290.679	113.81
290.91	103.81
291.141	98.81
291.371	96.81
291.602	100.81
291.833	96.81
292.064	102.81
292.295	112.81
292.526	102.81
292.757	95.81
292.987	107.81
293.218	88.81
293.449	100.81
293.68	88.81
293.91	97.81
294.141	91.81
294.372	105.81
294.603	104.81
294.833	113.81
295.064	91.81
295.295	95.81
295.525	111.81
295.756	117.81
295.987	103.81
296.217	97.81
296.448	97.81
296.679	104.81
296.909	110.81
297.14	110.81
297.37	119.81
297.601	103.81
297.831	102.81
298.062	91.81
298.292	98.81
298.523	113.81
298.753	104.81
298.984	111.81
299.214	104.81
299.445	95.81
299.675	111.81
299.905	105.81
300.136	92.81
300.366	98.81
300.597	111.81
300.827	113.81
301.057	107.81
301.288	108.81
301.518	98.81
301.748	108.81
301.979	138.81
302.209	99.81
302.439	95.81
302.669	97.81
302.9	110.81
303.13	108.81
303.36	122.81
303.59	99.81
303.82	96.81
304.051	104.81
304.281	125.81
304.511	123.81
304.741	97.81
304.971	100.81
305.201	105.81
305.431	107.81
305.661	106.81
305.891	112.81
306.121	104.81
306.352	91.81
306.582	99.81
306.812	102.81
307.042	104.81
307.272	97.81
307.502	93.81
307.731	115.81
307.961	103.81
308.191	106.81
308.421	105.81
308.651	111.81
308.881	116.81
309.111	106.81
309.341	110.81
309.571	111.81
309.8	104.81
310.03	110.81
310.26	113.81
310.49	102.81
310.72	100.81
310.949	98.81
311.179	110.81
311.409	111.81
311.639	113.81
311.868	104.81
312.098	110.81
312.328	100.81
312.557	106.81
312.787	109.81
313.017	102.81
313.246	106.81
313.476	96.81
313.706	111.81
313.935	101.81
314.165	109.81
314.394	116.81
314.624	102.81
314.853	107.81
315.083	107.81
315.312	100.81
315.542	118.81
315.771	109.81
316.001	107.81
316.23	108.81
316.46	113.81
316.689	97.81
316.919	118.81
317.148	103.81
317.377	118.81
317.607	115.81
317.836	109.81
318.065	117.81
318.295	116.81
318.524	114.81
318.753	115.81
318.983	110.81
319.212	111.81
319.441	113.81
319.67	107.81
319.9	112.81
320.129	111.81
320.358	97.81
320.587	115.81
320.816	109.81
321.046	97.81
321.275	99.81
321.504	107.81
321.733	97.81
321.962	105.81
322.191	118.81
322.42	90.81
322.649	111.81
322.878	105.81
323.108	123.81
323.337	110.81
323.566	110.81
323.795	111.81
324.024	106.81
324.253	105.81
324.482	107.81
324.71	111.81
324.939	120.81
325.168	106.81
325.397	107.81
325.626	113.81
325.855	112.81
326.084	109.81
326.313	122.81
326.542	113.81
326.77	117.81
326.999	114.81
327.228	106.81
327.457	97.81
327.686	118.81
327.914	99.81
328.143	108.81
328.372	118.81
328.6	99.81
328.829	105.81
329.058	95.81
329.287	106.81
329.515	117.81
329.744	125.81
329.972	92.81
330.201	113.81
330.43	110.81
330.658	123.81
330.887	119.81
331.115	120.81
331.344	97.81
331.572	112.81
331.801	112.81
332.03	124.81
332.258	114.81
332.486	112.81
332.715	114.81
332.943	108.81
333.172	130.81
333.4	135.81
333.629	121.81
333.857	129.81
334.085	128.81
334.314	103.81
334.542	111.81
334.771	120.81
334.999	122.81
335.227	116.81
335.455	122.81
335.684	120.81
335.912	134.81
336.14	122.81
336.369	114.81
336.597	114.81
336.825	131.81
337.053	123.81
337.281	121.81
337.51	111.81
337.738	121.81
337.966	125.81
338.194	93.81
338.422	94.81
338.65	103.81
338.878	109.81
339.106	113.81
339.334	127.81
339.562	112.81
339.79	109.81
340.018	97.81
340.246	100.81
340.474	110.81
340.702	103.81
340.93	130.81
341.158	113.81
341.386	109.81
341.614	111.81
341.842	118.81
342.07	124.81
342.298	112.81
342.526	122.81
342.754	108.81
342.981	119.81
343.209	111.81
343.437	141.81
343.665	119.81
343.893	107.81
344.12	123.81
344.348	94.81
344.576	110.81
344.804	102.81
345.031	109.81
345.259	116.81
345.487	107.81
345.714	98.81
345.942	104.81
346.17	113.81
346.397	111.81
346.625	94.81
346.853	109.81
347.08	101.81
347.308	116.81
347.535	123.81
347.763	121.81
347.99	130.81
348.218	100.81
348.445	95.81
348.673	120.81
348.9	107.81
349.128	117.81
349.355	108.81
349.583	97.81
349.81	119.81
350.037	108.81
350.265	126.81
350.492	101.81
350.72	93.81
350.947	111.81
351.174	101.81
351.402	108.81
351.629	106.81
351.856	99.81
352.083	114.81
352.311	101.81
352.538	104.81
352.765	116.81
352.992	130.81
353.22	114.81
353.447	109.81
353.674	104.81
353.901	112.81
354.128	117.81
354.355	99.81
354.583	106.81
354.81	109.81
355.037	112.81
355.264	108.81
355.491	107.81
355.718	120.81
355.945	107.81
356.172	122.81
356.399	111.81
356.626	117.81
356.853	116.81
357.08	114.81
357.307	113.81
357.534	112.81
357.761	108.81
357.988	103.81
358.215	106.81
358.441	109.81
358.668	102.81
358.895	116.81
359.122	110.81
359.349	118.81
359.576	107.81
359.802	111.81
360.029	102.81
360.256	111.81
360.483	101.81
360.709	96.81
360.936	119.81
361.163	110.81
361.39	124.81
361.616	120.81
361.843	111.81
362.07	113.81
362.296	130.81
362.523	102.81
362.749	120.81
362.976	106.81
363.203	117.81
363.429	105.81
363.656	108.81
363.882	107.81
364.109	133.81
364.335	119.81
364.562	112.81
364.788	101.81
365.015	111.81
365.241	119.81
365.468	128.81
365.694	91.81
365.92	117.81
366.147	112.81
366.373	117.81
366.599	114.81
366.826	111.81
367.052	108.81
367.278	104.81
367.505	113.81
367.731	116.81
367.957	109.81
368.184	108.81
368.41	103.81
368.636	110.81
368.862	118.81
369.089	120.81
369.315	120.81
369.541	110.81
369.767	101.81
369.993	109.81
370.219	103.81
370.445	115.81
370.672	129.81
370.898	101.81
371.124	111.81
371.35	107.81
371.576	125.81
371.802	116.81
372.028	106.81
372.254	101.81
372.48	105.81
372.706	110.81
372.932	119.81
373.158	105.81
373.384	118.81
373.61	127.81
373.835	110.81
374.061	99.81
374.287	105.81
374.513	113.81
374.739	116.81
374.965	120.81
375.191	114.81
375.416	117.81
375.642	115.81
375.868	120.81
376.094	114.81
376.319	99.81
376.545	108.81
376.771	101.81
376.997	110.81
377.222	99.81
377.448	118.81
377.674	102.81
377.899	110.81
378.125	96.81
378.35	107.81
378.576	112.81
378.802	108.81
379.027	114.81
379.253	103.81
379.478	111.81
379.704	108.81
379.929	105.81
380.155	110.81
380.38	104.81
380.606	124.81
380.831	98.81
381.057	116.81
381.282	104.81
381.507	110.81
381.733	118.81
381.958	105.81
382.184	117.81
382.409	107.81
382.634	123.81
382.86	114.81
383.085	109.81
383.31	108.81
383.535	110.81
383.761	119.81
383.986	113.81
384.211	106.81
384.436	131.81
384.662	108.81
384.887	111.81
385.112	116.81
385.337	123.81
385.562	121.81
385.787	120.81
386.013	133.81
386.238	123.81
386.463	129.81
386.688	143.81
386.913	113.81
387.138	121.81
387.363	123.81
387.588	121.81
387.813	127.81
388.038	128.81
388.263	117.81
388.488	95.81
388.713	113.81
388.938	101.81
389.163	123.81
389.387	114.81
389.612	115.81
389.837	117.81
390.062	125.81
390.287	119.81
390.512	118.81
390.736	123.81
390.961	120.81
391.186	115.81
391.411	126.81
391.636	121.81
391.86	119.81
392.085	119.81
392.31	133.81
392.534	120.81
392.759	117.81
392.984	127.81
393.208	127.81
393.433	106.81
393.658	114.81
393.882	118.81
394.107	125.81
394.331	113.81
394.556	111.81
394.78	123.81
395.005	116.81
395.229	124.81
395.454	134.81
395.678	116.81
395.903	136.81
396.127	126.81
396.352	125.81
396.576	123.81
396.801	127.81
397.025	112.81
397.249	123.81
397.474	140.81
397.698	136.81
397.922	111.81
398.147	123.81
398.371	123.81
398.595	136.81
398.82	131.81
399.044	148.81
399.268	137.81
399.492	157.81
399.717	175.81
399.941	148.81
400.165	131.81
400.389	133.81
400.613	127.81
400.837	134.81
401.062	116.81
401.286	132.81
401.51	125.81
401.734	119.81
401.958	135.81
402.182	126.81
402.406	138.81
402.63	150.81
402.854	137.81
403.078	120.81
403.302	128.81
403.526	124.81
403.75	132.81
403.974	130.81
404.198	148.81
404.422	131.81
404.645	132.81
404.869	138.81
405.093	123.81
405.317	147.81
405.541	128.81
405.765	143.81
405.988	131.81
406.212	140.81
406.436	123.81
406.66	134.81
406.883	143.81
407.107	147.81
407.331	150.81
407.555	147.81
407.778	152.81
408.002	126.81
408.226	139.81
408.449	126.81
408.673	132.81
408.896	147.81
409.12	127.81
409.344	134.81
409.567	146.81
409.791	154.81
410.014	135.81
410.238	133.81
410.461	124.81
410.685	133.81
410.908	132.81
411.132	135.81
411.355	133.81
411.578	141.81
411.802	122.81
412.025	125.81
412.249	139.81
412.472	134.81
412.695	132.81
412.919	131.81
413.142	124.81
413.365	132.81
413.589	128.81
413.812	132.81
414.035	142.81
414.258	128.81
414.482	116.81
414.705	129.81
414.928	128.81
415.151	123.81
415.374	139.81
415.597	123.81
415.821	129.81
416.044	116.81
416.267	113.81
416.49	127.81
416.713	118.81
416.936	133.81
417.159	129.81
417.382	107.81
417.605	123.81
417.828	139.81
418.051	131.81
418.274	140.81
418.497	132.81
418.72	124.81
418.943	131.81
419.166	137.81
419.389	138.81
419.611	140.81
419.834	120.81
420.057	124.81
420.28	140.81
420.503	135.81
420.726	117.81
420.948	118.81
421.171	119.81
421.394	125.81
421.617	128.81
421.839	105.81
422.062	142.81
422.285	153.81
422.507	132.81
422.73	115.81
422.953	116.81
423.175	120.81
423.398	116.81
423.621	128.81
423.843	132.81
424.066	126.81
424.288	127.81
424.511	126.81
424.733	119.81
424.956	132.81
425.178	125.81
425.401	128.81
425.623	127.81
425.846	116.81
426.068	131.81
426.291	110.81
426.513	128.81
426.735	116.81
426.958	120.81
427.18	131.81
427.402	119.81
427.625	128.81
427.847	120.81
428.069	134.81
428.292	101.81
428.514	128.81
428.736	120.81
428.958	137.81
429.181	130.81
429.403	120.81
429.625	117.81
429.847	122.81
430.069	124.81
430.292	128.81
430.514	107.81
430.736	125.81
430.958	112.81
431.18	117.81
431.402	126.81
431.624	105.81
431.846	108.81
432.068	125.81
432.29	110.81
432.512	131.81
432.734	118.81
432.956	125.81
433.178	130.81
433.4	113.81
433.622	125.81
433.844	124.81
434.066	128.81
434.287	117.81
434.509	123.81
434.731	139.81
434.953	126.81
435.175	125.81
435.397	137.81
435.618	125.81
435.84	131.81
436.062	119.81
436.284	124.81
436.505	118.81
436.727	104.81
436.949	121.81
437.17	122.81
437.392	108.81
437.614	117.81
437.835	119.81
438.057	110.81
438.278	105.81
438.5	117.81
438.721	106.81
438.943	144.81
439.165	106.81
439.386	127.81
439.608	118.81
439.829	113.81
440.05	120.81
440.272	124.81
440.493	125.81
440.715	121.81
440.936	128.81
441.158	139.81
441.379	120.81
441.6	108.81
441.822	119.81
442.043	119.81
442.264	124.81
442.486	131.81
442.707	133.81
442.928	132.81
443.149	138.81
443.371	143.81
443.592	125.81
443.813	132.81
444.034	118.81
444.255	124.81
444.476	149.81
444.698	121.81
444.919	130.81
445.14	343.81
445.361	230.81
445.582	153.81
445.803	126.81
446.024	126.81
446.245	135.81
446.466	122.81
446.687	125.81
446.908	126.81
447.129	107.81
447.35	125.81
447.571	128.81
447.792	120.81
448.013	123.81
448.234	137.81
448.455	99.81
448.675	124.81
448.896	117.81
449.117	125.81
449.338	114.81
449.559	127.81
449.779	123.81
450	118.81
450.221	113.81
450.442	127.81
450.662	120.81
450.883	123.81
451.104	133.81
451.324	115.81
451.545	110.81
451.766	106.81
451.986	122.81
452.207	106.81
452.428	121.81
452.648	119.81
452.869	121.81
453.089	119.81
453.31	127.81
453.53	110.81
453.751	131.81
453.971	101.81
454.192	108.81
454.412	111.81
454.633	119.81
454.853	117.81
455.073	104.81
455.294	119.81
455.514	119.81
455.734	115.81
455.955	132.81
456.175	105.81
456.395	112.81
456.616	100.81
456.836	116.81
457.056	112.81
457.276	125.81
457.497	106.81
457.717	120.81
457.937	114.81
458.157	120.81
458.377	108.81
458.598	105.81
458.818	107.81
459.038	113.81
459.258	135.81
459.478	131.81
459.698	123.81
459.918	135.81
460.138	127.81
460.358	119.81
460.578	136.81
460.798	136.81
461.018	143.81
461.238	147.81
461.458	120.81
461.678	118.81
461.898	128.81
462.118	121.81
462.338	146.81
462.558	119.81
462.777	152.81
462.997	148.81
463.217	150.81
463.437	152.81
463.657	147.81
463.876	127.81
464.096	136.81
464.316	142.81
464.536	135.81
464.755	148.81
464.975	138.81
465.195	135.81
465.414	124.81
465.634	122.81
465.854	117.81
466.073	128.81
466.293	122.81
466.512	126.81
466.732	115.81
466.951	117.81
467.171	110.81
467.391	133.81
467.61	119.81
467.829	109.81
468.049	122.81
468.268	97.81
468.488	121.81
468.707	113.81
468.927	119.81
469.146	124.81
469.365	104.81
469.585	117.81
469.804	111.81
470.023	120.81
470.243	120.81
470.462	148.81
470.681	134.81
470.901	115.81
471.12	116.81
471.339	126.81
471.558	123.81
471.777	123.81
471.997	125.81
472.216	128.81
472.435	114.81
472.654	115.81
472.873	117.81
473.092	125.81
473.311	127.81
473.53	117.81
473.749	131.81
473.968	128.81
474.187	122.81
474.406	115.81
474.625	128.81
474.844	118.81
475.063	123.81
475.282	112.81
475.501	116.81
475.72	114.81
475.939	110.81
476.158	108.81
476.377	131.81
476.596	134.81
476.814	113.81
477.033	124.81
477.252	113.81
477.471	125.81
477.69	126.81
477.908	131.81
478.127	125.81
478.346	135.81
478.564	127.81
478.783	125.81
479.002	135.81
479.22	127.81
479.439	124.81
479.658	131.81
479.876	127.81
480.095	129.81
480.313	134.81
480.532	131.81
480.751	144.81
480.969	129.81
481.188	124.81
481.406	125.81
481.624	122.81
481.843	128.81
482.061	132.81
482.28	127.81
482.498	114.81
482.717	113.81
482.935	120.81
483.153	133.81
483.372	125.81
483.59	121.81
483.808	131.81
484.027	139.81
484.245	131.81
484.463	126.81
484.681	134.81
484.9	125.81
485.118	136.81
485.336	116.81
485.554	137.81
485.772	108.81
485.99	129.81
486.209	123.81
486.427	113.81
486.645	113.81
486.863	126.81
487.081	123.81
487.299	128.81
487.517	132.81
487.735	135.81
487.953	120.81
488.171	125.81
488.389	122.81
488.607	136.81
488.825	116.81
489.043	141.81
489.261	114.81
489.479	111.81
489.696	106.81
489.914	126.81
490.132	124.81
490.35	129.81
490.568	137.81
490.786	128.81
491.003	124.81
491.221	113.81
491.439	124.81
491.657	136.81
491.874	136.81
492.092	120.81
492.31	133.81
492.527	122.81
492.745	138.81
492.963	149.81
493.18	138.81
493.398	131.81
493.615	118.81
493.833	121.81
494.05	122.81
494.268	125.81
494.485	145.81
494.703	131.81
494.92	131.81
495.138	112.81
495.355	140.81
495.573	127.81
495.79	125.81
496.008	126.81
496.225	134.81
496.442	130.81
496.66	138.81
496.877	129.81
497.094	158.81
497.312	135.81
497.529	138.81
497.746	139.81
497.963	130.81
498.181	140.81
498.398	142.81
498.615	142.81
498.832	160.81
499.049	149.81
499.267	182.81
499.484	189.81
499.701	202.81
499.918	223.81
500.135	225.81
500.352	252.81
500.569	243.81
500.786	242.81
501.003	203.81
501.22	183.81
501.437	203.81
501.654	163.81
501.871	171.81
502.088	161.81
502.305	157.81
502.522	163.81
502.739	161.81
502.956	157.81
503.172	147.81
503.389	150.81
503.606	144.81
503.823	128.81
504.04	149.81
504.256	139.81
504.473	139.81
504.69	144.81
504.907	139.81
505.123	132.81
505.34	139.81
505.557	141.81
505.773	127.81
505.99	126.81
506.207	139.81
506.423	134.81
