Data from SampG_HRD10591_00027.txt Node
Date: Mon Jan 19 11:53:52 EST 2026
User: Yrep
Spectrometer: HR+D1059
Trigger mode: 0
Integration Time (sec): 3.443000E-1
Scans to average: 1
Electric dark correction enabled: true
Nonlinearity correction enabled: false
Boxcar width: 0
XAxis mode: Wavelengths
Number of Pixels in Spectrum: 2048
>>>>>Begin Spectral Data<<<<<
223.165	-26.94
223.4	-26.94
223.635	-26.94
223.869	-31.94
224.104	-10.94
224.338	-6.94
224.573	-11.94
224.808	-1.94
225.042	4.06
225.277	-9.94
225.511	-7.94
225.746	-2.94
225.98	3.06
226.215	1.06
226.449	9.06
226.683	18.06
226.918	23.06
227.152	53.06
227.387	34.06
227.621	43.06
227.856	39.06
228.09	42.06
228.324	43.06
228.559	65.06
228.793	40.06
229.027	91.06
229.262	63.06
229.496	64.06
229.73	73.06
229.964	79.06
230.199	81.06
230.433	99.06
230.667	94.06
230.901	91.06
231.136	86.06
231.37	91.06
231.604	85.06
231.838	90.06
232.072	79.06
232.306	87.06
232.541	86.06
232.775	90.06
233.009	85.06
233.243	86.06
233.477	81.06
233.711	89.06
233.945	81.06
234.179	100.06
234.413	97.06
234.647	81.06
234.881	86.06
235.115	82.06
235.349	86.06
235.583	80.06
235.817	105.06
236.051	94.06
236.285	81.06
236.519	85.06
236.753	78.06
236.987	78.06
237.221	79.06
237.455	83.06
237.689	75.06
237.922	75.06
238.156	73.06
238.39	92.06
238.624	80.06
238.858	84.06
239.091	92.06
239.325	93.06
239.559	77.06
239.793	89.06
240.027	90.06
240.26	77.06
240.494	87.06
240.728	81.06
240.961	85.06
241.195	94.06
241.429	99.06
241.662	69.06
241.896	75.06
242.13	75.06
242.363	76.06
242.597	81.06
242.83	102.06
243.064	94.06
243.298	92.06
243.531	86.06
243.765	89.06
243.998	85.06
244.232	87.06
244.465	87.06
244.699	84.06
244.932	96.06
245.166	91.06
245.399	89.06
245.633	94.06
245.866	104.06
246.099	86.06
246.333	78.06
246.566	85.06
246.8	85.06
247.033	92.06
247.266	91.06
247.5	89.06
247.733	84.06
247.966	73.06
248.2	91.06
248.433	91.06
248.666	86.06
248.899	93.06
249.133	90.06
249.366	96.06
249.599	94.06
249.832	78.06
250.066	109.06
250.299	93.06
250.532	94.06
250.765	86.06
250.998	90.06
251.231	96.06
251.465	77.06
251.698	88.06
251.931	94.06
252.164	98.06
252.397	106.06
252.63	73.06
252.863	72.06
253.096	91.06
253.329	103.06
253.562	87.06
253.795	86.06
254.028	105.06
254.261	91.06
254.494	89.06
254.727	112.06
254.96	103.06
255.193	90.06
255.426	93.06
255.659	87.06
255.892	99.06
256.124	107.06
256.357	94.06
256.59	98.06
256.823	104.06
257.056	83.06
257.289	86.06
257.521	88.06
257.754	90.06
257.987	92.06
258.22	117.06
258.452	97.06
258.685	89.06
258.918	97.06
259.151	87.06
259.383	98.06
259.616	108.06
259.849	103.06
260.081	116.06
260.314	105.06
260.547	93.06
260.779	111.06
261.012	104.06
261.244	97.06
261.477	106.06
261.71	100.06
261.942	115.06
262.175	108.06
262.407	104.06
262.64	102.06
262.872	86.06
263.105	99.06
263.337	107.06
263.57	93.06
263.802	105.06
264.035	103.06
264.267	108.06
264.499	107.06
264.732	103.06
264.964	103.06
265.197	105.06
265.429	75.06
265.661	100.06
265.894	108.06
266.126	98.06
266.358	101.06
266.591	105.06
266.823	106.06
267.055	94.06
267.287	121.06
267.52	88.06
267.752	101.06
267.984	97.06
268.216	108.06
268.448	101.06
268.681	104.06
268.913	96.06
269.145	104.06
269.377	115.06
269.609	87.06
269.841	111.06
270.073	111.06
270.306	98.06
270.538	106.06
270.77	98.06
271.002	110.06
271.234	97.06
271.466	109.06
271.698	113.06
271.93	92.06
272.162	107.06
272.394	119.06
272.626	116.06
272.858	101.06
273.09	99.06
273.322	117.06
273.553	114.06
273.785	95.06
274.017	98.06
274.249	94.06
274.481	112.06
274.713	111.06
274.945	107.06
275.176	97.06
275.408	124.06
275.64	104.06
275.872	94.06
276.104	95.06
276.335	124.06
276.567	112.06
276.799	102.06
277.031	127.06
277.262	104.06
277.494	95.06
277.726	115.06
277.957	110.06
278.189	129.06
278.421	106.06
278.652	105.06
278.884	115.06
279.115	118.06
279.347	116.06
279.579	116.06
279.81	137.06
280.042	103.06
280.273	115.06
280.505	103.06
280.736	109.06
280.968	111.06
281.199	119.06
281.431	115.06
281.662	109.06
281.894	124.06
282.125	128.06
282.356	122.06
282.588	125.06
282.819	114.06
283.051	121.06
283.282	115.06
283.513	121.06
283.745	122.06
283.976	119.06
284.207	122.06
284.439	120.06
284.67	123.06
284.901	114.06
285.132	107.06
285.364	109.06
285.595	117.06
285.826	121.06
286.057	118.06
286.288	126.06
286.52	116.06
286.751	114.06
286.982	128.06
287.213	115.06
287.444	113.06
287.675	108.06
287.906	115.06
288.138	121.06
288.369	117.06
288.6	118.06
288.831	114.06
289.062	136.06
289.293	108.06
289.524	119.06
289.755	118.06
289.986	126.06
290.217	138.06
290.448	123.06
290.679	124.06
290.91	126.06
291.141	130.06
291.371	129.06
291.602	126.06
291.833	127.06
292.064	100.06
292.295	120.06
292.526	122.06
292.757	121.06
292.987	115.06
293.218	128.06
293.449	106.06
293.68	123.06
293.91	109.06
294.141	121.06
294.372	125.06
294.603	117.06
294.833	128.06
295.064	107.06
295.295	130.06
295.525	122.06
295.756	127.06
295.987	127.06
296.217	114.06
296.448	119.06
296.679	129.06
296.909	120.06
297.14	126.06
297.37	132.06
297.601	128.06
297.831	118.06
298.062	126.06
298.292	133.06
298.523	131.06
298.753	138.06
298.984	122.06
299.214	126.06
299.445	126.06
299.675	139.06
299.905	134.06
300.136	124.06
300.366	120.06
300.597	118.06
300.827	134.06
301.057	110.06
301.288	125.06
301.518	146.06
301.748	128.06
301.979	171.06
302.209	132.06
302.439	118.06
302.669	129.06
302.9	131.06
303.13	138.06
303.36	126.06
303.59	127.06
303.82	117.06
304.051	127.06
304.281	132.06
304.511	133.06
304.741	134.06
304.971	119.06
305.201	135.06
305.431	137.06
305.661	121.06
305.891	109.06
306.121	127.06
306.352	123.06
306.582	128.06
306.812	121.06
307.042	136.06
307.272	131.06
307.502	131.06
307.731	138.06
307.961	131.06
308.191	120.06
308.421	127.06
308.651	138.06
308.881	117.06
309.111	118.06
309.341	132.06
309.571	132.06
309.8	123.06
310.03	125.06
310.26	136.06
310.49	122.06
310.72	122.06
310.949	123.06
311.179	136.06
311.409	113.06
311.639	138.06
311.868	141.06
312.098	134.06
312.328	122.06
312.557	131.06
312.787	128.06
313.017	153.06
313.246	146.06
313.476	126.06
313.706	128.06
313.935	127.06
314.165	134.06
314.394	127.06
314.624	132.06
314.853	139.06
315.083	123.06
315.312	119.06
315.542	130.06
315.771	130.06
316.001	139.06
316.23	127.06
316.46	139.06
316.689	136.06
316.919	124.06
317.148	132.06
317.377	140.06
317.607	135.06
317.836	129.06
318.065	115.06
318.295	113.06
318.524	122.06
318.753	131.06
318.983	116.06
319.212	136.06
319.441	125.06
319.67	129.06
319.9	144.06
320.129	130.06
320.358	138.06
320.587	136.06
320.816	130.06
321.046	138.06
321.275	125.06
321.504	135.06
321.733	149.06
321.962	148.06
322.191	145.06
322.42	132.06
322.649	118.06
322.878	132.06
323.108	117.06
323.337	133.06
323.566	138.06
323.795	125.06
324.024	135.06
324.253	128.06
324.482	137.06
324.71	120.06
324.939	146.06
325.168	136.06
325.397	135.06
325.626	139.06
325.855	134.06
326.084	142.06
326.313	130.06
326.542	117.06
326.77	124.06
326.999	121.06
327.228	129.06
327.457	133.06
327.686	142.06
327.914	146.06
328.143	142.06
328.372	130.06
328.6	134.06
328.829	129.06
329.058	131.06
329.287	118.06
329.515	127.06
329.744	133.06
329.972	141.06
330.201	118.06
330.43	140.06
330.658	137.06
330.887	138.06
331.115	148.06
331.344	149.06
331.572	162.06
331.801	134.06
332.03	146.06
332.258	150.06
332.486	140.06
332.715	132.06
332.943	143.06
333.172	153.06
333.4	155.06
333.629	166.06
333.857	154.06
334.085	167.06
334.314	156.06
334.542	150.06
334.771	147.06
334.999	134.06
335.227	140.06
335.455	150.06
335.684	153.06
335.912	149.06
336.14	158.06
336.369	130.06
336.597	136.06
336.825	170.06
337.053	145.06
337.281	145.06
337.51	147.06
337.738	141.06
337.966	141.06
338.194	149.06
338.422	162.06
338.65	141.06
338.878	140.06
339.106	139.06
339.334	143.06
339.562	132.06
339.79	137.06
340.018	137.06
340.246	130.06
340.474	137.06
340.702	148.06
340.93	137.06
341.158	151.06
341.386	141.06
341.614	138.06
341.842	140.06
342.07	120.06
342.298	133.06
342.526	137.06
342.754	123.06
342.981	149.06
343.209	133.06
343.437	171.06
343.665	141.06
343.893	150.06
344.12	151.06
344.348	152.06
344.576	147.06
344.804	134.06
345.031	133.06
345.259	132.06
345.487	138.06
345.714	121.06
345.942	115.06
346.17	148.06
346.397	157.06
346.625	137.06
346.853	124.06
347.08	147.06
347.308	134.06
347.535	140.06
347.763	142.06
347.99	154.06
348.218	163.06
348.445	131.06
348.673	135.06
348.9	131.06
349.128	146.06
349.355	142.06
349.583	138.06
349.81	122.06
350.037	115.06
350.265	134.06
350.492	125.06
350.72	152.06
350.947	137.06
351.174	144.06
351.402	125.06
351.629	149.06
351.856	137.06
352.083	127.06
352.311	131.06
352.538	132.06
352.765	117.06
352.992	135.06
353.22	129.06
353.447	121.06
353.674	146.06
353.901	124.06
354.128	140.06
354.355	135.06
354.583	141.06
354.81	139.06
355.037	137.06
355.264	142.06
355.491	133.06
355.718	120.06
355.945	130.06
356.172	121.06
356.399	131.06
356.626	151.06
356.853	132.06
357.08	140.06
357.307	129.06
357.534	136.06
357.761	139.06
357.988	142.06
358.215	131.06
358.441	138.06
358.668	134.06
358.895	132.06
359.122	132.06
359.349	132.06
359.576	138.06
359.802	141.06
360.029	129.06
360.256	137.06
360.483	129.06
360.709	130.06
360.936	134.06
361.163	133.06
361.39	118.06
361.616	121.06
361.843	125.06
362.07	132.06
362.296	142.06
362.523	130.06
362.749	127.06
362.976	141.06
363.203	149.06
363.429	124.06
363.656	134.06
363.882	142.06
364.109	138.06
364.335	137.06
364.562	125.06
364.788	129.06
365.015	145.06
365.241	158.06
365.468	132.06
365.694	141.06
365.92	127.06
366.147	154.06
366.373	127.06
366.599	118.06
366.826	133.06
367.052	136.06
367.278	131.06
367.505	121.06
367.731	144.06
367.957	132.06
368.184	130.06
368.41	127.06
368.636	148.06
368.862	139.06
369.089	121.06
369.315	131.06
369.541	140.06
369.767	139.06
369.993	137.06
370.219	132.06
370.445	138.06
370.672	147.06
370.898	124.06
371.124	145.06
371.35	133.06
371.576	144.06
371.802	129.06
372.028	135.06
372.254	137.06
372.48	141.06
372.706	136.06
372.932	137.06
373.158	147.06
373.384	155.06
373.61	148.06
373.835	123.06
374.061	142.06
374.287	138.06
374.513	167.06
374.739	141.06
374.965	133.06
375.191	131.06
375.416	141.06
375.642	150.06
375.868	155.06
376.094	147.06
376.319	131.06
376.545	131.06
376.771	150.06
376.997	148.06
377.222	143.06
377.448	153.06
377.674	142.06
377.899	165.06
378.125	124.06
378.35	149.06
378.576	139.06
378.802	133.06
379.027	146.06
379.253	146.06
379.478	149.06
379.704	154.06
379.929	140.06
380.155	124.06
380.38	138.06
380.606	135.06
380.831	126.06
381.057	161.06
381.282	147.06
381.507	140.06
381.733	141.06
381.958	134.06
382.184	140.06
382.409	130.06
382.634	157.06
382.86	152.06
383.085	148.06
383.31	151.06
383.535	153.06
383.761	161.06
383.986	161.06
384.211	163.06
384.436	146.06
384.662	145.06
384.887	150.06
385.112	149.06
385.337	160.06
385.562	153.06
385.787	159.06
386.013	164.06
386.238	165.06
386.463	143.06
386.688	195.06
386.913	161.06
387.138	134.06
387.363	143.06
387.588	169.06
387.813	153.06
388.038	166.06
388.263	157.06
388.488	153.06
388.713	159.06
388.938	156.06
389.163	172.06
389.387	163.06
389.612	155.06
389.837	161.06
390.062	154.06
390.287	164.06
390.512	155.06
390.736	160.06
390.961	150.06
391.186	151.06
391.411	155.06
391.636	149.06
391.86	170.06
392.085	182.06
392.31	175.06
392.534	165.06
392.759	176.06
392.984	163.06
393.208	154.06
393.433	167.06
393.658	154.06
393.882	149.06
394.107	177.06
394.331	166.06
394.556	149.06
394.78	161.06
395.005	162.06
395.229	180.06
395.454	159.06
395.678	150.06
395.903	159.06
396.127	153.06
396.352	171.06
396.576	146.06
396.801	165.06
397.025	166.06
397.249	164.06
397.474	170.06
397.698	153.06
397.922	177.06
398.147	171.06
398.371	168.06
398.595	190.06
398.82	179.06
399.044	171.06
399.268	201.06
399.492	231.06
399.717	238.06
399.941	224.06
400.165	210.06
400.389	175.06
400.613	186.06
400.837	171.06
401.062	173.06
401.286	169.06
401.51	178.06
401.734	172.06
401.958	178.06
402.182	185.06
402.406	181.06
402.63	195.06
402.854	175.06
403.078	182.06
403.302	180.06
403.526	194.06
403.75	204.06
403.974	185.06
404.198	197.06
404.422	204.06
404.645	182.06
404.869	199.06
405.093	188.06
405.317	189.06
405.541	197.06
405.765	194.06
405.988	175.06
406.212	186.06
406.436	201.06
406.66	200.06
406.883	187.06
407.107	205.06
407.331	216.06
407.555	200.06
407.778	213.06
408.002	196.06
408.226	211.06
408.449	195.06
408.673	199.06
408.896	186.06
409.12	189.06
409.344	208.06
409.567	198.06
409.791	207.06
410.014	202.06
410.238	194.06
410.461	189.06
410.685	195.06
410.908	184.06
411.132	193.06
411.355	183.06
411.578	194.06
411.802	190.06
412.025	188.06
412.249	182.06
412.472	196.06
412.695	179.06
412.919	179.06
413.142	159.06
413.365	183.06
413.589	175.06
413.812	182.06
414.035	189.06
414.258	173.06
414.482	173.06
414.705	190.06
414.928	177.06
415.151	186.06
415.374	197.06
415.597	174.06
415.821	178.06
416.044	163.06
416.267	180.06
416.49	183.06
416.713	190.06
416.936	158.06
417.159	190.06
417.382	172.06
417.605	179.06
417.828	172.06
418.051	191.06
418.274	190.06
418.497	180.06
418.72	198.06
418.943	182.06
419.166	178.06
419.389	189.06
419.611	195.06
419.834	190.06
420.057	185.06
420.28	180.06
420.503	182.06
420.726	167.06
420.948	155.06
421.171	188.06
421.394	172.06
421.617	191.06
421.839	172.06
422.062	191.06
422.285	185.06
422.507	183.06
422.73	171.06
422.953	186.06
423.175	195.06
423.398	202.06
423.621	187.06
423.843	183.06
424.066	185.06
424.288	186.06
424.511	184.06
424.733	193.06
424.956	170.06
425.178	179.06
425.401	176.06
425.623	187.06
425.846	184.06
426.068	175.06
426.291	177.06
426.513	160.06
426.735	173.06
426.958	157.06
427.18	174.06
427.402	188.06
427.625	163.06
427.847	169.06
428.069	157.06
428.292	180.06
428.514	174.06
428.736	158.06
428.958	169.06
429.181	174.06
429.403	150.06
429.625	154.06
429.847	169.06
430.069	165.06
430.292	159.06
430.514	166.06
430.736	162.06
430.958	166.06
431.18	175.06
431.402	170.06
431.624	182.06
431.846	145.06
432.068	154.06
432.29	169.06
432.512	152.06
432.734	163.06
432.956	170.06
433.178	169.06
433.4	163.06
433.622	178.06
433.844	183.06
434.066	169.06
434.287	176.06
434.509	173.06
434.731	179.06
434.953	166.06
435.175	180.06
435.397	175.06
435.618	163.06
435.84	161.06
436.062	145.06
436.284	165.06
436.505	153.06
436.727	161.06
436.949	168.06
437.17	157.06
437.392	164.06
437.614	157.06
437.835	161.06
438.057	158.06
438.278	180.06
438.5	151.06
438.721	171.06
438.943	169.06
439.165	167.06
439.386	156.06
439.608	159.06
439.829	172.06
440.05	175.06
440.272	166.06
440.493	166.06
440.715	180.06
440.936	173.06
441.158	168.06
441.379	179.06
441.6	193.06
441.822	183.06
442.043	171.06
442.264	187.06
442.486	161.06
442.707	182.06
442.928	172.06
443.149	166.06
443.371	180.06
443.592	174.06
443.813	166.06
444.034	185.06
444.255	184.06
444.476	209.06
444.698	198.06
444.919	203.06
445.14	473.06
445.361	321.06
445.582	191.06
445.803	163.06
446.024	168.06
446.245	173.06
446.466	155.06
446.687	161.06
446.908	164.06
447.129	167.06
447.35	162.06
447.571	169.06
447.792	142.06
448.013	150.06
448.234	165.06
448.455	164.06
448.675	133.06
448.896	149.06
449.117	164.06
449.338	156.06
449.559	158.06
449.779	174.06
450	162.06
450.221	162.06
450.442	142.06
450.662	152.06
450.883	161.06
451.104	151.06
451.324	150.06
451.545	160.06
451.766	158.06
451.986	171.06
452.207	158.06
452.428	145.06
452.648	171.06
452.869	151.06
453.089	151.06
453.31	134.06
453.53	146.06
453.751	169.06
453.971	150.06
454.192	153.06
454.412	152.06
454.633	148.06
454.853	150.06
455.073	139.06
455.294	147.06
455.514	163.06
455.734	144.06
455.955	152.06
456.175	157.06
456.395	153.06
456.616	147.06
456.836	154.06
457.056	148.06
457.276	157.06
457.497	158.06
457.717	149.06
457.937	144.06
458.157	151.06
458.377	144.06
458.598	151.06
458.818	159.06
459.038	163.06
459.258	155.06
459.478	162.06
459.698	182.06
459.918	187.06
460.138	188.06
460.358	186.06
460.578	195.06
460.798	189.06
461.018	190.06
461.238	179.06
461.458	180.06
461.678	189.06
461.898	199.06
462.118	191.06
462.338	187.06
462.558	209.06
462.777	212.06
462.997	215.06
463.217	238.06
463.437	228.06
463.657	213.06
463.876	213.06
464.096	205.06
464.316	200.06
464.536	205.06
464.755	208.06
464.975	178.06
465.195	177.06
465.414	181.06
465.634	168.06
465.854	173.06
466.073	173.06
466.293	147.06
466.512	157.06
466.732	159.06
466.951	147.06
467.171	163.06
467.391	171.06
467.61	143.06
467.829	161.06
468.049	165.06
468.268	148.06
468.488	182.06
468.707	161.06
468.927	166.06
469.146	173.06
469.365	168.06
469.585	150.06
469.804	164.06
470.023	163.06
470.243	157.06
470.462	154.06
470.681	174.06
470.901	167.06
471.12	162.06
471.339	169.06
471.558	150.06
471.777	154.06
471.997	165.06
472.216	171.06
472.435	156.06
472.654	169.06
472.873	157.06
473.092	165.06
473.311	149.06
473.53	155.06
473.749	161.06
473.968	175.06
474.187	145.06
474.406	154.06
474.625	166.06
474.844	164.06
475.063	165.06
475.282	170.06
475.501	146.06
475.72	165.06
475.939	172.06
476.158	165.06
476.377	168.06
476.596	157.06
476.814	153.06
477.033	146.06
477.252	169.06
477.471	153.06
477.69	173.06
477.908	180.06
478.127	181.06
478.346	163.06
478.564	186.06
478.783	170.06
479.002	195.06
479.22	169.06
479.439	171.06
479.658	176.06
479.876	175.06
480.095	202.06
480.313	180.06
480.532	198.06
480.751	185.06
480.969	173.06
481.188	178.06
481.406	172.06
481.624	177.06
481.843	178.06
482.061	167.06
482.28	169.06
482.498	174.06
482.717	160.06
482.935	180.06
483.153	158.06
483.372	174.06
483.59	181.06
483.808	174.06
484.027	175.06
484.245	179.06
484.463	163.06
484.681	181.06
484.9	163.06
485.118	175.06
485.336	159.06
485.554	176.06
485.772	186.06
485.99	171.06
486.209	164.06
486.427	179.06
486.645	166.06
486.863	181.06
487.081	193.06
487.299	159.06
487.517	182.06
487.735	170.06
487.953	183.06
488.171	167.06
488.389	163.06
488.607	179.06
488.825	165.06
489.043	168.06
489.261	199.06
489.479	183.06
489.696	174.06
489.914	171.06
490.132	181.06
490.35	179.06
490.568	175.06
490.786	175.06
491.003	170.06
491.221	188.06
491.439	166.06
491.657	171.06
491.874	179.06
492.092	161.06
492.31	184.06
492.527	179.06
492.745	169.06
492.963	173.06
493.18	193.06
493.398	178.06
493.615	173.06
493.833	193.06
494.05	185.06
494.268	196.06
494.485	180.06
494.703	186.06
494.92	186.06
495.138	175.06
495.355	175.06
495.573	200.06
495.79	171.06
496.008	188.06
496.225	191.06
496.442	185.06
496.66	203.06
496.877	201.06
497.094	190.06
497.312	195.06
497.529	199.06
497.746	221.06
497.963	195.06
498.181	198.06
498.398	207.06
498.615	221.06
498.832	244.06
499.049	244.06
499.267	275.06
499.484	297.06
499.701	303.06
499.918	322.06
500.135	351.06
500.352	425.06
500.569	414.06
500.786	430.06
501.003	398.06
501.22	360.06
501.437	318.06
501.654	265.06
501.871	262.06
502.088	240.06
502.305	242.06
502.522	236.06
502.739	225.06
502.956	211.06
503.172	207.06
503.389	197.06
503.606	183.06
503.823	195.06
504.04	199.06
504.256	204.06
504.473	201.06
504.69	214.06
