Data from SampG_HRD10591_00068.txt Node
Date: Mon Jan 19 11:54:06 EST 2026
User: Yrep
Spectrometer: HR+D1059
Trigger mode: 0
Integration Time (sec): 3.443000E-1
Scans to average: 1
Electric dark correction enabled: true
Nonlinearity correction enabled: false
Boxcar width: 0
XAxis mode: Wavelengths
Number of Pixels in Spectrum: 2048
>>>>>Begin Spectral Data<<<<<
223.165	-25.56
223.4	-25.56
223.635	-25.56
223.869	-18.56
224.104	-22.56
224.338	1.44
224.573	-18.56
224.808	-6.56
225.042	-6.56
225.277	-14.56
225.511	-1.56
225.746	6.44
225.98	-0.56
226.215	9.44
226.449	20.44
226.683	19.44
226.918	26.44
227.152	31.44
227.387	33.44
227.621	44.44
227.856	47.44
228.09	41.44
228.324	52.44
228.559	63.44
228.793	61.44
229.027	68.44
229.262	48.44
229.496	80.44
229.73	56.44
229.964	76.44
230.199	83.44
230.433	84.44
230.667	75.44
230.901	77.44
231.136	71.44
231.37	69.44
231.604	74.44
231.838	76.44
232.072	71.44
232.306	81.44
232.541	80.44
232.775	77.44
233.009	74.44
233.243	75.44
233.477	81.44
233.711	77.44
233.945	79.44
234.179	84.44
234.413	83.44
234.647	93.44
234.881	77.44
235.115	81.44
235.349	87.44
235.583	73.44
235.817	87.44
236.051	74.44
236.285	87.44
236.519	66.44
236.753	81.44
236.987	72.44
237.221	71.44
237.455	87.44
237.689	88.44
237.922	84.44
238.156	66.44
238.39	74.44
238.624	71.44
238.858	74.44
239.091	72.44
239.325	66.44
239.559	73.44
239.793	79.44
240.027	87.44
240.26	68.44
240.494	85.44
240.728	79.44
240.961	87.44
241.195	82.44
241.429	89.44
241.662	74.44
241.896	87.44
242.13	91.44
242.363	82.44
242.597	67.44
242.83	85.44
243.064	83.44
243.298	69.44
243.531	82.44
243.765	88.44
243.998	72.44
244.232	83.44
244.465	65.44
244.699	79.44
244.932	61.44
245.166	75.44
245.399	81.44
245.633	76.44
245.866	91.44
246.099	89.44
246.333	71.44
246.566	77.44
246.8	76.44
247.033	81.44
247.266	83.44
247.5	81.44
247.733	74.44
247.966	87.44
248.2	79.44
248.433	72.44
248.666	90.44
248.899	81.44
249.133	74.44
249.366	103.44
249.599	93.44
249.832	83.44
250.066	86.44
250.299	90.44
250.532	80.44
250.765	77.44
250.998	96.44
251.231	91.44
251.465	88.44
251.698	70.44
251.931	76.44
252.164	69.44
252.397	88.44
252.63	88.44
252.863	90.44
253.096	86.44
253.329	92.44
253.562	77.44
253.795	85.44
254.028	80.44
254.261	97.44
254.494	89.44
254.727	82.44
254.96	93.44
255.193	87.44
255.426	91.44
255.659	87.44
255.892	86.44
256.124	77.44
256.357	95.44
256.59	83.44
256.823	80.44
257.056	73.44
257.289	89.44
257.521	81.44
257.754	89.44
257.987	92.44
258.22	95.44
258.452	89.44
258.685	85.44
258.918	86.44
259.151	98.44
259.383	102.44
259.616	76.44
259.849	99.44
260.081	89.44
260.314	79.44
260.547	79.44
260.779	93.44
261.012	92.44
261.244	76.44
261.477	104.44
261.71	68.44
261.942	70.44
262.175	90.44
262.407	77.44
262.64	83.44
262.872	86.44
263.105	86.44
263.337	99.44
263.57	106.44
263.802	91.44
264.035	88.44
264.267	87.44
264.499	80.44
264.732	95.44
264.964	92.44
265.197	95.44
265.429	90.44
265.661	91.44
265.894	106.44
266.126	105.44
266.358	92.44
266.591	79.44
266.823	88.44
267.055	83.44
267.287	84.44
267.52	89.44
267.752	83.44
267.984	88.44
268.216	100.44
268.448	99.44
268.681	90.44
268.913	96.44
269.145	87.44
269.377	89.44
269.609	106.44
269.841	107.44
270.073	105.44
270.306	105.44
270.538	100.44
270.77	104.44
271.002	102.44
271.234	109.44
271.466	106.44
271.698	78.44
271.93	95.44
272.162	89.44
272.394	94.44
272.626	88.44
272.858	90.44
273.09	89.44
273.322	86.44
273.553	88.44
273.785	86.44
274.017	95.44
274.249	91.44
274.481	104.44
274.713	81.44
274.945	105.44
275.176	86.44
275.408	96.44
275.64	101.44
275.872	107.44
276.104	86.44
276.335	95.44
276.567	91.44
276.799	101.44
277.031	93.44
277.262	100.44
277.494	88.44
277.726	99.44
277.957	103.44
278.189	93.44
278.421	90.44
278.652	102.44
278.884	75.44
279.115	90.44
279.347	97.44
279.579	90.44
279.81	77.44
280.042	101.44
280.273	84.44
280.505	81.44
280.736	92.44
280.968	95.44
281.199	94.44
281.431	92.44
281.662	112.44
281.894	93.44
282.125	99.44
282.356	104.44
282.588	75.44
282.819	92.44
283.051	93.44
283.282	93.44
283.513	111.44
283.745	95.44
283.976	84.44
284.207	90.44
284.439	101.44
284.67	89.44
284.901	90.44
285.132	100.44
285.364	90.44
285.595	88.44
285.826	103.44
286.057	100.44
286.288	96.44
286.52	93.44
286.751	87.44
286.982	91.44
287.213	103.44
287.444	94.44
287.675	109.44
287.906	100.44
288.138	93.44
288.369	87.44
288.6	99.44
288.831	94.44
289.062	98.44
289.293	103.44
289.524	100.44
289.755	95.44
289.986	91.44
290.217	103.44
290.448	102.44
290.679	117.44
290.91	100.44
291.141	90.44
291.371	99.44
291.602	99.44
291.833	91.44
292.064	103.44
292.295	99.44
292.526	109.44
292.757	83.44
292.987	95.44
293.218	102.44
293.449	91.44
293.68	100.44
293.91	95.44
294.141	109.44
294.372	98.44
294.603	97.44
294.833	107.44
295.064	113.44
295.295	82.44
295.525	102.44
295.756	111.44
295.987	111.44
296.217	92.44
296.448	98.44
296.679	91.44
296.909	108.44
297.14	113.44
297.37	101.44
297.601	102.44
297.831	113.44
298.062	107.44
298.292	103.44
298.523	112.44
298.753	123.44
298.984	95.44
299.214	95.44
299.445	98.44
299.675	106.44
299.905	88.44
300.136	96.44
300.366	77.44
300.597	98.44
300.827	116.44
301.057	109.44
301.288	103.44
301.518	106.44
301.748	105.44
301.979	152.44
302.209	117.44
302.439	95.44
302.669	107.44
302.9	109.44
303.13	102.44
303.36	106.44
303.59	95.44
303.82	94.44
304.051	99.44
304.281	108.44
304.511	97.44
304.741	98.44
304.971	100.44
305.201	108.44
305.431	101.44
305.661	112.44
305.891	104.44
306.121	106.44
306.352	100.44
306.582	101.44
306.812	103.44
307.042	89.44
307.272	104.44
307.502	107.44
307.731	104.44
307.961	111.44
308.191	101.44
308.421	88.44
308.651	104.44
308.881	116.44
309.111	101.44
309.341	99.44
309.571	103.44
309.8	106.44
310.03	108.44
310.26	94.44
310.49	95.44
310.72	93.44
310.949	99.44
311.179	88.44
311.409	99.44
311.639	109.44
311.868	109.44
312.098	112.44
312.328	107.44
312.557	113.44
312.787	106.44
313.017	106.44
313.246	109.44
313.476	105.44
313.706	99.44
313.935	120.44
314.165	101.44
314.394	104.44
314.624	108.44
314.853	97.44
315.083	100.44
315.312	101.44
315.542	98.44
315.771	99.44
316.001	105.44
316.23	99.44
316.46	115.44
316.689	107.44
316.919	88.44
317.148	115.44
317.377	123.44
317.607	104.44
317.836	102.44
318.065	101.44
318.295	99.44
318.524	109.44
318.753	111.44
318.983	115.44
319.212	98.44
319.441	92.44
319.67	104.44
319.9	114.44
320.129	102.44
320.358	106.44
320.587	118.44
320.816	109.44
321.046	120.44
321.275	112.44
321.504	95.44
321.733	107.44
321.962	97.44
322.191	110.44
322.42	103.44
322.649	82.44
322.878	114.44
323.108	113.44
323.337	100.44
323.566	101.44
323.795	115.44
324.024	122.44
324.253	108.44
324.482	100.44
324.71	112.44
324.939	108.44
325.168	107.44
325.397	109.44
325.626	107.44
325.855	100.44
326.084	103.44
326.313	109.44
326.542	108.44
326.77	98.44
326.999	95.44
327.228	105.44
327.457	101.44
327.686	91.44
327.914	88.44
328.143	121.44
328.372	113.44
328.6	101.44
328.829	103.44
329.058	111.44
329.287	113.44
329.515	104.44
329.744	121.44
329.972	86.44
330.201	108.44
330.43	104.44
330.658	114.44
330.887	130.44
331.115	115.44
331.344	108.44
331.572	113.44
331.801	111.44
332.03	114.44
332.258	124.44
332.486	118.44
332.715	100.44
332.943	107.44
333.172	120.44
333.4	109.44
333.629	112.44
333.857	107.44
334.085	129.44
334.314	122.44
334.542	109.44
334.771	113.44
334.999	119.44
335.227	123.44
335.455	112.44
335.684	107.44
335.912	103.44
336.14	106.44
336.369	113.44
336.597	118.44
336.825	127.44
337.053	103.44
337.281	117.44
337.51	120.44
337.738	122.44
337.966	106.44
338.194	96.44
338.422	109.44
338.65	115.44
338.878	110.44
339.106	105.44
339.334	121.44
339.562	114.44
339.79	109.44
340.018	108.44
340.246	104.44
340.474	104.44
340.702	106.44
340.93	99.44
341.158	105.44
341.386	114.44
341.614	101.44
341.842	107.44
342.07	112.44
342.298	112.44
342.526	109.44
342.754	119.44
342.981	104.44
343.209	117.44
343.437	150.44
343.665	111.44
343.893	122.44
344.12	122.44
344.348	119.44
344.576	123.44
344.804	129.44
345.031	118.44
345.259	105.44
345.487	111.44
345.714	111.44
345.942	110.44
346.17	101.44
346.397	105.44
346.625	94.44
346.853	95.44
347.08	105.44
347.308	106.44
347.535	116.44
347.763	104.44
347.99	107.44
348.218	107.44
348.445	115.44
348.673	107.44
348.9	104.44
349.128	103.44
349.355	100.44
349.583	111.44
349.81	112.44
350.037	110.44
350.265	110.44
350.492	104.44
350.72	88.44
350.947	116.44
351.174	107.44
351.402	101.44
351.629	108.44
351.856	113.44
352.083	90.44
352.311	99.44
352.538	105.44
352.765	108.44
352.992	115.44
353.22	101.44
353.447	103.44
353.674	104.44
353.901	123.44
354.128	100.44
354.355	107.44
354.583	109.44
354.81	120.44
355.037	102.44
355.264	119.44
355.491	113.44
355.718	101.44
355.945	96.44
356.172	120.44
356.399	99.44
356.626	93.44
356.853	106.44
357.08	117.44
357.307	109.44
357.534	93.44
357.761	119.44
357.988	125.44
358.215	112.44
358.441	92.44
358.668	113.44
358.895	127.44
359.122	105.44
359.349	114.44
359.576	100.44
359.802	112.44
360.029	96.44
360.256	105.44
360.483	101.44
360.709	111.44
360.936	124.44
361.163	134.44
361.39	111.44
361.616	116.44
361.843	103.44
362.07	112.44
362.296	104.44
362.523	104.44
362.749	112.44
362.976	113.44
363.203	123.44
363.429	112.44
363.656	103.44
363.882	121.44
364.109	108.44
364.335	115.44
364.562	106.44
364.788	116.44
365.015	112.44
365.241	109.44
365.468	103.44
365.694	102.44
365.92	104.44
366.147	106.44
366.373	105.44
366.599	104.44
366.826	105.44
367.052	99.44
367.278	99.44
367.505	105.44
367.731	117.44
367.957	113.44
368.184	91.44
368.41	103.44
368.636	117.44
368.862	107.44
369.089	97.44
369.315	108.44
369.541	109.44
369.767	119.44
369.993	116.44
370.219	95.44
370.445	97.44
370.672	98.44
370.898	116.44
371.124	113.44
371.35	115.44
371.576	116.44
371.802	107.44
372.028	106.44
372.254	97.44
372.48	99.44
372.706	90.44
372.932	100.44
373.158	107.44
373.384	108.44
373.61	118.44
373.835	101.44
374.061	115.44
374.287	110.44
374.513	112.44
374.739	101.44
374.965	109.44
375.191	122.44
375.416	105.44
375.642	111.44
375.868	125.44
376.094	118.44
376.319	108.44
376.545	111.44
376.771	110.44
376.997	104.44
377.222	107.44
377.448	115.44
377.674	122.44
377.899	108.44
378.125	114.44
378.35	108.44
378.576	111.44
378.802	111.44
379.027	113.44
379.253	116.44
379.478	103.44
379.704	100.44
379.929	111.44
380.155	113.44
380.38	104.44
380.606	109.44
380.831	111.44
381.057	114.44
381.282	107.44
381.507	108.44
381.733	107.44
381.958	114.44
382.184	109.44
382.409	110.44
382.634	108.44
382.86	113.44
383.085	128.44
383.31	120.44
383.535	118.44
383.761	132.44
383.986	113.44
384.211	122.44
384.436	109.44
384.662	121.44
384.887	112.44
385.112	108.44
385.337	125.44
385.562	117.44
385.787	116.44
386.013	122.44
386.238	105.44
386.463	106.44
386.688	141.44
386.913	105.44
387.138	119.44
387.363	103.44
387.588	123.44
387.813	131.44
388.038	101.44
388.263	122.44
388.488	129.44
388.713	109.44
388.938	104.44
389.163	119.44
389.387	128.44
389.612	128.44
389.837	113.44
390.062	105.44
390.287	112.44
390.512	116.44
390.736	107.44
390.961	121.44
391.186	117.44
391.411	115.44
391.636	114.44
391.86	123.44
392.085	122.44
392.31	97.44
392.534	109.44
392.759	132.44
392.984	119.44
393.208	130.44
393.433	122.44
393.658	116.44
393.882	109.44
394.107	113.44
394.331	123.44
394.556	117.44
394.78	126.44
395.005	121.44
395.229	144.44
395.454	130.44
395.678	113.44
395.903	131.44
396.127	145.44
396.352	117.44
396.576	136.44
396.801	127.44
397.025	106.44
397.249	115.44
397.474	135.44
397.698	130.44
397.922	116.44
398.147	105.44
398.371	108.44
398.595	136.44
398.82	121.44
399.044	132.44
399.268	140.44
399.492	152.44
399.717	171.44
399.941	143.44
400.165	129.44
400.389	119.44
400.613	137.44
400.837	122.44
401.062	122.44
401.286	125.44
401.51	117.44
401.734	128.44
401.958	123.44
402.182	121.44
402.406	126.44
402.63	130.44
402.854	143.44
403.078	129.44
403.302	128.44
403.526	136.44
403.75	132.44
403.974	135.44
404.198	120.44
404.422	131.44
404.645	130.44
404.869	136.44
405.093	133.44
405.317	139.44
405.541	118.44
405.765	128.44
405.988	134.44
406.212	146.44
406.436	127.44
406.66	145.44
406.883	126.44
407.107	116.44
407.331	146.44
407.555	138.44
407.778	130.44
408.002	138.44
408.226	138.44
408.449	127.44
408.673	135.44
408.896	131.44
409.12	144.44
409.344	125.44
409.567	134.44
409.791	132.44
410.014	133.44
410.238	122.44
410.461	127.44
410.685	146.44
410.908	136.44
411.132	137.44
411.355	119.44
411.578	139.44
411.802	136.44
412.025	129.44
412.249	126.44
412.472	119.44
412.695	106.44
412.919	125.44
413.142	130.44
413.365	127.44
413.589	128.44
413.812	123.44
414.035	128.44
414.258	129.44
414.482	128.44
414.705	117.44
414.928	108.44
415.151	120.44
415.374	123.44
415.597	118.44
415.821	122.44
416.044	122.44
416.267	115.44
416.49	111.44
416.713	113.44
416.936	126.44
417.159	127.44
417.382	127.44
417.605	123.44
417.828	133.44
418.051	121.44
418.274	132.44
418.497	134.44
418.72	116.44
418.943	123.44
419.166	134.44
419.389	135.44
419.611	136.44
419.834	133.44
420.057	125.44
420.28	127.44
420.503	124.44
420.726	124.44
420.948	113.44
421.171	109.44
421.394	121.44
421.617	116.44
421.839	121.44
422.062	124.44
422.285	112.44
422.507	121.44
422.73	131.44
422.953	129.44
423.175	130.44
423.398	143.44
423.621	140.44
423.843	122.44
424.066	125.44
424.288	129.44
424.511	124.44
424.733	138.44
424.956	130.44
425.178	122.44
425.401	111.44
425.623	127.44
425.846	118.44
426.068	106.44
426.291	127.44
426.513	136.44
426.735	121.44
426.958	143.44
427.18	125.44
427.402	132.44
427.625	119.44
427.847	117.44
428.069	98.44
428.292	117.44
428.514	119.44
428.736	118.44
428.958	121.44
429.181	123.44
429.403	118.44
429.625	130.44
429.847	136.44
430.069	106.44
430.292	131.44
430.514	124.44
430.736	113.44
430.958	130.44
431.18	128.44
431.402	123.44
431.624	119.44
431.846	124.44
432.068	115.44
432.29	127.44
432.512	118.44
432.734	123.44
432.956	130.44
433.178	133.44
433.4	120.44
433.622	123.44
433.844	121.44
434.066	119.44
434.287	123.44
434.509	116.44
434.731	140.44
434.953	134.44
435.175	125.44
435.397	133.44
435.618	109.44
435.84	118.44
436.062	117.44
436.284	121.44
436.505	99.44
436.727	103.44
436.949	131.44
437.17	124.44
437.392	118.44
437.614	112.44
437.835	114.44
438.057	104.44
438.278	127.44
438.5	113.44
438.721	118.44
438.943	124.44
439.165	130.44
439.386	131.44
439.608	130.44
439.829	124.44
440.05	114.44
440.272	137.44
440.493	122.44
440.715	127.44
440.936	133.44
441.158	138.44
441.379	131.44
441.6	115.44
441.822	123.44
442.043	155.44
442.264	118.44
442.486	120.44
442.707	134.44
442.928	131.44
443.149	113.44
443.371	124.44
443.592	123.44
443.813	132.44
444.034	114.44
444.255	131.44
444.476	131.44
444.698	121.44
444.919	124.44
445.14	337.44
445.361	235.44
445.582	146.44
445.803	120.44
446.024	109.44
446.245	124.44
446.466	129.44
446.687	123.44
446.908	127.44
447.129	117.44
447.35	100.44
447.571	117.44
447.792	111.44
448.013	120.44
448.234	140.44
448.455	106.44
448.675	120.44
448.896	108.44
449.117	134.44
449.338	106.44
449.559	115.44
449.779	119.44
450	96.44
450.221	114.44
450.442	118.44
450.662	102.44
450.883	117.44
451.104	116.44
451.324	120.44
451.545	119.44
451.766	118.44
451.986	109.44
452.207	121.44
452.428	102.44
452.648	111.44
452.869	111.44
453.089	108.44
453.31	116.44
453.53	114.44
453.751	124.44
453.971	102.44
454.192	113.44
454.412	109.44
454.633	126.44
454.853	114.44
455.073	117.44
455.294	112.44
455.514	116.44
455.734	118.44
455.955	124.44
456.175	107.44
456.395	117.44
456.616	118.44
456.836	125.44
457.056	136.44
457.276	108.44
457.497	110.44
457.717	117.44
457.937	120.44
458.157	102.44
458.377	113.44
458.598	109.44
458.818	119.44
459.038	108.44
459.258	120.44
459.478	110.44
459.698	118.44
459.918	122.44
460.138	118.44
460.358	129.44
460.578	128.44
460.798	128.44
461.018	130.44
461.238	120.44
461.458	125.44
461.678	134.44
461.898	128.44
462.118	135.44
462.338	149.44
462.558	135.44
462.777	123.44
462.997	125.44
463.217	145.44
463.437	143.44
463.657	118.44
463.876	143.44
464.096	128.44
464.316	137.44
464.536	129.44
464.755	136.44
464.975	151.44
465.195	139.44
465.414	118.44
465.634	142.44
465.854	107.44
466.073	136.44
466.293	115.44
466.512	115.44
466.732	131.44
466.951	110.44
467.171	120.44
467.391	120.44
467.61	114.44
467.829	128.44
468.049	120.44
468.268	106.44
468.488	109.44
468.707	117.44
468.927	105.44
469.146	103.44
469.365	122.44
469.585	117.44
469.804	121.44
470.023	116.44
470.243	116.44
470.462	107.44
470.681	121.44
470.901	104.44
471.12	111.44
471.339	140.44
471.558	129.44
471.777	111.44
471.997	118.44
472.216	120.44
472.435	117.44
472.654	114.44
472.873	124.44
473.092	116.44
473.311	112.44
473.53	126.44
473.749	118.44
473.968	108.44
474.187	125.44
474.406	107.44
474.625	120.44
474.844	117.44
475.063	113.44
475.282	106.44
475.501	106.44
475.72	105.44
475.939	110.44
476.158	113.44
476.377	107.44
476.596	133.44
476.814	100.44
477.033	110.44
477.252	115.44
477.471	121.44
477.69	120.44
477.908	123.44
478.127	133.44
478.346	155.44
478.564	114.44
478.783	118.44
479.002	137.44
479.22	129.44
479.439	131.44
479.658	129.44
479.876	126.44
480.095	119.44
480.313	131.44
480.532	132.44
480.751	122.44
480.969	122.44
481.188	110.44
481.406	132.44
481.624	126.44
481.843	131.44
482.061	122.44
482.28	120.44
482.498	124.44
482.717	105.44
482.935	120.44
483.153	115.44
483.372	130.44
483.59	134.44
483.808	121.44
484.027	117.44
484.245	129.44
484.463	131.44
484.681	137.44
484.9	121.44
485.118	121.44
485.336	122.44
485.554	128.44
485.772	138.44
485.99	129.44
486.209	119.44
486.427	114.44
486.645	121.44
486.863	126.44
487.081	115.44
487.299	118.44
487.517	135.44
487.735	136.44
487.953	130.44
488.171	141.44
488.389	128.44
488.607	124.44
488.825	117.44
489.043	131.44
489.261	136.44
489.479	136.44
489.696	128.44
489.914	135.44
490.132	134.44
490.35	128.44
490.568	114.44
490.786	111.44
491.003	116.44
491.221	136.44
491.439	122.44
491.657	127.44
491.874	130.44
492.092	125.44
492.31	119.44
492.527	115.44
492.745	123.44
492.963	116.44
493.18	133.44
493.398	139.44
493.615	130.44
493.833	131.44
494.05	122.44
494.268	126.44
494.485	126.44
494.703	109.44
494.92	136.44
495.138	133.44
495.355	136.44
495.573	129.44
495.79	125.44
496.008	128.44
496.225	141.44
496.442	116.44
496.66	121.44
496.877	118.44
497.094	134.44
497.312	138.44
497.529	133.44
497.746	141.44
497.963	124.44
498.181	136.44
498.398	136.44
498.615	144.44
498.832	132.44
499.049	138.44
499.267	163.44
499.484	182.44
499.701	186.44
499.918	202.44
500.135	225.44
500.352	235.44
500.569	216.44
500.786	208.44
501.003	224.44
501.22	215.44
501.437	199.44
501.654	187.44
501.871	166.44
502.088	150.44
502.305	154.44
502.522	146.44
502.739	146.44
502.956	148.44
503.172	132.44
503.389	140.44
503.606	136.44
503.823	127.44
504.04	141.44
504.256	151.44
504.473	130.44
504.69	137.44
504.907	144.44
505.123	137.44
505.34	145.44
505.557	117.44
505.773	124.44
505.99	129.44
506.207	109.44
506.423	127.44
506.64	139.44
506.856	139.44
507.073	112.44
