Data from SampG_HRD10591_00039.txt Node
Date: Mon Jan 19 11:53:56 EST 2026
User: Yrep
Spectrometer: HR+D1059
Trigger mode: 0
Integration Time (sec): 3.443000E-1
Scans to average: 1
Electric dark correction enabled: true
Nonlinearity correction enabled: false
Boxcar width: 0
XAxis mode: Wavelengths
Number of Pixels in Spectrum: 2048
>>>>>Begin Spectral Data<<<<<
223.165	-29.5
223.4	-29.5
223.635	-29.5
223.869	-23.5
224.104	-29.5
224.338	-6.5
224.573	-23.5
224.808	-7.5
225.042	-5.5
225.277	6.5
225.511	-1.5
225.746	11.5
225.98	0.5
226.215	13.5
226.449	12.5
226.683	14.5
226.918	23.5
227.152	44.5
227.387	36.5
227.621	35.5
227.856	49.5
228.09	56.5
228.324	60.5
228.559	66.5
228.793	58.5
229.027	68.5
229.262	71.5
229.496	55.5
229.73	67.5
229.964	82.5
230.199	77.5
230.433	72.5
230.667	83.5
230.901	69.5
231.136	84.5
231.37	78.5
231.604	106.5
231.838	95.5
232.072	78.5
232.306	82.5
232.541	80.5
232.775	86.5
233.009	88.5
233.243	75.5
233.477	79.5
233.711	86.5
233.945	100.5
234.179	84.5
234.413	84.5
234.647	82.5
234.881	91.5
235.115	91.5
235.349	69.5
235.583	75.5
235.817	82.5
236.051	89.5
236.285	78.5
236.519	72.5
236.753	85.5
236.987	87.5
237.221	90.5
237.455	79.5
237.689	92.5
237.922	77.5
238.156	58.5
238.39	63.5
238.624	70.5
238.858	75.5
239.091	65.5
239.325	82.5
239.559	75.5
239.793	87.5
240.027	80.5
240.26	73.5
240.494	77.5
240.728	74.5
240.961	75.5
241.195	89.5
241.429	86.5
241.662	78.5
241.896	79.5
242.13	79.5
242.363	73.5
242.597	81.5
242.83	69.5
243.064	75.5
243.298	86.5
243.531	78.5
243.765	86.5
243.998	73.5
244.232	100.5
244.465	82.5
244.699	83.5
244.932	91.5
245.166	87.5
245.399	87.5
245.633	85.5
245.866	89.5
246.099	94.5
246.333	77.5
246.566	78.5
246.8	77.5
247.033	87.5
247.266	78.5
247.5	79.5
247.733	77.5
247.966	87.5
248.2	96.5
248.433	90.5
248.666	88.5
248.899	92.5
249.133	82.5
249.366	82.5
249.599	85.5
249.832	76.5
250.066	102.5
250.299	69.5
250.532	92.5
250.765	90.5
250.998	71.5
251.231	90.5
251.465	88.5
251.698	65.5
251.931	86.5
252.164	93.5
252.397	98.5
252.63	90.5
252.863	95.5
253.096	77.5
253.329	75.5
253.562	91.5
253.795	95.5
254.028	98.5
254.261	93.5
254.494	82.5
254.727	91.5
254.96	88.5
255.193	88.5
255.426	91.5
255.659	101.5
255.892	98.5
256.124	82.5
256.357	85.5
256.59	93.5
256.823	101.5
257.056	100.5
257.289	71.5
257.521	102.5
257.754	97.5
257.987	86.5
258.22	102.5
258.452	102.5
258.685	86.5
258.918	93.5
259.151	83.5
259.383	90.5
259.616	94.5
259.849	74.5
260.081	83.5
260.314	93.5
260.547	108.5
260.779	92.5
261.012	84.5
261.244	102.5
261.477	84.5
261.71	91.5
261.942	96.5
262.175	85.5
262.407	83.5
262.64	87.5
262.872	86.5
263.105	91.5
263.337	93.5
263.57	86.5
263.802	92.5
264.035	90.5
264.267	89.5
264.499	91.5
264.732	99.5
264.964	95.5
265.197	95.5
265.429	102.5
265.661	86.5
265.894	106.5
266.126	92.5
266.358	93.5
266.591	93.5
266.823	91.5
267.055	85.5
267.287	91.5
267.52	109.5
267.752	107.5
267.984	95.5
268.216	99.5
268.448	97.5
268.681	102.5
268.913	90.5
269.145	94.5
269.377	107.5
269.609	84.5
269.841	88.5
270.073	83.5
270.306	93.5
270.538	91.5
270.77	106.5
271.002	94.5
271.234	92.5
271.466	95.5
271.698	92.5
271.93	90.5
272.162	109.5
272.394	113.5
272.626	95.5
272.858	95.5
273.09	99.5
273.322	93.5
273.553	84.5
273.785	86.5
274.017	101.5
274.249	92.5
274.481	78.5
274.713	87.5
274.945	100.5
275.176	99.5
275.408	103.5
275.64	91.5
275.872	98.5
276.104	81.5
276.335	95.5
276.567	103.5
276.799	101.5
277.031	92.5
277.262	113.5
277.494	102.5
277.726	73.5
277.957	84.5
278.189	109.5
278.421	95.5
278.652	101.5
278.884	102.5
279.115	112.5
279.347	93.5
279.579	110.5
279.81	101.5
280.042	110.5
280.273	98.5
280.505	100.5
280.736	98.5
280.968	89.5
281.199	95.5
281.431	89.5
281.662	100.5
281.894	80.5
282.125	96.5
282.356	94.5
282.588	93.5
282.819	82.5
283.051	115.5
283.282	88.5
283.513	90.5
283.745	101.5
283.976	74.5
284.207	106.5
284.439	105.5
284.67	92.5
284.901	107.5
285.132	108.5
285.364	109.5
285.595	101.5
285.826	93.5
286.057	106.5
286.288	98.5
286.52	113.5
286.751	88.5
286.982	107.5
287.213	92.5
287.444	118.5
287.675	89.5
287.906	116.5
288.138	99.5
288.369	114.5
288.6	98.5
288.831	104.5
289.062	119.5
289.293	92.5
289.524	92.5
289.755	98.5
289.986	106.5
290.217	100.5
290.448	96.5
290.679	100.5
290.91	104.5
291.141	89.5
291.371	123.5
291.602	100.5
291.833	105.5
292.064	115.5
292.295	102.5
292.526	106.5
292.757	117.5
292.987	111.5
293.218	102.5
293.449	103.5
293.68	115.5
293.91	101.5
294.141	109.5
294.372	100.5
294.603	100.5
294.833	99.5
295.064	101.5
295.295	106.5
295.525	90.5
295.756	108.5
295.987	108.5
296.217	91.5
296.448	102.5
296.679	105.5
296.909	100.5
297.14	98.5
297.37	103.5
297.601	109.5
297.831	115.5
298.062	105.5
298.292	118.5
298.523	113.5
298.753	97.5
298.984	104.5
299.214	111.5
299.445	99.5
299.675	107.5
299.905	125.5
300.136	91.5
300.366	121.5
300.597	98.5
300.827	112.5
301.057	104.5
301.288	99.5
301.518	101.5
301.748	92.5
301.979	151.5
302.209	119.5
302.439	110.5
302.669	112.5
302.9	95.5
303.13	114.5
303.36	105.5
303.59	112.5
303.82	111.5
304.051	94.5
304.281	102.5
304.511	119.5
304.741	110.5
304.971	112.5
305.201	109.5
305.431	104.5
305.661	89.5
305.891	108.5
306.121	111.5
306.352	107.5
306.582	104.5
306.812	104.5
307.042	108.5
307.272	107.5
307.502	92.5
307.731	107.5
307.961	107.5
308.191	105.5
308.421	115.5
308.651	108.5
308.881	111.5
309.111	108.5
309.341	97.5
309.571	102.5
309.8	104.5
310.03	110.5
310.26	121.5
310.49	111.5
310.72	106.5
310.949	103.5
311.179	113.5
311.409	95.5
311.639	99.5
311.868	119.5
312.098	105.5
312.328	122.5
312.557	84.5
312.787	112.5
313.017	120.5
313.246	114.5
313.476	96.5
313.706	110.5
313.935	110.5
314.165	98.5
314.394	98.5
314.624	100.5
314.853	108.5
315.083	127.5
315.312	119.5
315.542	109.5
315.771	111.5
316.001	114.5
316.23	115.5
316.46	111.5
316.689	106.5
316.919	106.5
317.148	101.5
317.377	115.5
317.607	115.5
317.836	94.5
318.065	102.5
318.295	96.5
318.524	96.5
318.753	108.5
318.983	102.5
319.212	118.5
319.441	99.5
319.67	99.5
319.9	108.5
320.129	114.5
320.358	98.5
320.587	104.5
320.816	116.5
321.046	105.5
321.275	115.5
321.504	100.5
321.733	107.5
321.962	111.5
322.191	104.5
322.42	114.5
322.649	113.5
322.878	113.5
323.108	118.5
323.337	113.5
323.566	97.5
323.795	108.5
324.024	108.5
324.253	107.5
324.482	109.5
324.71	117.5
324.939	115.5
325.168	114.5
325.397	107.5
325.626	118.5
325.855	114.5
326.084	105.5
326.313	116.5
326.542	115.5
326.77	106.5
326.999	96.5
327.228	120.5
327.457	110.5
327.686	104.5
327.914	110.5
328.143	118.5
328.372	113.5
328.6	112.5
328.829	103.5
329.058	114.5
329.287	116.5
329.515	103.5
329.744	108.5
329.972	114.5
330.201	112.5
330.43	104.5
330.658	110.5
330.887	101.5
331.115	115.5
331.344	104.5
331.572	128.5
331.801	118.5
332.03	117.5
332.258	112.5
332.486	108.5
332.715	114.5
332.943	125.5
333.172	123.5
333.4	118.5
333.629	121.5
333.857	109.5
334.085	126.5
334.314	118.5
334.542	113.5
334.771	128.5
334.999	109.5
335.227	120.5
335.455	112.5
335.684	121.5
335.912	124.5
336.14	116.5
336.369	107.5
336.597	114.5
336.825	110.5
337.053	105.5
337.281	120.5
337.51	115.5
337.738	120.5
337.966	117.5
338.194	121.5
338.422	126.5
338.65	121.5
338.878	102.5
339.106	105.5
339.334	120.5
339.562	131.5
339.79	111.5
340.018	124.5
340.246	108.5
340.474	109.5
340.702	123.5
340.93	101.5
341.158	110.5
341.386	126.5
341.614	112.5
341.842	106.5
342.07	115.5
342.298	121.5
342.526	114.5
342.754	116.5
342.981	110.5
343.209	120.5
343.437	146.5
343.665	123.5
343.893	118.5
344.12	125.5
344.348	123.5
344.576	116.5
344.804	117.5
345.031	110.5
345.259	115.5
345.487	114.5
345.714	116.5
345.942	110.5
346.17	115.5
346.397	110.5
346.625	110.5
346.853	112.5
347.08	90.5
347.308	118.5
347.535	124.5
347.763	118.5
347.99	112.5
348.218	109.5
348.445	107.5
348.673	112.5
348.9	117.5
349.128	112.5
349.355	111.5
349.583	113.5
349.81	104.5
350.037	109.5
350.265	117.5
350.492	116.5
350.72	110.5
350.947	106.5
351.174	106.5
351.402	102.5
351.629	107.5
351.856	112.5
352.083	116.5
352.311	112.5
352.538	106.5
352.765	119.5
352.992	130.5
353.22	115.5
353.447	109.5
353.674	116.5
353.901	117.5
354.128	125.5
354.355	103.5
354.583	106.5
354.81	103.5
355.037	112.5
355.264	110.5
355.491	107.5
355.718	106.5
355.945	99.5
356.172	120.5
356.399	117.5
356.626	89.5
356.853	117.5
357.08	98.5
357.307	93.5
357.534	112.5
357.761	106.5
357.988	113.5
358.215	110.5
358.441	110.5
358.668	108.5
358.895	111.5
359.122	102.5
359.349	111.5
359.576	111.5
359.802	103.5
360.029	129.5
360.256	108.5
360.483	126.5
360.709	117.5
360.936	117.5
361.163	96.5
361.39	113.5
361.616	104.5
361.843	117.5
362.07	124.5
362.296	115.5
362.523	113.5
362.749	115.5
362.976	97.5
363.203	122.5
363.429	110.5
363.656	104.5
363.882	115.5
364.109	110.5
364.335	124.5
364.562	112.5
364.788	106.5
365.015	123.5
365.241	108.5
365.468	116.5
365.694	108.5
365.92	99.5
366.147	118.5
366.373	102.5
366.599	108.5
366.826	114.5
367.052	122.5
367.278	103.5
367.505	119.5
367.731	133.5
367.957	109.5
368.184	99.5
368.41	119.5
368.636	119.5
368.862	119.5
369.089	116.5
369.315	99.5
369.541	116.5
369.767	115.5
369.993	103.5
370.219	114.5
370.445	111.5
370.672	108.5
370.898	108.5
371.124	108.5
371.35	100.5
371.576	111.5
371.802	99.5
372.028	115.5
372.254	132.5
372.48	114.5
372.706	121.5
372.932	118.5
373.158	108.5
373.384	124.5
373.61	118.5
373.835	118.5
374.061	110.5
374.287	110.5
374.513	115.5
374.739	116.5
374.965	103.5
375.191	110.5
375.416	109.5
375.642	143.5
375.868	138.5
376.094	121.5
376.319	124.5
376.545	113.5
376.771	122.5
376.997	120.5
377.222	113.5
377.448	107.5
377.674	109.5
377.899	121.5
378.125	95.5
378.35	118.5
378.576	101.5
378.802	104.5
379.027	121.5
379.253	107.5
379.478	107.5
379.704	116.5
379.929	124.5
380.155	112.5
380.38	107.5
380.606	126.5
380.831	117.5
381.057	132.5
381.282	103.5
381.507	115.5
381.733	111.5
381.958	115.5
382.184	116.5
382.409	98.5
382.634	121.5
382.86	126.5
383.085	122.5
383.31	114.5
383.535	117.5
383.761	119.5
383.986	107.5
384.211	125.5
384.436	119.5
384.662	111.5
384.887	122.5
385.112	122.5
385.337	122.5
385.562	106.5
385.787	116.5
386.013	121.5
386.238	126.5
386.463	128.5
386.688	149.5
386.913	135.5
387.138	101.5
387.363	114.5
387.588	135.5
387.813	126.5
388.038	129.5
388.263	117.5
388.488	109.5
388.713	124.5
388.938	118.5
389.163	121.5
389.387	112.5
389.612	103.5
389.837	122.5
390.062	128.5
390.287	116.5
390.512	122.5
390.736	117.5
390.961	126.5
391.186	128.5
391.411	140.5
391.636	121.5
391.86	122.5
392.085	119.5
392.31	127.5
392.534	129.5
392.759	126.5
392.984	123.5
393.208	114.5
393.433	114.5
393.658	129.5
393.882	124.5
394.107	139.5
394.331	119.5
394.556	141.5
394.78	119.5
395.005	113.5
395.229	136.5
395.454	131.5
395.678	123.5
395.903	125.5
396.127	134.5
396.352	129.5
396.576	123.5
396.801	128.5
397.025	122.5
397.249	132.5
397.474	140.5
397.698	120.5
397.922	120.5
398.147	117.5
398.371	127.5
398.595	129.5
398.82	128.5
399.044	130.5
399.268	146.5
399.492	159.5
399.717	157.5
399.941	151.5
400.165	150.5
400.389	138.5
400.613	135.5
400.837	144.5
401.062	136.5
401.286	139.5
401.51	143.5
401.734	139.5
401.958	115.5
402.182	144.5
402.406	138.5
402.63	128.5
402.854	122.5
403.078	138.5
403.302	142.5
403.526	131.5
403.75	148.5
403.974	152.5
404.198	148.5
404.422	152.5
404.645	152.5
404.869	126.5
405.093	143.5
405.317	128.5
405.541	139.5
405.765	141.5
405.988	133.5
406.212	136.5
406.436	131.5
406.66	156.5
406.883	146.5
407.107	133.5
407.331	134.5
407.555	136.5
407.778	158.5
408.002	136.5
408.226	144.5
408.449	125.5
408.673	139.5
408.896	131.5
409.12	146.5
409.344	140.5
409.567	146.5
409.791	158.5
410.014	152.5
410.238	138.5
410.461	132.5
410.685	147.5
410.908	131.5
411.132	118.5
411.355	122.5
411.578	139.5
411.802	118.5
412.025	146.5
412.249	152.5
412.472	137.5
412.695	129.5
412.919	137.5
413.142	133.5
413.365	125.5
413.589	149.5
413.812	132.5
414.035	152.5
414.258	149.5
414.482	137.5
414.705	132.5
414.928	134.5
415.151	137.5
415.374	127.5
415.597	126.5
415.821	123.5
416.044	132.5
416.267	138.5
416.49	127.5
416.713	129.5
416.936	144.5
417.159	127.5
417.382	133.5
417.605	116.5
417.828	125.5
418.051	116.5
418.274	138.5
418.497	126.5
418.72	129.5
418.943	132.5
419.166	135.5
419.389	135.5
419.611	123.5
419.834	128.5
420.057	127.5
420.28	139.5
420.503	139.5
420.726	132.5
420.948	146.5
421.171	123.5
421.394	125.5
421.617	112.5
421.839	141.5
422.062	134.5
422.285	130.5
422.507	146.5
422.73	129.5
422.953	131.5
423.175	125.5
423.398	143.5
423.621	123.5
423.843	126.5
424.066	128.5
424.288	138.5
424.511	128.5
424.733	141.5
424.956	139.5
425.178	116.5
425.401	120.5
425.623	144.5
425.846	128.5
426.068	146.5
426.291	141.5
426.513	133.5
426.735	132.5
426.958	122.5
427.18	123.5
427.402	136.5
427.625	131.5
427.847	118.5
428.069	121.5
428.292	131.5
428.514	127.5
428.736	128.5
428.958	123.5
429.181	119.5
429.403	122.5
429.625	117.5
429.847	135.5
430.069	123.5
430.292	123.5
430.514	116.5
430.736	126.5
430.958	128.5
431.18	121.5
431.402	133.5
431.624	134.5
431.846	108.5
432.068	136.5
432.29	132.5
432.512	135.5
432.734	122.5
432.956	124.5
433.178	139.5
433.4	123.5
433.622	126.5
433.844	136.5
434.066	139.5
434.287	123.5
434.509	130.5
434.731	128.5
434.953	141.5
435.175	121.5
435.397	138.5
435.618	125.5
435.84	136.5
436.062	129.5
436.284	133.5
436.505	120.5
436.727	127.5
436.949	128.5
437.17	111.5
437.392	122.5
437.614	125.5
437.835	126.5
438.057	122.5
438.278	130.5
438.5	118.5
438.721	120.5
438.943	129.5
439.165	116.5
439.386	115.5
439.608	140.5
439.829	125.5
440.05	131.5
440.272	130.5
440.493	120.5
440.715	118.5
440.936	120.5
441.158	124.5
441.379	126.5
441.6	142.5
441.822	143.5
442.043	126.5
442.264	127.5
442.486	141.5
442.707	126.5
442.928	125.5
443.149	134.5
443.371	142.5
443.592	139.5
443.813	135.5
444.034	136.5
444.255	154.5
444.476	129.5
444.698	136.5
444.919	136.5
445.14	407.5
445.361	265.5
445.582	156.5
445.803	130.5
446.024	150.5
446.245	126.5
446.466	129.5
446.687	143.5
446.908	139.5
447.129	126.5
447.35	120.5
447.571	130.5
447.792	116.5
448.013	122.5
448.234	106.5
448.455	118.5
448.675	110.5
448.896	116.5
449.117	134.5
449.338	125.5
449.559	135.5
449.779	127.5
450	109.5
450.221	113.5
450.442	112.5
450.662	123.5
450.883	111.5
451.104	130.5
451.324	118.5
451.545	108.5
451.766	113.5
451.986	121.5
452.207	129.5
452.428	122.5
452.648	125.5
452.869	118.5
453.089	118.5
453.31	120.5
453.53	118.5
453.751	124.5
453.971	112.5
454.192	119.5
454.412	116.5
454.633	118.5
454.853	117.5
455.073	107.5
455.294	131.5
455.514	128.5
455.734	107.5
455.955	117.5
456.175	118.5
456.395	108.5
456.616	118.5
456.836	101.5
457.056	114.5
457.276	111.5
457.497	105.5
457.717	123.5
457.937	120.5
458.157	124.5
458.377	118.5
458.598	98.5
458.818	126.5
459.038	118.5
459.258	129.5
459.478	118.5
459.698	136.5
459.918	126.5
460.138	129.5
460.358	142.5
460.578	143.5
460.798	137.5
461.018	144.5
461.238	135.5
461.458	131.5
461.678	149.5
461.898	122.5
462.118	148.5
462.338	130.5
462.558	150.5
462.777	140.5
462.997	149.5
463.217	137.5
463.437	154.5
463.657	134.5
463.876	162.5
464.096	139.5
464.316	144.5
464.536	145.5
464.755	141.5
464.975	122.5
465.195	147.5
465.414	138.5
465.634	117.5
465.854	128.5
466.073	111.5
466.293	123.5
466.512	122.5
466.732	112.5
466.951	126.5
467.171	134.5
467.391	117.5
467.61	128.5
467.829	118.5
468.049	120.5
468.268	109.5
468.488	116.5
468.707	116.5
468.927	120.5
469.146	100.5
469.365	120.5
469.585	131.5
469.804	127.5
470.023	133.5
470.243	135.5
470.462	132.5
470.681	118.5
470.901	127.5
471.12	127.5
471.339	122.5
471.558	135.5
471.777	143.5
471.997	123.5
472.216	124.5
472.435	127.5
472.654	118.5
472.873	125.5
473.092	116.5
473.311	131.5
473.53	124.5
473.749	114.5
473.968	138.5
474.187	114.5
474.406	127.5
474.625	114.5
474.844	127.5
475.063	120.5
475.282	114.5
475.501	124.5
475.72	141.5
475.939	112.5
476.158	120.5
476.377	135.5
476.596	113.5
476.814	132.5
477.033	124.5
477.252	129.5
477.471	137.5
477.69	131.5
477.908	121.5
478.127	125.5
478.346	126.5
478.564	132.5
478.783	133.5
479.002	123.5
479.22	142.5
479.439	123.5
479.658	121.5
479.876	132.5
480.095	138.5
480.313	142.5
480.532	132.5
480.751	153.5
480.969	134.5
481.188	131.5
481.406	132.5
481.624	122.5
481.843	118.5
482.061	120.5
482.28	118.5
482.498	139.5
482.717	142.5
482.935	129.5
483.153	129.5
483.372	131.5
483.59	138.5
483.808	133.5
484.027	142.5
484.245	141.5
484.463	129.5
484.681	144.5
484.9	123.5
485.118	134.5
485.336	131.5
485.554	136.5
485.772	135.5
485.99	131.5
486.209	118.5
486.427	118.5
486.645	133.5
486.863	120.5
487.081	118.5
487.299	135.5
487.517	132.5
487.735	119.5
487.953	127.5
488.171	140.5
488.389	129.5
488.607	123.5
488.825	121.5
489.043	117.5
489.261	137.5
489.479	120.5
489.696	130.5
489.914	121.5
490.132	132.5
490.35	126.5
490.568	132.5
490.786	136.5
491.003	127.5
491.221	133.5
491.439	120.5
491.657	126.5
491.874	141.5
492.092	126.5
492.31	132.5
492.527	128.5
492.745	133.5
492.963	156.5
493.18	125.5
493.398	126.5
493.615	133.5
493.833	139.5
494.05	125.5
494.268	149.5
494.485	134.5
494.703	144.5
494.92	146.5
495.138	134.5
495.355	137.5
495.573	148.5
495.79	125.5
496.008	153.5
496.225	144.5
496.442	128.5
496.66	145.5
496.877	141.5
497.094	130.5
497.312	136.5
497.529	142.5
497.746	162.5
497.963	137.5
498.181	142.5
498.398	137.5
498.615	160.5
498.832	156.5
499.049	162.5
499.267	191.5
499.484	169.5
499.701	200.5
499.918	228.5
500.135	233.5
500.352	239.5
500.569	251.5
500.786	264.5
501.003	238.5
501.22	199.5
501.437	203.5
501.654	181.5
501.871	177.5
502.088	182.5
502.305	172.5
502.522	172.5
502.739	146.5
502.956	159.5
503.172	157.5
503.389	135.5
503.606	142.5
503.823	137.5
504.04	158.5
504.256	143.5
504.473	146.5
504.69	154.5
504.907	155.5
505.123	139.5
505.34	149.5
505.557	133.5
505.773	137.5
505.99	119.5
506.207	126.5
506.423	123.5
506.64	132.5
506.856	131.5
507.073	120.5
507.289	135.5
507.506	136.5
507.722	134.5
507.939	143.5
508.155	123.5
508.372	130.5
508.588	119.5
508.805	121.5
509.021	116.5
509.238	146.5
509.454	131.5
509.67	119.5
509.887	136.5
510.103	115.5
510.319	126.5
510.536	122.5
510.752	118.5
510.968	123.5
511.184	115.5
511.401	118.5
511.617	126.5
511.833	124.5
512.049	125.5
512.265	131.5
512.481	123.5
512.698	127.5
512.914	122.5
513.13	138.5
513.346	121.5
513.562	116.5
513.778	131.5
513.994	128.5
514.21	129.5
514.426	115.5
514.642	116.5
514.858	126.5
515.074	130.5
515.29	128.5
515.506	124.5
515.721	125.5
515.937	147.5
516.153	126.5
516.369	131.5
516.585	139.5
516.801	131.5
517.016	151.5
517.232	143.5
517.448	150.5
517.664	132.5
517.879	143.5
518.095	138.5
518.311	150.5
518.527	124.5
518.742	130.5
518.958	143.5
519.173	127.5
519.389	131.5
519.605	136.5
519.82	117.5
520.036	141.5
520.251	121.5
520.467	119.5
520.682	118.5
520.898	117.5
521.113	123.5
521.329	118.5
521.544	119.5
521.76	131.5
521.975	135.5
522.19	119.5
522.406	111.5
522.621	118.5
522.836	121.5
523.052	134.5
523.267	118.5
523.482	110.5
523.698	118.5
523.913	119.5
524.128	114.5
524.343	108.5
