Data from SampG_HRD10591_00037.txt Node
Date: Mon Jan 19 11:53:56 EST 2026
User: Yrep
Spectrometer: HR+D1059
Trigger mode: 0
Integration Time (sec): 3.443000E-1
Scans to average: 1
Electric dark correction enabled: true
Nonlinearity correction enabled: false
Boxcar width: 0
XAxis mode: Wavelengths
Number of Pixels in Spectrum: 2048
>>>>>Begin Spectral Data<<<<<
223.165	-26.19
223.4	-26.19
223.635	-26.19
223.869	-26.19
224.104	-15.19
224.338	5.81
224.573	-11.19
224.808	-14.19
225.042	5.81
225.277	-5.19
225.511	-2.19
225.746	8.81
225.98	1.81
226.215	20.81
226.449	20.81
226.683	-5.19
226.918	16.81
227.152	24.81
227.387	46.81
227.621	36.81
227.856	36.81
228.09	36.81
228.324	46.81
228.559	58.81
228.793	72.81
229.027	77.81
229.262	71.81
229.496	64.81
229.73	65.81
229.964	78.81
230.199	71.81
230.433	89.81
230.667	83.81
230.901	81.81
231.136	87.81
231.37	89.81
231.604	81.81
231.838	77.81
232.072	71.81
232.306	82.81
232.541	78.81
232.775	84.81
233.009	91.81
233.243	90.81
233.477	100.81
233.711	90.81
233.945	83.81
234.179	80.81
234.413	76.81
234.647	84.81
234.881	76.81
235.115	83.81
235.349	76.81
235.583	83.81
235.817	88.81
236.051	86.81
236.285	88.81
236.519	66.81
236.753	87.81
236.987	87.81
237.221	80.81
237.455	85.81
237.689	73.81
237.922	73.81
238.156	68.81
238.39	88.81
238.624	77.81
238.858	87.81
239.091	85.81
239.325	69.81
239.559	90.81
239.793	85.81
240.027	86.81
240.26	88.81
240.494	84.81
240.728	85.81
240.961	100.81
241.195	86.81
241.429	92.81
241.662	74.81
241.896	77.81
242.13	81.81
242.363	73.81
242.597	86.81
242.83	91.81
243.064	87.81
243.298	78.81
243.531	77.81
243.765	92.81
243.998	91.81
244.232	77.81
244.465	71.81
244.699	99.81
244.932	100.81
245.166	87.81
245.399	86.81
245.633	82.81
245.866	87.81
246.099	82.81
246.333	78.81
246.566	84.81
246.8	81.81
247.033	80.81
247.266	90.81
247.5	90.81
247.733	95.81
247.966	95.81
248.2	94.81
248.433	82.81
248.666	76.81
248.899	80.81
249.133	101.81
249.366	109.81
249.599	101.81
249.832	82.81
250.066	103.81
250.299	91.81
250.532	89.81
250.765	103.81
250.998	88.81
251.231	90.81
251.465	97.81
251.698	102.81
251.931	90.81
252.164	85.81
252.397	85.81
252.63	90.81
252.863	84.81
253.096	88.81
253.329	85.81
253.562	82.81
253.795	102.81
254.028	99.81
254.261	95.81
254.494	93.81
254.727	115.81
254.96	93.81
255.193	93.81
255.426	106.81
255.659	100.81
255.892	110.81
256.124	107.81
256.357	77.81
256.59	92.81
256.823	86.81
257.056	86.81
257.289	101.81
257.521	106.81
257.754	96.81
257.987	88.81
258.22	89.81
258.452	82.81
258.685	100.81
258.918	105.81
259.151	96.81
259.383	110.81
259.616	93.81
259.849	94.81
260.081	86.81
260.314	89.81
260.547	96.81
260.779	102.81
261.012	93.81
261.244	83.81
261.477	107.81
261.71	87.81
261.942	98.81
262.175	95.81
262.407	99.81
262.64	86.81
262.872	99.81
263.105	103.81
263.337	96.81
263.57	101.81
263.802	105.81
264.035	95.81
264.267	108.81
264.499	82.81
264.732	104.81
264.964	124.81
265.197	99.81
265.429	102.81
265.661	94.81
265.894	100.81
266.126	105.81
266.358	109.81
266.591	111.81
266.823	113.81
267.055	109.81
267.287	109.81
267.52	101.81
267.752	94.81
267.984	102.81
268.216	90.81
268.448	107.81
268.681	105.81
268.913	108.81
269.145	109.81
269.377	105.81
269.609	96.81
269.841	114.81
270.073	96.81
270.306	101.81
270.538	103.81
270.77	96.81
271.002	100.81
271.234	100.81
271.466	113.81
271.698	93.81
271.93	102.81
272.162	117.81
272.394	108.81
272.626	97.81
272.858	110.81
273.09	106.81
273.322	109.81
273.553	111.81
273.785	116.81
274.017	106.81
274.249	117.81
274.481	106.81
274.713	103.81
274.945	109.81
275.176	115.81
275.408	103.81
275.64	112.81
275.872	102.81
276.104	111.81
276.335	109.81
276.567	94.81
276.799	106.81
277.031	117.81
277.262	109.81
277.494	114.81
277.726	100.81
277.957	99.81
278.189	122.81
278.421	109.81
278.652	104.81
278.884	100.81
279.115	100.81
279.347	122.81
279.579	104.81
279.81	122.81
280.042	108.81
280.273	106.81
280.505	109.81
280.736	91.81
280.968	115.81
281.199	104.81
281.431	121.81
281.662	121.81
281.894	121.81
282.125	121.81
282.356	102.81
282.588	94.81
282.819	102.81
283.051	115.81
283.282	110.81
283.513	122.81
283.745	132.81
283.976	114.81
284.207	118.81
284.439	110.81
284.67	120.81
284.901	100.81
285.132	116.81
285.364	120.81
285.595	113.81
285.826	116.81
286.057	104.81
286.288	117.81
286.52	113.81
286.751	103.81
286.982	111.81
287.213	110.81
287.444	121.81
287.675	101.81
287.906	126.81
288.138	115.81
288.369	133.81
288.6	115.81
288.831	113.81
289.062	128.81
289.293	122.81
289.524	111.81
289.755	118.81
289.986	101.81
290.217	124.81
290.448	116.81
290.679	122.81
290.91	131.81
291.141	114.81
291.371	126.81
291.602	109.81
291.833	116.81
292.064	126.81
292.295	136.81
292.526	98.81
292.757	125.81
292.987	122.81
293.218	111.81
293.449	100.81
293.68	116.81
293.91	95.81
294.141	133.81
294.372	116.81
294.603	103.81
294.833	125.81
295.064	103.81
295.295	115.81
295.525	128.81
295.756	118.81
295.987	111.81
296.217	117.81
296.448	98.81
296.679	116.81
296.909	109.81
297.14	124.81
297.37	115.81
297.601	118.81
297.831	127.81
298.062	121.81
298.292	139.81
298.523	134.81
298.753	134.81
298.984	123.81
299.214	130.81
299.445	123.81
299.675	130.81
299.905	112.81
300.136	114.81
300.366	125.81
300.597	122.81
300.827	122.81
301.057	122.81
301.288	150.81
301.518	142.81
301.748	120.81
301.979	154.81
302.209	125.81
302.439	116.81
302.669	117.81
302.9	123.81
303.13	130.81
303.36	132.81
303.59	141.81
303.82	122.81
304.051	120.81
304.281	143.81
304.511	135.81
304.741	114.81
304.971	125.81
305.201	130.81
305.431	113.81
305.661	130.81
305.891	116.81
306.121	118.81
306.352	121.81
306.582	113.81
306.812	126.81
307.042	115.81
307.272	120.81
307.502	106.81
307.731	130.81
307.961	150.81
308.191	120.81
308.421	132.81
308.651	122.81
308.881	125.81
309.111	120.81
309.341	130.81
309.571	112.81
309.8	121.81
310.03	134.81
310.26	118.81
310.49	117.81
310.72	109.81
310.949	131.81
311.179	117.81
311.409	123.81
311.639	142.81
311.868	131.81
312.098	121.81
312.328	121.81
312.557	145.81
312.787	122.81
313.017	133.81
313.246	121.81
313.476	141.81
313.706	131.81
313.935	130.81
314.165	133.81
314.394	131.81
314.624	110.81
314.853	136.81
315.083	136.81
315.312	140.81
315.542	128.81
315.771	125.81
316.001	124.81
316.23	138.81
316.46	125.81
316.689	113.81
316.919	135.81
317.148	128.81
317.377	143.81
317.607	140.81
317.836	115.81
318.065	127.81
318.295	121.81
318.524	123.81
318.753	117.81
318.983	136.81
319.212	112.81
319.441	122.81
319.67	124.81
319.9	124.81
320.129	135.81
320.358	141.81
320.587	127.81
320.816	119.81
321.046	128.81
321.275	129.81
321.504	124.81
321.733	127.81
321.962	131.81
322.191	133.81
322.42	124.81
322.649	128.81
322.878	137.81
323.108	133.81
323.337	132.81
323.566	120.81
323.795	135.81
324.024	136.81
324.253	126.81
324.482	134.81
324.71	144.81
324.939	137.81
325.168	123.81
325.397	114.81
325.626	123.81
325.855	132.81
326.084	130.81
326.313	121.81
326.542	123.81
326.77	128.81
326.999	124.81
327.228	132.81
327.457	124.81
327.686	140.81
327.914	136.81
328.143	134.81
328.372	124.81
328.6	124.81
328.829	128.81
329.058	135.81
329.287	124.81
329.515	129.81
329.744	130.81
329.972	135.81
330.201	138.81
330.43	130.81
330.658	119.81
330.887	126.81
331.115	127.81
331.344	129.81
331.572	135.81
331.801	143.81
332.03	144.81
332.258	140.81
332.486	145.81
332.715	158.81
332.943	150.81
333.172	162.81
333.4	143.81
333.629	158.81
333.857	153.81
334.085	149.81
334.314	152.81
334.542	150.81
334.771	134.81
334.999	133.81
335.227	164.81
335.455	151.81
335.684	167.81
335.912	152.81
336.14	144.81
336.369	138.81
336.597	152.81
336.825	149.81
337.053	139.81
337.281	155.81
337.51	136.81
337.738	120.81
337.966	134.81
338.194	137.81
338.422	137.81
338.65	137.81
338.878	131.81
339.106	145.81
339.334	150.81
339.562	134.81
339.79	135.81
340.018	122.81
340.246	133.81
340.474	149.81
340.702	126.81
340.93	128.81
341.158	135.81
341.386	156.81
341.614	151.81
341.842	136.81
342.07	149.81
342.298	129.81
342.526	132.81
342.754	125.81
342.981	123.81
343.209	127.81
343.437	166.81
343.665	156.81
343.893	147.81
344.12	156.81
344.348	145.81
344.576	130.81
344.804	129.81
345.031	134.81
345.259	133.81
345.487	140.81
345.714	137.81
345.942	118.81
346.17	127.81
346.397	136.81
346.625	129.81
346.853	134.81
347.08	128.81
347.308	141.81
347.535	141.81
347.763	146.81
347.99	136.81
348.218	151.81
348.445	131.81
348.673	130.81
348.9	134.81
349.128	136.81
349.355	145.81
349.583	133.81
349.81	135.81
350.037	138.81
350.265	138.81
350.492	129.81
350.72	133.81
350.947	125.81
351.174	133.81
351.402	128.81
351.629	138.81
351.856	144.81
352.083	139.81
352.311	118.81
352.538	118.81
352.765	136.81
352.992	150.81
353.22	138.81
353.447	130.81
353.674	145.81
353.901	141.81
354.128	148.81
354.355	119.81
354.583	128.81
354.81	130.81
355.037	138.81
355.264	130.81
355.491	133.81
355.718	140.81
355.945	140.81
356.172	127.81
356.399	130.81
356.626	140.81
356.853	119.81
357.08	136.81
357.307	141.81
357.534	139.81
357.761	149.81
357.988	135.81
358.215	132.81
358.441	118.81
358.668	144.81
358.895	135.81
359.122	138.81
359.349	127.81
359.576	135.81
359.802	125.81
360.029	130.81
360.256	139.81
360.483	130.81
360.709	134.81
360.936	157.81
361.163	149.81
361.39	126.81
361.616	140.81
361.843	140.81
362.07	144.81
362.296	144.81
362.523	136.81
362.749	132.81
362.976	130.81
363.203	134.81
363.429	111.81
363.656	145.81
363.882	132.81
364.109	140.81
364.335	146.81
364.562	128.81
364.788	139.81
365.015	147.81
365.241	140.81
365.468	141.81
365.694	148.81
365.92	130.81
366.147	138.81
366.373	140.81
366.599	130.81
366.826	123.81
367.052	131.81
367.278	145.81
367.505	134.81
367.731	154.81
367.957	146.81
368.184	135.81
368.41	137.81
368.636	133.81
368.862	126.81
369.089	141.81
369.315	129.81
369.541	145.81
369.767	123.81
369.993	137.81
370.219	138.81
370.445	131.81
370.672	123.81
370.898	137.81
371.124	146.81
371.35	123.81
371.576	138.81
371.802	130.81
372.028	122.81
372.254	150.81
372.48	143.81
372.706	124.81
372.932	127.81
373.158	139.81
373.384	138.81
373.61	140.81
373.835	153.81
374.061	158.81
374.287	142.81
374.513	142.81
374.739	146.81
374.965	149.81
375.191	145.81
375.416	147.81
375.642	159.81
375.868	157.81
376.094	144.81
376.319	150.81
376.545	132.81
376.771	135.81
376.997	150.81
377.222	136.81
377.448	150.81
377.674	125.81
377.899	127.81
378.125	122.81
378.35	149.81
378.576	138.81
378.802	129.81
379.027	132.81
379.253	145.81
379.478	130.81
379.704	144.81
379.929	146.81
380.155	123.81
380.38	150.81
380.606	141.81
380.831	141.81
381.057	144.81
381.282	144.81
381.507	142.81
381.733	145.81
381.958	147.81
382.184	136.81
382.409	137.81
382.634	138.81
382.86	163.81
383.085	137.81
383.31	138.81
383.535	150.81
383.761	150.81
383.986	156.81
384.211	150.81
384.436	148.81
384.662	140.81
384.887	154.81
385.112	143.81
385.337	157.81
385.562	150.81
385.787	158.81
386.013	157.81
386.238	152.81
386.463	137.81
386.688	184.81
386.913	150.81
387.138	150.81
387.363	155.81
387.588	155.81
387.813	161.81
388.038	160.81
388.263	164.81
388.488	148.81
388.713	165.81
388.938	171.81
389.163	151.81
389.387	145.81
389.612	168.81
389.837	146.81
390.062	168.81
390.287	138.81
390.512	150.81
390.736	153.81
390.961	153.81
391.186	160.81
391.411	145.81
391.636	181.81
391.86	154.81
392.085	177.81
392.31	174.81
392.534	168.81
392.759	152.81
392.984	168.81
393.208	168.81
393.433	157.81
393.658	164.81
393.882	167.81
394.107	187.81
394.331	170.81
394.556	142.81
394.78	149.81
395.005	176.81
395.229	156.81
395.454	171.81
395.678	172.81
395.903	155.81
396.127	155.81
396.352	149.81
396.576	165.81
396.801	148.81
397.025	150.81
397.249	172.81
397.474	185.81
397.698	161.81
397.922	155.81
398.147	155.81
398.371	161.81
398.595	198.81
398.82	180.81
399.044	185.81
399.268	199.81
399.492	221.81
399.717	247.81
399.941	228.81
400.165	205.81
400.389	185.81
400.613	182.81
400.837	174.81
401.062	187.81
401.286	184.81
401.51	177.81
401.734	167.81
401.958	160.81
402.182	163.81
402.406	169.81
402.63	187.81
402.854	184.81
403.078	183.81
403.302	189.81
403.526	194.81
403.75	202.81
403.974	189.81
404.198	195.81
404.422	192.81
404.645	196.81
404.869	197.81
405.093	193.81
405.317	182.81
405.541	184.81
405.765	204.81
405.988	188.81
406.212	191.81
406.436	193.81
406.66	197.81
406.883	197.81
407.107	201.81
407.331	197.81
407.555	210.81
407.778	200.81
408.002	211.81
408.226	194.81
408.449	200.81
408.673	192.81
408.896	173.81
409.12	198.81
409.344	199.81
409.567	187.81
409.791	194.81
410.014	181.81
410.238	189.81
410.461	170.81
410.685	188.81
410.908	167.81
411.132	192.81
411.355	181.81
411.578	195.81
411.802	173.81
412.025	175.81
412.249	184.81
412.472	164.81
412.695	173.81
412.919	174.81
413.142	171.81
413.365	173.81
413.589	181.81
413.812	162.81
414.035	178.81
414.258	184.81
414.482	172.81
414.705	166.81
414.928	169.81
415.151	169.81
415.374	166.81
415.597	170.81
415.821	184.81
416.044	176.81
416.267	173.81
416.49	175.81
416.713	173.81
416.936	168.81
417.159	178.81
417.382	165.81
417.605	171.81
417.828	187.81
418.051	161.81
418.274	185.81
418.497	181.81
418.72	177.81
418.943	198.81
419.166	195.81
419.389	182.81
419.611	177.81
419.834	181.81
420.057	194.81
420.28	175.81
420.503	182.81
420.726	150.81
420.948	174.81
421.171	178.81
421.394	174.81
421.617	194.81
421.839	167.81
422.062	174.81
422.285	173.81
422.507	186.81
422.73	165.81
422.953	179.81
423.175	171.81
423.398	186.81
423.621	203.81
423.843	197.81
424.066	192.81
424.288	190.81
424.511	171.81
424.733	184.81
424.956	170.81
425.178	178.81
425.401	172.81
425.623	175.81
425.846	188.81
426.068	184.81
426.291	162.81
426.513	165.81
426.735	139.81
426.958	164.81
427.18	166.81
427.402	167.81
427.625	177.81
427.847	172.81
428.069	162.81
428.292	160.81
428.514	163.81
428.736	158.81
428.958	169.81
429.181	145.81
429.403	155.81
429.625	160.81
429.847	156.81
430.069	165.81
430.292	182.81
430.514	171.81
430.736	167.81
430.958	174.81
431.18	148.81
431.402	178.81
431.624	165.81
431.846	162.81
432.068	173.81
432.29	163.81
432.512	178.81
432.734	164.81
432.956	182.81
433.178	159.81
433.4	174.81
433.622	164.81
433.844	150.81
434.066	186.81
434.287	178.81
434.509	159.81
434.731	172.81
434.953	170.81
435.175	189.81
435.397	173.81
435.618	172.81
435.84	174.81
436.062	164.81
436.284	150.81
436.505	150.81
436.727	155.81
436.949	161.81
437.17	160.81
437.392	146.81
437.614	177.81
437.835	154.81
438.057	164.81
438.278	146.81
438.5	154.81
438.721	161.81
438.943	174.81
439.165	164.81
439.386	178.81
439.608	167.81
439.829	169.81
440.05	174.81
440.272	161.81
440.493	156.81
440.715	166.81
440.936	174.81
441.158	171.81
441.379	165.81
441.6	186.81
441.822	187.81
442.043	194.81
442.264	168.81
442.486	172.81
442.707	181.81
442.928	166.81
443.149	169.81
443.371	183.81
443.592	178.81
443.813	189.81
444.034	174.81
444.255	190.81
444.476	178.81
444.698	174.81
444.919	189.81
445.14	443.81
445.361	293.81
445.582	182.81
445.803	169.81
446.024	162.81
446.245	169.81
446.466	180.81
446.687	169.81
446.908	171.81
447.129	181.81
447.35	164.81
447.571	155.81
447.792	169.81
448.013	174.81
448.234	164.81
448.455	158.81
448.675	151.81
448.896	165.81
449.117	160.81
449.338	161.81
449.559	145.81
449.779	149.81
450	162.81
450.221	149.81
450.442	162.81
450.662	148.81
450.883	151.81
451.104	166.81
451.324	155.81
451.545	161.81
451.766	165.81
451.986	145.81
452.207	166.81
452.428	146.81
452.648	161.81
452.869	166.81
453.089	161.81
453.31	165.81
453.53	135.81
453.751	162.81
453.971	155.81
454.192	142.81
454.412	159.81
454.633	152.81
454.853	161.81
455.073	141.81
455.294	148.81
455.514	160.81
455.734	138.81
455.955	163.81
456.175	162.81
456.395	148.81
456.616	136.81
456.836	149.81
457.056	150.81
457.276	164.81
457.497	141.81
457.717	148.81
457.937	147.81
458.157	151.81
458.377	137.81
458.598	153.81
458.818	136.81
459.038	142.81
459.258	161.81
459.478	173.81
459.698	164.81
459.918	169.81
460.138	173.81
460.358	176.81
460.578	186.81
460.798	177.81
461.018	194.81
461.238	175.81
461.458	189.81
461.678	196.81
461.898	169.81
462.118	189.81
462.338	187.81
462.558	194.81
462.777	195.81
462.997	218.81
463.217	224.81
463.437	216.81
463.657	217.81
463.876	188.81
464.096	201.81
464.316	196.81
464.536	209.81
464.755	179.81
464.975	170.81
465.195	184.81
465.414	178.81
465.634	172.81
465.854	148.81
466.073	168.81
466.293	165.81
466.512	170.81
466.732	162.81
466.951	152.81
467.171	156.81
467.391	161.81
467.61	158.81
467.829	171.81
468.049	152.81
468.268	166.81
468.488	166.81
468.707	152.81
468.927	167.81
469.146	156.81
469.365	154.81
469.585	160.81
469.804	155.81
470.023	160.81
470.243	172.81
470.462	173.81
470.681	168.81
470.901	160.81
471.12	154.81
471.339	168.81
471.558	156.81
471.777	183.81
471.997	163.81
472.216	163.81
472.435	155.81
472.654	146.81
472.873	163.81
473.092	168.81
473.311	142.81
473.53	148.81
473.749	158.81
473.968	175.81
474.187	136.81
474.406	143.81
474.625	151.81
474.844	162.81
475.063	160.81
475.282	158.81
475.501	154.81
475.72	169.81
475.939	160.81
476.158	151.81
476.377	146.81
476.596	165.81
476.814	159.81
477.033	165.81
477.252	166.81
477.471	180.81
477.69	172.81
477.908	172.81
478.127	195.81
478.346	173.81
478.564	188.81
478.783	182.81
479.002	169.81
479.22	180.81
479.439	176.81
479.658	189.81
479.876	180.81
480.095	168.81
480.313	181.81
480.532	184.81
480.751	184.81
480.969	192.81
481.188	187.81
481.406	169.81
481.624	168.81
481.843	181.81
482.061	168.81
482.28	162.81
482.498	160.81
482.717	165.81
482.935	163.81
483.153	137.81
483.372	158.81
483.59	177.81
483.808	175.81
484.027	186.81
484.245	177.81
484.463	175.81
484.681	186.81
484.9	181.81
485.118	172.81
485.336	166.81
485.554	174.81
485.772	182.81
485.99	166.81
486.209	187.81
486.427	182.81
486.645	172.81
486.863	180.81
487.081	180.81
487.299	181.81
487.517	181.81
487.735	180.81
487.953	180.81
488.171	184.81
488.389	162.81
488.607	169.81
488.825	166.81
489.043	168.81
489.261	166.81
489.479	148.81
489.696	171.81
489.914	171.81
490.132	164.81
490.35	165.81
490.568	157.81
490.786	173.81
491.003	169.81
491.221	174.81
491.439	166.81
491.657	174.81
491.874	170.81
492.092	181.81
492.31	182.81
492.527	185.81
492.745	173.81
492.963	170.81
493.18	180.81
493.398	175.81
493.615	171.81
493.833	185.81
494.05	168.81
494.268	178.81
494.485	184.81
494.703	189.81
494.92	174.81
495.138	187.81
495.355	177.81
495.573	177.81
495.79	175.81
496.008	182.81
496.225	187.81
496.442	187.81
496.66	188.81
496.877	188.81
497.094	199.81
497.312	185.81
497.529	191.81
497.746	193.81
497.963	195.81
498.181	199.81
498.398	212.81
498.615	225.81
498.832	243.81
499.049	233.81
499.267	265.81
499.484	278.81
499.701	303.81
499.918	335.81
500.135	376.81
500.352	396.81
500.569	393.81
500.786	395.81
501.003	358.81
501.22	336.81
501.437	300.81
501.654	279.81
501.871	256.81
502.088	233.81
502.305	244.81
502.522	223.81
502.739	224.81
502.956	210.81
503.172	197.81
503.389	212.81
503.606	201.81
503.823	187.81
504.04	208.81
504.256	200.81
504.473	200.81
504.69	204.81
