Data from SampG_HRD10591_00035.txt Node
Date: Mon Jan 19 11:53:55 EST 2026
User: Yrep
Spectrometer: HR+D1059
Trigger mode: 0
Integration Time (sec): 3.443000E-1
Scans to average: 1
Electric dark correction enabled: true
Nonlinearity correction enabled: false
Boxcar width: 0
XAxis mode: Wavelengths
Number of Pixels in Spectrum: 2048
>>>>>Begin Spectral Data<<<<<
223.165	-16.69
223.4	-16.69
223.635	-16.69
223.869	-18.69
224.104	-22.69
224.338	-6.69
224.573	-9.69
224.808	-28.69
225.042	7.31
225.277	-0.69
225.511	-2.69
225.746	9.31
225.98	8.31
226.215	7.31
226.449	9.31
226.683	21.31
226.918	23.31
227.152	20.31
227.387	40.31
227.621	52.31
227.856	41.31
228.09	46.31
228.324	47.31
228.559	47.31
228.793	61.31
229.027	52.31
229.262	68.31
229.496	60.31
229.73	72.31
229.964	69.31
230.199	77.31
230.433	74.31
230.667	83.31
230.901	88.31
231.136	80.31
231.37	82.31
231.604	80.31
231.838	87.31
232.072	82.31
232.306	73.31
232.541	71.31
232.775	71.31
233.009	79.31
233.243	70.31
233.477	84.31
233.711	84.31
233.945	71.31
234.179	71.31
234.413	77.31
234.647	86.31
234.881	77.31
235.115	84.31
235.349	73.31
235.583	81.31
235.817	71.31
236.051	62.31
236.285	83.31
236.519	65.31
236.753	86.31
236.987	58.31
237.221	74.31
237.455	88.31
237.689	68.31
237.922	84.31
238.156	74.31
238.39	76.31
238.624	81.31
238.858	81.31
239.091	84.31
239.325	79.31
239.559	74.31
239.793	74.31
240.027	97.31
240.26	86.31
240.494	100.31
240.728	84.31
240.961	80.31
241.195	89.31
241.429	72.31
241.662	75.31
241.896	73.31
242.13	80.31
242.363	85.31
242.597	82.31
242.83	76.31
243.064	73.31
243.298	95.31
243.531	72.31
243.765	77.31
243.998	81.31
244.232	99.31
244.465	94.31
244.699	88.31
244.932	77.31
245.166	73.31
245.399	88.31
245.633	85.31
245.866	87.31
246.099	89.31
246.333	77.31
246.566	90.31
246.8	90.31
247.033	90.31
247.266	75.31
247.5	74.31
247.733	81.31
247.966	85.31
248.2	94.31
248.433	98.31
248.666	84.31
248.899	82.31
249.133	92.31
249.366	101.31
249.599	74.31
249.832	77.31
250.066	97.31
250.299	88.31
250.532	83.31
250.765	77.31
250.998	77.31
251.231	72.31
251.465	80.31
251.698	84.31
251.931	89.31
252.164	103.31
252.397	88.31
252.63	97.31
252.863	85.31
253.096	80.31
253.329	92.31
253.562	91.31
253.795	95.31
254.028	87.31
254.261	98.31
254.494	75.31
254.727	95.31
254.96	74.31
255.193	89.31
255.426	82.31
255.659	92.31
255.892	90.31
256.124	87.31
256.357	92.31
256.59	92.31
256.823	83.31
257.056	105.31
257.289	90.31
257.521	96.31
257.754	69.31
257.987	80.31
258.22	86.31
258.452	90.31
258.685	88.31
258.918	77.31
259.151	91.31
259.383	73.31
259.616	85.31
259.849	86.31
260.081	107.31
260.314	100.31
260.547	90.31
260.779	93.31
261.012	96.31
261.244	99.31
261.477	95.31
261.71	86.31
261.942	103.31
262.175	103.31
262.407	91.31
262.64	72.31
262.872	95.31
263.105	85.31
263.337	104.31
263.57	95.31
263.802	83.31
264.035	91.31
264.267	92.31
264.499	104.31
264.732	97.31
264.964	94.31
265.197	109.31
265.429	89.31
265.661	97.31
265.894	93.31
266.126	107.31
266.358	102.31
266.591	88.31
266.823	84.31
267.055	102.31
267.287	95.31
267.52	83.31
267.752	96.31
267.984	79.31
268.216	87.31
268.448	97.31
268.681	83.31
268.913	98.31
269.145	99.31
269.377	85.31
269.609	81.31
269.841	106.31
270.073	103.31
270.306	105.31
270.538	93.31
270.77	84.31
271.002	92.31
271.234	104.31
271.466	110.31
271.698	99.31
271.93	98.31
272.162	90.31
272.394	107.31
272.626	113.31
272.858	93.31
273.09	103.31
273.322	94.31
273.553	103.31
273.785	100.31
274.017	84.31
274.249	97.31
274.481	94.31
274.713	107.31
274.945	103.31
275.176	90.31
275.408	97.31
275.64	107.31
275.872	96.31
276.104	96.31
276.335	101.31
276.567	85.31
276.799	97.31
277.031	96.31
277.262	102.31
277.494	91.31
277.726	108.31
277.957	88.31
278.189	103.31
278.421	98.31
278.652	105.31
278.884	101.31
279.115	88.31
279.347	79.31
279.579	99.31
279.81	95.31
280.042	93.31
280.273	103.31
280.505	103.31
280.736	99.31
280.968	95.31
281.199	99.31
281.431	92.31
281.662	95.31
281.894	96.31
282.125	99.31
282.356	99.31
282.588	100.31
282.819	101.31
283.051	107.31
283.282	89.31
283.513	107.31
283.745	108.31
283.976	100.31
284.207	107.31
284.439	109.31
284.67	106.31
284.901	95.31
285.132	104.31
285.364	100.31
285.595	99.31
285.826	96.31
286.057	106.31
286.288	91.31
286.52	97.31
286.751	98.31
286.982	105.31
287.213	103.31
287.444	127.31
287.675	115.31
287.906	121.31
288.138	113.31
288.369	73.31
288.6	95.31
288.831	96.31
289.062	109.31
289.293	88.31
289.524	113.31
289.755	91.31
289.986	105.31
290.217	121.31
290.448	110.31
290.679	103.31
290.91	118.31
291.141	96.31
291.371	93.31
291.602	99.31
291.833	92.31
292.064	100.31
292.295	83.31
292.526	109.31
292.757	106.31
292.987	106.31
293.218	113.31
293.449	104.31
293.68	87.31
293.91	99.31
294.141	101.31
294.372	105.31
294.603	92.31
294.833	89.31
295.064	113.31
295.295	115.31
295.525	106.31
295.756	108.31
295.987	98.31
296.217	95.31
296.448	110.31
296.679	94.31
296.909	114.31
297.14	99.31
297.37	109.31
297.601	117.31
297.831	100.31
298.062	105.31
298.292	119.31
298.523	115.31
298.753	96.31
298.984	99.31
299.214	112.31
299.445	92.31
299.675	101.31
299.905	109.31
300.136	103.31
300.366	93.31
300.597	114.31
300.827	98.31
301.057	109.31
301.288	92.31
301.518	111.31
301.748	108.31
301.979	144.31
302.209	96.31
302.439	106.31
302.669	102.31
302.9	105.31
303.13	99.31
303.36	99.31
303.59	84.31
303.82	104.31
304.051	108.31
304.281	100.31
304.511	130.31
304.741	105.31
304.971	108.31
305.201	119.31
305.431	97.31
305.661	104.31
305.891	104.31
306.121	119.31
306.352	102.31
306.582	123.31
306.812	100.31
307.042	85.31
307.272	103.31
307.502	106.31
307.731	101.31
307.961	112.31
308.191	105.31
308.421	87.31
308.651	97.31
308.881	108.31
309.111	96.31
309.341	107.31
309.571	101.31
309.8	113.31
310.03	105.31
310.26	88.31
310.49	104.31
310.72	114.31
310.949	115.31
311.179	119.31
311.409	108.31
311.639	116.31
311.868	105.31
312.098	123.31
312.328	109.31
312.557	103.31
312.787	112.31
313.017	122.31
313.246	111.31
313.476	109.31
313.706	103.31
313.935	111.31
314.165	114.31
314.394	101.31
314.624	87.31
314.853	112.31
315.083	96.31
315.312	98.31
315.542	108.31
315.771	113.31
316.001	111.31
316.23	107.31
316.46	120.31
316.689	109.31
316.919	118.31
317.148	117.31
317.377	112.31
317.607	119.31
317.836	112.31
318.065	118.31
318.295	90.31
318.524	104.31
318.753	107.31
318.983	119.31
319.212	130.31
319.441	104.31
319.67	112.31
319.9	105.31
320.129	119.31
320.358	115.31
320.587	109.31
320.816	106.31
321.046	105.31
321.275	116.31
321.504	105.31
321.733	107.31
321.962	112.31
322.191	112.31
322.42	118.31
322.649	120.31
322.878	115.31
323.108	104.31
323.337	119.31
323.566	104.31
323.795	95.31
324.024	93.31
324.253	94.31
324.482	103.31
324.71	105.31
324.939	115.31
325.168	100.31
325.397	120.31
325.626	106.31
325.855	103.31
326.084	113.31
326.313	97.31
326.542	99.31
326.77	107.31
326.999	117.31
327.228	116.31
327.457	121.31
327.686	100.31
327.914	114.31
328.143	113.31
328.372	100.31
328.6	98.31
328.829	102.31
329.058	112.31
329.287	120.31
329.515	109.31
329.744	110.31
329.972	108.31
330.201	109.31
330.43	119.31
330.658	120.31
330.887	99.31
331.115	115.31
331.344	105.31
331.572	115.31
331.801	107.31
332.03	105.31
332.258	108.31
332.486	120.31
332.715	117.31
332.943	111.31
333.172	131.31
333.4	108.31
333.629	120.31
333.857	117.31
334.085	131.31
334.314	115.31
334.542	105.31
334.771	114.31
334.999	125.31
335.227	122.31
335.455	112.31
335.684	128.31
335.912	133.31
336.14	123.31
336.369	119.31
336.597	108.31
336.825	125.31
337.053	120.31
337.281	101.31
337.51	101.31
337.738	124.31
337.966	110.31
338.194	104.31
338.422	102.31
338.65	117.31
338.878	117.31
339.106	113.31
339.334	113.31
339.562	108.31
339.79	120.31
340.018	98.31
340.246	98.31
340.474	110.31
340.702	111.31
340.93	108.31
341.158	117.31
341.386	119.31
341.614	107.31
341.842	108.31
342.07	104.31
342.298	120.31
342.526	104.31
342.754	115.31
342.981	106.31
343.209	113.31
343.437	140.31
343.665	110.31
343.893	124.31
344.12	128.31
344.348	115.31
344.576	124.31
344.804	111.31
345.031	109.31
345.259	119.31
345.487	124.31
345.714	90.31
345.942	111.31
346.17	123.31
346.397	100.31
346.625	114.31
346.853	104.31
347.08	106.31
347.308	119.31
347.535	100.31
347.763	106.31
347.99	96.31
348.218	121.31
348.445	108.31
348.673	107.31
348.9	119.31
349.128	112.31
349.355	116.31
349.583	102.31
349.81	106.31
350.037	114.31
350.265	108.31
350.492	105.31
350.72	100.31
350.947	99.31
351.174	95.31
351.402	103.31
351.629	101.31
351.856	98.31
352.083	99.31
352.311	112.31
352.538	97.31
352.765	120.31
352.992	134.31
353.22	117.31
353.447	107.31
353.674	117.31
353.901	104.31
354.128	97.31
354.355	112.31
354.583	115.31
354.81	115.31
355.037	107.31
355.264	119.31
355.491	116.31
355.718	104.31
355.945	106.31
356.172	101.31
356.399	105.31
356.626	116.31
356.853	95.31
357.08	115.31
357.307	108.31
357.534	113.31
357.761	101.31
357.988	118.31
358.215	113.31
358.441	111.31
358.668	108.31
358.895	119.31
359.122	116.31
359.349	100.31
359.576	116.31
359.802	106.31
360.029	94.31
360.256	112.31
360.483	106.31
360.709	100.31
360.936	96.31
361.163	103.31
361.39	93.31
361.616	97.31
361.843	108.31
362.07	118.31
362.296	131.31
362.523	91.31
362.749	110.31
362.976	108.31
363.203	118.31
363.429	109.31
363.656	101.31
363.882	105.31
364.109	95.31
364.335	116.31
364.562	104.31
364.788	107.31
365.015	112.31
365.241	113.31
365.468	127.31
365.694	101.31
365.92	103.31
366.147	96.31
366.373	114.31
366.599	114.31
366.826	105.31
367.052	119.31
367.278	108.31
367.505	103.31
367.731	120.31
367.957	112.31
368.184	103.31
368.41	121.31
368.636	101.31
368.862	119.31
369.089	102.31
369.315	110.31
369.541	115.31
369.767	112.31
369.993	120.31
370.219	124.31
370.445	121.31
370.672	112.31
370.898	109.31
371.124	119.31
371.35	131.31
371.576	119.31
371.802	94.31
372.028	118.31
372.254	100.31
372.48	112.31
372.706	101.31
372.932	96.31
373.158	117.31
373.384	119.31
373.61	108.31
373.835	130.31
374.061	104.31
374.287	110.31
374.513	111.31
374.739	101.31
374.965	117.31
375.191	117.31
375.416	117.31
375.642	129.31
375.868	120.31
376.094	98.31
376.319	91.31
376.545	104.31
376.771	108.31
376.997	105.31
377.222	107.31
377.448	117.31
377.674	109.31
377.899	104.31
378.125	105.31
378.35	124.31
378.576	103.31
378.802	110.31
379.027	111.31
379.253	106.31
379.478	119.31
379.704	95.31
379.929	95.31
380.155	119.31
380.38	106.31
380.606	110.31
380.831	120.31
381.057	110.31
381.282	100.31
381.507	107.31
381.733	135.31
381.958	120.31
382.184	101.31
382.409	120.31
382.634	108.31
382.86	118.31
383.085	115.31
383.31	125.31
383.535	135.31
383.761	125.31
383.986	108.31
384.211	113.31
384.436	111.31
384.662	137.31
384.887	122.31
385.112	131.31
385.337	97.31
385.562	112.31
385.787	114.31
386.013	116.31
386.238	128.31
386.463	123.31
386.688	157.31
386.913	111.31
387.138	107.31
387.363	122.31
387.588	127.31
387.813	125.31
388.038	127.31
388.263	127.31
388.488	116.31
388.713	102.31
388.938	125.31
389.163	106.31
389.387	97.31
389.612	120.31
389.837	108.31
390.062	97.31
390.287	122.31
390.512	124.31
390.736	108.31
390.961	118.31
391.186	137.31
391.411	117.31
391.636	110.31
391.86	118.31
392.085	113.31
392.31	123.31
392.534	126.31
392.759	144.31
392.984	125.31
393.208	129.31
393.433	114.31
393.658	117.31
393.882	143.31
394.107	112.31
394.331	128.31
394.556	121.31
394.78	118.31
395.005	114.31
395.229	120.31
395.454	125.31
395.678	124.31
395.903	128.31
396.127	132.31
396.352	136.31
396.576	124.31
396.801	123.31
397.025	126.31
397.249	130.31
397.474	129.31
397.698	119.31
397.922	119.31
398.147	127.31
398.371	119.31
398.595	125.31
398.82	123.31
399.044	128.31
399.268	146.31
399.492	139.31
399.717	179.31
399.941	169.31
400.165	145.31
400.389	131.31
400.613	122.31
400.837	143.31
401.062	143.31
401.286	144.31
401.51	116.31
401.734	112.31
401.958	122.31
402.182	133.31
402.406	131.31
402.63	128.31
402.854	120.31
403.078	120.31
403.302	145.31
403.526	135.31
403.75	132.31
403.974	138.31
404.198	138.31
404.422	131.31
404.645	125.31
404.869	132.31
405.093	140.31
405.317	122.31
405.541	146.31
405.765	128.31
405.988	122.31
406.212	136.31
406.436	131.31
406.66	147.31
406.883	144.31
407.107	143.31
407.331	134.31
407.555	151.31
407.778	143.31
408.002	140.31
408.226	150.31
408.449	133.31
408.673	148.31
408.896	135.31
409.12	131.31
409.344	143.31
409.567	129.31
409.791	143.31
410.014	138.31
410.238	137.31
410.461	130.31
410.685	128.31
410.908	134.31
411.132	127.31
411.355	143.31
411.578	132.31
411.802	132.31
412.025	133.31
412.249	120.31
412.472	129.31
412.695	131.31
412.919	120.31
413.142	131.31
413.365	141.31
413.589	124.31
413.812	114.31
414.035	129.31
414.258	128.31
414.482	139.31
414.705	132.31
414.928	120.31
415.151	130.31
415.374	136.31
415.597	122.31
415.821	116.31
416.044	131.31
416.267	123.31
416.49	115.31
416.713	125.31
416.936	128.31
417.159	135.31
417.382	138.31
417.605	113.31
417.828	123.31
418.051	124.31
418.274	135.31
418.497	128.31
418.72	120.31
418.943	138.31
419.166	136.31
419.389	133.31
419.611	136.31
419.834	146.31
420.057	134.31
420.28	138.31
420.503	137.31
420.726	129.31
420.948	127.31
421.171	127.31
421.394	124.31
421.617	135.31
421.839	120.31
422.062	142.31
422.285	125.31
422.507	124.31
422.73	123.31
422.953	128.31
423.175	136.31
423.398	128.31
423.621	121.31
423.843	133.31
424.066	123.31
424.288	131.31
424.511	134.31
424.733	128.31
424.956	128.31
425.178	136.31
425.401	133.31
425.623	123.31
425.846	116.31
426.068	133.31
426.291	120.31
426.513	120.31
426.735	131.31
426.958	130.31
427.18	132.31
427.402	128.31
427.625	136.31
427.847	112.31
428.069	107.31
428.292	130.31
428.514	128.31
428.736	120.31
428.958	119.31
429.181	118.31
429.403	114.31
429.625	130.31
429.847	117.31
430.069	128.31
430.292	129.31
430.514	127.31
430.736	121.31
430.958	135.31
431.18	114.31
431.402	107.31
431.624	122.31
431.846	119.31
432.068	123.31
432.29	115.31
432.512	128.31
432.734	132.31
432.956	123.31
433.178	129.31
433.4	139.31
433.622	129.31
433.844	127.31
434.066	132.31
434.287	123.31
434.509	127.31
434.731	122.31
434.953	126.31
435.175	116.31
435.397	140.31
435.618	114.31
435.84	115.31
436.062	105.31
436.284	118.31
436.505	113.31
436.727	115.31
436.949	123.31
437.17	132.31
437.392	129.31
437.614	126.31
437.835	126.31
438.057	112.31
438.278	124.31
438.5	118.31
438.721	119.31
438.943	110.31
439.165	114.31
439.386	103.31
439.608	131.31
439.829	116.31
440.05	118.31
440.272	123.31
440.493	120.31
440.715	119.31
440.936	127.31
441.158	120.31
441.379	116.31
441.6	139.31
441.822	139.31
442.043	123.31
442.264	114.31
442.486	123.31
442.707	120.31
442.928	146.31
443.149	127.31
443.371	136.31
443.592	120.31
443.813	137.31
444.034	121.31
444.255	147.31
444.476	140.31
444.698	129.31
444.919	129.31
445.14	409.31
445.361	250.31
445.582	144.31
445.803	123.31
446.024	123.31
446.245	115.31
446.466	132.31
446.687	107.31
446.908	127.31
447.129	128.31
447.35	104.31
447.571	119.31
447.792	112.31
448.013	117.31
448.234	120.31
448.455	104.31
448.675	123.31
448.896	102.31
449.117	117.31
449.338	110.31
449.559	125.31
449.779	119.31
450	108.31
450.221	111.31
450.442	109.31
450.662	113.31
450.883	97.31
451.104	132.31
451.324	103.31
451.545	120.31
451.766	114.31
451.986	129.31
452.207	112.31
452.428	116.31
452.648	116.31
452.869	109.31
453.089	118.31
453.31	117.31
453.53	103.31
453.751	125.31
453.971	127.31
454.192	97.31
454.412	134.31
454.633	119.31
454.853	108.31
455.073	118.31
455.294	105.31
455.514	122.31
455.734	110.31
455.955	115.31
456.175	112.31
456.395	117.31
456.616	118.31
456.836	97.31
457.056	112.31
457.276	121.31
457.497	114.31
457.717	104.31
457.937	123.31
458.157	118.31
458.377	113.31
458.598	109.31
458.818	103.31
459.038	132.31
459.258	138.31
459.478	126.31
459.698	127.31
459.918	132.31
460.138	124.31
460.358	128.31
460.578	134.31
460.798	128.31
461.018	117.31
461.238	121.31
461.458	125.31
461.678	129.31
461.898	152.31
462.118	138.31
462.338	128.31
462.558	144.31
462.777	145.31
462.997	138.31
463.217	154.31
463.437	140.31
463.657	129.31
463.876	139.31
464.096	137.31
464.316	132.31
464.536	138.31
464.755	143.31
464.975	130.31
465.195	129.31
465.414	125.31
465.634	111.31
465.854	123.31
466.073	112.31
466.293	131.31
466.512	127.31
466.732	121.31
466.951	115.31
467.171	123.31
467.391	126.31
467.61	127.31
467.829	109.31
468.049	131.31
468.268	117.31
468.488	98.31
468.707	117.31
468.927	98.31
469.146	120.31
469.365	129.31
469.585	124.31
469.804	119.31
470.023	119.31
470.243	131.31
470.462	110.31
470.681	127.31
470.901	115.31
471.12	115.31
471.339	131.31
471.558	128.31
471.777	115.31
471.997	108.31
472.216	124.31
472.435	108.31
472.654	101.31
472.873	121.31
473.092	104.31
473.311	127.31
473.53	113.31
473.749	124.31
473.968	117.31
474.187	123.31
474.406	102.31
474.625	118.31
474.844	110.31
475.063	120.31
475.282	115.31
475.501	126.31
475.72	136.31
475.939	120.31
476.158	131.31
476.377	107.31
476.596	125.31
476.814	133.31
477.033	104.31
477.252	114.31
477.471	120.31
477.69	116.31
477.908	139.31
478.127	132.31
478.346	128.31
478.564	124.31
478.783	122.31
479.002	120.31
479.22	127.31
479.439	122.31
479.658	111.31
479.876	139.31
480.095	121.31
480.313	130.31
480.532	148.31
480.751	121.31
480.969	131.31
481.188	126.31
481.406	137.31
481.624	113.31
481.843	127.31
482.061	123.31
482.28	114.31
482.498	120.31
482.717	114.31
482.935	128.31
483.153	122.31
483.372	132.31
483.59	125.31
483.808	121.31
484.027	135.31
484.245	136.31
484.463	104.31
484.681	146.31
484.9	128.31
485.118	128.31
485.336	131.31
485.554	130.31
485.772	125.31
485.99	130.31
486.209	120.31
486.427	127.31
486.645	121.31
486.863	136.31
487.081	128.31
487.299	121.31
487.517	143.31
487.735	130.31
487.953	130.31
488.171	131.31
488.389	123.31
488.607	135.31
488.825	134.31
489.043	136.31
489.261	132.31
489.479	114.31
489.696	127.31
489.914	127.31
490.132	139.31
490.35	123.31
490.568	113.31
490.786	119.31
491.003	123.31
491.221	123.31
491.439	118.31
491.657	115.31
491.874	120.31
492.092	129.31
492.31	116.31
492.527	129.31
492.745	120.31
492.963	130.31
493.18	123.31
493.398	131.31
493.615	125.31
493.833	135.31
494.05	128.31
494.268	132.31
494.485	138.31
494.703	140.31
494.92	117.31
495.138	123.31
495.355	137.31
495.573	139.31
495.79	123.31
496.008	121.31
496.225	129.31
496.442	106.31
496.66	147.31
496.877	132.31
497.094	140.31
497.312	139.31
497.529	133.31
497.746	133.31
497.963	133.31
498.181	135.31
498.398	145.31
498.615	147.31
498.832	150.31
499.049	171.31
499.267	182.31
499.484	177.31
499.701	191.31
499.918	207.31
500.135	241.31
500.352	250.31
500.569	233.31
500.786	268.31
501.003	229.31
501.22	201.31
501.437	193.31
501.654	180.31
501.871	157.31
502.088	161.31
502.305	164.31
502.522	149.31
502.739	142.31
502.956	153.31
503.172	132.31
503.389	151.31
503.606	142.31
503.823	132.31
504.04	143.31
504.256	134.31
504.473	149.31
504.69	163.31
504.907	158.31
505.123	163.31
505.34	134.31
505.557	129.31
505.773	128.31
505.99	130.31
506.207	136.31
506.423	136.31
506.64	119.31
