Data from SampG_HRD10591_00041.txt Node
Date: Mon Jan 19 11:53:57 EST 2026
User: Yrep
Spectrometer: HR+D1059
Trigger mode: 0
Integration Time (sec): 3.443000E-1
Scans to average: 1
Electric dark correction enabled: true
Nonlinearity correction enabled: false
Boxcar width: 0
XAxis mode: Wavelengths
Number of Pixels in Spectrum: 2048
>>>>>Begin Spectral Data<<<<<
223.165	-13.38
223.4	-13.38
223.635	-13.38
223.869	-25.38
224.104	-31.38
224.338	-17.38
224.573	-27.38
224.808	-17.38
225.042	-9.38
225.277	-18.38
225.511	-2.38
225.746	16.62
225.98	22.62
226.215	12.62
226.449	30.62
226.683	20.62
226.918	34.62
227.152	24.62
227.387	34.62
227.621	37.62
227.856	42.62
228.09	49.62
228.324	49.62
228.559	52.62
228.793	60.62
229.027	71.62
229.262	69.62
229.496	70.62
229.73	64.62
229.964	78.62
230.199	67.62
230.433	81.62
230.667	74.62
230.901	70.62
231.136	92.62
231.37	81.62
231.604	80.62
231.838	85.62
232.072	82.62
232.306	82.62
232.541	81.62
232.775	82.62
233.009	74.62
233.243	76.62
233.477	82.62
233.711	96.62
233.945	77.62
234.179	66.62
234.413	83.62
234.647	86.62
234.881	82.62
235.115	78.62
235.349	72.62
235.583	87.62
235.817	68.62
236.051	75.62
236.285	72.62
236.519	72.62
236.753	71.62
236.987	74.62
237.221	77.62
237.455	83.62
237.689	79.62
237.922	78.62
238.156	64.62
238.39	84.62
238.624	74.62
238.858	92.62
239.091	87.62
239.325	76.62
239.559	84.62
239.793	86.62
240.027	98.62
240.26	76.62
240.494	77.62
240.728	84.62
240.961	76.62
241.195	91.62
241.429	69.62
241.662	74.62
241.896	82.62
242.13	75.62
242.363	79.62
242.597	92.62
242.83	89.62
243.064	91.62
243.298	87.62
243.531	78.62
243.765	73.62
243.998	85.62
244.232	84.62
244.465	76.62
244.699	86.62
244.932	89.62
245.166	85.62
245.399	81.62
245.633	86.62
245.866	83.62
246.099	94.62
246.333	71.62
246.566	86.62
246.8	94.62
247.033	96.62
247.266	79.62
247.5	86.62
247.733	78.62
247.966	83.62
248.2	84.62
248.433	82.62
248.666	89.62
248.899	69.62
249.133	84.62
249.366	86.62
249.599	78.62
249.832	78.62
250.066	101.62
250.299	89.62
250.532	88.62
250.765	85.62
250.998	99.62
251.231	84.62
251.465	76.62
251.698	79.62
251.931	88.62
252.164	76.62
252.397	83.62
252.63	81.62
252.863	87.62
253.096	92.62
253.329	93.62
253.562	95.62
253.795	81.62
254.028	93.62
254.261	86.62
254.494	100.62
254.727	91.62
254.96	76.62
255.193	85.62
255.426	85.62
255.659	83.62
255.892	93.62
256.124	97.62
256.357	90.62
256.59	100.62
256.823	93.62
257.056	80.62
257.289	102.62
257.521	103.62
257.754	82.62
257.987	96.62
258.22	116.62
258.452	86.62
258.685	89.62
258.918	82.62
259.151	87.62
259.383	102.62
259.616	88.62
259.849	93.62
260.081	105.62
260.314	83.62
260.547	89.62
260.779	88.62
261.012	94.62
261.244	107.62
261.477	103.62
261.71	104.62
261.942	100.62
262.175	104.62
262.407	95.62
262.64	94.62
262.872	108.62
263.105	102.62
263.337	109.62
263.57	82.62
263.802	118.62
264.035	104.62
264.267	99.62
264.499	99.62
264.732	107.62
264.964	106.62
265.197	92.62
265.429	94.62
265.661	105.62
265.894	85.62
266.126	115.62
266.358	79.62
266.591	94.62
266.823	96.62
267.055	85.62
267.287	107.62
267.52	95.62
267.752	95.62
267.984	112.62
268.216	98.62
268.448	97.62
268.681	100.62
268.913	101.62
269.145	77.62
269.377	99.62
269.609	90.62
269.841	103.62
270.073	104.62
270.306	101.62
270.538	97.62
270.77	93.62
271.002	106.62
271.234	120.62
271.466	110.62
271.698	97.62
271.93	102.62
272.162	120.62
272.394	112.62
272.626	113.62
272.858	101.62
273.09	122.62
273.322	115.62
273.553	98.62
273.785	101.62
274.017	109.62
274.249	122.62
274.481	101.62
274.713	103.62
274.945	94.62
275.176	95.62
275.408	113.62
275.64	112.62
275.872	109.62
276.104	101.62
276.335	98.62
276.567	104.62
276.799	109.62
277.031	105.62
277.262	107.62
277.494	112.62
277.726	105.62
277.957	110.62
278.189	110.62
278.421	111.62
278.652	99.62
278.884	97.62
279.115	114.62
279.347	117.62
279.579	110.62
279.81	106.62
280.042	103.62
280.273	102.62
280.505	96.62
280.736	120.62
280.968	110.62
281.199	114.62
281.431	89.62
281.662	123.62
281.894	122.62
282.125	106.62
282.356	112.62
282.588	101.62
282.819	108.62
283.051	110.62
283.282	110.62
283.513	110.62
283.745	112.62
283.976	107.62
284.207	96.62
284.439	106.62
284.67	112.62
284.901	108.62
285.132	112.62
285.364	101.62
285.595	119.62
285.826	123.62
286.057	108.62
286.288	114.62
286.52	125.62
286.751	102.62
286.982	117.62
287.213	117.62
287.444	104.62
287.675	117.62
287.906	120.62
288.138	104.62
288.369	103.62
288.6	113.62
288.831	108.62
289.062	111.62
289.293	109.62
289.524	112.62
289.755	112.62
289.986	121.62
290.217	121.62
290.448	135.62
290.679	120.62
290.91	110.62
291.141	121.62
291.371	108.62
291.602	115.62
291.833	120.62
292.064	109.62
292.295	123.62
292.526	110.62
292.757	116.62
292.987	119.62
293.218	95.62
293.449	118.62
293.68	115.62
293.91	116.62
294.141	120.62
294.372	104.62
294.603	110.62
294.833	128.62
295.064	109.62
295.295	121.62
295.525	104.62
295.756	120.62
295.987	109.62
296.217	125.62
296.448	126.62
296.679	140.62
296.909	123.62
297.14	124.62
297.37	125.62
297.601	121.62
297.831	122.62
298.062	132.62
298.292	134.62
298.523	119.62
298.753	116.62
298.984	138.62
299.214	129.62
299.445	115.62
299.675	111.62
299.905	113.62
300.136	123.62
300.366	116.62
300.597	128.62
300.827	133.62
301.057	115.62
301.288	108.62
301.518	132.62
301.748	118.62
301.979	161.62
302.209	115.62
302.439	124.62
302.669	118.62
302.9	143.62
303.13	128.62
303.36	122.62
303.59	112.62
303.82	119.62
304.051	122.62
304.281	132.62
304.511	125.62
304.741	130.62
304.971	136.62
305.201	128.62
305.431	117.62
305.661	126.62
305.891	113.62
306.121	125.62
306.352	125.62
306.582	113.62
306.812	127.62
307.042	117.62
307.272	130.62
307.502	133.62
307.731	126.62
307.961	117.62
308.191	121.62
308.421	130.62
308.651	114.62
308.881	119.62
309.111	119.62
309.341	99.62
309.571	121.62
309.8	124.62
310.03	110.62
310.26	124.62
310.49	123.62
310.72	114.62
310.949	106.62
311.179	124.62
311.409	112.62
311.639	130.62
311.868	119.62
312.098	118.62
312.328	118.62
312.557	112.62
312.787	121.62
313.017	134.62
313.246	133.62
313.476	125.62
313.706	124.62
313.935	128.62
314.165	117.62
314.394	129.62
314.624	122.62
314.853	135.62
315.083	123.62
315.312	126.62
315.542	122.62
315.771	134.62
316.001	137.62
316.23	117.62
316.46	114.62
316.689	128.62
316.919	126.62
317.148	128.62
317.377	131.62
317.607	136.62
317.836	109.62
318.065	114.62
318.295	129.62
318.524	119.62
318.753	118.62
318.983	124.62
319.212	122.62
319.441	128.62
319.67	120.62
319.9	117.62
320.129	130.62
320.358	144.62
320.587	114.62
320.816	116.62
321.046	124.62
321.275	132.62
321.504	122.62
321.733	122.62
321.962	119.62
322.191	111.62
322.42	125.62
322.649	126.62
322.878	135.62
323.108	133.62
323.337	115.62
323.566	129.62
323.795	134.62
324.024	135.62
324.253	118.62
324.482	135.62
324.71	118.62
324.939	119.62
325.168	135.62
325.397	129.62
325.626	123.62
325.855	132.62
326.084	126.62
326.313	131.62
326.542	127.62
326.77	149.62
326.999	127.62
327.228	124.62
327.457	125.62
327.686	120.62
327.914	129.62
328.143	135.62
328.372	128.62
328.6	116.62
328.829	124.62
329.058	131.62
329.287	133.62
329.515	147.62
329.744	142.62
329.972	132.62
330.201	114.62
330.43	124.62
330.658	137.62
330.887	121.62
331.115	142.62
331.344	134.62
331.572	134.62
331.801	150.62
332.03	137.62
332.258	134.62
332.486	133.62
332.715	143.62
332.943	148.62
333.172	144.62
333.4	138.62
333.629	154.62
333.857	157.62
334.085	160.62
334.314	121.62
334.542	148.62
334.771	135.62
334.999	138.62
335.227	146.62
335.455	142.62
335.684	133.62
335.912	144.62
336.14	155.62
336.369	137.62
336.597	150.62
336.825	134.62
337.053	120.62
337.281	135.62
337.51	142.62
337.738	127.62
337.966	133.62
338.194	125.62
338.422	142.62
338.65	140.62
338.878	126.62
339.106	138.62
339.334	149.62
339.562	135.62
339.79	114.62
340.018	127.62
340.246	135.62
340.474	135.62
340.702	124.62
340.93	139.62
341.158	127.62
341.386	126.62
341.614	132.62
341.842	138.62
342.07	134.62
342.298	123.62
342.526	124.62
342.754	127.62
342.981	151.62
343.209	142.62
343.437	176.62
343.665	147.62
343.893	154.62
344.12	157.62
344.348	148.62
344.576	137.62
344.804	143.62
345.031	142.62
345.259	138.62
345.487	156.62
345.714	134.62
345.942	148.62
346.17	125.62
346.397	133.62
346.625	133.62
346.853	130.62
347.08	134.62
347.308	134.62
347.535	129.62
347.763	129.62
347.99	126.62
348.218	130.62
348.445	115.62
348.673	116.62
348.9	136.62
349.128	138.62
349.355	122.62
349.583	125.62
349.81	127.62
350.037	120.62
350.265	121.62
350.492	126.62
350.72	131.62
350.947	138.62
351.174	131.62
351.402	130.62
351.629	118.62
351.856	121.62
352.083	132.62
352.311	126.62
352.538	123.62
352.765	122.62
352.992	143.62
353.22	133.62
353.447	127.62
353.674	135.62
353.901	141.62
354.128	121.62
354.355	120.62
354.583	134.62
354.81	130.62
355.037	135.62
355.264	148.62
355.491	137.62
355.718	134.62
355.945	127.62
356.172	124.62
356.399	121.62
356.626	126.62
356.853	136.62
357.08	105.62
357.307	124.62
357.534	111.62
357.761	127.62
357.988	117.62
358.215	144.62
358.441	118.62
358.668	129.62
358.895	128.62
359.122	134.62
359.349	138.62
359.576	135.62
359.802	120.62
360.029	120.62
360.256	133.62
360.483	128.62
360.709	122.62
360.936	137.62
361.163	139.62
361.39	125.62
361.616	139.62
361.843	131.62
362.07	127.62
362.296	127.62
362.523	138.62
362.749	131.62
362.976	122.62
363.203	157.62
363.429	125.62
363.656	127.62
363.882	130.62
364.109	145.62
364.335	131.62
364.562	129.62
364.788	117.62
365.015	138.62
365.241	139.62
365.468	124.62
365.694	129.62
365.92	137.62
366.147	139.62
366.373	122.62
366.599	130.62
366.826	133.62
367.052	121.62
367.278	141.62
367.505	138.62
367.731	164.62
367.957	127.62
368.184	120.62
368.41	122.62
368.636	116.62
368.862	130.62
369.089	133.62
369.315	130.62
369.541	119.62
369.767	142.62
369.993	124.62
370.219	128.62
370.445	139.62
370.672	117.62
370.898	133.62
371.124	132.62
371.35	134.62
371.576	134.62
371.802	142.62
372.028	125.62
372.254	134.62
372.48	136.62
372.706	118.62
372.932	130.62
373.158	130.62
373.384	143.62
373.61	144.62
373.835	150.62
374.061	127.62
374.287	130.62
374.513	153.62
374.739	134.62
374.965	152.62
375.191	148.62
375.416	158.62
375.642	138.62
375.868	144.62
376.094	146.62
376.319	140.62
376.545	125.62
376.771	129.62
376.997	141.62
377.222	144.62
377.448	150.62
377.674	130.62
377.899	127.62
378.125	114.62
378.35	140.62
378.576	129.62
378.802	144.62
379.027	129.62
379.253	145.62
379.478	144.62
379.704	142.62
379.929	139.62
380.155	135.62
380.38	121.62
380.606	117.62
380.831	130.62
381.057	151.62
381.282	132.62
381.507	138.62
381.733	139.62
381.958	129.62
382.184	135.62
382.409	114.62
382.634	149.62
382.86	129.62
383.085	137.62
383.31	130.62
383.535	144.62
383.761	151.62
383.986	152.62
384.211	140.62
384.436	137.62
384.662	147.62
384.887	143.62
385.112	154.62
385.337	174.62
385.562	159.62
385.787	145.62
386.013	149.62
386.238	140.62
386.463	146.62
386.688	184.62
386.913	144.62
387.138	143.62
387.363	145.62
387.588	153.62
387.813	176.62
388.038	164.62
388.263	151.62
388.488	173.62
388.713	147.62
388.938	148.62
389.163	149.62
389.387	150.62
389.612	165.62
389.837	170.62
390.062	170.62
390.287	163.62
390.512	141.62
390.736	164.62
390.961	134.62
391.186	169.62
391.411	150.62
391.636	159.62
391.86	173.62
392.085	156.62
392.31	159.62
392.534	178.62
392.759	174.62
392.984	161.62
393.208	158.62
393.433	158.62
393.658	164.62
393.882	158.62
394.107	154.62
394.331	148.62
394.556	164.62
394.78	141.62
395.005	172.62
395.229	146.62
395.454	170.62
395.678	161.62
395.903	176.62
396.127	163.62
396.352	153.62
396.576	137.62
396.801	166.62
397.025	158.62
397.249	158.62
397.474	177.62
397.698	170.62
397.922	174.62
398.147	149.62
398.371	149.62
398.595	157.62
398.82	171.62
399.044	183.62
399.268	195.62
399.492	228.62
399.717	234.62
399.941	220.62
400.165	216.62
400.389	178.62
400.613	156.62
400.837	184.62
401.062	188.62
401.286	171.62
401.51	186.62
401.734	174.62
401.958	166.62
402.182	175.62
402.406	192.62
402.63	177.62
402.854	176.62
403.078	188.62
403.302	178.62
403.526	179.62
403.75	209.62
403.974	196.62
404.198	184.62
404.422	175.62
404.645	185.62
404.869	171.62
405.093	191.62
405.317	181.62
405.541	177.62
405.765	186.62
405.988	185.62
406.212	189.62
406.436	167.62
406.66	176.62
406.883	176.62
407.107	192.62
407.331	214.62
407.555	193.62
407.778	219.62
408.002	205.62
408.226	184.62
408.449	188.62
408.673	182.62
408.896	180.62
409.12	175.62
409.344	190.62
409.567	199.62
409.791	176.62
410.014	189.62
410.238	186.62
410.461	183.62
410.685	178.62
410.908	183.62
411.132	190.62
411.355	160.62
411.578	178.62
411.802	177.62
412.025	186.62
412.249	180.62
412.472	162.62
412.695	166.62
412.919	147.62
413.142	168.62
413.365	177.62
413.589	185.62
413.812	166.62
414.035	192.62
414.258	177.62
414.482	170.62
414.705	171.62
414.928	167.62
415.151	178.62
415.374	174.62
415.597	171.62
415.821	166.62
416.044	166.62
416.267	162.62
416.49	161.62
416.713	175.62
416.936	160.62
417.159	167.62
417.382	176.62
417.605	162.62
417.828	170.62
418.051	164.62
418.274	178.62
418.497	173.62
418.72	183.62
418.943	179.62
419.166	185.62
419.389	185.62
419.611	189.62
419.834	194.62
420.057	182.62
420.28	166.62
420.503	176.62
420.726	176.62
420.948	161.62
421.171	165.62
421.394	180.62
421.617	176.62
421.839	176.62
422.062	176.62
422.285	164.62
422.507	173.62
422.73	174.62
422.953	183.62
423.175	168.62
423.398	178.62
423.621	176.62
423.843	175.62
424.066	165.62
424.288	168.62
424.511	164.62
424.733	167.62
424.956	166.62
425.178	176.62
425.401	166.62
425.623	157.62
425.846	162.62
426.068	162.62
426.291	159.62
426.513	160.62
426.735	166.62
426.958	170.62
427.18	173.62
427.402	156.62
427.625	171.62
427.847	189.62
428.069	157.62
428.292	134.62
428.514	164.62
428.736	166.62
428.958	160.62
429.181	145.62
429.403	177.62
429.625	173.62
429.847	178.62
430.069	152.62
430.292	151.62
430.514	142.62
430.736	164.62
430.958	168.62
431.18	148.62
431.402	162.62
431.624	140.62
431.846	152.62
432.068	172.62
432.29	153.62
432.512	160.62
432.734	168.62
432.956	161.62
433.178	165.62
433.4	162.62
433.622	160.62
433.844	169.62
434.066	158.62
434.287	144.62
434.509	158.62
434.731	167.62
434.953	156.62
435.175	174.62
435.397	190.62
435.618	168.62
435.84	161.62
436.062	168.62
436.284	130.62
436.505	153.62
436.727	162.62
436.949	174.62
437.17	154.62
437.392	140.62
437.614	157.62
437.835	152.62
438.057	147.62
438.278	145.62
438.5	160.62
438.721	168.62
438.943	143.62
439.165	163.62
439.386	153.62
439.608	178.62
439.829	159.62
440.05	172.62
440.272	137.62
440.493	161.62
440.715	156.62
440.936	163.62
441.158	160.62
441.379	178.62
441.6	180.62
441.822	173.62
442.043	154.62
442.264	167.62
442.486	174.62
442.707	170.62
442.928	179.62
443.149	174.62
443.371	162.62
443.592	168.62
443.813	176.62
444.034	168.62
444.255	169.62
444.476	199.62
444.698	195.62
444.919	186.62
445.14	485.62
445.361	308.62
445.582	190.62
445.803	178.62
446.024	158.62
446.245	181.62
446.466	151.62
446.687	170.62
446.908	164.62
447.129	150.62
447.35	154.62
447.571	155.62
447.792	164.62
448.013	147.62
448.234	159.62
448.455	149.62
448.675	145.62
448.896	160.62
449.117	168.62
449.338	134.62
449.559	155.62
449.779	147.62
450	162.62
450.221	145.62
450.442	138.62
450.662	153.62
450.883	137.62
451.104	162.62
451.324	153.62
451.545	168.62
451.766	143.62
451.986	152.62
452.207	146.62
452.428	163.62
452.648	164.62
452.869	161.62
453.089	133.62
453.31	146.62
453.53	143.62
453.751	143.62
453.971	146.62
454.192	141.62
454.412	133.62
454.633	150.62
454.853	147.62
455.073	142.62
455.294	161.62
455.514	156.62
455.734	141.62
455.955	145.62
456.175	143.62
456.395	136.62
456.616	156.62
456.836	153.62
457.056	158.62
457.276	144.62
457.497	138.62
457.717	137.62
457.937	139.62
458.157	155.62
458.377	146.62
458.598	137.62
458.818	154.62
459.038	142.62
459.258	162.62
459.478	166.62
459.698	162.62
459.918	173.62
460.138	175.62
460.358	176.62
460.578	185.62
460.798	179.62
461.018	179.62
461.238	177.62
461.458	167.62
461.678	188.62
461.898	178.62
462.118	185.62
462.338	173.62
462.558	200.62
462.777	188.62
462.997	204.62
463.217	216.62
463.437	229.62
463.657	211.62
463.876	199.62
464.096	208.62
464.316	215.62
464.536	200.62
464.755	199.62
464.975	196.62
465.195	172.62
465.414	165.62
465.634	178.62
465.854	165.62
466.073	162.62
466.293	153.62
466.512	149.62
466.732	158.62
466.951	141.62
467.171	132.62
467.391	164.62
467.61	150.62
467.829	153.62
468.049	156.62
468.268	140.62
468.488	152.62
468.707	144.62
468.927	146.62
469.146	158.62
469.365	142.62
469.585	161.62
469.804	165.62
470.023	165.62
470.243	157.62
470.462	165.62
470.681	164.62
470.901	154.62
471.12	150.62
471.339	158.62
471.558	147.62
471.777	158.62
471.997	178.62
472.216	163.62
472.435	156.62
472.654	150.62
472.873	158.62
473.092	149.62
473.311	166.62
473.53	133.62
473.749	156.62
473.968	164.62
474.187	153.62
474.406	152.62
474.625	156.62
474.844	163.62
475.063	170.62
475.282	157.62
475.501	144.62
475.72	162.62
475.939	157.62
476.158	152.62
476.377	160.62
476.596	141.62
476.814	145.62
477.033	164.62
477.252	147.62
477.471	159.62
477.69	148.62
477.908	156.62
478.127	167.62
478.346	179.62
478.564	166.62
478.783	188.62
479.002	163.62
479.22	181.62
479.439	186.62
479.658	167.62
479.876	175.62
480.095	184.62
480.313	179.62
480.532	188.62
480.751	179.62
480.969	179.62
481.188	174.62
481.406	182.62
481.624	182.62
481.843	167.62
482.061	166.62
482.28	169.62
482.498	162.62
482.717	156.62
482.935	174.62
483.153	169.62
483.372	155.62
483.59	174.62
483.808	166.62
484.027	178.62
484.245	169.62
484.463	158.62
484.681	178.62
484.9	181.62
485.118	183.62
485.336	177.62
485.554	165.62
485.772	170.62
485.99	181.62
486.209	161.62
486.427	151.62
486.645	160.62
486.863	174.62
487.081	156.62
487.299	145.62
487.517	168.62
487.735	170.62
487.953	164.62
488.171	179.62
488.389	168.62
488.607	161.62
488.825	142.62
489.043	154.62
489.261	186.62
489.479	168.62
489.696	166.62
489.914	171.62
490.132	172.62
490.35	171.62
490.568	168.62
490.786	158.62
491.003	168.62
491.221	173.62
491.439	169.62
491.657	176.62
491.874	188.62
492.092	168.62
492.31	171.62
492.527	172.62
492.745	161.62
492.963	179.62
493.18	189.62
493.398	175.62
493.615	179.62
493.833	182.62
494.05	194.62
494.268	178.62
494.485	177.62
494.703	171.62
494.92	186.62
495.138	184.62
495.355	187.62
495.573	191.62
495.79	177.62
496.008	180.62
496.225	176.62
496.442	164.62
496.66	188.62
496.877	178.62
497.094	188.62
497.312	171.62
497.529	199.62
497.746	189.62
497.963	194.62
498.181	200.62
498.398	201.62
498.615	229.62
498.832	221.62
499.049	239.62
499.267	249.62
499.484	281.62
499.701	290.62
499.918	329.62
500.135	368.62
500.352	396.62
500.569	389.62
500.786	391.62
501.003	365.62
501.22	334.62
501.437	306.62
501.654	262.62
501.871	241.62
502.088	239.62
502.305	221.62
502.522	234.62
502.739	224.62
502.956	220.62
503.172	207.62
503.389	197.62
503.606	194.62
503.823	193.62
504.04	186.62
504.256	196.62
504.473	190.62
504.69	209.62
504.907	213.62
