Data from SampG_HRD10591_00019.txt Node
Date: Mon Jan 19 11:53:49 EST 2026
User: Yrep
Spectrometer: HR+D1059
Trigger mode: 0
Integration Time (sec): 3.443000E-1
Scans to average: 1
Electric dark correction enabled: true
Nonlinearity correction enabled: false
Boxcar width: 0
XAxis mode: Wavelengths
Number of Pixels in Spectrum: 2048
>>>>>Begin Spectral Data<<<<<
223.165	-28.44
223.4	-28.44
223.635	-28.44
223.869	-24.44
224.104	-22.44
224.338	-8.44
224.573	-30.44
224.808	-10.44
225.042	-7.44
225.277	2.56
225.511	-9.44
225.746	6.56
225.98	15.56
226.215	17.56
226.449	25.56
226.683	15.56
226.918	23.56
227.152	34.56
227.387	27.56
227.621	37.56
227.856	38.56
228.09	44.56
228.324	34.56
228.559	58.56
228.793	72.56
229.027	79.56
229.262	65.56
229.496	74.56
229.73	62.56
229.964	77.56
230.199	63.56
230.433	72.56
230.667	79.56
230.901	86.56
231.136	72.56
231.37	80.56
231.604	73.56
231.838	85.56
232.072	79.56
232.306	81.56
232.541	88.56
232.775	78.56
233.009	101.56
233.243	90.56
233.477	89.56
233.711	79.56
233.945	92.56
234.179	72.56
234.413	98.56
234.647	86.56
234.881	87.56
235.115	87.56
235.349	82.56
235.583	81.56
235.817	73.56
236.051	78.56
236.285	74.56
236.519	88.56
236.753	97.56
236.987	89.56
237.221	78.56
237.455	83.56
237.689	91.56
237.922	92.56
238.156	78.56
238.39	63.56
238.624	72.56
238.858	84.56
239.091	82.56
239.325	95.56
239.559	86.56
239.793	75.56
240.027	78.56
240.26	82.56
240.494	86.56
240.728	90.56
240.961	78.56
241.195	83.56
241.429	79.56
241.662	73.56
241.896	83.56
242.13	81.56
242.363	84.56
242.597	90.56
242.83	73.56
243.064	98.56
243.298	74.56
243.531	70.56
243.765	95.56
243.998	82.56
244.232	80.56
244.465	82.56
244.699	63.56
244.932	88.56
245.166	88.56
245.399	89.56
245.633	86.56
245.866	89.56
246.099	74.56
246.333	87.56
246.566	82.56
246.8	88.56
247.033	107.56
247.266	94.56
247.5	83.56
247.733	71.56
247.966	88.56
248.2	99.56
248.433	82.56
248.666	93.56
248.899	87.56
249.133	71.56
249.366	104.56
249.599	90.56
249.832	84.56
250.066	94.56
250.299	98.56
250.532	94.56
250.765	90.56
250.998	94.56
251.231	94.56
251.465	78.56
251.698	75.56
251.931	91.56
252.164	95.56
252.397	95.56
252.63	96.56
252.863	82.56
253.096	103.56
253.329	83.56
253.562	78.56
253.795	80.56
254.028	81.56
254.261	90.56
254.494	112.56
254.727	83.56
254.96	87.56
255.193	103.56
255.426	79.56
255.659	89.56
255.892	84.56
256.124	78.56
256.357	106.56
256.59	91.56
256.823	102.56
257.056	88.56
257.289	98.56
257.521	94.56
257.754	93.56
257.987	79.56
258.22	95.56
258.452	105.56
258.685	80.56
258.918	97.56
259.151	94.56
259.383	104.56
259.616	96.56
259.849	89.56
260.081	100.56
260.314	102.56
260.547	96.56
260.779	86.56
261.012	91.56
261.244	88.56
261.477	105.56
261.71	102.56
261.942	96.56
262.175	101.56
262.407	82.56
262.64	87.56
262.872	84.56
263.105	100.56
263.337	109.56
263.57	101.56
263.802	105.56
264.035	106.56
264.267	100.56
264.499	100.56
264.732	100.56
264.964	103.56
265.197	99.56
265.429	101.56
265.661	86.56
265.894	116.56
266.126	115.56
266.358	99.56
266.591	91.56
266.823	120.56
267.055	88.56
267.287	87.56
267.52	95.56
267.752	101.56
267.984	108.56
268.216	98.56
268.448	106.56
268.681	107.56
268.913	110.56
269.145	102.56
269.377	120.56
269.609	101.56
269.841	123.56
270.073	105.56
270.306	116.56
270.538	111.56
270.77	107.56
271.002	88.56
271.234	116.56
271.466	108.56
271.698	94.56
271.93	98.56
272.162	106.56
272.394	103.56
272.626	99.56
272.858	94.56
273.09	99.56
273.322	93.56
273.553	91.56
273.785	81.56
274.017	110.56
274.249	92.56
274.481	110.56
274.713	93.56
274.945	105.56
275.176	91.56
275.408	96.56
275.64	107.56
275.872	86.56
276.104	117.56
276.335	120.56
276.567	89.56
276.799	95.56
277.031	99.56
277.262	90.56
277.494	114.56
277.726	100.56
277.957	104.56
278.189	116.56
278.421	102.56
278.652	118.56
278.884	115.56
279.115	108.56
279.347	102.56
279.579	104.56
279.81	97.56
280.042	106.56
280.273	109.56
280.505	119.56
280.736	102.56
280.968	123.56
281.199	98.56
281.431	116.56
281.662	95.56
281.894	107.56
282.125	100.56
282.356	113.56
282.588	102.56
282.819	85.56
283.051	109.56
283.282	104.56
283.513	126.56
283.745	108.56
283.976	101.56
284.207	120.56
284.439	118.56
284.67	128.56
284.901	118.56
285.132	113.56
285.364	102.56
285.595	109.56
285.826	101.56
286.057	129.56
286.288	99.56
286.52	111.56
286.751	112.56
286.982	119.56
287.213	113.56
287.444	115.56
287.675	117.56
287.906	120.56
288.138	126.56
288.369	119.56
288.6	117.56
288.831	125.56
289.062	117.56
289.293	103.56
289.524	117.56
289.755	97.56
289.986	119.56
290.217	112.56
290.448	130.56
290.679	120.56
290.91	120.56
291.141	113.56
291.371	126.56
291.602	112.56
291.833	113.56
292.064	119.56
292.295	114.56
292.526	115.56
292.757	127.56
292.987	116.56
293.218	116.56
293.449	115.56
293.68	123.56
293.91	113.56
294.141	118.56
294.372	99.56
294.603	124.56
294.833	110.56
295.064	118.56
295.295	117.56
295.525	96.56
295.756	123.56
295.987	125.56
296.217	113.56
296.448	118.56
296.679	115.56
296.909	106.56
297.14	118.56
297.37	107.56
297.601	112.56
297.831	107.56
298.062	119.56
298.292	113.56
298.523	124.56
298.753	121.56
298.984	118.56
299.214	116.56
299.445	95.56
299.675	121.56
299.905	122.56
300.136	107.56
300.366	116.56
300.597	127.56
300.827	125.56
301.057	138.56
301.288	119.56
301.518	116.56
301.748	113.56
301.979	162.56
302.209	110.56
302.439	129.56
302.669	106.56
302.9	136.56
303.13	123.56
303.36	131.56
303.59	125.56
303.82	117.56
304.051	116.56
304.281	130.56
304.511	128.56
304.741	115.56
304.971	114.56
305.201	131.56
305.431	127.56
305.661	116.56
305.891	122.56
306.121	118.56
306.352	114.56
306.582	108.56
306.812	115.56
307.042	104.56
307.272	113.56
307.502	123.56
307.731	115.56
307.961	121.56
308.191	112.56
308.421	120.56
308.651	137.56
308.881	127.56
309.111	105.56
309.341	112.56
309.571	133.56
309.8	119.56
310.03	105.56
310.26	117.56
310.49	127.56
310.72	124.56
310.949	117.56
311.179	103.56
311.409	115.56
311.639	136.56
311.868	134.56
312.098	123.56
312.328	129.56
312.557	121.56
312.787	107.56
313.017	119.56
313.246	120.56
313.476	122.56
313.706	124.56
313.935	133.56
314.165	123.56
314.394	133.56
314.624	118.56
314.853	107.56
315.083	123.56
315.312	124.56
315.542	107.56
315.771	113.56
316.001	116.56
316.23	120.56
316.46	114.56
316.689	111.56
316.919	126.56
317.148	137.56
317.377	136.56
317.607	124.56
317.836	119.56
318.065	120.56
318.295	108.56
318.524	119.56
318.753	122.56
318.983	121.56
319.212	110.56
319.441	125.56
319.67	116.56
319.9	117.56
320.129	119.56
320.358	116.56
320.587	128.56
320.816	123.56
321.046	124.56
321.275	131.56
321.504	113.56
321.733	135.56
321.962	129.56
322.191	117.56
322.42	115.56
322.649	125.56
322.878	115.56
323.108	108.56
323.337	123.56
323.566	130.56
323.795	119.56
324.024	122.56
324.253	131.56
324.482	116.56
324.71	126.56
324.939	126.56
325.168	128.56
325.397	124.56
325.626	130.56
325.855	122.56
326.084	136.56
326.313	128.56
326.542	122.56
326.77	122.56
326.999	117.56
327.228	124.56
327.457	117.56
327.686	134.56
327.914	138.56
328.143	138.56
328.372	122.56
328.6	121.56
328.829	123.56
329.058	130.56
329.287	113.56
329.515	132.56
329.744	133.56
329.972	119.56
330.201	136.56
330.43	137.56
330.658	121.56
330.887	127.56
331.115	125.56
331.344	109.56
331.572	131.56
331.801	137.56
332.03	159.56
332.258	135.56
332.486	127.56
332.715	131.56
332.943	122.56
333.172	142.56
333.4	140.56
333.629	144.56
333.857	151.56
334.085	163.56
334.314	136.56
334.542	134.56
334.771	149.56
334.999	146.56
335.227	127.56
335.455	133.56
335.684	140.56
335.912	126.56
336.14	142.56
336.369	127.56
336.597	138.56
336.825	150.56
337.053	133.56
337.281	131.56
337.51	127.56
337.738	154.56
337.966	134.56
338.194	138.56
338.422	142.56
338.65	143.56
338.878	126.56
339.106	135.56
339.334	138.56
339.562	134.56
339.79	124.56
340.018	127.56
340.246	121.56
340.474	116.56
340.702	132.56
340.93	146.56
341.158	126.56
341.386	131.56
341.614	127.56
341.842	128.56
342.07	145.56
342.298	143.56
342.526	129.56
342.754	135.56
342.981	139.56
343.209	152.56
343.437	164.56
343.665	132.56
343.893	143.56
344.12	144.56
344.348	147.56
344.576	143.56
344.804	140.56
345.031	129.56
345.259	126.56
345.487	127.56
345.714	139.56
345.942	137.56
346.17	131.56
346.397	118.56
346.625	130.56
346.853	121.56
347.08	125.56
347.308	112.56
347.535	139.56
347.763	126.56
347.99	120.56
348.218	112.56
348.445	122.56
348.673	111.56
348.9	129.56
349.128	132.56
349.355	131.56
349.583	132.56
349.81	126.56
350.037	145.56
350.265	123.56
350.492	100.56
350.72	123.56
350.947	123.56
351.174	130.56
351.402	117.56
351.629	122.56
351.856	121.56
352.083	126.56
352.311	134.56
352.538	128.56
352.765	116.56
352.992	131.56
353.22	127.56
353.447	115.56
353.674	130.56
353.901	132.56
354.128	121.56
354.355	133.56
354.583	122.56
354.81	108.56
355.037	126.56
355.264	130.56
355.491	113.56
355.718	119.56
355.945	138.56
356.172	115.56
356.399	131.56
356.626	127.56
356.853	138.56
357.08	132.56
357.307	131.56
357.534	116.56
357.761	132.56
357.988	156.56
358.215	135.56
358.441	130.56
358.668	137.56
358.895	141.56
359.122	119.56
359.349	131.56
359.576	133.56
359.802	133.56
360.029	126.56
360.256	127.56
360.483	111.56
360.709	122.56
360.936	157.56
361.163	128.56
361.39	134.56
361.616	114.56
361.843	139.56
362.07	135.56
362.296	129.56
362.523	130.56
362.749	127.56
362.976	127.56
363.203	129.56
363.429	114.56
363.656	111.56
363.882	116.56
364.109	123.56
364.335	129.56
364.562	123.56
364.788	122.56
365.015	127.56
365.241	124.56
365.468	126.56
365.694	113.56
365.92	133.56
366.147	145.56
366.373	112.56
366.599	116.56
366.826	127.56
367.052	118.56
367.278	124.56
367.505	137.56
367.731	139.56
367.957	131.56
368.184	132.56
368.41	126.56
368.636	136.56
368.862	137.56
369.089	117.56
369.315	132.56
369.541	130.56
369.767	145.56
369.993	116.56
370.219	118.56
370.445	110.56
370.672	132.56
370.898	138.56
371.124	123.56
371.35	131.56
371.576	139.56
371.802	119.56
372.028	122.56
372.254	129.56
372.48	131.56
372.706	121.56
372.932	148.56
373.158	136.56
373.384	151.56
373.61	146.56
373.835	127.56
374.061	120.56
374.287	130.56
374.513	114.56
374.739	143.56
374.965	138.56
375.191	131.56
375.416	130.56
375.642	145.56
375.868	148.56
376.094	140.56
376.319	135.56
376.545	136.56
376.771	128.56
376.997	143.56
377.222	130.56
377.448	118.56
377.674	132.56
377.899	131.56
378.125	137.56
378.35	135.56
378.576	123.56
378.802	127.56
379.027	131.56
379.253	138.56
379.478	124.56
379.704	135.56
379.929	122.56
380.155	126.56
380.38	126.56
380.606	138.56
380.831	123.56
381.057	147.56
381.282	140.56
381.507	137.56
381.733	130.56
381.958	135.56
382.184	142.56
382.409	142.56
382.634	136.56
382.86	126.56
383.085	132.56
383.31	131.56
383.535	142.56
383.761	144.56
383.986	145.56
384.211	160.56
384.436	146.56
384.662	146.56
384.887	144.56
385.112	133.56
385.337	158.56
385.562	163.56
385.787	150.56
386.013	140.56
386.238	154.56
386.463	137.56
386.688	186.56
386.913	127.56
387.138	142.56
387.363	158.56
387.588	157.56
387.813	145.56
388.038	138.56
388.263	147.56
388.488	127.56
388.713	144.56
388.938	146.56
389.163	143.56
389.387	134.56
389.612	142.56
389.837	142.56
390.062	146.56
390.287	151.56
390.512	142.56
390.736	142.56
390.961	142.56
391.186	137.56
391.411	160.56
391.636	168.56
391.86	144.56
392.085	164.56
392.31	139.56
392.534	153.56
392.759	147.56
392.984	162.56
393.208	145.56
393.433	133.56
393.658	151.56
393.882	154.56
394.107	155.56
394.331	138.56
394.556	145.56
394.78	143.56
395.005	146.56
395.229	159.56
395.454	155.56
395.678	162.56
395.903	161.56
396.127	167.56
396.352	148.56
396.576	148.56
396.801	158.56
397.025	153.56
397.249	148.56
397.474	177.56
397.698	148.56
397.922	152.56
398.147	151.56
398.371	161.56
398.595	170.56
398.82	167.56
399.044	177.56
399.268	179.56
399.492	214.56
399.717	224.56
399.941	205.56
400.165	182.56
400.389	167.56
400.613	168.56
400.837	173.56
401.062	168.56
401.286	163.56
401.51	167.56
401.734	164.56
401.958	168.56
402.182	164.56
402.406	171.56
402.63	164.56
402.854	177.56
403.078	171.56
403.302	168.56
403.526	182.56
403.75	178.56
403.974	179.56
404.198	182.56
404.422	179.56
404.645	168.56
404.869	171.56
405.093	175.56
405.317	166.56
405.541	165.56
405.765	182.56
405.988	167.56
406.212	160.56
406.436	159.56
406.66	175.56
406.883	177.56
407.107	164.56
407.331	165.56
407.555	192.56
407.778	195.56
408.002	176.56
408.226	173.56
408.449	179.56
408.673	174.56
408.896	171.56
409.12	185.56
409.344	168.56
409.567	183.56
409.791	175.56
410.014	167.56
410.238	179.56
410.461	173.56
410.685	172.56
410.908	171.56
411.132	163.56
411.355	168.56
411.578	162.56
411.802	166.56
412.025	170.56
412.249	170.56
412.472	154.56
412.695	160.56
412.919	154.56
413.142	167.56
413.365	165.56
413.589	153.56
413.812	155.56
414.035	185.56
414.258	168.56
414.482	169.56
414.705	150.56
414.928	181.56
415.151	156.56
415.374	169.56
415.597	165.56
415.821	159.56
416.044	171.56
416.267	161.56
416.49	172.56
416.713	166.56
416.936	153.56
417.159	160.56
417.382	165.56
417.605	140.56
417.828	154.56
418.051	158.56
418.274	166.56
418.497	165.56
418.72	172.56
418.943	165.56
419.166	161.56
419.389	180.56
419.611	170.56
419.834	165.56
420.057	162.56
420.28	172.56
420.503	158.56
420.726	142.56
420.948	152.56
421.171	177.56
421.394	160.56
421.617	158.56
421.839	158.56
422.062	167.56
422.285	170.56
422.507	164.56
422.73	168.56
422.953	169.56
423.175	152.56
423.398	167.56
423.621	160.56
423.843	177.56
424.066	171.56
424.288	161.56
424.511	162.56
424.733	168.56
424.956	168.56
425.178	159.56
425.401	146.56
425.623	167.56
425.846	160.56
426.068	149.56
426.291	169.56
426.513	156.56
426.735	170.56
426.958	165.56
427.18	162.56
427.402	171.56
427.625	141.56
427.847	167.56
428.069	158.56
428.292	161.56
428.514	156.56
428.736	127.56
428.958	161.56
429.181	154.56
429.403	154.56
429.625	150.56
429.847	173.56
430.069	148.56
430.292	169.56
430.514	140.56
430.736	137.56
430.958	159.56
431.18	143.56
431.402	151.56
431.624	147.56
431.846	145.56
432.068	159.56
432.29	177.56
432.512	148.56
432.734	145.56
432.956	147.56
433.178	163.56
433.4	150.56
433.622	154.56
433.844	159.56
434.066	152.56
434.287	159.56
434.509	147.56
434.731	172.56
434.953	170.56
435.175	168.56
435.397	159.56
435.618	154.56
435.84	167.56
436.062	158.56
436.284	148.56
436.505	144.56
436.727	137.56
436.949	158.56
437.17	138.56
437.392	144.56
437.614	158.56
437.835	130.56
438.057	135.56
438.278	143.56
438.5	160.56
438.721	138.56
438.943	151.56
439.165	152.56
439.386	161.56
439.608	153.56
439.829	166.56
440.05	153.56
440.272	147.56
440.493	152.56
440.715	141.56
440.936	179.56
441.158	168.56
441.379	163.56
441.6	167.56
441.822	176.56
442.043	163.56
442.264	162.56
442.486	146.56
442.707	154.56
442.928	167.56
443.149	161.56
443.371	161.56
443.592	159.56
443.813	158.56
444.034	156.56
444.255	176.56
444.476	170.56
444.698	184.56
444.919	191.56
445.14	457.56
445.361	306.56
445.582	169.56
445.803	165.56
446.024	161.56
446.245	147.56
446.466	155.56
446.687	130.56
446.908	162.56
447.129	153.56
447.35	144.56
447.571	148.56
447.792	138.56
448.013	132.56
448.234	148.56
448.455	168.56
448.675	161.56
448.896	141.56
449.117	146.56
449.338	135.56
449.559	150.56
449.779	130.56
450	137.56
450.221	134.56
450.442	134.56
450.662	152.56
450.883	143.56
451.104	154.56
451.324	146.56
451.545	145.56
451.766	157.56
451.986	147.56
452.207	119.56
452.428	137.56
452.648	134.56
452.869	146.56
453.089	166.56
453.31	156.56
453.53	146.56
453.751	147.56
453.971	135.56
454.192	139.56
454.412	145.56
454.633	138.56
454.853	141.56
455.073	139.56
455.294	132.56
455.514	131.56
455.734	138.56
455.955	139.56
456.175	153.56
456.395	135.56
456.616	129.56
456.836	135.56
457.056	137.56
457.276	133.56
457.497	129.56
457.717	139.56
457.937	133.56
458.157	144.56
458.377	148.56
458.598	135.56
458.818	144.56
459.038	160.56
459.258	140.56
459.478	145.56
459.698	148.56
459.918	161.56
460.138	152.56
460.358	158.56
460.578	182.56
460.798	167.56
461.018	162.56
461.238	161.56
461.458	171.56
461.678	158.56
461.898	158.56
462.118	177.56
462.338	174.56
462.558	192.56
462.777	174.56
462.997	202.56
463.217	209.56
463.437	203.56
463.657	202.56
463.876	188.56
464.096	171.56
464.316	187.56
464.536	186.56
464.755	172.56
464.975	165.56
465.195	181.56
465.414	161.56
465.634	161.56
465.854	164.56
466.073	139.56
466.293	147.56
466.512	150.56
466.732	137.56
466.951	145.56
467.171	141.56
467.391	149.56
467.61	138.56
467.829	137.56
468.049	135.56
468.268	125.56
468.488	143.56
468.707	142.56
468.927	126.56
469.146	154.56
469.365	160.56
469.585	160.56
469.804	159.56
470.023	159.56
470.243	155.56
470.462	144.56
470.681	149.56
470.901	140.56
471.12	158.56
471.339	153.56
471.558	162.56
471.777	156.56
471.997	147.56
472.216	146.56
472.435	144.56
472.654	142.56
472.873	138.56
473.092	143.56
473.311	153.56
473.53	131.56
473.749	140.56
473.968	150.56
474.187	138.56
474.406	139.56
474.625	146.56
474.844	138.56
475.063	140.56
475.282	145.56
475.501	146.56
475.72	159.56
475.939	137.56
476.158	154.56
476.377	150.56
476.596	142.56
476.814	164.56
477.033	136.56
477.252	143.56
477.471	137.56
477.69	158.56
477.908	162.56
478.127	166.56
478.346	171.56
478.564	159.56
478.783	170.56
479.002	158.56
479.22	148.56
479.439	158.56
479.658	154.56
479.876	156.56
480.095	155.56
480.313	168.56
480.532	186.56
480.751	173.56
480.969	156.56
481.188	154.56
481.406	161.56
481.624	158.56
481.843	142.56
482.061	144.56
482.28	142.56
482.498	155.56
482.717	160.56
482.935	172.56
483.153	148.56
483.372	146.56
483.59	164.56
483.808	154.56
484.027	179.56
484.245	147.56
484.463	160.56
484.681	179.56
484.9	168.56
485.118	169.56
485.336	161.56
485.554	156.56
485.772	157.56
485.99	149.56
486.209	161.56
486.427	167.56
486.645	152.56
486.863	174.56
487.081	163.56
487.299	152.56
487.517	150.56
487.735	165.56
487.953	163.56
488.171	177.56
488.389	175.56
488.607	181.56
488.825	157.56
489.043	155.56
489.261	176.56
489.479	164.56
489.696	164.56
489.914	158.56
490.132	164.56
490.35	161.56
490.568	164.56
490.786	154.56
491.003	163.56
491.221	160.56
491.439	163.56
491.657	147.56
491.874	163.56
492.092	168.56
492.31	167.56
492.527	165.56
492.745	162.56
492.963	173.56
493.18	168.56
493.398	155.56
493.615	172.56
493.833	159.56
494.05	159.56
494.268	164.56
494.485	177.56
494.703	170.56
494.92	162.56
495.138	162.56
495.355	160.56
495.573	185.56
495.79	166.56
496.008	177.56
496.225	176.56
496.442	175.56
496.66	186.56
496.877	168.56
497.094	180.56
497.312	176.56
497.529	170.56
497.746	169.56
497.963	173.56
498.181	185.56
498.398	188.56
498.615	197.56
498.832	212.56
499.049	222.56
499.267	241.56
499.484	244.56
499.701	266.56
499.918	300.56
500.135	334.56
500.352	366.56
500.569	370.56
500.786	372.56
501.003	345.56
501.22	290.56
501.437	274.56
501.654	238.56
501.871	238.56
502.088	214.56
502.305	215.56
502.522	214.56
502.739	209.56
502.956	183.56
503.172	194.56
503.389	190.56
503.606	184.56
503.823	181.56
504.04	200.56
504.256	196.56
504.473	178.56
504.69	178.56
504.907	209.56
