Data from SampG_HRD10591_00014.txt Node
Date: Mon Jan 19 11:53:48 EST 2026
User: Yrep
Spectrometer: HR+D1059
Trigger mode: 0
Integration Time (sec): 3.443000E-1
Scans to average: 1
Electric dark correction enabled: true
Nonlinearity correction enabled: false
Boxcar width: 0
XAxis mode: Wavelengths
Number of Pixels in Spectrum: 2048
>>>>>Begin Spectral Data<<<<<
223.165	-29.31
223.4	-29.31
223.635	-29.31
223.869	-17.31
224.104	-29.31
224.338	-8.31
224.573	-12.31
224.808	-24.31
225.042	3.69
225.277	-6.31
225.511	-10.31
225.746	9.69
225.98	6.69
226.215	11.69
226.449	18.69
226.683	14.69
226.918	35.69
227.152	36.69
227.387	39.69
227.621	43.69
227.856	59.69
228.09	50.69
228.324	45.69
228.559	61.69
228.793	59.69
229.027	65.69
229.262	67.69
229.496	67.69
229.73	67.69
229.964	91.69
230.199	71.69
230.433	98.69
230.667	84.69
230.901	95.69
231.136	78.69
231.37	75.69
231.604	83.69
231.838	91.69
232.072	91.69
232.306	88.69
232.541	91.69
232.775	81.69
233.009	63.69
233.243	76.69
233.477	76.69
233.711	96.69
233.945	89.69
234.179	87.69
234.413	90.69
234.647	90.69
234.881	101.69
235.115	86.69
235.349	77.69
235.583	83.69
235.817	77.69
236.051	76.69
236.285	92.69
236.519	87.69
236.753	77.69
236.987	69.69
237.221	82.69
237.455	72.69
237.689	94.69
237.922	99.69
238.156	80.69
238.39	78.69
238.624	73.69
238.858	77.69
239.091	78.69
239.325	75.69
239.559	74.69
239.793	75.69
240.027	103.69
240.26	92.69
240.494	89.69
240.728	68.69
240.961	69.69
241.195	78.69
241.429	91.69
241.662	69.69
241.896	80.69
242.13	85.69
242.363	69.69
242.597	89.69
242.83	95.69
243.064	84.69
243.298	99.69
243.531	95.69
243.765	80.69
243.998	87.69
244.232	101.69
244.465	86.69
244.699	76.69
244.932	75.69
245.166	83.69
245.399	96.69
245.633	100.69
245.866	85.69
246.099	76.69
246.333	89.69
246.566	85.69
246.8	83.69
247.033	79.69
247.266	77.69
247.5	80.69
247.733	97.69
247.966	84.69
248.2	79.69
248.433	97.69
248.666	95.69
248.899	105.69
249.133	98.69
249.366	84.69
249.599	78.69
249.832	93.69
250.066	99.69
250.299	81.69
250.532	93.69
250.765	85.69
250.998	65.69
251.231	85.69
251.465	92.69
251.698	87.69
251.931	80.69
252.164	89.69
252.397	95.69
252.63	85.69
252.863	91.69
253.096	93.69
253.329	93.69
253.562	95.69
253.795	101.69
254.028	103.69
254.261	101.69
254.494	108.69
254.727	97.69
254.96	96.69
255.193	77.69
255.426	86.69
255.659	89.69
255.892	102.69
256.124	99.69
256.357	91.69
256.59	99.69
256.823	97.69
257.056	103.69
257.289	93.69
257.521	90.69
257.754	97.69
257.987	90.69
258.22	88.69
258.452	72.69
258.685	89.69
258.918	102.69
259.151	92.69
259.383	72.69
259.616	81.69
259.849	91.69
260.081	99.69
260.314	100.69
260.547	101.69
260.779	101.69
261.012	86.69
261.244	81.69
261.477	106.69
261.71	84.69
261.942	114.69
262.175	77.69
262.407	84.69
262.64	89.69
262.872	89.69
263.105	85.69
263.337	101.69
263.57	88.69
263.802	103.69
264.035	91.69
264.267	94.69
264.499	112.69
264.732	105.69
264.964	92.69
265.197	96.69
265.429	105.69
265.661	93.69
265.894	99.69
266.126	97.69
266.358	103.69
266.591	94.69
266.823	103.69
267.055	101.69
267.287	95.69
267.52	93.69
267.752	78.69
267.984	79.69
268.216	101.69
268.448	99.69
268.681	103.69
268.913	95.69
269.145	93.69
269.377	106.69
269.609	95.69
269.841	117.69
270.073	104.69
270.306	105.69
270.538	92.69
270.77	79.69
271.002	95.69
271.234	109.69
271.466	110.69
271.698	104.69
271.93	99.69
272.162	103.69
272.394	112.69
272.626	92.69
272.858	75.69
273.09	95.69
273.322	100.69
273.553	77.69
273.785	105.69
274.017	94.69
274.249	92.69
274.481	92.69
274.713	104.69
274.945	106.69
275.176	97.69
275.408	99.69
275.64	95.69
275.872	102.69
276.104	90.69
276.335	113.69
276.567	88.69
276.799	89.69
277.031	95.69
277.262	93.69
277.494	90.69
277.726	107.69
277.957	108.69
278.189	94.69
278.421	118.69
278.652	113.69
278.884	109.69
279.115	90.69
279.347	111.69
279.579	103.69
279.81	101.69
280.042	107.69
280.273	97.69
280.505	101.69
280.736	99.69
280.968	108.69
281.199	96.69
281.431	88.69
281.662	101.69
281.894	103.69
282.125	105.69
282.356	107.69
282.588	98.69
282.819	105.69
283.051	111.69
283.282	105.69
283.513	110.69
283.745	100.69
283.976	107.69
284.207	101.69
284.439	109.69
284.67	111.69
284.901	105.69
285.132	115.69
285.364	113.69
285.595	115.69
285.826	100.69
286.057	114.69
286.288	124.69
286.52	107.69
286.751	123.69
286.982	112.69
287.213	116.69
287.444	107.69
287.675	99.69
287.906	117.69
288.138	95.69
288.369	109.69
288.6	107.69
288.831	101.69
289.062	117.69
289.293	118.69
289.524	113.69
289.755	104.69
289.986	108.69
290.217	108.69
290.448	99.69
290.679	92.69
290.91	110.69
291.141	110.69
291.371	122.69
291.602	114.69
291.833	112.69
292.064	103.69
292.295	102.69
292.526	99.69
292.757	113.69
292.987	122.69
293.218	107.69
293.449	110.69
293.68	95.69
293.91	110.69
294.141	113.69
294.372	89.69
294.603	115.69
294.833	103.69
295.064	101.69
295.295	113.69
295.525	100.69
295.756	102.69
295.987	112.69
296.217	109.69
296.448	108.69
296.679	112.69
296.909	121.69
297.14	123.69
297.37	101.69
297.601	112.69
297.831	94.69
298.062	116.69
298.292	126.69
298.523	93.69
298.753	107.69
298.984	121.69
299.214	111.69
299.445	116.69
299.675	104.69
299.905	114.69
300.136	104.69
300.366	112.69
300.597	109.69
300.827	108.69
301.057	110.69
301.288	127.69
301.518	136.69
301.748	115.69
301.979	143.69
302.209	112.69
302.439	109.69
302.669	113.69
302.9	107.69
303.13	125.69
303.36	106.69
303.59	111.69
303.82	111.69
304.051	112.69
304.281	125.69
304.511	117.69
304.741	102.69
304.971	110.69
305.201	139.69
305.431	119.69
305.661	124.69
305.891	102.69
306.121	117.69
306.352	109.69
306.582	115.69
306.812	112.69
307.042	108.69
307.272	117.69
307.502	104.69
307.731	106.69
307.961	136.69
308.191	124.69
308.421	107.69
308.651	117.69
308.881	105.69
309.111	109.69
309.341	118.69
309.571	114.69
309.8	99.69
310.03	116.69
310.26	114.69
310.49	104.69
310.72	110.69
310.949	112.69
311.179	109.69
311.409	102.69
311.639	119.69
311.868	118.69
312.098	103.69
312.328	120.69
312.557	124.69
312.787	123.69
313.017	112.69
313.246	120.69
313.476	110.69
313.706	119.69
313.935	114.69
314.165	110.69
314.394	114.69
314.624	111.69
314.853	130.69
315.083	112.69
315.312	114.69
315.542	111.69
315.771	122.69
316.001	106.69
316.23	102.69
316.46	109.69
316.689	117.69
316.919	112.69
317.148	120.69
317.377	134.69
317.607	112.69
317.836	127.69
318.065	99.69
318.295	122.69
318.524	124.69
318.753	112.69
318.983	116.69
319.212	124.69
319.441	117.69
319.67	119.69
319.9	121.69
320.129	133.69
320.358	127.69
320.587	103.69
320.816	110.69
321.046	117.69
321.275	122.69
321.504	107.69
321.733	112.69
321.962	116.69
322.191	111.69
322.42	104.69
322.649	125.69
322.878	128.69
323.108	132.69
323.337	111.69
323.566	125.69
323.795	126.69
324.024	117.69
324.253	129.69
324.482	124.69
324.71	119.69
324.939	127.69
325.168	110.69
325.397	107.69
325.626	128.69
325.855	125.69
326.084	116.69
326.313	109.69
326.542	117.69
326.77	122.69
326.999	116.69
327.228	111.69
327.457	120.69
327.686	105.69
327.914	113.69
328.143	126.69
328.372	121.69
328.6	121.69
328.829	110.69
329.058	95.69
329.287	124.69
329.515	102.69
329.744	111.69
329.972	113.69
330.201	137.69
330.43	112.69
330.658	112.69
330.887	120.69
331.115	118.69
331.344	113.69
331.572	137.69
331.801	119.69
332.03	118.69
332.258	129.69
332.486	130.69
332.715	129.69
332.943	118.69
333.172	107.69
333.4	121.69
333.629	133.69
333.857	129.69
334.085	133.69
334.314	126.69
334.542	135.69
334.771	132.69
334.999	129.69
335.227	133.69
335.455	140.69
335.684	124.69
335.912	130.69
336.14	119.69
336.369	121.69
336.597	128.69
336.825	108.69
337.053	125.69
337.281	124.69
337.51	115.69
337.738	130.69
337.966	139.69
338.194	127.69
338.422	144.69
338.65	127.69
338.878	113.69
339.106	130.69
339.334	124.69
339.562	108.69
339.79	108.69
340.018	120.69
340.246	121.69
340.474	116.69
340.702	122.69
340.93	115.69
341.158	116.69
341.386	112.69
341.614	115.69
341.842	118.69
342.07	131.69
342.298	131.69
342.526	115.69
342.754	128.69
342.981	120.69
343.209	124.69
343.437	139.69
343.665	127.69
343.893	136.69
344.12	121.69
344.348	126.69
344.576	128.69
344.804	135.69
345.031	127.69
345.259	110.69
345.487	120.69
345.714	142.69
345.942	134.69
346.17	108.69
346.397	138.69
346.625	119.69
346.853	137.69
347.08	119.69
347.308	117.69
347.535	118.69
347.763	106.69
347.99	106.69
348.218	131.69
348.445	128.69
348.673	127.69
348.9	118.69
349.128	122.69
349.355	123.69
349.583	128.69
349.81	127.69
350.037	112.69
350.265	110.69
350.492	111.69
350.72	119.69
350.947	126.69
351.174	123.69
351.402	119.69
351.629	107.69
351.856	115.69
352.083	120.69
352.311	134.69
352.538	107.69
352.765	114.69
352.992	131.69
353.22	116.69
353.447	113.69
353.674	122.69
353.901	116.69
354.128	112.69
354.355	121.69
354.583	118.69
354.81	125.69
355.037	123.69
355.264	140.69
355.491	117.69
355.718	122.69
355.945	113.69
356.172	111.69
356.399	125.69
356.626	120.69
356.853	117.69
357.08	131.69
357.307	112.69
357.534	116.69
357.761	132.69
357.988	128.69
358.215	119.69
358.441	124.69
358.668	114.69
358.895	128.69
359.122	120.69
359.349	118.69
359.576	117.69
359.802	117.69
360.029	127.69
360.256	107.69
360.483	116.69
360.709	110.69
360.936	126.69
361.163	123.69
361.39	119.69
361.616	107.69
361.843	117.69
362.07	116.69
362.296	132.69
362.523	119.69
362.749	120.69
362.976	96.69
363.203	136.69
363.429	109.69
363.656	124.69
363.882	113.69
364.109	124.69
364.335	120.69
364.562	113.69
364.788	114.69
365.015	104.69
365.241	131.69
365.468	119.69
365.694	126.69
365.92	118.69
366.147	125.69
366.373	113.69
366.599	119.69
366.826	116.69
367.052	128.69
367.278	116.69
367.505	119.69
367.731	134.69
367.957	129.69
368.184	111.69
368.41	125.69
368.636	111.69
368.862	120.69
369.089	113.69
369.315	116.69
369.541	129.69
369.767	134.69
369.993	132.69
370.219	98.69
370.445	120.69
370.672	128.69
370.898	123.69
371.124	116.69
371.35	110.69
371.576	117.69
371.802	123.69
372.028	122.69
372.254	120.69
372.48	129.69
372.706	132.69
372.932	112.69
373.158	125.69
373.384	127.69
373.61	128.69
373.835	120.69
374.061	125.69
374.287	115.69
374.513	139.69
374.739	141.69
374.965	136.69
375.191	122.69
375.416	129.69
375.642	124.69
375.868	127.69
376.094	124.69
376.319	113.69
376.545	118.69
376.771	114.69
376.997	103.69
377.222	125.69
377.448	118.69
377.674	125.69
377.899	123.69
378.125	117.69
378.35	113.69
378.576	115.69
378.802	113.69
379.027	121.69
379.253	112.69
379.478	112.69
379.704	124.69
379.929	111.69
380.155	127.69
380.38	116.69
380.606	109.69
380.831	132.69
381.057	130.69
381.282	112.69
381.507	136.69
381.733	132.69
381.958	123.69
382.184	104.69
382.409	113.69
382.634	119.69
382.86	124.69
383.085	145.69
383.31	140.69
383.535	137.69
383.761	116.69
383.986	127.69
384.211	132.69
384.436	123.69
384.662	124.69
384.887	139.69
385.112	129.69
385.337	124.69
385.562	136.69
385.787	124.69
386.013	133.69
386.238	127.69
386.463	138.69
386.688	169.69
386.913	128.69
387.138	131.69
387.363	134.69
387.588	135.69
387.813	129.69
388.038	133.69
388.263	124.69
388.488	124.69
388.713	127.69
388.938	132.69
389.163	135.69
389.387	127.69
389.612	120.69
389.837	141.69
390.062	138.69
390.287	129.69
390.512	115.69
390.736	118.69
390.961	133.69
391.186	124.69
391.411	124.69
391.636	143.69
391.86	147.69
392.085	129.69
392.31	135.69
392.534	163.69
392.759	131.69
392.984	143.69
393.208	133.69
393.433	122.69
393.658	145.69
393.882	124.69
394.107	129.69
394.331	142.69
394.556	122.69
394.78	129.69
395.005	132.69
395.229	132.69
395.454	143.69
395.678	140.69
395.903	143.69
396.127	142.69
396.352	130.69
396.576	110.69
396.801	133.69
397.025	132.69
397.249	133.69
397.474	136.69
397.698	131.69
397.922	138.69
398.147	130.69
398.371	142.69
398.595	140.69
398.82	134.69
399.044	139.69
399.268	152.69
399.492	181.69
399.717	176.69
399.941	168.69
400.165	183.69
400.389	140.69
400.613	151.69
400.837	157.69
401.062	132.69
401.286	139.69
401.51	132.69
401.734	144.69
401.958	138.69
402.182	147.69
402.406	152.69
402.63	152.69
402.854	140.69
403.078	149.69
403.302	151.69
403.526	145.69
403.75	151.69
403.974	167.69
404.198	161.69
404.422	153.69
404.645	131.69
404.869	149.69
405.093	156.69
405.317	145.69
405.541	149.69
405.765	162.69
405.988	132.69
406.212	164.69
406.436	138.69
406.66	164.69
406.883	149.69
407.107	168.69
407.331	155.69
407.555	169.69
407.778	160.69
408.002	138.69
408.226	150.69
408.449	153.69
408.673	144.69
408.896	156.69
409.12	152.69
409.344	155.69
409.567	147.69
409.791	142.69
410.014	149.69
410.238	159.69
410.461	142.69
410.685	149.69
410.908	149.69
411.132	156.69
411.355	154.69
411.578	163.69
411.802	135.69
412.025	140.69
412.249	149.69
412.472	137.69
412.695	152.69
412.919	126.69
413.142	134.69
413.365	152.69
413.589	158.69
413.812	147.69
414.035	144.69
414.258	144.69
414.482	148.69
414.705	155.69
414.928	143.69
415.151	144.69
415.374	133.69
415.597	136.69
415.821	141.69
416.044	150.69
416.267	128.69
416.49	127.69
416.713	143.69
416.936	149.69
417.159	144.69
417.382	128.69
417.605	134.69
417.828	145.69
418.051	140.69
418.274	154.69
418.497	140.69
418.72	153.69
418.943	150.69
419.166	153.69
419.389	160.69
419.611	147.69
419.834	136.69
420.057	152.69
420.28	147.69
420.503	138.69
420.726	132.69
420.948	128.69
421.171	150.69
421.394	135.69
421.617	152.69
421.839	124.69
422.062	136.69
422.285	132.69
422.507	145.69
422.73	144.69
422.953	139.69
423.175	153.69
423.398	165.69
423.621	165.69
423.843	148.69
424.066	133.69
424.288	147.69
424.511	153.69
424.733	155.69
424.956	151.69
425.178	137.69
425.401	139.69
425.623	141.69
425.846	128.69
426.068	166.69
426.291	140.69
426.513	144.69
426.735	142.69
426.958	131.69
427.18	131.69
427.402	142.69
427.625	134.69
427.847	127.69
428.069	132.69
428.292	129.69
428.514	147.69
428.736	142.69
428.958	143.69
429.181	140.69
429.403	135.69
429.625	125.69
429.847	131.69
430.069	157.69
430.292	126.69
430.514	139.69
430.736	140.69
430.958	137.69
431.18	134.69
431.402	145.69
431.624	143.69
431.846	143.69
432.068	153.69
432.29	157.69
432.512	139.69
432.734	127.69
432.956	139.69
433.178	147.69
433.4	131.69
433.622	137.69
433.844	144.69
434.066	141.69
434.287	129.69
434.509	151.69
434.731	135.69
434.953	142.69
435.175	125.69
435.397	153.69
435.618	149.69
435.84	131.69
436.062	131.69
436.284	132.69
436.505	121.69
436.727	136.69
436.949	134.69
437.17	142.69
437.392	127.69
437.614	126.69
437.835	120.69
438.057	114.69
438.278	122.69
438.5	139.69
438.721	151.69
438.943	139.69
439.165	125.69
439.386	134.69
439.608	150.69
439.829	122.69
440.05	140.69
440.272	132.69
440.493	122.69
440.715	137.69
440.936	161.69
441.158	139.69
441.379	131.69
441.6	141.69
441.822	140.69
442.043	138.69
442.264	122.69
442.486	134.69
442.707	133.69
442.928	140.69
443.149	128.69
443.371	149.69
443.592	125.69
443.813	136.69
444.034	148.69
444.255	151.69
444.476	151.69
444.698	148.69
444.919	151.69
445.14	439.69
445.361	264.69
445.582	159.69
445.803	129.69
446.024	135.69
446.245	144.69
446.466	149.69
446.687	135.69
446.908	133.69
447.129	124.69
447.35	135.69
447.571	134.69
447.792	112.69
448.013	127.69
448.234	131.69
448.455	129.69
448.675	133.69
448.896	137.69
449.117	138.69
449.338	137.69
449.559	127.69
449.779	129.69
450	114.69
450.221	127.69
450.442	133.69
450.662	129.69
450.883	144.69
451.104	126.69
451.324	135.69
451.545	127.69
451.766	133.69
451.986	134.69
452.207	133.69
452.428	136.69
452.648	139.69
452.869	131.69
453.089	129.69
453.31	121.69
453.53	120.69
453.751	125.69
453.971	123.69
454.192	134.69
454.412	123.69
454.633	106.69
454.853	130.69
455.073	114.69
455.294	134.69
455.514	120.69
455.734	132.69
455.955	117.69
456.175	113.69
456.395	113.69
456.616	121.69
456.836	121.69
457.056	119.69
457.276	120.69
457.497	132.69
457.717	119.69
457.937	121.69
458.157	123.69
458.377	129.69
458.598	127.69
458.818	138.69
459.038	114.69
459.258	117.69
459.478	137.69
459.698	128.69
459.918	145.69
460.138	140.69
460.358	131.69
460.578	157.69
460.798	149.69
461.018	150.69
461.238	135.69
461.458	143.69
461.678	147.69
461.898	158.69
462.118	171.69
462.338	135.69
462.558	158.69
462.777	165.69
462.997	155.69
463.217	177.69
463.437	175.69
463.657	157.69
463.876	165.69
464.096	159.69
464.316	150.69
464.536	156.69
464.755	161.69
464.975	140.69
465.195	128.69
465.414	148.69
465.634	138.69
465.854	142.69
466.073	133.69
466.293	132.69
466.512	111.69
466.732	128.69
466.951	128.69
467.171	128.69
467.391	122.69
467.61	134.69
467.829	132.69
468.049	135.69
468.268	127.69
468.488	129.69
468.707	123.69
468.927	123.69
469.146	117.69
469.365	125.69
469.585	126.69
469.804	127.69
470.023	123.69
470.243	142.69
470.462	124.69
470.681	140.69
470.901	121.69
471.12	132.69
471.339	151.69
471.558	130.69
471.777	127.69
471.997	133.69
472.216	124.69
472.435	127.69
472.654	124.69
472.873	125.69
473.092	134.69
473.311	128.69
473.53	131.69
473.749	127.69
473.968	131.69
474.187	126.69
474.406	123.69
474.625	132.69
474.844	137.69
475.063	135.69
475.282	125.69
475.501	128.69
475.72	158.69
475.939	129.69
476.158	132.69
476.377	112.69
476.596	144.69
476.814	124.69
477.033	128.69
477.252	144.69
477.471	140.69
477.69	138.69
477.908	155.69
478.127	152.69
478.346	140.69
478.564	143.69
478.783	151.69
479.002	154.69
479.22	147.69
479.439	153.69
479.658	147.69
479.876	158.69
480.095	145.69
480.313	148.69
480.532	158.69
480.751	149.69
480.969	142.69
481.188	150.69
481.406	141.69
481.624	134.69
481.843	138.69
482.061	143.69
482.28	151.69
482.498	154.69
482.717	131.69
482.935	124.69
483.153	143.69
483.372	143.69
483.59	122.69
483.808	142.69
484.027	150.69
484.245	151.69
484.463	147.69
484.681	151.69
484.9	133.69
485.118	147.69
485.336	138.69
485.554	144.69
485.772	142.69
485.99	140.69
486.209	137.69
486.427	135.69
486.645	148.69
486.863	135.69
487.081	136.69
487.299	148.69
487.517	139.69
487.735	151.69
487.953	138.69
488.171	133.69
488.389	131.69
488.607	134.69
488.825	153.69
489.043	140.69
489.261	143.69
489.479	143.69
489.696	155.69
489.914	153.69
490.132	138.69
490.35	152.69
490.568	151.69
490.786	140.69
491.003	148.69
491.221	134.69
491.439	148.69
491.657	138.69
491.874	147.69
492.092	137.69
492.31	152.69
492.527	141.69
492.745	126.69
492.963	147.69
493.18	136.69
493.398	141.69
493.615	156.69
493.833	167.69
494.05	145.69
494.268	151.69
494.485	147.69
494.703	135.69
494.92	144.69
495.138	149.69
495.355	155.69
495.573	142.69
495.79	134.69
496.008	172.69
496.225	151.69
496.442	151.69
496.66	149.69
496.877	151.69
497.094	147.69
497.312	158.69
497.529	158.69
497.746	155.69
497.963	149.69
498.181	158.69
498.398	176.69
498.615	184.69
498.832	183.69
499.049	180.69
499.267	199.69
499.484	202.69
499.701	227.69
499.918	242.69
500.135	266.69
500.352	288.69
500.569	267.69
500.786	300.69
501.003	264.69
501.22	243.69
501.437	223.69
501.654	188.69
501.871	179.69
502.088	173.69
502.305	187.69
502.522	174.69
502.739	163.69
502.956	161.69
503.172	178.69
503.389	149.69
503.606	157.69
503.823	148.69
504.04	156.69
504.256	171.69
504.473	155.69
504.69	152.69
504.907	159.69
505.123	141.69
505.34	138.69
