Data from SampG_HRD10591_00051.txt Node
Date: Mon Jan 19 11:54:00 EST 2026
User: Yrep
Spectrometer: HR+D1059
Trigger mode: 0
Integration Time (sec): 3.443000E-1
Scans to average: 1
Electric dark correction enabled: true
Nonlinearity correction enabled: false
Boxcar width: 0
XAxis mode: Wavelengths
Number of Pixels in Spectrum: 2048
>>>>>Begin Spectral Data<<<<<
223.165	-19.06
223.4	-19.06
223.635	-19.06
223.869	-16.06
224.104	-21.06
224.338	-31.06
224.573	-12.06
224.808	-20.06
225.042	1.94
225.277	0.94
225.511	14.94
225.746	6.94
225.98	1.94
226.215	7.94
226.449	2.94
226.683	18.94
226.918	20.94
227.152	41.94
227.387	40.94
227.621	22.94
227.856	39.94
228.09	41.94
228.324	49.94
228.559	63.94
228.793	55.94
229.027	58.94
229.262	74.94
229.496	67.94
229.73	66.94
229.964	78.94
230.199	69.94
230.433	80.94
230.667	84.94
230.901	81.94
231.136	87.94
231.37	68.94
231.604	79.94
231.838	58.94
232.072	83.94
232.306	81.94
232.541	74.94
232.775	95.94
233.009	92.94
233.243	74.94
233.477	92.94
233.711	87.94
233.945	86.94
234.179	79.94
234.413	87.94
234.647	78.94
234.881	77.94
235.115	88.94
235.349	75.94
235.583	87.94
235.817	84.94
236.051	71.94
236.285	75.94
236.519	72.94
236.753	70.94
236.987	79.94
237.221	77.94
237.455	86.94
237.689	89.94
237.922	80.94
238.156	70.94
238.39	71.94
238.624	66.94
238.858	81.94
239.091	79.94
239.325	92.94
239.559	75.94
239.793	71.94
240.027	79.94
240.26	78.94
240.494	83.94
240.728	77.94
240.961	77.94
241.195	98.94
241.429	98.94
241.662	65.94
241.896	87.94
242.13	76.94
242.363	87.94
242.597	87.94
242.83	89.94
243.064	83.94
243.298	80.94
243.531	85.94
243.765	81.94
243.998	82.94
244.232	99.94
244.465	82.94
244.699	84.94
244.932	77.94
245.166	66.94
245.399	87.94
245.633	84.94
245.866	87.94
246.099	74.94
246.333	78.94
246.566	81.94
246.8	78.94
247.033	95.94
247.266	77.94
247.5	95.94
247.733	81.94
247.966	77.94
248.2	100.94
248.433	84.94
248.666	77.94
248.899	91.94
249.133	103.94
249.366	99.94
249.599	90.94
249.832	94.94
250.066	89.94
250.299	90.94
250.532	90.94
250.765	71.94
250.998	78.94
251.231	91.94
251.465	88.94
251.698	83.94
251.931	93.94
252.164	98.94
252.397	85.94
252.63	94.94
252.863	89.94
253.096	86.94
253.329	86.94
253.562	94.94
253.795	104.94
254.028	91.94
254.261	91.94
254.494	97.94
254.727	113.94
254.96	106.94
255.193	95.94
255.426	89.94
255.659	94.94
255.892	98.94
256.124	97.94
256.357	101.94
256.59	86.94
256.823	80.94
257.056	85.94
257.289	89.94
257.521	93.94
257.754	78.94
257.987	104.94
258.22	98.94
258.452	98.94
258.685	74.94
258.918	98.94
259.151	108.94
259.383	97.94
259.616	82.94
259.849	95.94
260.081	88.94
260.314	101.94
260.547	97.94
260.779	79.94
261.012	104.94
261.244	120.94
261.477	110.94
261.71	101.94
261.942	105.94
262.175	95.94
262.407	100.94
262.64	95.94
262.872	95.94
263.105	90.94
263.337	98.94
263.57	95.94
263.802	102.94
264.035	95.94
264.267	120.94
264.499	104.94
264.732	101.94
264.964	105.94
265.197	98.94
265.429	107.94
265.661	104.94
265.894	95.94
266.126	80.94
266.358	110.94
266.591	96.94
266.823	105.94
267.055	84.94
267.287	121.94
267.52	93.94
267.752	96.94
267.984	97.94
268.216	107.94
268.448	99.94
268.681	98.94
268.913	103.94
269.145	99.94
269.377	103.94
269.609	91.94
269.841	100.94
270.073	111.94
270.306	99.94
270.538	98.94
270.77	88.94
271.002	100.94
271.234	108.94
271.466	113.94
271.698	100.94
271.93	102.94
272.162	108.94
272.394	117.94
272.626	103.94
272.858	107.94
273.09	90.94
273.322	105.94
273.553	102.94
273.785	113.94
274.017	100.94
274.249	101.94
274.481	103.94
274.713	102.94
274.945	106.94
275.176	102.94
275.408	101.94
275.64	98.94
275.872	93.94
276.104	101.94
276.335	112.94
276.567	99.94
276.799	102.94
277.031	97.94
277.262	109.94
277.494	104.94
277.726	112.94
277.957	117.94
278.189	108.94
278.421	98.94
278.652	97.94
278.884	121.94
279.115	118.94
279.347	86.94
279.579	115.94
279.81	112.94
280.042	105.94
280.273	98.94
280.505	103.94
280.736	98.94
280.968	107.94
281.199	105.94
281.431	106.94
281.662	106.94
281.894	108.94
282.125	122.94
282.356	110.94
282.588	101.94
282.819	118.94
283.051	106.94
283.282	103.94
283.513	126.94
283.745	115.94
283.976	112.94
284.207	103.94
284.439	110.94
284.67	107.94
284.901	103.94
285.132	115.94
285.364	113.94
285.595	121.94
285.826	122.94
286.057	116.94
286.288	111.94
286.52	109.94
286.751	98.94
286.982	107.94
287.213	113.94
287.444	129.94
287.675	106.94
287.906	124.94
288.138	111.94
288.369	127.94
288.6	127.94
288.831	110.94
289.062	121.94
289.293	121.94
289.524	107.94
289.755	126.94
289.986	115.94
290.217	109.94
290.448	106.94
290.679	115.94
290.91	131.94
291.141	122.94
291.371	109.94
291.602	127.94
291.833	125.94
292.064	122.94
292.295	107.94
292.526	125.94
292.757	113.94
292.987	119.94
293.218	122.94
293.449	125.94
293.68	104.94
293.91	110.94
294.141	127.94
294.372	112.94
294.603	126.94
294.833	115.94
295.064	120.94
295.295	109.94
295.525	107.94
295.756	130.94
295.987	129.94
296.217	110.94
296.448	107.94
296.679	116.94
296.909	128.94
297.14	135.94
297.37	128.94
297.601	108.94
297.831	114.94
298.062	114.94
298.292	125.94
298.523	133.94
298.753	135.94
298.984	127.94
299.214	104.94
299.445	126.94
299.675	129.94
299.905	130.94
300.136	121.94
300.366	122.94
300.597	113.94
300.827	127.94
301.057	126.94
301.288	125.94
301.518	111.94
301.748	119.94
301.979	149.94
302.209	119.94
302.439	130.94
302.669	119.94
302.9	130.94
303.13	115.94
303.36	123.94
303.59	123.94
303.82	124.94
304.051	132.94
304.281	131.94
304.511	138.94
304.741	114.94
304.971	106.94
305.201	128.94
305.431	126.94
305.661	119.94
305.891	102.94
306.121	116.94
306.352	121.94
306.582	123.94
306.812	120.94
307.042	96.94
307.272	126.94
307.502	120.94
307.731	116.94
307.961	130.94
308.191	120.94
308.421	115.94
308.651	120.94
308.881	122.94
309.111	119.94
309.341	127.94
309.571	131.94
309.8	120.94
310.03	115.94
310.26	121.94
310.49	121.94
310.72	110.94
310.949	112.94
311.179	110.94
311.409	135.94
311.639	121.94
311.868	135.94
312.098	117.94
312.328	125.94
312.557	122.94
312.787	122.94
313.017	138.94
313.246	120.94
313.476	130.94
313.706	136.94
313.935	122.94
314.165	127.94
314.394	121.94
314.624	128.94
314.853	132.94
315.083	137.94
315.312	122.94
315.542	121.94
315.771	116.94
316.001	137.94
316.23	127.94
316.46	121.94
316.689	126.94
316.919	128.94
317.148	124.94
317.377	133.94
317.607	123.94
317.836	130.94
318.065	115.94
318.295	135.94
318.524	120.94
318.753	141.94
318.983	136.94
319.212	129.94
319.441	126.94
319.67	121.94
319.9	127.94
320.129	122.94
320.358	130.94
320.587	112.94
320.816	135.94
321.046	130.94
321.275	136.94
321.504	113.94
321.733	125.94
321.962	133.94
322.191	126.94
322.42	127.94
322.649	143.94
322.878	129.94
323.108	120.94
323.337	117.94
323.566	124.94
323.795	138.94
324.024	130.94
324.253	129.94
324.482	124.94
324.71	114.94
324.939	127.94
325.168	117.94
325.397	123.94
325.626	131.94
325.855	128.94
326.084	129.94
326.313	128.94
326.542	124.94
326.77	114.94
326.999	123.94
327.228	119.94
327.457	133.94
327.686	126.94
327.914	137.94
328.143	143.94
328.372	123.94
328.6	146.94
328.829	107.94
329.058	124.94
329.287	132.94
329.515	118.94
329.744	130.94
329.972	126.94
330.201	134.94
330.43	126.94
330.658	136.94
330.887	118.94
331.115	110.94
331.344	136.94
331.572	150.94
331.801	155.94
332.03	150.94
332.258	131.94
332.486	127.94
332.715	133.94
332.943	131.94
333.172	157.94
333.4	141.94
333.629	144.94
333.857	163.94
334.085	145.94
334.314	150.94
334.542	142.94
334.771	151.94
334.999	142.94
335.227	134.94
335.455	143.94
335.684	153.94
335.912	158.94
336.14	145.94
336.369	141.94
336.597	119.94
336.825	145.94
337.053	144.94
337.281	150.94
337.51	141.94
337.738	128.94
337.966	147.94
338.194	127.94
338.422	143.94
338.65	135.94
338.878	163.94
339.106	126.94
339.334	135.94
339.562	121.94
339.79	149.94
340.018	145.94
340.246	123.94
340.474	145.94
340.702	119.94
340.93	133.94
341.158	124.94
341.386	141.94
341.614	129.94
341.842	127.94
342.07	123.94
342.298	137.94
342.526	132.94
342.754	127.94
342.981	135.94
343.209	134.94
343.437	162.94
343.665	134.94
343.893	143.94
344.12	157.94
344.348	158.94
344.576	121.94
344.804	124.94
345.031	136.94
345.259	129.94
345.487	143.94
345.714	131.94
345.942	138.94
346.17	132.94
346.397	127.94
346.625	106.94
346.853	124.94
347.08	127.94
347.308	138.94
347.535	146.94
347.763	123.94
347.99	150.94
348.218	133.94
348.445	131.94
348.673	143.94
348.9	145.94
349.128	137.94
349.355	121.94
349.583	120.94
349.81	118.94
350.037	128.94
350.265	112.94
350.492	132.94
350.72	122.94
350.947	125.94
351.174	118.94
351.402	119.94
351.629	136.94
351.856	125.94
352.083	127.94
352.311	141.94
352.538	131.94
352.765	143.94
352.992	137.94
353.22	137.94
353.447	130.94
353.674	141.94
353.901	143.94
354.128	145.94
354.355	127.94
354.583	129.94
354.81	131.94
355.037	127.94
355.264	133.94
355.491	140.94
355.718	125.94
355.945	129.94
356.172	128.94
356.399	141.94
356.626	134.94
356.853	134.94
357.08	140.94
357.307	134.94
357.534	135.94
357.761	145.94
357.988	154.94
358.215	141.94
358.441	136.94
358.668	137.94
358.895	129.94
359.122	145.94
359.349	120.94
359.576	133.94
359.802	131.94
360.029	124.94
360.256	114.94
360.483	122.94
360.709	136.94
360.936	138.94
361.163	131.94
361.39	136.94
361.616	115.94
361.843	130.94
362.07	150.94
362.296	120.94
362.523	119.94
362.749	125.94
362.976	115.94
363.203	144.94
363.429	127.94
363.656	143.94
363.882	128.94
364.109	134.94
364.335	138.94
364.562	140.94
364.788	137.94
365.015	140.94
365.241	136.94
365.468	145.94
365.694	146.94
365.92	133.94
366.147	123.94
366.373	151.94
366.599	108.94
366.826	129.94
367.052	138.94
367.278	143.94
367.505	137.94
367.731	124.94
367.957	120.94
368.184	143.94
368.41	143.94
368.636	128.94
368.862	129.94
369.089	136.94
369.315	119.94
369.541	132.94
369.767	151.94
369.993	142.94
370.219	115.94
370.445	140.94
370.672	143.94
370.898	121.94
371.124	122.94
371.35	126.94
371.576	152.94
371.802	137.94
372.028	143.94
372.254	141.94
372.48	123.94
372.706	147.94
372.932	143.94
373.158	139.94
373.384	145.94
373.61	142.94
373.835	135.94
374.061	137.94
374.287	143.94
374.513	145.94
374.739	127.94
374.965	137.94
375.191	147.94
375.416	145.94
375.642	151.94
375.868	155.94
376.094	145.94
376.319	126.94
376.545	141.94
376.771	132.94
376.997	129.94
377.222	135.94
377.448	130.94
377.674	122.94
377.899	127.94
378.125	133.94
378.35	132.94
378.576	129.94
378.802	137.94
379.027	126.94
379.253	147.94
379.478	145.94
379.704	133.94
379.929	137.94
380.155	128.94
380.38	132.94
380.606	133.94
380.831	137.94
381.057	157.94
381.282	143.94
381.507	148.94
381.733	146.94
381.958	134.94
382.184	151.94
382.409	155.94
382.634	150.94
382.86	141.94
383.085	157.94
383.31	137.94
383.535	148.94
383.761	145.94
383.986	155.94
384.211	161.94
384.436	162.94
384.662	127.94
384.887	155.94
385.112	151.94
385.337	156.94
385.562	169.94
385.787	162.94
386.013	155.94
386.238	148.94
386.463	170.94
386.688	191.94
386.913	161.94
387.138	157.94
387.363	134.94
387.588	158.94
387.813	154.94
388.038	155.94
388.263	155.94
388.488	160.94
388.713	137.94
388.938	133.94
389.163	142.94
389.387	133.94
389.612	144.94
389.837	147.94
390.062	151.94
390.287	144.94
390.512	147.94
390.736	137.94
390.961	159.94
391.186	160.94
391.411	168.94
391.636	160.94
391.86	157.94
392.085	157.94
392.31	157.94
392.534	170.94
392.759	164.94
392.984	158.94
393.208	144.94
393.433	159.94
393.658	181.94
393.882	170.94
394.107	167.94
394.331	166.94
394.556	166.94
394.78	158.94
395.005	151.94
395.229	157.94
395.454	164.94
395.678	166.94
395.903	177.94
396.127	169.94
396.352	158.94
396.576	141.94
396.801	178.94
397.025	169.94
397.249	172.94
397.474	173.94
397.698	166.94
397.922	159.94
398.147	146.94
398.371	185.94
398.595	180.94
398.82	163.94
399.044	180.94
399.268	184.94
399.492	228.94
399.717	235.94
399.941	220.94
400.165	217.94
400.389	176.94
400.613	168.94
400.837	153.94
401.062	175.94
401.286	180.94
401.51	165.94
401.734	174.94
401.958	159.94
402.182	182.94
402.406	171.94
402.63	168.94
402.854	193.94
403.078	191.94
403.302	166.94
403.526	178.94
403.75	197.94
403.974	199.94
404.198	183.94
404.422	185.94
404.645	193.94
404.869	183.94
405.093	189.94
405.317	187.94
405.541	191.94
405.765	182.94
405.988	182.94
406.212	193.94
406.436	177.94
406.66	191.94
406.883	190.94
407.107	199.94
407.331	199.94
407.555	219.94
407.778	215.94
408.002	194.94
408.226	218.94
408.449	184.94
408.673	168.94
408.896	165.94
409.12	187.94
409.344	195.94
409.567	207.94
409.791	190.94
410.014	195.94
410.238	178.94
410.461	189.94
410.685	180.94
410.908	194.94
411.132	181.94
411.355	173.94
411.578	174.94
411.802	171.94
412.025	164.94
412.249	173.94
412.472	181.94
412.695	168.94
412.919	153.94
413.142	165.94
413.365	162.94
413.589	172.94
413.812	163.94
414.035	170.94
414.258	166.94
414.482	182.94
414.705	180.94
414.928	185.94
415.151	175.94
415.374	173.94
415.597	176.94
415.821	181.94
416.044	178.94
416.267	183.94
416.49	161.94
416.713	175.94
416.936	161.94
417.159	173.94
417.382	166.94
417.605	157.94
417.828	179.94
418.051	176.94
418.274	184.94
418.497	169.94
418.72	170.94
418.943	181.94
419.166	187.94
419.389	170.94
419.611	178.94
419.834	167.94
420.057	174.94
420.28	171.94
420.503	173.94
420.726	171.94
420.948	161.94
421.171	159.94
421.394	179.94
421.617	177.94
421.839	161.94
422.062	177.94
422.285	168.94
422.507	174.94
422.73	182.94
422.953	183.94
423.175	177.94
423.398	180.94
423.621	192.94
423.843	177.94
424.066	195.94
424.288	184.94
424.511	195.94
424.733	185.94
424.956	180.94
425.178	186.94
425.401	184.94
425.623	167.94
425.846	154.94
426.068	169.94
426.291	174.94
426.513	148.94
426.735	153.94
426.958	173.94
427.18	169.94
427.402	166.94
427.625	169.94
427.847	170.94
428.069	170.94
428.292	156.94
428.514	160.94
428.736	147.94
428.958	179.94
429.181	167.94
429.403	149.94
429.625	168.94
429.847	159.94
430.069	153.94
430.292	160.94
430.514	148.94
430.736	156.94
430.958	150.94
431.18	156.94
431.402	175.94
431.624	167.94
431.846	142.94
432.068	159.94
432.29	171.94
432.512	175.94
432.734	156.94
432.956	172.94
433.178	167.94
433.4	171.94
433.622	166.94
433.844	173.94
434.066	156.94
434.287	165.94
434.509	162.94
434.731	175.94
434.953	170.94
435.175	169.94
435.397	178.94
435.618	170.94
435.84	150.94
436.062	181.94
436.284	154.94
436.505	155.94
436.727	169.94
436.949	167.94
437.17	143.94
437.392	163.94
437.614	162.94
437.835	166.94
438.057	145.94
438.278	159.94
438.5	141.94
438.721	165.94
438.943	160.94
439.165	178.94
439.386	150.94
439.608	168.94
439.829	168.94
440.05	168.94
440.272	158.94
440.493	151.94
440.715	176.94
440.936	167.94
441.158	181.94
441.379	158.94
441.6	161.94
441.822	176.94
442.043	175.94
442.264	175.94
442.486	179.94
442.707	167.94
442.928	173.94
443.149	173.94
443.371	174.94
443.592	178.94
443.813	178.94
444.034	178.94
444.255	197.94
444.476	189.94
444.698	180.94
444.919	195.94
445.14	467.94
445.361	305.94
445.582	193.94
445.803	163.94
446.024	167.94
446.245	181.94
446.466	171.94
446.687	149.94
446.908	165.94
447.129	153.94
447.35	161.94
447.571	169.94
447.792	162.94
448.013	160.94
448.234	162.94
448.455	156.94
448.675	143.94
448.896	152.94
449.117	132.94
449.338	149.94
449.559	157.94
449.779	146.94
450	157.94
450.221	167.94
450.442	141.94
450.662	145.94
450.883	139.94
451.104	153.94
451.324	147.94
451.545	169.94
451.766	152.94
451.986	149.94
452.207	122.94
452.428	151.94
452.648	162.94
452.869	157.94
453.089	157.94
453.31	159.94
453.53	148.94
453.751	158.94
453.971	157.94
454.192	144.94
454.412	139.94
454.633	144.94
454.853	133.94
455.073	151.94
455.294	169.94
455.514	158.94
455.734	143.94
455.955	150.94
456.175	133.94
456.395	145.94
456.616	142.94
456.836	153.94
457.056	149.94
457.276	137.94
457.497	153.94
457.717	135.94
457.937	157.94
458.157	152.94
458.377	137.94
458.598	142.94
458.818	152.94
459.038	173.94
459.258	153.94
459.478	173.94
459.698	170.94
459.918	175.94
460.138	163.94
460.358	179.94
460.578	188.94
460.798	187.94
461.018	197.94
461.238	181.94
461.458	179.94
461.678	178.94
461.898	196.94
462.118	192.94
462.338	185.94
462.558	189.94
462.777	195.94
462.997	237.94
463.217	217.94
463.437	210.94
463.657	195.94
463.876	209.94
464.096	203.94
464.316	190.94
464.536	191.94
464.755	202.94
464.975	185.94
465.195	182.94
465.414	168.94
465.634	170.94
465.854	162.94
466.073	168.94
466.293	173.94
466.512	154.94
466.732	165.94
466.951	156.94
467.171	168.94
467.391	151.94
467.61	161.94
467.829	158.94
468.049	153.94
468.268	141.94
468.488	151.94
468.707	147.94
468.927	144.94
469.146	140.94
469.365	144.94
469.585	151.94
469.804	155.94
470.023	175.94
470.243	156.94
470.462	156.94
470.681	163.94
470.901	170.94
471.12	164.94
471.339	160.94
471.558	139.94
471.777	152.94
471.997	165.94
472.216	159.94
472.435	145.94
472.654	150.94
472.873	167.94
473.092	161.94
473.311	156.94
473.53	157.94
473.749	151.94
473.968	184.94
474.187	157.94
474.406	155.94
474.625	150.94
474.844	170.94
475.063	164.94
475.282	147.94
475.501	146.94
475.72	177.94
475.939	150.94
476.158	148.94
476.377	157.94
476.596	150.94
476.814	155.94
477.033	147.94
477.252	166.94
477.471	171.94
477.69	146.94
477.908	171.94
478.127	170.94
478.346	179.94
478.564	173.94
478.783	158.94
479.002	177.94
479.22	173.94
479.439	166.94
479.658	174.94
479.876	162.94
480.095	180.94
480.313	184.94
480.532	182.94
480.751	187.94
480.969	174.94
481.188	171.94
481.406	175.94
481.624	159.94
481.843	168.94
482.061	170.94
482.28	162.94
482.498	157.94
482.717	166.94
482.935	171.94
483.153	167.94
483.372	172.94
483.59	176.94
483.808	168.94
484.027	152.94
484.245	160.94
484.463	163.94
484.681	189.94
484.9	154.94
485.118	186.94
485.336	167.94
485.554	165.94
485.772	169.94
485.99	163.94
486.209	169.94
486.427	167.94
486.645	175.94
486.863	178.94
487.081	176.94
487.299	155.94
487.517	151.94
487.735	157.94
487.953	181.94
488.171	182.94
488.389	198.94
488.607	165.94
488.825	167.94
489.043	172.94
489.261	183.94
489.479	170.94
489.696	176.94
489.914	163.94
490.132	192.94
490.35	175.94
490.568	177.94
490.786	174.94
491.003	159.94
491.221	180.94
491.439	177.94
491.657	170.94
491.874	167.94
492.092	174.94
492.31	173.94
492.527	178.94
492.745	176.94
492.963	192.94
493.18	190.94
493.398	176.94
493.615	169.94
493.833	169.94
494.05	169.94
494.268	173.94
494.485	177.94
494.703	176.94
494.92	177.94
495.138	184.94
495.355	178.94
495.573	188.94
495.79	184.94
496.008	188.94
496.225	192.94
496.442	175.94
496.66	182.94
496.877	190.94
497.094	192.94
497.312	182.94
497.529	185.94
497.746	202.94
497.963	193.94
498.181	197.94
498.398	210.94
498.615	205.94
498.832	212.94
499.049	231.94
499.267	272.94
499.484	294.94
499.701	300.94
499.918	325.94
500.135	352.94
500.352	405.94
500.569	375.94
500.786	401.94
501.003	373.94
501.22	319.94
501.437	280.94
501.654	264.94
501.871	250.94
502.088	229.94
502.305	232.94
502.522	230.94
502.739	215.94
502.956	210.94
503.172	212.94
503.389	183.94
503.606	201.94
503.823	193.94
504.04	193.94
504.256	216.94
504.473	205.94
504.69	201.94
504.907	217.94
