Data from SampG_HRD10591_00004.txt Node
Date: Mon Jan 19 11:53:44 EST 2026
User: Yrep
Spectrometer: HR+D1059
Trigger mode: 0
Integration Time (sec): 3.443000E-1
Scans to average: 1
Electric dark correction enabled: true
Nonlinearity correction enabled: false
Boxcar width: 0
XAxis mode: Wavelengths
Number of Pixels in Spectrum: 2048
>>>>>Begin Spectral Data<<<<<
223.165	-13.88
223.4	-13.88
223.635	-13.88
223.869	-27.88
224.104	-23.88
224.338	-11.88
224.573	-19.88
224.808	-14.88
225.042	0.12
225.277	9.12
225.511	-8.88
225.746	-0.88
225.98	15.12
226.215	11.12
226.449	24.12
226.683	14.12
226.918	11.12
227.152	37.12
227.387	43.12
227.621	27.12
227.856	48.12
228.09	46.12
228.324	55.12
228.559	76.12
228.793	60.12
229.027	53.12
229.262	64.12
229.496	58.12
229.73	72.12
229.964	63.12
230.199	74.12
230.433	80.12
230.667	83.12
230.901	74.12
231.136	94.12
231.37	88.12
231.604	91.12
231.838	84.12
232.072	76.12
232.306	84.12
232.541	93.12
232.775	87.12
233.009	80.12
233.243	70.12
233.477	80.12
233.711	92.12
233.945	89.12
234.179	93.12
234.413	91.12
234.647	97.12
234.881	82.12
235.115	85.12
235.349	91.12
235.583	86.12
235.817	85.12
236.051	82.12
236.285	70.12
236.519	84.12
236.753	77.12
236.987	96.12
237.221	88.12
237.455	78.12
237.689	84.12
237.922	90.12
238.156	98.12
238.39	84.12
238.624	66.12
238.858	93.12
239.091	69.12
239.325	77.12
239.559	78.12
239.793	97.12
240.027	104.12
240.26	81.12
240.494	80.12
240.728	82.12
240.961	90.12
241.195	94.12
241.429	85.12
241.662	71.12
241.896	64.12
242.13	69.12
242.363	73.12
242.597	76.12
242.83	96.12
243.064	84.12
243.298	91.12
243.531	109.12
243.765	92.12
243.998	87.12
244.232	86.12
244.465	99.12
244.699	79.12
244.932	79.12
245.166	79.12
245.399	100.12
245.633	92.12
245.866	88.12
246.099	80.12
246.333	87.12
246.566	86.12
246.8	95.12
247.033	86.12
247.266	91.12
247.5	93.12
247.733	97.12
247.966	91.12
248.2	89.12
248.433	76.12
248.666	88.12
248.899	79.12
249.133	86.12
249.366	98.12
249.599	81.12
249.832	95.12
250.066	101.12
250.299	94.12
250.532	100.12
250.765	91.12
250.998	97.12
251.231	90.12
251.465	86.12
251.698	82.12
251.931	108.12
252.164	105.12
252.397	118.12
252.63	111.12
252.863	97.12
253.096	87.12
253.329	105.12
253.562	101.12
253.795	86.12
254.028	102.12
254.261	106.12
254.494	78.12
254.727	101.12
254.96	93.12
255.193	90.12
255.426	94.12
255.659	100.12
255.892	91.12
256.124	92.12
256.357	116.12
256.59	105.12
256.823	101.12
257.056	93.12
257.289	94.12
257.521	107.12
257.754	96.12
257.987	100.12
258.22	114.12
258.452	102.12
258.685	94.12
258.918	109.12
259.151	104.12
259.383	108.12
259.616	100.12
259.849	92.12
260.081	116.12
260.314	102.12
260.547	121.12
260.779	110.12
261.012	104.12
261.244	104.12
261.477	112.12
261.71	99.12
261.942	107.12
262.175	101.12
262.407	120.12
262.64	111.12
262.872	96.12
263.105	106.12
263.337	115.12
263.57	106.12
263.802	117.12
264.035	120.12
264.267	97.12
264.499	99.12
264.732	117.12
264.964	117.12
265.197	106.12
265.429	111.12
265.661	109.12
265.894	112.12
266.126	120.12
266.358	110.12
266.591	120.12
266.823	109.12
267.055	111.12
267.287	112.12
267.52	113.12
267.752	107.12
267.984	122.12
268.216	108.12
268.448	101.12
268.681	108.12
268.913	119.12
269.145	116.12
269.377	122.12
269.609	98.12
269.841	131.12
270.073	109.12
270.306	106.12
270.538	109.12
270.77	102.12
271.002	119.12
271.234	108.12
271.466	121.12
271.698	116.12
271.93	110.12
272.162	130.12
272.394	101.12
272.626	111.12
272.858	122.12
273.09	120.12
273.322	125.12
273.553	99.12
273.785	126.12
274.017	114.12
274.249	118.12
274.481	128.12
274.713	114.12
274.945	115.12
275.176	116.12
275.408	132.12
275.64	122.12
275.872	109.12
276.104	114.12
276.335	122.12
276.567	129.12
276.799	121.12
277.031	117.12
277.262	128.12
277.494	117.12
277.726	98.12
277.957	118.12
278.189	115.12
278.421	95.12
278.652	99.12
278.884	133.12
279.115	134.12
279.347	121.12
279.579	121.12
279.81	117.12
280.042	134.12
280.273	114.12
280.505	121.12
280.736	124.12
280.968	123.12
281.199	117.12
281.431	137.12
281.662	133.12
281.894	140.12
282.125	138.12
282.356	114.12
282.588	116.12
282.819	130.12
283.051	121.12
283.282	130.12
283.513	122.12
283.745	120.12
283.976	114.12
284.207	130.12
284.439	123.12
284.67	128.12
284.901	131.12
285.132	129.12
285.364	126.12
285.595	130.12
285.826	140.12
286.057	130.12
286.288	117.12
286.52	144.12
286.751	128.12
286.982	134.12
287.213	128.12
287.444	129.12
287.675	135.12
287.906	128.12
288.138	117.12
288.369	137.12
288.6	138.12
288.831	145.12
289.062	132.12
289.293	132.12
289.524	128.12
289.755	133.12
289.986	127.12
290.217	138.12
290.448	155.12
290.679	142.12
290.91	136.12
291.141	129.12
291.371	136.12
291.602	126.12
291.833	126.12
292.064	126.12
292.295	131.12
292.526	141.12
292.757	143.12
292.987	124.12
293.218	138.12
293.449	149.12
293.68	136.12
293.91	135.12
294.141	140.12
294.372	137.12
294.603	137.12
294.833	145.12
295.064	145.12
295.295	137.12
295.525	130.12
295.756	131.12
295.987	153.12
296.217	139.12
296.448	130.12
296.679	145.12
296.909	129.12
297.14	134.12
297.37	139.12
297.601	147.12
297.831	117.12
298.062	137.12
298.292	142.12
298.523	139.12
298.753	131.12
298.984	151.12
299.214	133.12
299.445	124.12
299.675	134.12
299.905	144.12
300.136	133.12
300.366	136.12
300.597	156.12
300.827	153.12
301.057	123.12
301.288	138.12
301.518	144.12
301.748	124.12
301.979	171.12
302.209	137.12
302.439	139.12
302.669	140.12
302.9	133.12
303.13	125.12
303.36	149.12
303.59	133.12
303.82	139.12
304.051	137.12
304.281	161.12
304.511	145.12
304.741	143.12
304.971	138.12
305.201	164.12
305.431	139.12
305.661	144.12
305.891	144.12
306.121	136.12
306.352	150.12
306.582	123.12
306.812	137.12
307.042	143.12
307.272	141.12
307.502	148.12
307.731	132.12
307.961	135.12
308.191	128.12
308.421	147.12
308.651	138.12
308.881	135.12
309.111	144.12
309.341	139.12
309.571	144.12
309.8	134.12
310.03	156.12
310.26	134.12
310.49	136.12
310.72	144.12
310.949	134.12
311.179	148.12
311.409	152.12
311.639	158.12
311.868	154.12
312.098	150.12
312.328	139.12
312.557	144.12
312.787	155.12
313.017	152.12
313.246	141.12
313.476	163.12
313.706	156.12
313.935	149.12
314.165	150.12
314.394	151.12
314.624	135.12
314.853	136.12
315.083	147.12
315.312	157.12
315.542	147.12
315.771	134.12
316.001	137.12
316.23	162.12
316.46	155.12
316.689	142.12
316.919	140.12
317.148	158.12
317.377	154.12
317.607	158.12
317.836	131.12
318.065	137.12
318.295	138.12
318.524	144.12
318.753	133.12
318.983	143.12
319.212	130.12
319.441	138.12
319.67	160.12
319.9	145.12
320.129	154.12
320.358	139.12
320.587	136.12
320.816	147.12
321.046	140.12
321.275	144.12
321.504	132.12
321.733	141.12
321.962	166.12
322.191	134.12
322.42	141.12
322.649	140.12
322.878	144.12
323.108	158.12
323.337	145.12
323.566	156.12
323.795	156.12
324.024	161.12
324.253	141.12
324.482	161.12
324.71	156.12
324.939	174.12
325.168	162.12
325.397	140.12
325.626	138.12
325.855	139.12
326.084	139.12
326.313	159.12
326.542	138.12
326.77	166.12
326.999	164.12
327.228	152.12
327.457	138.12
327.686	157.12
327.914	169.12
328.143	158.12
328.372	137.12
328.6	148.12
328.829	151.12
329.058	143.12
329.287	164.12
329.515	165.12
329.744	176.12
329.972	158.12
330.201	162.12
330.43	149.12
330.658	150.12
330.887	164.12
331.115	162.12
331.344	166.12
331.572	180.12
331.801	169.12
332.03	171.12
332.258	176.12
332.486	153.12
332.715	183.12
332.943	181.12
333.172	190.12
333.4	200.12
333.629	192.12
333.857	184.12
334.085	203.12
334.314	197.12
334.542	182.12
334.771	185.12
334.999	174.12
335.227	169.12
335.455	174.12
335.684	194.12
335.912	174.12
336.14	181.12
336.369	169.12
336.597	179.12
336.825	164.12
337.053	170.12
337.281	171.12
337.51	167.12
337.738	173.12
337.966	183.12
338.194	164.12
338.422	170.12
338.65	181.12
338.878	159.12
339.106	153.12
339.334	158.12
339.562	150.12
339.79	163.12
340.018	149.12
340.246	168.12
340.474	164.12
340.702	140.12
340.93	177.12
341.158	184.12
341.386	171.12
341.614	148.12
341.842	148.12
342.07	170.12
342.298	162.12
342.526	170.12
342.754	155.12
342.981	162.12
343.209	158.12
343.437	183.12
343.665	167.12
343.893	188.12
344.12	173.12
344.348	195.12
344.576	173.12
344.804	168.12
345.031	151.12
345.259	164.12
345.487	142.12
345.714	164.12
345.942	167.12
346.17	152.12
346.397	163.12
346.625	152.12
346.853	160.12
347.08	157.12
347.308	173.12
347.535	172.12
347.763	161.12
347.99	167.12
348.218	153.12
348.445	152.12
348.673	149.12
348.9	162.12
349.128	154.12
349.355	156.12
349.583	157.12
349.81	156.12
350.037	145.12
350.265	162.12
350.492	136.12
350.72	138.12
350.947	156.12
351.174	167.12
351.402	141.12
351.629	147.12
351.856	153.12
352.083	126.12
352.311	156.12
352.538	146.12
352.765	163.12
352.992	168.12
353.22	147.12
353.447	153.12
353.674	165.12
353.901	167.12
354.128	160.12
354.355	161.12
354.583	156.12
354.81	147.12
355.037	167.12
355.264	162.12
355.491	165.12
355.718	160.12
355.945	153.12
356.172	157.12
356.399	163.12
356.626	153.12
356.853	133.12
357.08	173.12
357.307	147.12
357.534	136.12
357.761	156.12
357.988	172.12
358.215	171.12
358.441	152.12
358.668	148.12
358.895	156.12
359.122	150.12
359.349	165.12
359.576	166.12
359.802	163.12
360.029	165.12
360.256	160.12
360.483	162.12
360.709	146.12
360.936	174.12
361.163	168.12
361.39	153.12
361.616	162.12
361.843	148.12
362.07	167.12
362.296	173.12
362.523	144.12
362.749	160.12
362.976	143.12
363.203	164.12
363.429	150.12
363.656	169.12
363.882	165.12
364.109	164.12
364.335	139.12
364.562	159.12
364.788	165.12
365.015	167.12
365.241	156.12
365.468	152.12
365.694	161.12
365.92	160.12
366.147	173.12
366.373	164.12
366.599	147.12
366.826	144.12
367.052	150.12
367.278	170.12
367.505	164.12
367.731	182.12
367.957	169.12
368.184	167.12
368.41	157.12
368.636	164.12
368.862	162.12
369.089	158.12
369.315	161.12
369.541	174.12
369.767	157.12
369.993	154.12
370.219	152.12
370.445	166.12
370.672	164.12
370.898	158.12
371.124	168.12
371.35	162.12
371.576	157.12
371.802	167.12
372.028	172.12
372.254	177.12
372.48	187.12
372.706	170.12
372.932	175.12
373.158	161.12
373.384	172.12
373.61	166.12
373.835	172.12
374.061	168.12
374.287	176.12
374.513	162.12
374.739	181.12
374.965	166.12
375.191	173.12
375.416	178.12
375.642	166.12
375.868	162.12
376.094	176.12
376.319	185.12
376.545	150.12
376.771	154.12
376.997	176.12
377.222	145.12
377.448	161.12
377.674	164.12
377.899	184.12
378.125	154.12
378.35	146.12
378.576	140.12
378.802	155.12
379.027	146.12
379.253	152.12
379.478	153.12
379.704	158.12
379.929	152.12
380.155	164.12
380.38	163.12
380.606	165.12
380.831	161.12
381.057	168.12
381.282	176.12
381.507	180.12
381.733	168.12
381.958	176.12
382.184	155.12
382.409	178.12
382.634	174.12
382.86	175.12
383.085	186.12
383.31	154.12
383.535	169.12
383.761	176.12
383.986	187.12
384.211	182.12
384.436	188.12
384.662	190.12
384.887	199.12
385.112	174.12
385.337	188.12
385.562	186.12
385.787	180.12
386.013	188.12
386.238	181.12
386.463	186.12
386.688	202.12
386.913	174.12
387.138	173.12
387.363	177.12
387.588	197.12
387.813	183.12
388.038	200.12
388.263	187.12
388.488	192.12
388.713	190.12
388.938	182.12
389.163	178.12
389.387	180.12
389.612	180.12
389.837	192.12
390.062	186.12
390.287	183.12
390.512	191.12
390.736	185.12
390.961	197.12
391.186	199.12
391.411	199.12
391.636	201.12
391.86	195.12
392.085	197.12
392.31	187.12
392.534	207.12
392.759	205.12
392.984	197.12
393.208	193.12
393.433	174.12
393.658	202.12
393.882	192.12
394.107	194.12
394.331	197.12
394.556	192.12
394.78	193.12
395.005	209.12
395.229	182.12
395.454	203.12
395.678	212.12
395.903	194.12
396.127	203.12
396.352	201.12
396.576	172.12
396.801	180.12
397.025	190.12
397.249	194.12
397.474	206.12
397.698	198.12
397.922	201.12
398.147	213.12
398.371	204.12
398.595	209.12
398.82	221.12
399.044	225.12
399.268	248.12
399.492	288.12
399.717	282.12
399.941	272.12
400.165	251.12
400.389	232.12
400.613	234.12
400.837	217.12
401.062	220.12
401.286	203.12
401.51	209.12
401.734	204.12
401.958	216.12
402.182	215.12
402.406	194.12
402.63	215.12
402.854	228.12
403.078	229.12
403.302	239.12
403.526	237.12
403.75	256.12
403.974	253.12
404.198	240.12
404.422	242.12
404.645	252.12
404.869	232.12
405.093	251.12
405.317	223.12
405.541	229.12
405.765	234.12
405.988	229.12
406.212	217.12
406.436	220.12
406.66	238.12
406.883	253.12
407.107	245.12
407.331	238.12
407.555	240.12
407.778	258.12
408.002	267.12
408.226	229.12
408.449	249.12
408.673	230.12
408.896	239.12
409.12	233.12
409.344	257.12
409.567	224.12
409.791	244.12
410.014	244.12
410.238	225.12
410.461	220.12
410.685	234.12
410.908	231.12
411.132	236.12
411.355	218.12
411.578	218.12
411.802	209.12
412.025	224.12
412.249	205.12
412.472	230.12
412.695	224.12
412.919	213.12
413.142	201.12
413.365	203.12
413.589	204.12
413.812	219.12
414.035	227.12
414.258	208.12
414.482	214.12
414.705	233.12
414.928	214.12
415.151	214.12
415.374	209.12
415.597	220.12
415.821	214.12
416.044	212.12
416.267	209.12
416.49	213.12
416.713	217.12
416.936	225.12
417.159	204.12
417.382	194.12
417.605	209.12
417.828	209.12
418.051	210.12
418.274	234.12
418.497	215.12
418.72	222.12
418.943	206.12
419.166	210.12
419.389	238.12
419.611	228.12
419.834	210.12
420.057	228.12
420.28	217.12
420.503	199.12
420.726	219.12
420.948	198.12
421.171	232.12
421.394	203.12
421.617	199.12
421.839	197.12
422.062	211.12
422.285	192.12
422.507	211.12
422.73	217.12
422.953	221.12
423.175	218.12
423.398	226.12
423.621	222.12
423.843	217.12
424.066	225.12
424.288	233.12
424.511	217.12
424.733	235.12
424.956	244.12
425.178	216.12
425.401	216.12
425.623	223.12
425.846	208.12
426.068	205.12
426.291	214.12
426.513	202.12
426.735	212.12
426.958	211.12
427.18	200.12
427.402	182.12
427.625	189.12
427.847	188.12
428.069	214.12
428.292	187.12
428.514	200.12
428.736	195.12
428.958	184.12
429.181	194.12
429.403	183.12
429.625	200.12
429.847	221.12
430.069	184.12
430.292	191.12
430.514	205.12
430.736	210.12
430.958	188.12
431.18	193.12
431.402	192.12
431.624	186.12
431.846	224.12
432.068	214.12
432.29	203.12
432.512	212.12
432.734	195.12
432.956	201.12
433.178	198.12
433.4	208.12
433.622	209.12
433.844	201.12
434.066	201.12
434.287	210.12
434.509	206.12
434.731	210.12
434.953	193.12
435.175	217.12
435.397	216.12
435.618	194.12
435.84	192.12
436.062	195.12
436.284	209.12
436.505	197.12
436.727	198.12
436.949	182.12
437.17	188.12
437.392	180.12
437.614	187.12
437.835	200.12
438.057	183.12
438.278	203.12
438.5	184.12
438.721	198.12
438.943	193.12
439.165	198.12
439.386	189.12
439.608	204.12
439.829	198.12
440.05	194.12
440.272	205.12
440.493	192.12
440.715	212.12
440.936	204.12
441.158	222.12
441.379	210.12
441.6	227.12
441.822	210.12
442.043	221.12
442.264	218.12
442.486	216.12
442.707	226.12
442.928	226.12
443.149	195.12
443.371	227.12
443.592	205.12
443.813	221.12
444.034	228.12
444.255	233.12
444.476	243.12
444.698	247.12
444.919	251.12
445.14	480.12
445.361	336.12
445.582	222.12
445.803	204.12
446.024	194.12
446.245	216.12
446.466	213.12
446.687	181.12
446.908	204.12
447.129	210.12
447.35	199.12
447.571	195.12
447.792	187.12
448.013	175.12
448.234	180.12
448.455	195.12
448.675	177.12
448.896	172.12
449.117	191.12
449.338	181.12
449.559	174.12
449.779	199.12
450	176.12
450.221	178.12
450.442	186.12
450.662	197.12
450.883	178.12
451.104	192.12
451.324	175.12
451.545	185.12
451.766	200.12
451.986	181.12
452.207	174.12
452.428	166.12
452.648	202.12
452.869	198.12
453.089	173.12
453.31	171.12
453.53	190.12
453.751	168.12
453.971	187.12
454.192	183.12
454.412	189.12
454.633	183.12
454.853	177.12
455.073	167.12
455.294	180.12
455.514	191.12
455.734	180.12
455.955	181.12
456.175	184.12
456.395	177.12
456.616	188.12
456.836	192.12
457.056	174.12
457.276	178.12
457.497	190.12
457.717	174.12
457.937	184.12
458.157	193.12
458.377	187.12
458.598	182.12
458.818	198.12
459.038	190.12
459.258	189.12
459.478	194.12
459.698	198.12
459.918	216.12
460.138	227.12
460.358	214.12
460.578	237.12
460.798	236.12
461.018	221.12
461.238	224.12
461.458	224.12
461.678	241.12
461.898	230.12
462.118	245.12
462.338	231.12
462.558	216.12
462.777	247.12
462.997	244.12
463.217	295.12
463.437	284.12
463.657	256.12
463.876	272.12
464.096	265.12
464.316	242.12
464.536	266.12
464.755	261.12
464.975	223.12
465.195	228.12
465.414	216.12
465.634	210.12
465.854	195.12
466.073	208.12
466.293	196.12
466.512	189.12
466.732	194.12
466.951	187.12
467.171	198.12
467.391	197.12
467.61	194.12
467.829	196.12
468.049	198.12
468.268	170.12
468.488	188.12
468.707	172.12
468.927	201.12
469.146	184.12
469.365	203.12
469.585	190.12
469.804	184.12
470.023	169.12
470.243	198.12
470.462	214.12
470.681	186.12
470.901	192.12
471.12	196.12
471.339	197.12
471.558	192.12
471.777	192.12
471.997	181.12
472.216	197.12
472.435	197.12
472.654	185.12
472.873	195.12
473.092	193.12
473.311	189.12
473.53	177.12
473.749	180.12
473.968	210.12
474.187	184.12
474.406	174.12
474.625	198.12
474.844	174.12
475.063	189.12
475.282	189.12
475.501	180.12
475.72	204.12
475.939	201.12
476.158	184.12
476.377	172.12
476.596	203.12
476.814	175.12
477.033	176.12
477.252	203.12
477.471	208.12
477.69	203.12
477.908	195.12
478.127	211.12
478.346	199.12
478.564	207.12
478.783	225.12
479.002	227.12
479.22	204.12
479.439	237.12
479.658	219.12
479.876	218.12
480.095	240.12
480.313	232.12
480.532	250.12
480.751	246.12
480.969	223.12
481.188	223.12
481.406	224.12
481.624	216.12
481.843	210.12
482.061	202.12
482.28	217.12
482.498	198.12
482.717	200.12
482.935	220.12
483.153	209.12
483.372	195.12
483.59	194.12
483.808	196.12
484.027	190.12
484.245	206.12
484.463	182.12
484.681	228.12
484.9	221.12
485.118	220.12
485.336	191.12
485.554	209.12
485.772	232.12
485.99	226.12
486.209	226.12
486.427	209.12
486.645	218.12
486.863	218.12
487.081	220.12
487.299	218.12
487.517	216.12
487.735	210.12
487.953	206.12
488.171	213.12
488.389	203.12
488.607	211.12
488.825	209.12
489.043	196.12
489.261	232.12
489.479	209.12
489.696	211.12
489.914	202.12
490.132	204.12
490.35	216.12
490.568	215.12
490.786	216.12
491.003	211.12
491.221	211.12
491.439	214.12
491.657	205.12
491.874	221.12
492.092	226.12
492.31	224.12
492.527	203.12
492.745	210.12
492.963	234.12
493.18	226.12
493.398	217.12
493.615	222.12
493.833	214.12
494.05	218.12
494.268	214.12
494.485	228.12
494.703	225.12
494.92	204.12
495.138	222.12
495.355	225.12
495.573	233.12
495.79	204.12
496.008	211.12
496.225	227.12
496.442	220.12
496.66	237.12
496.877	226.12
497.094	237.12
497.312	233.12
497.529	244.12
497.746	266.12
497.963	234.12
498.181	260.12
498.398	258.12
498.615	294.12
498.832	304.12
499.049	316.12
499.267	333.12
499.484	360.12
499.701	379.12
499.918	426.12
500.135	474.12
500.352	541.12
500.569	537.12
500.786	529.12
501.003	478.12
501.22	428.12
501.437	370.12
501.654	344.12
501.871	326.12
502.088	336.12
502.305	315.12
502.522	275.12
502.739	297.12
502.956	275.12
503.172	263.12
503.389	248.12
503.606	236.12
503.823	230.12
504.04	249.12
504.256	240.12
