Data from SampG_HRD10591_00043.txt Node
Date: Mon Jan 19 11:53:58 EST 2026
User: Yrep
Spectrometer: HR+D1059
Trigger mode: 0
Integration Time (sec): 3.443000E-1
Scans to average: 1
Electric dark correction enabled: true
Nonlinearity correction enabled: false
Boxcar width: 0
XAxis mode: Wavelengths
Number of Pixels in Spectrum: 2048
>>>>>Begin Spectral Data<<<<<
223.165	-24.56
223.4	-24.56
223.635	-24.56
223.869	-19.56
224.104	-26.56
224.338	0.44
224.573	-17.56
224.808	-11.56
225.042	-11.56
225.277	-6.56
225.511	-10.56
225.746	15.44
225.98	-1.56
226.215	10.44
226.449	16.44
226.683	32.44
226.918	20.44
227.152	34.44
227.387	36.44
227.621	30.44
227.856	42.44
228.09	41.44
228.324	43.44
228.559	65.44
228.793	59.44
229.027	45.44
229.262	64.44
229.496	55.44
229.73	80.44
229.964	81.44
230.199	71.44
230.433	56.44
230.667	80.44
230.901	83.44
231.136	60.44
231.37	76.44
231.604	81.44
231.838	85.44
232.072	87.44
232.306	68.44
232.541	78.44
232.775	62.44
233.009	96.44
233.243	76.44
233.477	91.44
233.711	79.44
233.945	66.44
234.179	73.44
234.413	93.44
234.647	89.44
234.881	86.44
235.115	91.44
235.349	76.44
235.583	94.44
235.817	81.44
236.051	72.44
236.285	93.44
236.519	90.44
236.753	86.44
236.987	96.44
237.221	70.44
237.455	64.44
237.689	82.44
237.922	88.44
238.156	78.44
238.39	80.44
238.624	89.44
238.858	64.44
239.091	88.44
239.325	92.44
239.559	77.44
239.793	73.44
240.027	82.44
240.26	75.44
240.494	83.44
240.728	65.44
240.961	74.44
241.195	86.44
241.429	84.44
241.662	66.44
241.896	76.44
242.13	68.44
242.363	94.44
242.597	81.44
242.83	71.44
243.064	96.44
243.298	91.44
243.531	87.44
243.765	86.44
243.998	68.44
244.232	71.44
244.465	86.44
244.699	84.44
244.932	87.44
245.166	94.44
245.399	92.44
245.633	82.44
245.866	70.44
246.099	71.44
246.333	80.44
246.566	79.44
246.8	86.44
247.033	81.44
247.266	80.44
247.5	89.44
247.733	81.44
247.966	80.44
248.2	94.44
248.433	101.44
248.666	85.44
248.899	96.44
249.133	86.44
249.366	89.44
249.599	85.44
249.832	77.44
250.066	92.44
250.299	87.44
250.532	84.44
250.765	87.44
250.998	83.44
251.231	92.44
251.465	97.44
251.698	79.44
251.931	89.44
252.164	80.44
252.397	93.44
252.63	105.44
252.863	77.44
253.096	92.44
253.329	98.44
253.562	89.44
253.795	86.44
254.028	94.44
254.261	97.44
254.494	72.44
254.727	106.44
254.96	92.44
255.193	85.44
255.426	95.44
255.659	82.44
255.892	91.44
256.124	104.44
256.357	81.44
256.59	85.44
256.823	73.44
257.056	88.44
257.289	98.44
257.521	100.44
257.754	86.44
257.987	90.44
258.22	91.44
258.452	87.44
258.685	87.44
258.918	90.44
259.151	93.44
259.383	106.44
259.616	95.44
259.849	90.44
260.081	93.44
260.314	93.44
260.547	91.44
260.779	85.44
261.012	84.44
261.244	98.44
261.477	112.44
261.71	93.44
261.942	94.44
262.175	96.44
262.407	97.44
262.64	91.44
262.872	100.44
263.105	100.44
263.337	96.44
263.57	87.44
263.802	103.44
264.035	98.44
264.267	104.44
264.499	98.44
264.732	99.44
264.964	92.44
265.197	97.44
265.429	91.44
265.661	106.44
265.894	121.44
266.126	110.44
266.358	94.44
266.591	84.44
266.823	85.44
267.055	96.44
267.287	96.44
267.52	99.44
267.752	100.44
267.984	95.44
268.216	101.44
268.448	112.44
268.681	100.44
268.913	99.44
269.145	105.44
269.377	113.44
269.609	104.44
269.841	99.44
270.073	104.44
270.306	92.44
270.538	90.44
270.77	98.44
271.002	106.44
271.234	89.44
271.466	97.44
271.698	101.44
271.93	118.44
272.162	104.44
272.394	99.44
272.626	108.44
272.858	97.44
273.09	112.44
273.322	103.44
273.553	92.44
273.785	110.44
274.017	98.44
274.249	106.44
274.481	105.44
274.713	101.44
274.945	104.44
275.176	97.44
275.408	96.44
275.64	113.44
275.872	93.44
276.104	109.44
276.335	117.44
276.567	95.44
276.799	90.44
277.031	99.44
277.262	109.44
277.494	105.44
277.726	97.44
277.957	108.44
278.189	104.44
278.421	109.44
278.652	103.44
278.884	89.44
279.115	103.44
279.347	88.44
279.579	103.44
279.81	101.44
280.042	95.44
280.273	103.44
280.505	120.44
280.736	118.44
280.968	108.44
281.199	98.44
281.431	119.44
281.662	105.44
281.894	106.44
282.125	102.44
282.356	110.44
282.588	105.44
282.819	108.44
283.051	87.44
283.282	107.44
283.513	110.44
283.745	106.44
283.976	110.44
284.207	123.44
284.439	102.44
284.67	111.44
284.901	105.44
285.132	89.44
285.364	88.44
285.595	112.44
285.826	126.44
286.057	126.44
286.288	106.44
286.52	111.44
286.751	98.44
286.982	99.44
287.213	125.44
287.444	120.44
287.675	110.44
287.906	121.44
288.138	106.44
288.369	103.44
288.6	115.44
288.831	96.44
289.062	112.44
289.293	113.44
289.524	121.44
289.755	111.44
289.986	97.44
290.217	124.44
290.448	110.44
290.679	113.44
290.91	101.44
291.141	110.44
291.371	102.44
291.602	107.44
291.833	108.44
292.064	118.44
292.295	109.44
292.526	118.44
292.757	105.44
292.987	102.44
293.218	123.44
293.449	114.44
293.68	128.44
293.91	112.44
294.141	130.44
294.372	113.44
294.603	128.44
294.833	106.44
295.064	112.44
295.295	100.44
295.525	118.44
295.756	99.44
295.987	93.44
296.217	114.44
296.448	118.44
296.679	117.44
296.909	115.44
297.14	110.44
297.37	124.44
297.601	121.44
297.831	105.44
298.062	148.44
298.292	132.44
298.523	129.44
298.753	114.44
298.984	111.44
299.214	124.44
299.445	127.44
299.675	124.44
299.905	115.44
300.136	129.44
300.366	113.44
300.597	113.44
300.827	115.44
301.057	123.44
301.288	110.44
301.518	146.44
301.748	112.44
301.979	166.44
302.209	126.44
302.439	112.44
302.669	124.44
302.9	121.44
303.13	118.44
303.36	115.44
303.59	114.44
303.82	116.44
304.051	114.44
304.281	115.44
304.511	128.44
304.741	127.44
304.971	110.44
305.201	110.44
305.431	111.44
305.661	127.44
305.891	129.44
306.121	113.44
306.352	120.44
306.582	108.44
306.812	121.44
307.042	121.44
307.272	118.44
307.502	120.44
307.731	137.44
307.961	122.44
308.191	104.44
308.421	115.44
308.651	120.44
308.881	124.44
309.111	134.44
309.341	121.44
309.571	127.44
309.8	105.44
310.03	99.44
310.26	125.44
310.49	118.44
310.72	109.44
310.949	116.44
311.179	121.44
311.409	125.44
311.639	117.44
311.868	123.44
312.098	117.44
312.328	131.44
312.557	136.44
312.787	118.44
313.017	123.44
313.246	131.44
313.476	127.44
313.706	127.44
313.935	117.44
314.165	124.44
314.394	116.44
314.624	121.44
314.853	127.44
315.083	121.44
315.312	121.44
315.542	128.44
315.771	119.44
316.001	118.44
316.23	119.44
316.46	106.44
316.689	142.44
316.919	117.44
317.148	137.44
317.377	132.44
317.607	115.44
317.836	103.44
318.065	127.44
318.295	120.44
318.524	110.44
318.753	124.44
318.983	116.44
319.212	122.44
319.441	125.44
319.67	120.44
319.9	129.44
320.129	117.44
320.358	108.44
320.587	112.44
320.816	113.44
321.046	122.44
321.275	131.44
321.504	124.44
321.733	114.44
321.962	109.44
322.191	107.44
322.42	139.44
322.649	141.44
322.878	126.44
323.108	127.44
323.337	120.44
323.566	116.44
323.795	129.44
324.024	125.44
324.253	126.44
324.482	113.44
324.71	133.44
324.939	133.44
325.168	139.44
325.397	132.44
325.626	122.44
325.855	122.44
326.084	121.44
326.313	141.44
326.542	131.44
326.77	119.44
326.999	125.44
327.228	130.44
327.457	123.44
327.686	129.44
327.914	133.44
328.143	126.44
328.372	116.44
328.6	141.44
328.829	125.44
329.058	131.44
329.287	129.44
329.515	130.44
329.744	137.44
329.972	129.44
330.201	140.44
330.43	120.44
330.658	116.44
330.887	127.44
331.115	115.44
331.344	144.44
331.572	146.44
331.801	130.44
332.03	113.44
332.258	144.44
332.486	148.44
332.715	140.44
332.943	145.44
333.172	134.44
333.4	135.44
333.629	131.44
333.857	141.44
334.085	143.44
334.314	135.44
334.542	137.44
334.771	132.44
334.999	132.44
335.227	148.44
335.455	145.44
335.684	134.44
335.912	138.44
336.14	143.44
336.369	130.44
336.597	138.44
336.825	152.44
337.053	142.44
337.281	134.44
337.51	150.44
337.738	142.44
337.966	134.44
338.194	133.44
338.422	130.44
338.65	128.44
338.878	132.44
339.106	134.44
339.334	142.44
339.562	133.44
339.79	129.44
340.018	115.44
340.246	135.44
340.474	131.44
340.702	133.44
340.93	136.44
341.158	137.44
341.386	129.44
341.614	135.44
341.842	141.44
342.07	118.44
342.298	128.44
342.526	128.44
342.754	126.44
342.981	125.44
343.209	132.44
343.437	164.44
343.665	153.44
343.893	147.44
344.12	151.44
344.348	140.44
344.576	118.44
344.804	120.44
345.031	137.44
345.259	128.44
345.487	132.44
345.714	127.44
345.942	117.44
346.17	136.44
346.397	128.44
346.625	113.44
346.853	118.44
347.08	113.44
347.308	132.44
347.535	130.44
347.763	126.44
347.99	151.44
348.218	137.44
348.445	117.44
348.673	128.44
348.9	133.44
349.128	149.44
349.355	140.44
349.583	129.44
349.81	137.44
350.037	118.44
350.265	136.44
350.492	112.44
350.72	126.44
350.947	132.44
351.174	135.44
351.402	114.44
351.629	117.44
351.856	125.44
352.083	117.44
352.311	117.44
352.538	128.44
352.765	124.44
352.992	146.44
353.22	140.44
353.447	103.44
353.674	124.44
353.901	142.44
354.128	128.44
354.355	139.44
354.583	144.44
354.81	114.44
355.037	125.44
355.264	125.44
355.491	143.44
355.718	130.44
355.945	133.44
356.172	120.44
356.399	128.44
356.626	123.44
356.853	121.44
357.08	129.44
357.307	130.44
357.534	112.44
357.761	116.44
357.988	122.44
358.215	128.44
358.441	117.44
358.668	113.44
358.895	131.44
359.122	135.44
359.349	124.44
359.576	133.44
359.802	122.44
360.029	124.44
360.256	101.44
360.483	118.44
360.709	125.44
360.936	143.44
361.163	130.44
361.39	132.44
361.616	136.44
361.843	121.44
362.07	133.44
362.296	124.44
362.523	130.44
362.749	122.44
362.976	126.44
363.203	136.44
363.429	114.44
363.656	131.44
363.882	109.44
364.109	125.44
364.335	137.44
364.562	126.44
364.788	126.44
365.015	141.44
365.241	138.44
365.468	132.44
365.694	129.44
365.92	116.44
366.147	126.44
366.373	120.44
366.599	122.44
366.826	141.44
367.052	137.44
367.278	138.44
367.505	111.44
367.731	138.44
367.957	131.44
368.184	137.44
368.41	118.44
368.636	118.44
368.862	131.44
369.089	135.44
369.315	123.44
369.541	131.44
369.767	131.44
369.993	124.44
370.219	116.44
370.445	117.44
370.672	135.44
370.898	131.44
371.124	134.44
371.35	126.44
371.576	141.44
371.802	144.44
372.028	135.44
372.254	116.44
372.48	122.44
372.706	131.44
372.932	131.44
373.158	137.44
373.384	137.44
373.61	136.44
373.835	153.44
374.061	139.44
374.287	142.44
374.513	136.44
374.739	132.44
374.965	135.44
375.191	128.44
375.416	131.44
375.642	135.44
375.868	138.44
376.094	141.44
376.319	132.44
376.545	117.44
376.771	136.44
376.997	143.44
377.222	124.44
377.448	134.44
377.674	140.44
377.899	134.44
378.125	113.44
378.35	132.44
378.576	140.44
378.802	129.44
379.027	128.44
379.253	123.44
379.478	136.44
379.704	134.44
379.929	131.44
380.155	125.44
380.38	143.44
380.606	137.44
380.831	118.44
381.057	133.44
381.282	132.44
381.507	147.44
381.733	145.44
381.958	162.44
382.184	155.44
382.409	134.44
382.634	156.44
382.86	140.44
383.085	140.44
383.31	126.44
383.535	165.44
383.761	149.44
383.986	135.44
384.211	138.44
384.436	133.44
384.662	145.44
384.887	147.44
385.112	143.44
385.337	169.44
385.562	143.44
385.787	154.44
386.013	151.44
386.238	152.44
386.463	137.44
386.688	176.44
386.913	135.44
387.138	128.44
387.363	145.44
387.588	150.44
387.813	140.44
388.038	145.44
388.263	160.44
388.488	144.44
388.713	133.44
388.938	144.44
389.163	145.44
389.387	143.44
389.612	145.44
389.837	149.44
390.062	151.44
390.287	147.44
390.512	154.44
390.736	149.44
390.961	154.44
391.186	151.44
391.411	148.44
391.636	165.44
391.86	156.44
392.085	142.44
392.31	150.44
392.534	146.44
392.759	145.44
392.984	158.44
393.208	134.44
393.433	143.44
393.658	161.44
393.882	125.44
394.107	153.44
394.331	146.44
394.556	162.44
394.78	155.44
395.005	145.44
395.229	160.44
395.454	153.44
395.678	160.44
395.903	162.44
396.127	145.44
396.352	156.44
396.576	153.44
396.801	152.44
397.025	151.44
397.249	142.44
397.474	162.44
397.698	160.44
397.922	172.44
398.147	166.44
398.371	143.44
398.595	144.44
398.82	166.44
399.044	173.44
399.268	199.44
399.492	217.44
399.717	205.44
399.941	200.44
400.165	194.44
400.389	187.44
400.613	174.44
400.837	168.44
401.062	159.44
401.286	157.44
401.51	177.44
401.734	162.44
401.958	163.44
402.182	168.44
402.406	178.44
402.63	164.44
402.854	164.44
403.078	171.44
403.302	169.44
403.526	192.44
403.75	194.44
403.974	179.44
404.198	194.44
404.422	186.44
404.645	176.44
404.869	171.44
405.093	183.44
405.317	188.44
405.541	175.44
405.765	181.44
405.988	180.44
406.212	192.44
406.436	171.44
406.66	180.44
406.883	174.44
407.107	184.44
407.331	202.44
407.555	211.44
407.778	212.44
408.002	200.44
408.226	189.44
408.449	175.44
408.673	176.44
408.896	169.44
409.12	182.44
409.344	182.44
409.567	182.44
409.791	185.44
410.014	177.44
410.238	189.44
410.461	185.44
410.685	184.44
410.908	153.44
411.132	174.44
411.355	165.44
411.578	164.44
411.802	165.44
412.025	162.44
412.249	161.44
412.472	166.44
412.695	168.44
412.919	178.44
413.142	160.44
413.365	167.44
413.589	169.44
413.812	164.44
414.035	162.44
414.258	184.44
414.482	176.44
414.705	172.44
414.928	158.44
415.151	178.44
415.374	176.44
415.597	164.44
415.821	167.44
416.044	154.44
416.267	162.44
416.49	173.44
416.713	157.44
416.936	158.44
417.159	154.44
417.382	144.44
417.605	140.44
417.828	162.44
418.051	153.44
418.274	166.44
418.497	176.44
418.72	170.44
418.943	170.44
419.166	189.44
419.389	164.44
419.611	190.44
419.834	186.44
420.057	188.44
420.28	169.44
420.503	165.44
420.726	162.44
420.948	162.44
421.171	159.44
421.394	168.44
421.617	172.44
421.839	164.44
422.062	156.44
422.285	149.44
422.507	165.44
422.73	165.44
422.953	176.44
423.175	169.44
423.398	160.44
423.621	183.44
423.843	184.44
424.066	186.44
424.288	184.44
424.511	180.44
424.733	174.44
424.956	178.44
425.178	168.44
425.401	164.44
425.623	178.44
425.846	168.44
426.068	169.44
426.291	167.44
426.513	169.44
426.735	173.44
426.958	154.44
427.18	174.44
427.402	160.44
427.625	138.44
427.847	160.44
428.069	151.44
428.292	146.44
428.514	157.44
428.736	148.44
428.958	160.44
429.181	152.44
429.403	156.44
429.625	151.44
429.847	148.44
430.069	156.44
430.292	172.44
430.514	167.44
430.736	143.44
430.958	157.44
431.18	123.44
431.402	149.44
431.624	160.44
431.846	159.44
432.068	156.44
432.29	154.44
432.512	160.44
432.734	144.44
432.956	152.44
433.178	173.44
433.4	160.44
433.622	154.44
433.844	178.44
434.066	156.44
434.287	168.44
434.509	159.44
434.731	164.44
434.953	162.44
435.175	177.44
435.397	157.44
435.618	154.44
435.84	168.44
436.062	151.44
436.284	136.44
436.505	165.44
436.727	144.44
436.949	161.44
437.17	154.44
437.392	153.44
437.614	157.44
437.835	170.44
438.057	130.44
438.278	145.44
438.5	149.44
438.721	146.44
438.943	132.44
439.165	150.44
439.386	158.44
439.608	151.44
439.829	160.44
440.05	152.44
440.272	150.44
440.493	141.44
440.715	166.44
440.936	155.44
441.158	168.44
441.379	172.44
441.6	176.44
441.822	171.44
442.043	172.44
442.264	156.44
442.486	152.44
442.707	160.44
442.928	151.44
443.149	176.44
443.371	162.44
443.592	169.44
443.813	157.44
444.034	167.44
444.255	161.44
444.476	181.44
444.698	195.44
444.919	191.44
445.14	463.44
445.361	302.44
445.582	180.44
445.803	152.44
446.024	157.44
446.245	170.44
446.466	168.44
446.687	147.44
446.908	156.44
447.129	160.44
447.35	147.44
447.571	158.44
447.792	147.44
448.013	151.44
448.234	153.44
448.455	134.44
448.675	147.44
448.896	151.44
449.117	145.44
449.338	148.44
449.559	124.44
449.779	138.44
450	161.44
450.221	149.44
450.442	157.44
450.662	165.44
450.883	148.44
451.104	149.44
451.324	149.44
451.545	140.44
451.766	146.44
451.986	133.44
452.207	144.44
452.428	140.44
452.648	155.44
452.869	154.44
453.089	143.44
453.31	150.44
453.53	148.44
453.751	140.44
453.971	146.44
454.192	142.44
454.412	133.44
454.633	144.44
454.853	150.44
455.073	131.44
455.294	156.44
455.514	159.44
455.734	147.44
455.955	134.44
456.175	142.44
456.395	131.44
456.616	148.44
456.836	127.44
457.056	141.44
457.276	127.44
457.497	140.44
457.717	140.44
457.937	142.44
458.157	142.44
458.377	129.44
458.598	152.44
458.818	143.44
459.038	141.44
459.258	155.44
459.478	138.44
459.698	162.44
459.918	182.44
460.138	155.44
460.358	162.44
460.578	181.44
460.798	175.44
461.018	167.44
461.238	167.44
461.458	166.44
461.678	174.44
461.898	178.44
462.118	178.44
462.338	176.44
462.558	196.44
462.777	184.44
462.997	213.44
463.217	222.44
463.437	222.44
463.657	183.44
463.876	180.44
464.096	204.44
464.316	185.44
464.536	173.44
464.755	187.44
464.975	168.44
465.195	186.44
465.414	160.44
465.634	128.44
465.854	145.44
466.073	157.44
466.293	168.44
466.512	145.44
466.732	145.44
466.951	143.44
467.171	148.44
467.391	148.44
467.61	157.44
467.829	137.44
468.049	133.44
468.268	145.44
468.488	156.44
468.707	151.44
468.927	156.44
469.146	141.44
469.365	161.44
469.585	144.44
469.804	159.44
470.023	152.44
470.243	166.44
470.462	142.44
470.681	150.44
470.901	160.44
471.12	146.44
471.339	144.44
471.558	141.44
471.777	156.44
471.997	150.44
472.216	155.44
472.435	142.44
472.654	160.44
472.873	145.44
473.092	116.44
473.311	159.44
473.53	142.44
473.749	154.44
473.968	150.44
474.187	146.44
474.406	150.44
474.625	157.44
474.844	156.44
475.063	155.44
475.282	144.44
475.501	132.44
475.72	152.44
475.939	161.44
476.158	143.44
476.377	127.44
476.596	154.44
476.814	162.44
477.033	146.44
477.252	154.44
477.471	140.44
477.69	159.44
477.908	169.44
478.127	162.44
478.346	166.44
478.564	161.44
478.783	165.44
479.002	168.44
479.22	160.44
479.439	153.44
479.658	165.44
479.876	166.44
480.095	160.44
480.313	171.44
480.532	178.44
480.751	162.44
480.969	157.44
481.188	163.44
481.406	158.44
481.624	160.44
481.843	144.44
482.061	166.44
482.28	163.44
482.498	160.44
482.717	147.44
482.935	162.44
483.153	161.44
483.372	150.44
483.59	180.44
483.808	155.44
484.027	147.44
484.245	165.44
484.463	148.44
484.681	183.44
484.9	150.44
485.118	162.44
485.336	166.44
485.554	171.44
485.772	162.44
485.99	166.44
486.209	164.44
486.427	171.44
486.645	164.44
486.863	174.44
487.081	154.44
487.299	178.44
487.517	172.44
487.735	170.44
487.953	161.44
488.171	162.44
488.389	167.44
488.607	179.44
488.825	154.44
489.043	177.44
489.261	166.44
489.479	177.44
489.696	156.44
489.914	145.44
490.132	166.44
490.35	186.44
490.568	171.44
490.786	148.44
491.003	168.44
491.221	155.44
491.439	172.44
491.657	158.44
491.874	160.44
492.092	164.44
492.31	177.44
492.527	164.44
492.745	172.44
492.963	171.44
493.18	185.44
493.398	171.44
493.615	187.44
493.833	192.44
494.05	181.44
494.268	168.44
494.485	174.44
494.703	192.44
494.92	176.44
495.138	183.44
495.355	173.44
495.573	163.44
495.79	156.44
496.008	183.44
496.225	184.44
496.442	175.44
496.66	189.44
496.877	179.44
497.094	188.44
497.312	183.44
497.529	176.44
497.746	188.44
497.963	192.44
498.181	207.44
498.398	208.44
498.615	215.44
498.832	224.44
499.049	236.44
499.267	247.44
499.484	273.44
499.701	290.44
499.918	318.44
500.135	344.44
500.352	397.44
500.569	400.44
500.786	375.44
501.003	350.44
501.22	313.44
501.437	294.44
501.654	249.44
501.871	245.44
502.088	208.44
502.305	211.44
502.522	190.44
502.739	198.44
502.956	204.44
503.172	182.44
503.389	190.44
503.606	185.44
503.823	188.44
504.04	192.44
504.256	187.44
504.473	175.44
504.69	185.44
504.907	192.44
505.123	195.44
505.34	183.44
