Data from SampG_HRD10591_00094.txt Node
Date: Mon Jan 19 11:54:15 EST 2026
User: Yrep
Spectrometer: HR+D1059
Trigger mode: 0
Integration Time (sec): 3.443000E-1
Scans to average: 1
Electric dark correction enabled: true
Nonlinearity correction enabled: false
Boxcar width: 0
XAxis mode: Wavelengths
Number of Pixels in Spectrum: 2048
>>>>>Begin Spectral Data<<<<<
223.165	-16.75
223.4	-16.75
223.635	-16.75
223.869	-28.75
224.104	-24.75
224.338	-18.75
224.573	-21.75
224.808	-20.75
225.042	-3.75
225.277	-9.75
225.511	-4.75
225.746	10.25
225.98	15.25
226.215	16.25
226.449	19.25
226.683	10.25
226.918	32.25
227.152	46.25
227.387	47.25
227.621	40.25
227.856	47.25
228.09	56.25
228.324	66.25
228.559	51.25
228.793	62.25
229.027	72.25
229.262	66.25
229.496	68.25
229.73	66.25
229.964	79.25
230.199	75.25
230.433	72.25
230.667	91.25
230.901	78.25
231.136	75.25
231.37	86.25
231.604	88.25
231.838	76.25
232.072	83.25
232.306	72.25
232.541	96.25
232.775	86.25
233.009	79.25
233.243	90.25
233.477	87.25
233.711	77.25
233.945	79.25
234.179	95.25
234.413	88.25
234.647	86.25
234.881	84.25
235.115	80.25
235.349	90.25
235.583	79.25
235.817	90.25
236.051	73.25
236.285	86.25
236.519	83.25
236.753	96.25
236.987	82.25
237.221	78.25
237.455	74.25
237.689	95.25
237.922	93.25
238.156	69.25
238.39	92.25
238.624	80.25
238.858	69.25
239.091	88.25
239.325	78.25
239.559	63.25
239.793	68.25
240.027	86.25
240.26	90.25
240.494	87.25
240.728	102.25
240.961	81.25
241.195	105.25
241.429	92.25
241.662	82.25
241.896	95.25
242.13	86.25
242.363	88.25
242.597	94.25
242.83	86.25
243.064	89.25
243.298	88.25
243.531	85.25
243.765	53.25
243.998	93.25
244.232	94.25
244.465	95.25
244.699	79.25
244.932	79.25
245.166	95.25
245.399	96.25
245.633	108.25
245.866	94.25
246.099	97.25
246.333	100.25
246.566	88.25
246.8	96.25
247.033	80.25
247.266	83.25
247.5	84.25
247.733	83.25
247.966	79.25
248.2	80.25
248.433	97.25
248.666	90.25
248.899	87.25
249.133	85.25
249.366	107.25
249.599	93.25
249.832	99.25
250.066	99.25
250.299	87.25
250.532	87.25
250.765	85.25
250.998	86.25
251.231	71.25
251.465	79.25
251.698	77.25
251.931	93.25
252.164	94.25
252.397	89.25
252.63	92.25
252.863	92.25
253.096	80.25
253.329	96.25
253.562	91.25
253.795	104.25
254.028	92.25
254.261	90.25
254.494	94.25
254.727	93.25
254.96	101.25
255.193	111.25
255.426	94.25
255.659	98.25
255.892	108.25
256.124	88.25
256.357	97.25
256.59	105.25
256.823	112.25
257.056	105.25
257.289	96.25
257.521	109.25
257.754	92.25
257.987	98.25
258.22	99.25
258.452	90.25
258.685	98.25
258.918	102.25
259.151	103.25
259.383	95.25
259.616	112.25
259.849	105.25
260.081	83.25
260.314	96.25
260.547	100.25
260.779	104.25
261.012	91.25
261.244	106.25
261.477	104.25
261.71	105.25
261.942	87.25
262.175	100.25
262.407	90.25
262.64	103.25
262.872	98.25
263.105	105.25
263.337	112.25
263.57	100.25
263.802	108.25
264.035	113.25
264.267	98.25
264.499	100.25
264.732	105.25
264.964	98.25
265.197	96.25
265.429	113.25
265.661	101.25
265.894	89.25
266.126	114.25
266.358	119.25
266.591	84.25
266.823	81.25
267.055	95.25
267.287	92.25
267.52	116.25
267.752	104.25
267.984	110.25
268.216	99.25
268.448	108.25
268.681	115.25
268.913	112.25
269.145	93.25
269.377	98.25
269.609	97.25
269.841	107.25
270.073	104.25
270.306	114.25
270.538	105.25
270.77	119.25
271.002	105.25
271.234	121.25
271.466	111.25
271.698	107.25
271.93	94.25
272.162	99.25
272.394	112.25
272.626	105.25
272.858	116.25
273.09	105.25
273.322	110.25
273.553	109.25
273.785	114.25
274.017	111.25
274.249	116.25
274.481	108.25
274.713	89.25
274.945	111.25
275.176	104.25
275.408	101.25
275.64	103.25
275.872	115.25
276.104	111.25
276.335	111.25
276.567	114.25
276.799	113.25
277.031	100.25
277.262	113.25
277.494	116.25
277.726	108.25
277.957	105.25
278.189	122.25
278.421	106.25
278.652	99.25
278.884	99.25
279.115	106.25
279.347	107.25
279.579	107.25
279.81	102.25
280.042	110.25
280.273	109.25
280.505	110.25
280.736	106.25
280.968	97.25
281.199	103.25
281.431	133.25
281.662	126.25
281.894	107.25
282.125	112.25
282.356	106.25
282.588	112.25
282.819	117.25
283.051	91.25
283.282	123.25
283.513	117.25
283.745	118.25
283.976	113.25
284.207	120.25
284.439	112.25
284.67	112.25
284.901	119.25
285.132	100.25
285.364	111.25
285.595	110.25
285.826	107.25
286.057	108.25
286.288	111.25
286.52	120.25
286.751	116.25
286.982	114.25
287.213	117.25
287.444	139.25
287.675	124.25
287.906	113.25
288.138	114.25
288.369	130.25
288.6	120.25
288.831	112.25
289.062	120.25
289.293	121.25
289.524	127.25
289.755	122.25
289.986	124.25
290.217	119.25
290.448	114.25
290.679	122.25
290.91	118.25
291.141	107.25
291.371	121.25
291.602	132.25
291.833	104.25
292.064	118.25
292.295	118.25
292.526	126.25
292.757	117.25
292.987	123.25
293.218	132.25
293.449	122.25
293.68	115.25
293.91	116.25
294.141	112.25
294.372	133.25
294.603	120.25
294.833	95.25
295.064	102.25
295.295	131.25
295.525	115.25
295.756	119.25
295.987	112.25
296.217	117.25
296.448	123.25
296.679	130.25
296.909	123.25
297.14	115.25
297.37	128.25
297.601	122.25
297.831	131.25
298.062	130.25
298.292	137.25
298.523	120.25
298.753	121.25
298.984	116.25
299.214	124.25
299.445	118.25
299.675	123.25
299.905	132.25
300.136	125.25
300.366	144.25
300.597	131.25
300.827	122.25
301.057	127.25
301.288	125.25
301.518	132.25
301.748	124.25
301.979	160.25
302.209	135.25
302.439	131.25
302.669	108.25
302.9	122.25
303.13	129.25
303.36	121.25
303.59	133.25
303.82	123.25
304.051	127.25
304.281	130.25
304.511	124.25
304.741	132.25
304.971	115.25
305.201	133.25
305.431	128.25
305.661	124.25
305.891	117.25
306.121	142.25
306.352	132.25
306.582	133.25
306.812	124.25
307.042	128.25
307.272	131.25
307.502	131.25
307.731	121.25
307.961	111.25
308.191	128.25
308.421	124.25
308.651	131.25
308.881	130.25
309.111	131.25
309.341	124.25
309.571	98.25
309.8	118.25
310.03	130.25
310.26	122.25
310.49	132.25
310.72	139.25
310.949	110.25
311.179	121.25
311.409	124.25
311.639	126.25
311.868	129.25
312.098	153.25
312.328	131.25
312.557	128.25
312.787	135.25
313.017	124.25
313.246	128.25
313.476	117.25
313.706	132.25
313.935	128.25
314.165	129.25
314.394	138.25
314.624	132.25
314.853	138.25
315.083	135.25
315.312	146.25
315.542	129.25
315.771	137.25
316.001	120.25
316.23	124.25
316.46	126.25
316.689	127.25
316.919	131.25
317.148	134.25
317.377	133.25
317.607	134.25
317.836	121.25
318.065	122.25
318.295	136.25
318.524	122.25
318.753	128.25
318.983	144.25
319.212	119.25
319.441	149.25
319.67	135.25
319.9	123.25
320.129	125.25
320.358	132.25
320.587	116.25
320.816	124.25
321.046	123.25
321.275	123.25
321.504	139.25
321.733	142.25
321.962	120.25
322.191	116.25
322.42	131.25
322.649	135.25
322.878	138.25
323.108	137.25
323.337	120.25
323.566	131.25
323.795	127.25
324.024	132.25
324.253	134.25
324.482	134.25
324.71	129.25
324.939	134.25
325.168	137.25
325.397	122.25
325.626	140.25
325.855	114.25
326.084	143.25
326.313	133.25
326.542	129.25
326.77	136.25
326.999	130.25
327.228	131.25
327.457	116.25
327.686	134.25
327.914	153.25
328.143	140.25
328.372	133.25
328.6	131.25
328.829	137.25
329.058	148.25
329.287	147.25
329.515	134.25
329.744	134.25
329.972	135.25
330.201	146.25
330.43	137.25
330.658	117.25
330.887	143.25
331.115	161.25
331.344	153.25
331.572	164.25
331.801	150.25
332.03	143.25
332.258	153.25
332.486	153.25
332.715	140.25
332.943	168.25
333.172	157.25
333.4	164.25
333.629	166.25
333.857	148.25
334.085	155.25
334.314	162.25
334.542	150.25
334.771	157.25
334.999	160.25
335.227	145.25
335.455	162.25
335.684	157.25
335.912	139.25
336.14	134.25
336.369	129.25
336.597	150.25
336.825	152.25
337.053	135.25
337.281	140.25
337.51	152.25
337.738	153.25
337.966	121.25
338.194	140.25
338.422	134.25
338.65	147.25
338.878	145.25
339.106	148.25
339.334	168.25
339.562	147.25
339.79	132.25
340.018	137.25
340.246	136.25
340.474	132.25
340.702	132.25
340.93	138.25
341.158	132.25
341.386	135.25
341.614	124.25
341.842	141.25
342.07	127.25
342.298	135.25
342.526	148.25
342.754	147.25
342.981	150.25
343.209	151.25
343.437	179.25
343.665	162.25
343.893	162.25
344.12	154.25
344.348	152.25
344.576	132.25
344.804	134.25
345.031	133.25
345.259	123.25
345.487	135.25
345.714	139.25
345.942	139.25
346.17	134.25
346.397	129.25
346.625	143.25
346.853	133.25
347.08	132.25
347.308	134.25
347.535	138.25
347.763	139.25
347.99	140.25
348.218	139.25
348.445	140.25
348.673	141.25
348.9	136.25
349.128	140.25
349.355	122.25
349.583	126.25
349.81	135.25
350.037	139.25
350.265	137.25
350.492	151.25
350.72	141.25
350.947	148.25
351.174	154.25
351.402	144.25
351.629	140.25
351.856	119.25
352.083	136.25
352.311	128.25
352.538	121.25
352.765	132.25
352.992	151.25
353.22	132.25
353.447	127.25
353.674	134.25
353.901	131.25
354.128	139.25
354.355	139.25
354.583	132.25
354.81	132.25
355.037	147.25
355.264	146.25
355.491	130.25
355.718	135.25
355.945	151.25
356.172	133.25
356.399	135.25
356.626	136.25
356.853	127.25
357.08	151.25
357.307	139.25
357.534	147.25
357.761	131.25
357.988	151.25
358.215	132.25
358.441	133.25
358.668	123.25
358.895	132.25
359.122	138.25
359.349	139.25
359.576	129.25
359.802	128.25
360.029	127.25
360.256	131.25
360.483	130.25
360.709	135.25
360.936	159.25
361.163	140.25
361.39	133.25
361.616	130.25
361.843	124.25
362.07	132.25
362.296	130.25
362.523	134.25
362.749	117.25
362.976	125.25
363.203	139.25
363.429	133.25
363.656	141.25
363.882	131.25
364.109	146.25
364.335	134.25
364.562	135.25
364.788	130.25
365.015	134.25
365.241	155.25
365.468	142.25
365.694	130.25
365.92	134.25
366.147	134.25
366.373	138.25
366.599	134.25
366.826	137.25
367.052	130.25
367.278	147.25
367.505	140.25
367.731	151.25
367.957	132.25
368.184	124.25
368.41	133.25
368.636	126.25
368.862	132.25
369.089	143.25
369.315	131.25
369.541	155.25
369.767	139.25
369.993	145.25
370.219	129.25
370.445	115.25
370.672	129.25
370.898	142.25
371.124	139.25
371.35	128.25
371.576	147.25
371.802	138.25
372.028	147.25
372.254	143.25
372.48	125.25
372.706	119.25
372.932	148.25
373.158	158.25
373.384	149.25
373.61	136.25
373.835	147.25
374.061	141.25
374.287	134.25
374.513	133.25
374.739	137.25
374.965	139.25
375.191	149.25
375.416	144.25
375.642	132.25
375.868	151.25
376.094	149.25
376.319	147.25
376.545	150.25
376.771	150.25
376.997	140.25
377.222	139.25
377.448	154.25
377.674	133.25
377.899	133.25
378.125	118.25
378.35	143.25
378.576	133.25
378.802	130.25
379.027	149.25
379.253	136.25
379.478	138.25
379.704	142.25
379.929	125.25
380.155	135.25
380.38	135.25
380.606	131.25
380.831	139.25
381.057	158.25
381.282	141.25
381.507	140.25
381.733	143.25
381.958	155.25
382.184	132.25
382.409	135.25
382.634	147.25
382.86	141.25
383.085	157.25
383.31	150.25
383.535	160.25
383.761	159.25
383.986	155.25
384.211	139.25
384.436	142.25
384.662	140.25
384.887	136.25
385.112	148.25
385.337	158.25
385.562	162.25
385.787	166.25
386.013	163.25
386.238	150.25
386.463	135.25
386.688	207.25
386.913	158.25
387.138	146.25
387.363	152.25
387.588	166.25
387.813	160.25
388.038	147.25
388.263	167.25
388.488	150.25
388.713	158.25
388.938	142.25
389.163	159.25
389.387	150.25
389.612	147.25
389.837	153.25
390.062	147.25
390.287	142.25
390.512	142.25
390.736	150.25
390.961	149.25
391.186	160.25
391.411	162.25
391.636	172.25
391.86	152.25
392.085	170.25
392.31	157.25
392.534	152.25
392.759	190.25
392.984	166.25
393.208	149.25
393.433	158.25
393.658	154.25
393.882	152.25
394.107	169.25
394.331	168.25
394.556	164.25
394.78	183.25
395.005	162.25
395.229	149.25
395.454	172.25
395.678	174.25
395.903	167.25
396.127	156.25
396.352	166.25
396.576	152.25
396.801	153.25
397.025	144.25
397.249	170.25
397.474	179.25
397.698	174.25
397.922	162.25
398.147	164.25
398.371	148.25
398.595	167.25
398.82	184.25
399.044	185.25
399.268	202.25
399.492	232.25
399.717	224.25
399.941	231.25
400.165	207.25
400.389	190.25
400.613	173.25
400.837	180.25
401.062	178.25
401.286	165.25
401.51	183.25
401.734	182.25
401.958	167.25
402.182	191.25
402.406	189.25
402.63	186.25
402.854	181.25
403.078	202.25
403.302	191.25
403.526	189.25
403.75	196.25
403.974	191.25
404.198	189.25
404.422	192.25
404.645	191.25
404.869	193.25
405.093	195.25
405.317	202.25
405.541	164.25
405.765	184.25
405.988	187.25
406.212	181.25
406.436	173.25
406.66	203.25
406.883	191.25
407.107	198.25
407.331	200.25
407.555	201.25
407.778	195.25
408.002	191.25
408.226	196.25
408.449	176.25
408.673	176.25
408.896	189.25
409.12	177.25
409.344	198.25
409.567	180.25
409.791	200.25
410.014	214.25
410.238	194.25
410.461	200.25
410.685	184.25
410.908	181.25
411.132	178.25
411.355	179.25
411.578	183.25
411.802	173.25
412.025	190.25
412.249	179.25
412.472	182.25
412.695	173.25
412.919	167.25
413.142	181.25
413.365	172.25
413.589	178.25
413.812	167.25
414.035	185.25
414.258	182.25
414.482	164.25
414.705	174.25
414.928	174.25
415.151	190.25
415.374	167.25
415.597	180.25
415.821	173.25
416.044	150.25
416.267	167.25
416.49	179.25
416.713	178.25
416.936	186.25
417.159	180.25
417.382	168.25
417.605	164.25
417.828	178.25
418.051	182.25
418.274	175.25
418.497	197.25
418.72	179.25
418.943	169.25
419.166	177.25
419.389	190.25
419.611	190.25
419.834	202.25
420.057	186.25
420.28	179.25
420.503	171.25
420.726	176.25
420.948	171.25
421.171	182.25
421.394	182.25
421.617	164.25
421.839	159.25
422.062	189.25
422.285	174.25
422.507	181.25
422.73	160.25
422.953	174.25
423.175	176.25
423.398	184.25
423.621	184.25
423.843	180.25
424.066	182.25
424.288	175.25
424.511	184.25
424.733	176.25
424.956	168.25
425.178	177.25
425.401	181.25
425.623	165.25
425.846	178.25
426.068	169.25
426.291	154.25
426.513	154.25
426.735	166.25
426.958	175.25
427.18	157.25
427.402	184.25
427.625	170.25
427.847	157.25
428.069	153.25
428.292	174.25
428.514	165.25
428.736	153.25
428.958	173.25
429.181	160.25
429.403	157.25
429.625	155.25
429.847	151.25
430.069	175.25
430.292	166.25
430.514	161.25
430.736	151.25
430.958	160.25
431.18	164.25
431.402	151.25
431.624	155.25
431.846	156.25
432.068	166.25
432.29	168.25
432.512	157.25
432.734	153.25
432.956	164.25
433.178	178.25
433.4	177.25
433.622	170.25
433.844	151.25
434.066	153.25
434.287	164.25
434.509	166.25
434.731	190.25
434.953	179.25
435.175	174.25
435.397	180.25
435.618	168.25
435.84	162.25
436.062	171.25
436.284	179.25
436.505	170.25
436.727	162.25
436.949	160.25
437.17	157.25
437.392	164.25
437.614	152.25
437.835	159.25
438.057	158.25
438.278	168.25
438.5	152.25
438.721	170.25
438.943	171.25
439.165	163.25
439.386	161.25
439.608	165.25
439.829	168.25
440.05	169.25
440.272	179.25
440.493	166.25
440.715	164.25
440.936	176.25
441.158	183.25
441.379	176.25
441.6	172.25
441.822	159.25
442.043	178.25
442.264	178.25
442.486	170.25
442.707	176.25
442.928	171.25
443.149	180.25
443.371	169.25
443.592	173.25
443.813	171.25
444.034	170.25
444.255	201.25
444.476	181.25
444.698	193.25
444.919	187.25
445.14	361.25
445.361	282.25
445.582	189.25
445.803	162.25
446.024	167.25
446.245	181.25
446.466	175.25
446.687	165.25
446.908	173.25
447.129	166.25
447.35	152.25
447.571	168.25
447.792	145.25
448.013	156.25
448.234	179.25
448.455	150.25
448.675	165.25
448.896	154.25
449.117	155.25
449.338	162.25
449.559	159.25
449.779	149.25
450	154.25
450.221	163.25
450.442	148.25
450.662	165.25
450.883	162.25
451.104	157.25
451.324	143.25
451.545	173.25
451.766	163.25
451.986	154.25
452.207	146.25
452.428	146.25
452.648	165.25
452.869	162.25
453.089	166.25
453.31	159.25
453.53	140.25
453.751	126.25
453.971	158.25
454.192	153.25
454.412	149.25
454.633	155.25
454.853	166.25
455.073	138.25
455.294	143.25
455.514	148.25
455.734	160.25
455.955	147.25
456.175	141.25
456.395	139.25
456.616	149.25
456.836	150.25
457.056	160.25
457.276	131.25
457.497	127.25
457.717	133.25
457.937	146.25
458.157	131.25
458.377	155.25
458.598	148.25
458.818	163.25
459.038	168.25
459.258	163.25
459.478	180.25
459.698	153.25
459.918	164.25
460.138	167.25
460.358	183.25
460.578	184.25
460.798	191.25
461.018	197.25
461.238	184.25
461.458	172.25
461.678	176.25
461.898	198.25
462.118	189.25
462.338	195.25
462.558	200.25
462.777	206.25
462.997	193.25
463.217	226.25
463.437	201.25
463.657	203.25
463.876	206.25
464.096	197.25
464.316	193.25
464.536	197.25
464.755	203.25
464.975	177.25
465.195	166.25
465.414	165.25
465.634	170.25
465.854	170.25
466.073	170.25
466.293	174.25
466.512	158.25
466.732	172.25
466.951	164.25
467.171	162.25
467.391	158.25
467.61	164.25
467.829	153.25
468.049	166.25
468.268	149.25
468.488	143.25
468.707	151.25
468.927	152.25
469.146	149.25
469.365	162.25
469.585	160.25
469.804	158.25
470.023	173.25
470.243	187.25
470.462	164.25
470.681	173.25
470.901	174.25
471.12	164.25
471.339	153.25
471.558	154.25
471.777	172.25
471.997	168.25
472.216	163.25
472.435	148.25
472.654	142.25
472.873	162.25
473.092	148.25
473.311	166.25
473.53	158.25
473.749	149.25
473.968	180.25
474.187	157.25
474.406	159.25
474.625	140.25
474.844	173.25
475.063	150.25
475.282	167.25
475.501	150.25
475.72	166.25
475.939	160.25
476.158	144.25
476.377	155.25
476.596	164.25
476.814	146.25
477.033	154.25
477.252	181.25
477.471	166.25
477.69	171.25
477.908	187.25
478.127	176.25
478.346	170.25
478.564	163.25
478.783	170.25
479.002	170.25
479.22	171.25
479.439	176.25
479.658	184.25
479.876	175.25
480.095	167.25
480.313	180.25
480.532	189.25
480.751	187.25
480.969	179.25
481.188	185.25
481.406	173.25
481.624	157.25
481.843	175.25
482.061	176.25
482.28	154.25
482.498	152.25
482.717	179.25
482.935	171.25
483.153	162.25
483.372	161.25
483.59	170.25
483.808	168.25
484.027	172.25
484.245	158.25
484.463	159.25
484.681	185.25
484.9	174.25
485.118	168.25
485.336	165.25
485.554	168.25
485.772	164.25
485.99	190.25
486.209	176.25
486.427	180.25
486.645	162.25
486.863	165.25
487.081	180.25
487.299	163.25
487.517	174.25
487.735	166.25
487.953	183.25
488.171	183.25
488.389	185.25
488.607	172.25
488.825	157.25
489.043	170.25
489.261	175.25
489.479	159.25
489.696	179.25
489.914	170.25
490.132	165.25
490.35	170.25
490.568	164.25
490.786	172.25
491.003	169.25
491.221	162.25
491.439	176.25
491.657	173.25
491.874	189.25
492.092	185.25
492.31	176.25
492.527	177.25
492.745	178.25
492.963	181.25
493.18	171.25
493.398	180.25
493.615	178.25
493.833	168.25
494.05	162.25
494.268	181.25
494.485	182.25
494.703	188.25
494.92	190.25
495.138	192.25
495.355	181.25
495.573	175.25
495.79	181.25
496.008	183.25
496.225	175.25
496.442	166.25
496.66	184.25
496.877	170.25
497.094	189.25
497.312	186.25
497.529	205.25
497.746	186.25
497.963	206.25
498.181	181.25
498.398	207.25
498.615	227.25
498.832	249.25
499.049	239.25
499.267	262.25
499.484	277.25
499.701	294.25
499.918	298.25
500.135	348.25
500.352	397.25
500.569	395.25
500.786	398.25
501.003	361.25
501.22	328.25
501.437	302.25
501.654	266.25
501.871	243.25
502.088	221.25
502.305	232.25
502.522	235.25
502.739	213.25
502.956	224.25
503.172	206.25
503.389	186.25
503.606	196.25
503.823	194.25
504.04	198.25
504.256	202.25
504.473	212.25
504.69	211.25
