Data from SampG_HRD10591_00066.txt Node
Date: Mon Jan 19 11:54:06 EST 2026
User: Yrep
Spectrometer: HR+D1059
Trigger mode: 0
Integration Time (sec): 3.443000E-1
Scans to average: 1
Electric dark correction enabled: true
Nonlinearity correction enabled: false
Boxcar width: 0
XAxis mode: Wavelengths
Number of Pixels in Spectrum: 2048
>>>>>Begin Spectral Data<<<<<
223.165	-24.06
223.4	-24.06
223.635	-24.06
223.869	-34.06
224.104	-25.06
224.338	-15.06
224.573	-8.06
224.808	-10.06
225.042	-9.06
225.277	7.94
225.511	-1.06
225.746	6.94
225.98	16.94
226.215	2.94
226.449	13.94
226.683	13.94
226.918	22.94
227.152	40.94
227.387	34.94
227.621	37.94
227.856	43.94
228.09	48.94
228.324	53.94
228.559	45.94
228.793	61.94
229.027	71.94
229.262	68.94
229.496	61.94
229.73	76.94
229.964	64.94
230.199	71.94
230.433	84.94
230.667	86.94
230.901	70.94
231.136	72.94
231.37	87.94
231.604	90.94
231.838	77.94
232.072	77.94
232.306	77.94
232.541	96.94
232.775	92.94
233.009	100.94
233.243	75.94
233.477	98.94
233.711	89.94
233.945	85.94
234.179	87.94
234.413	90.94
234.647	89.94
234.881	76.94
235.115	80.94
235.349	88.94
235.583	98.94
235.817	84.94
236.051	88.94
236.285	85.94
236.519	84.94
236.753	78.94
236.987	72.94
237.221	83.94
237.455	82.94
237.689	85.94
237.922	93.94
238.156	69.94
238.39	84.94
238.624	85.94
238.858	86.94
239.091	92.94
239.325	70.94
239.559	76.94
239.793	80.94
240.027	93.94
240.26	74.94
240.494	103.94
240.728	77.94
240.961	84.94
241.195	85.94
241.429	90.94
241.662	76.94
241.896	89.94
242.13	83.94
242.363	90.94
242.597	88.94
242.83	92.94
243.064	86.94
243.298	101.94
243.531	80.94
243.765	70.94
243.998	84.94
244.232	95.94
244.465	73.94
244.699	77.94
244.932	83.94
245.166	84.94
245.399	90.94
245.633	92.94
245.866	88.94
246.099	85.94
246.333	96.94
246.566	92.94
246.8	81.94
247.033	84.94
247.266	81.94
247.5	88.94
247.733	82.94
247.966	102.94
248.2	95.94
248.433	84.94
248.666	78.94
248.899	83.94
249.133	82.94
249.366	111.94
249.599	73.94
249.832	80.94
250.066	96.94
250.299	94.94
250.532	98.94
250.765	99.94
250.998	89.94
251.231	88.94
251.465	89.94
251.698	72.94
251.931	82.94
252.164	93.94
252.397	87.94
252.63	97.94
252.863	83.94
253.096	86.94
253.329	100.94
253.562	101.94
253.795	88.94
254.028	94.94
254.261	92.94
254.494	100.94
254.727	89.94
254.96	82.94
255.193	82.94
255.426	87.94
255.659	76.94
255.892	107.94
256.124	93.94
256.357	92.94
256.59	114.94
256.823	78.94
257.056	97.94
257.289	96.94
257.521	90.94
257.754	86.94
257.987	94.94
258.22	99.94
258.452	100.94
258.685	90.94
258.918	94.94
259.151	104.94
259.383	91.94
259.616	99.94
259.849	84.94
260.081	96.94
260.314	83.94
260.547	99.94
260.779	91.94
261.012	113.94
261.244	103.94
261.477	106.94
261.71	97.94
261.942	100.94
262.175	99.94
262.407	91.94
262.64	96.94
262.872	99.94
263.105	97.94
263.337	98.94
263.57	91.94
263.802	110.94
264.035	95.94
264.267	100.94
264.499	89.94
264.732	98.94
264.964	103.94
265.197	104.94
265.429	104.94
265.661	85.94
265.894	87.94
266.126	113.94
266.358	93.94
266.591	103.94
266.823	109.94
267.055	98.94
267.287	91.94
267.52	81.94
267.752	114.94
267.984	100.94
268.216	92.94
268.448	110.94
268.681	124.94
268.913	102.94
269.145	114.94
269.377	103.94
269.609	97.94
269.841	106.94
270.073	116.94
270.306	102.94
270.538	112.94
270.77	111.94
271.002	113.94
271.234	101.94
271.466	103.94
271.698	88.94
271.93	104.94
272.162	105.94
272.394	87.94
272.626	94.94
272.858	119.94
273.09	102.94
273.322	111.94
273.553	104.94
273.785	101.94
274.017	109.94
274.249	112.94
274.481	108.94
274.713	104.94
274.945	118.94
275.176	96.94
275.408	105.94
275.64	100.94
275.872	95.94
276.104	105.94
276.335	109.94
276.567	104.94
276.799	103.94
277.031	114.94
277.262	112.94
277.494	123.94
277.726	106.94
277.957	102.94
278.189	117.94
278.421	112.94
278.652	94.94
278.884	109.94
279.115	116.94
279.347	90.94
279.579	100.94
279.81	100.94
280.042	111.94
280.273	110.94
280.505	89.94
280.736	117.94
280.968	112.94
281.199	102.94
281.431	118.94
281.662	102.94
281.894	102.94
282.125	116.94
282.356	110.94
282.588	114.94
282.819	111.94
283.051	108.94
283.282	110.94
283.513	103.94
283.745	96.94
283.976	114.94
284.207	113.94
284.439	117.94
284.67	118.94
284.901	117.94
285.132	118.94
285.364	112.94
285.595	112.94
285.826	114.94
286.057	104.94
286.288	117.94
286.52	113.94
286.751	116.94
286.982	122.94
287.213	102.94
287.444	115.94
287.675	120.94
287.906	119.94
288.138	118.94
288.369	121.94
288.6	107.94
288.831	128.94
289.062	117.94
289.293	118.94
289.524	120.94
289.755	123.94
289.986	108.94
290.217	137.94
290.448	117.94
290.679	130.94
290.91	114.94
291.141	97.94
291.371	110.94
291.602	106.94
291.833	109.94
292.064	112.94
292.295	125.94
292.526	108.94
292.757	119.94
292.987	125.94
293.218	115.94
293.449	124.94
293.68	120.94
293.91	119.94
294.141	116.94
294.372	117.94
294.603	141.94
294.833	118.94
295.064	118.94
295.295	113.94
295.525	136.94
295.756	114.94
295.987	107.94
296.217	131.94
296.448	128.94
296.679	120.94
296.909	116.94
297.14	105.94
297.37	122.94
297.601	111.94
297.831	115.94
298.062	117.94
298.292	125.94
298.523	125.94
298.753	118.94
298.984	124.94
299.214	127.94
299.445	121.94
299.675	115.94
299.905	117.94
300.136	106.94
300.366	104.94
300.597	132.94
300.827	123.94
301.057	133.94
301.288	121.94
301.518	132.94
301.748	120.94
301.979	151.94
302.209	130.94
302.439	122.94
302.669	124.94
302.9	106.94
303.13	118.94
303.36	121.94
303.59	126.94
303.82	138.94
304.051	113.94
304.281	114.94
304.511	123.94
304.741	125.94
304.971	122.94
305.201	140.94
305.431	118.94
305.661	119.94
305.891	113.94
306.121	126.94
306.352	125.94
306.582	121.94
306.812	116.94
307.042	135.94
307.272	107.94
307.502	128.94
307.731	128.94
307.961	112.94
308.191	114.94
308.421	117.94
308.651	130.94
308.881	119.94
309.111	136.94
309.341	133.94
309.571	130.94
309.8	111.94
310.03	126.94
310.26	129.94
310.49	116.94
310.72	105.94
310.949	123.94
311.179	122.94
311.409	116.94
311.639	124.94
311.868	130.94
312.098	118.94
312.328	125.94
312.557	130.94
312.787	125.94
313.017	128.94
313.246	125.94
313.476	117.94
313.706	136.94
313.935	132.94
314.165	133.94
314.394	133.94
314.624	131.94
314.853	127.94
315.083	122.94
315.312	128.94
315.542	102.94
315.771	115.94
316.001	134.94
316.23	133.94
316.46	114.94
316.689	104.94
316.919	111.94
317.148	124.94
317.377	130.94
317.607	125.94
317.836	113.94
318.065	112.94
318.295	123.94
318.524	118.94
318.753	145.94
318.983	124.94
319.212	110.94
319.441	116.94
319.67	130.94
319.9	121.94
320.129	113.94
320.358	116.94
320.587	119.94
320.816	119.94
321.046	108.94
321.275	136.94
321.504	124.94
321.733	128.94
321.962	139.94
322.191	121.94
322.42	123.94
322.649	127.94
322.878	127.94
323.108	136.94
323.337	126.94
323.566	116.94
323.795	134.94
324.024	145.94
324.253	114.94
324.482	143.94
324.71	109.94
324.939	133.94
325.168	132.94
325.397	139.94
325.626	123.94
325.855	130.94
326.084	125.94
326.313	131.94
326.542	133.94
326.77	130.94
326.999	134.94
327.228	124.94
327.457	116.94
327.686	139.94
327.914	139.94
328.143	139.94
328.372	118.94
328.6	126.94
328.829	123.94
329.058	123.94
329.287	128.94
329.515	124.94
329.744	135.94
329.972	111.94
330.201	129.94
330.43	129.94
330.658	124.94
330.887	155.94
331.115	138.94
331.344	141.94
331.572	157.94
331.801	129.94
332.03	132.94
332.258	139.94
332.486	109.94
332.715	144.94
332.943	133.94
333.172	157.94
333.4	139.94
333.629	146.94
333.857	148.94
334.085	147.94
334.314	149.94
334.542	123.94
334.771	142.94
334.999	139.94
335.227	144.94
335.455	130.94
335.684	157.94
335.912	144.94
336.14	161.94
336.369	136.94
336.597	138.94
336.825	124.94
337.053	139.94
337.281	127.94
337.51	139.94
337.738	138.94
337.966	131.94
338.194	122.94
338.422	135.94
338.65	133.94
338.878	147.94
339.106	137.94
339.334	134.94
339.562	126.94
339.79	126.94
340.018	131.94
340.246	137.94
340.474	137.94
340.702	142.94
340.93	141.94
341.158	127.94
341.386	125.94
341.614	132.94
341.842	121.94
342.07	121.94
342.298	131.94
342.526	123.94
342.754	136.94
342.981	131.94
343.209	140.94
343.437	178.94
343.665	146.94
343.893	145.94
344.12	173.94
344.348	167.94
344.576	144.94
344.804	131.94
345.031	131.94
345.259	139.94
345.487	117.94
345.714	134.94
345.942	135.94
346.17	132.94
346.397	143.94
346.625	134.94
346.853	130.94
347.08	118.94
347.308	132.94
347.535	139.94
347.763	144.94
347.99	142.94
348.218	142.94
348.445	144.94
348.673	118.94
348.9	118.94
349.128	133.94
349.355	129.94
349.583	145.94
349.81	132.94
350.037	131.94
350.265	130.94
350.492	137.94
350.72	124.94
350.947	130.94
351.174	130.94
351.402	128.94
351.629	109.94
351.856	137.94
352.083	126.94
352.311	138.94
352.538	123.94
352.765	121.94
352.992	140.94
353.22	121.94
353.447	117.94
353.674	133.94
353.901	134.94
354.128	144.94
354.355	122.94
354.583	144.94
354.81	144.94
355.037	121.94
355.264	128.94
355.491	140.94
355.718	133.94
355.945	138.94
356.172	135.94
356.399	127.94
356.626	134.94
356.853	128.94
357.08	138.94
357.307	123.94
357.534	125.94
357.761	138.94
357.988	139.94
358.215	138.94
358.441	128.94
358.668	113.94
358.895	138.94
359.122	116.94
359.349	130.94
359.576	124.94
359.802	120.94
360.029	128.94
360.256	141.94
360.483	136.94
360.709	138.94
360.936	149.94
361.163	145.94
361.39	131.94
361.616	132.94
361.843	126.94
362.07	138.94
362.296	141.94
362.523	133.94
362.749	123.94
362.976	137.94
363.203	133.94
363.429	138.94
363.656	125.94
363.882	117.94
364.109	136.94
364.335	136.94
364.562	138.94
364.788	126.94
365.015	124.94
365.241	124.94
365.468	135.94
365.694	120.94
365.92	116.94
366.147	121.94
366.373	121.94
366.599	130.94
366.826	130.94
367.052	119.94
367.278	134.94
367.505	122.94
367.731	161.94
367.957	146.94
368.184	125.94
368.41	129.94
368.636	137.94
368.862	138.94
369.089	115.94
369.315	136.94
369.541	147.94
369.767	126.94
369.993	136.94
370.219	131.94
370.445	145.94
370.672	145.94
370.898	121.94
371.124	136.94
371.35	131.94
371.576	129.94
371.802	133.94
372.028	129.94
372.254	135.94
372.48	132.94
372.706	140.94
372.932	148.94
373.158	156.94
373.384	146.94
373.61	145.94
373.835	158.94
374.061	143.94
374.287	137.94
374.513	144.94
374.739	132.94
374.965	137.94
375.191	136.94
375.416	144.94
375.642	152.94
375.868	139.94
376.094	139.94
376.319	135.94
376.545	127.94
376.771	141.94
376.997	132.94
377.222	133.94
377.448	121.94
377.674	131.94
377.899	147.94
378.125	138.94
378.35	135.94
378.576	136.94
378.802	122.94
379.027	118.94
379.253	152.94
379.478	121.94
379.704	129.94
379.929	132.94
380.155	121.94
380.38	134.94
380.606	133.94
380.831	146.94
381.057	134.94
381.282	130.94
381.507	125.94
381.733	144.94
381.958	135.94
382.184	130.94
382.409	136.94
382.634	163.94
382.86	125.94
383.085	139.94
383.31	123.94
383.535	145.94
383.761	126.94
383.986	154.94
384.211	145.94
384.436	146.94
384.662	141.94
384.887	138.94
385.112	140.94
385.337	130.94
385.562	158.94
385.787	132.94
386.013	171.94
386.238	155.94
386.463	164.94
386.688	171.94
386.913	150.94
387.138	156.94
387.363	143.94
387.588	150.94
387.813	138.94
388.038	152.94
388.263	158.94
388.488	139.94
388.713	150.94
388.938	132.94
389.163	134.94
389.387	151.94
389.612	129.94
389.837	139.94
390.062	148.94
390.287	146.94
390.512	148.94
390.736	156.94
390.961	144.94
391.186	168.94
391.411	180.94
391.636	148.94
391.86	172.94
392.085	171.94
392.31	162.94
392.534	149.94
392.759	150.94
392.984	158.94
393.208	152.94
393.433	149.94
393.658	150.94
393.882	156.94
394.107	147.94
394.331	157.94
394.556	138.94
394.78	160.94
395.005	156.94
395.229	157.94
395.454	152.94
395.678	149.94
395.903	170.94
396.127	153.94
396.352	167.94
396.576	156.94
396.801	154.94
397.025	170.94
397.249	153.94
397.474	169.94
397.698	157.94
397.922	156.94
398.147	156.94
398.371	159.94
398.595	173.94
398.82	187.94
399.044	184.94
399.268	197.94
399.492	213.94
399.717	233.94
399.941	213.94
400.165	182.94
400.389	190.94
400.613	165.94
400.837	160.94
401.062	161.94
401.286	187.94
401.51	162.94
401.734	158.94
401.958	173.94
402.182	172.94
402.406	169.94
402.63	181.94
402.854	191.94
403.078	178.94
403.302	168.94
403.526	188.94
403.75	185.94
403.974	202.94
404.198	208.94
404.422	187.94
404.645	172.94
404.869	160.94
405.093	188.94
405.317	175.94
405.541	170.94
405.765	181.94
405.988	189.94
406.212	182.94
406.436	166.94
406.66	183.94
406.883	165.94
407.107	177.94
407.331	181.94
407.555	192.94
407.778	200.94
408.002	185.94
408.226	201.94
408.449	192.94
408.673	183.94
408.896	184.94
409.12	179.94
409.344	196.94
409.567	178.94
409.791	194.94
410.014	195.94
410.238	186.94
410.461	168.94
410.685	168.94
410.908	176.94
411.132	194.94
411.355	164.94
411.578	164.94
411.802	173.94
412.025	176.94
412.249	184.94
412.472	175.94
412.695	174.94
412.919	149.94
413.142	146.94
413.365	165.94
413.589	177.94
413.812	171.94
414.035	184.94
414.258	186.94
414.482	171.94
414.705	187.94
414.928	178.94
415.151	173.94
415.374	169.94
415.597	184.94
415.821	175.94
416.044	174.94
416.267	163.94
416.49	175.94
416.713	164.94
416.936	162.94
417.159	171.94
417.382	164.94
417.605	172.94
417.828	150.94
418.051	176.94
418.274	167.94
418.497	170.94
418.72	168.94
418.943	166.94
419.166	183.94
419.389	172.94
419.611	186.94
419.834	158.94
420.057	172.94
420.28	154.94
420.503	168.94
420.726	172.94
420.948	150.94
421.171	170.94
421.394	167.94
421.617	156.94
421.839	148.94
422.062	154.94
422.285	170.94
422.507	181.94
422.73	164.94
422.953	161.94
423.175	172.94
423.398	190.94
423.621	180.94
423.843	184.94
424.066	181.94
424.288	192.94
424.511	180.94
424.733	160.94
424.956	162.94
425.178	168.94
425.401	163.94
425.623	170.94
425.846	166.94
426.068	165.94
426.291	145.94
426.513	161.94
426.735	173.94
426.958	169.94
427.18	158.94
427.402	169.94
427.625	155.94
427.847	148.94
428.069	156.94
428.292	145.94
428.514	164.94
428.736	158.94
428.958	131.94
429.181	147.94
429.403	146.94
429.625	150.94
429.847	156.94
430.069	166.94
430.292	145.94
430.514	147.94
430.736	139.94
430.958	158.94
431.18	142.94
431.402	145.94
431.624	169.94
431.846	159.94
432.068	160.94
432.29	171.94
432.512	153.94
432.734	152.94
432.956	159.94
433.178	160.94
433.4	171.94
433.622	178.94
433.844	160.94
434.066	150.94
434.287	172.94
434.509	167.94
434.731	163.94
434.953	174.94
435.175	157.94
435.397	165.94
435.618	154.94
435.84	163.94
436.062	168.94
436.284	160.94
436.505	166.94
436.727	147.94
436.949	161.94
437.17	154.94
437.392	142.94
437.614	150.94
437.835	161.94
438.057	162.94
438.278	149.94
438.5	142.94
438.721	168.94
438.943	144.94
439.165	168.94
439.386	164.94
439.608	167.94
439.829	162.94
440.05	165.94
440.272	176.94
440.493	160.94
440.715	147.94
440.936	152.94
441.158	155.94
441.379	164.94
441.6	193.94
441.822	193.94
442.043	173.94
442.264	176.94
442.486	157.94
442.707	156.94
442.928	171.94
443.149	151.94
443.371	168.94
443.592	170.94
443.813	186.94
444.034	173.94
444.255	178.94
444.476	182.94
444.698	181.94
444.919	188.94
445.14	366.94
445.361	273.94
445.582	180.94
445.803	164.94
446.024	171.94
446.245	171.94
446.466	168.94
446.687	152.94
446.908	162.94
447.129	167.94
447.35	154.94
447.571	152.94
447.792	151.94
448.013	136.94
448.234	140.94
448.455	130.94
448.675	154.94
448.896	154.94
449.117	149.94
449.338	154.94
449.559	154.94
449.779	155.94
450	146.94
450.221	153.94
450.442	133.94
450.662	162.94
450.883	168.94
451.104	174.94
451.324	145.94
451.545	164.94
451.766	159.94
451.986	164.94
452.207	144.94
452.428	152.94
452.648	145.94
452.869	128.94
453.089	141.94
453.31	149.94
453.53	145.94
453.751	147.94
453.971	136.94
454.192	144.94
454.412	121.94
454.633	142.94
454.853	138.94
455.073	149.94
455.294	141.94
455.514	157.94
455.734	130.94
455.955	142.94
456.175	130.94
456.395	132.94
456.616	143.94
456.836	135.94
457.056	156.94
457.276	154.94
457.497	139.94
457.717	135.94
457.937	135.94
458.157	140.94
458.377	140.94
458.598	129.94
458.818	146.94
459.038	158.94
459.258	158.94
459.478	168.94
459.698	147.94
459.918	170.94
460.138	162.94
460.358	170.94
460.578	182.94
460.798	190.94
461.018	172.94
461.238	184.94
461.458	176.94
461.678	181.94
461.898	170.94
462.118	182.94
462.338	188.94
462.558	188.94
462.777	194.94
462.997	215.94
463.217	214.94
463.437	212.94
463.657	187.94
463.876	189.94
464.096	211.94
464.316	177.94
464.536	184.94
464.755	195.94
464.975	175.94
465.195	175.94
465.414	186.94
465.634	164.94
465.854	179.94
466.073	158.94
466.293	150.94
466.512	144.94
466.732	164.94
466.951	137.94
467.171	156.94
467.391	135.94
467.61	157.94
467.829	173.94
468.049	168.94
468.268	151.94
468.488	154.94
468.707	157.94
468.927	147.94
469.146	150.94
469.365	145.94
469.585	167.94
469.804	166.94
470.023	149.94
470.243	157.94
470.462	138.94
470.681	164.94
470.901	171.94
471.12	171.94
471.339	160.94
471.558	150.94
471.777	146.94
471.997	161.94
472.216	166.94
472.435	147.94
472.654	149.94
472.873	161.94
473.092	173.94
473.311	139.94
473.53	152.94
473.749	138.94
473.968	150.94
474.187	149.94
474.406	156.94
474.625	168.94
474.844	160.94
475.063	137.94
475.282	154.94
475.501	132.94
475.72	172.94
475.939	160.94
476.158	141.94
476.377	158.94
476.596	150.94
476.814	162.94
477.033	140.94
477.252	162.94
477.471	154.94
477.69	147.94
477.908	153.94
478.127	164.94
478.346	166.94
478.564	176.94
478.783	181.94
479.002	158.94
479.22	173.94
479.439	174.94
479.658	166.94
479.876	168.94
480.095	173.94
480.313	186.94
480.532	182.94
480.751	151.94
480.969	172.94
481.188	165.94
481.406	180.94
481.624	154.94
481.843	157.94
482.061	160.94
482.28	152.94
482.498	145.94
482.717	151.94
482.935	168.94
483.153	163.94
483.372	149.94
483.59	134.94
483.808	158.94
484.027	165.94
484.245	156.94
484.463	164.94
484.681	172.94
484.9	164.94
485.118	171.94
485.336	162.94
485.554	161.94
485.772	163.94
485.99	170.94
486.209	169.94
486.427	177.94
486.645	178.94
486.863	184.94
487.081	175.94
487.299	152.94
487.517	161.94
487.735	178.94
487.953	174.94
488.171	189.94
488.389	171.94
488.607	168.94
488.825	170.94
489.043	154.94
489.261	186.94
489.479	153.94
489.696	176.94
489.914	180.94
490.132	163.94
490.35	170.94
490.568	158.94
490.786	163.94
491.003	162.94
491.221	171.94
491.439	183.94
491.657	171.94
491.874	154.94
492.092	169.94
492.31	155.94
492.527	164.94
492.745	172.94
492.963	167.94
493.18	186.94
493.398	174.94
493.615	168.94
493.833	180.94
494.05	175.94
494.268	170.94
494.485	195.94
494.703	180.94
494.92	170.94
495.138	169.94
495.355	170.94
495.573	184.94
495.79	156.94
496.008	173.94
496.225	165.94
496.442	170.94
496.66	176.94
496.877	172.94
497.094	171.94
497.312	152.94
497.529	180.94
497.746	191.94
497.963	191.94
498.181	192.94
498.398	203.94
498.615	195.94
498.832	204.94
499.049	230.94
499.267	253.94
499.484	258.94
499.701	280.94
499.918	299.94
500.135	348.94
500.352	364.94
500.569	386.94
500.786	376.94
501.003	352.94
501.22	324.94
501.437	276.94
501.654	254.94
501.871	256.94
502.088	238.94
502.305	210.94
502.522	222.94
502.739	208.94
502.956	196.94
503.172	178.94
503.389	189.94
503.606	186.94
503.823	189.94
504.04	201.94
504.256	183.94
504.473	186.94
504.69	202.94
504.907	192.94
