Data from SampG_HRD10591_00092.txt Node
Date: Mon Jan 19 11:54:15 EST 2026
User: Yrep
Spectrometer: HR+D1059
Trigger mode: 0
Integration Time (sec): 3.443000E-1
Scans to average: 1
Electric dark correction enabled: true
Nonlinearity correction enabled: false
Boxcar width: 0
XAxis mode: Wavelengths
Number of Pixels in Spectrum: 2048
>>>>>Begin Spectral Data<<<<<
223.165	-11.5
223.4	-11.5
223.635	-11.5
223.869	-23.5
224.104	-24.5
224.338	-14.5
224.573	-18.5
224.808	-20.5
225.042	-2.5
225.277	-7.5
225.511	6.5
225.746	7.5
225.98	4.5
226.215	18.5
226.449	17.5
226.683	21.5
226.918	26.5
227.152	20.5
227.387	35.5
227.621	35.5
227.856	32.5
228.09	44.5
228.324	50.5
228.559	65.5
228.793	65.5
229.027	66.5
229.262	67.5
229.496	68.5
229.73	59.5
229.964	83.5
230.199	66.5
230.433	72.5
230.667	85.5
230.901	94.5
231.136	85.5
231.37	65.5
231.604	89.5
231.838	86.5
232.072	81.5
232.306	78.5
232.541	67.5
232.775	92.5
233.009	87.5
233.243	87.5
233.477	88.5
233.711	83.5
233.945	83.5
234.179	74.5
234.413	82.5
234.647	88.5
234.881	94.5
235.115	91.5
235.349	82.5
235.583	77.5
235.817	82.5
236.051	73.5
236.285	73.5
236.519	82.5
236.753	85.5
236.987	61.5
237.221	73.5
237.455	55.5
237.689	88.5
237.922	88.5
238.156	73.5
238.39	68.5
238.624	62.5
238.858	76.5
239.091	82.5
239.325	80.5
239.559	74.5
239.793	80.5
240.027	92.5
240.26	80.5
240.494	92.5
240.728	77.5
240.961	72.5
241.195	98.5
241.429	79.5
241.662	82.5
241.896	81.5
242.13	82.5
242.363	49.5
242.597	68.5
242.83	88.5
243.064	81.5
243.298	80.5
243.531	71.5
243.765	85.5
243.998	85.5
244.232	88.5
244.465	85.5
244.699	89.5
244.932	87.5
245.166	79.5
245.399	76.5
245.633	73.5
245.866	84.5
246.099	82.5
246.333	82.5
246.566	85.5
246.8	77.5
247.033	98.5
247.266	77.5
247.5	88.5
247.733	77.5
247.966	84.5
248.2	76.5
248.433	78.5
248.666	85.5
248.899	92.5
249.133	78.5
249.366	82.5
249.599	88.5
249.832	76.5
250.066	78.5
250.299	78.5
250.532	88.5
250.765	95.5
250.998	89.5
251.231	86.5
251.465	95.5
251.698	78.5
251.931	101.5
252.164	96.5
252.397	82.5
252.63	94.5
252.863	93.5
253.096	89.5
253.329	88.5
253.562	85.5
253.795	91.5
254.028	78.5
254.261	77.5
254.494	82.5
254.727	94.5
254.96	82.5
255.193	86.5
255.426	89.5
255.659	87.5
255.892	92.5
256.124	81.5
256.357	86.5
256.59	89.5
256.823	89.5
257.056	86.5
257.289	88.5
257.521	106.5
257.754	98.5
257.987	87.5
258.22	100.5
258.452	90.5
258.685	94.5
258.918	92.5
259.151	85.5
259.383	92.5
259.616	95.5
259.849	92.5
260.081	99.5
260.314	109.5
260.547	77.5
260.779	103.5
261.012	87.5
261.244	105.5
261.477	108.5
261.71	84.5
261.942	87.5
262.175	101.5
262.407	85.5
262.64	101.5
262.872	98.5
263.105	104.5
263.337	108.5
263.57	109.5
263.802	91.5
264.035	90.5
264.267	90.5
264.499	109.5
264.732	86.5
264.964	93.5
265.197	87.5
265.429	98.5
265.661	96.5
265.894	91.5
266.126	97.5
266.358	94.5
266.591	93.5
266.823	95.5
267.055	96.5
267.287	103.5
267.52	88.5
267.752	82.5
267.984	95.5
268.216	89.5
268.448	108.5
268.681	94.5
268.913	97.5
269.145	107.5
269.377	98.5
269.609	88.5
269.841	92.5
270.073	86.5
270.306	109.5
270.538	98.5
270.77	94.5
271.002	96.5
271.234	104.5
271.466	96.5
271.698	93.5
271.93	103.5
272.162	96.5
272.394	100.5
272.626	101.5
272.858	87.5
273.09	102.5
273.322	104.5
273.553	94.5
273.785	114.5
274.017	97.5
274.249	89.5
274.481	95.5
274.713	94.5
274.945	98.5
275.176	95.5
275.408	106.5
275.64	98.5
275.872	109.5
276.104	101.5
276.335	98.5
276.567	112.5
276.799	110.5
277.031	93.5
277.262	97.5
277.494	111.5
277.726	99.5
277.957	102.5
278.189	100.5
278.421	86.5
278.652	92.5
278.884	101.5
279.115	101.5
279.347	103.5
279.579	113.5
279.81	102.5
280.042	106.5
280.273	101.5
280.505	91.5
280.736	103.5
280.968	99.5
281.199	107.5
281.431	124.5
281.662	100.5
281.894	115.5
282.125	114.5
282.356	101.5
282.588	96.5
282.819	120.5
283.051	112.5
283.282	120.5
283.513	120.5
283.745	116.5
283.976	109.5
284.207	111.5
284.439	105.5
284.67	106.5
284.901	114.5
285.132	116.5
285.364	113.5
285.595	108.5
285.826	115.5
286.057	117.5
286.288	107.5
286.52	102.5
286.751	106.5
286.982	102.5
287.213	97.5
287.444	109.5
287.675	112.5
287.906	124.5
288.138	114.5
288.369	124.5
288.6	101.5
288.831	104.5
289.062	122.5
289.293	108.5
289.524	109.5
289.755	108.5
289.986	119.5
290.217	111.5
290.448	90.5
290.679	102.5
290.91	125.5
291.141	105.5
291.371	132.5
291.602	116.5
291.833	94.5
292.064	104.5
292.295	110.5
292.526	108.5
292.757	112.5
292.987	120.5
293.218	112.5
293.449	105.5
293.68	111.5
293.91	108.5
294.141	133.5
294.372	119.5
294.603	103.5
294.833	112.5
295.064	118.5
295.295	111.5
295.525	109.5
295.756	119.5
295.987	112.5
296.217	112.5
296.448	129.5
296.679	128.5
296.909	100.5
297.14	117.5
297.37	119.5
297.601	116.5
297.831	112.5
298.062	126.5
298.292	123.5
298.523	112.5
298.753	109.5
298.984	111.5
299.214	136.5
299.445	134.5
299.675	111.5
299.905	127.5
300.136	113.5
300.366	126.5
300.597	114.5
300.827	121.5
301.057	111.5
301.288	123.5
301.518	125.5
301.748	116.5
301.979	174.5
302.209	128.5
302.439	127.5
302.669	114.5
302.9	108.5
303.13	111.5
303.36	118.5
303.59	106.5
303.82	138.5
304.051	131.5
304.281	127.5
304.511	128.5
304.741	129.5
304.971	127.5
305.201	127.5
305.431	116.5
305.661	114.5
305.891	121.5
306.121	131.5
306.352	113.5
306.582	116.5
306.812	118.5
307.042	113.5
307.272	113.5
307.502	111.5
307.731	129.5
307.961	110.5
308.191	120.5
308.421	118.5
308.651	128.5
308.881	135.5
309.111	124.5
309.341	115.5
309.571	113.5
309.8	118.5
310.03	131.5
310.26	124.5
310.49	127.5
310.72	126.5
310.949	125.5
311.179	103.5
311.409	120.5
311.639	130.5
311.868	120.5
312.098	117.5
312.328	114.5
312.557	118.5
312.787	117.5
313.017	116.5
313.246	114.5
313.476	120.5
313.706	127.5
313.935	114.5
314.165	113.5
314.394	118.5
314.624	124.5
314.853	124.5
315.083	124.5
315.312	109.5
315.542	117.5
315.771	128.5
316.001	116.5
316.23	112.5
316.46	113.5
316.689	106.5
316.919	120.5
317.148	115.5
317.377	118.5
317.607	127.5
317.836	111.5
318.065	128.5
318.295	130.5
318.524	113.5
318.753	111.5
318.983	118.5
319.212	117.5
319.441	113.5
319.67	125.5
319.9	125.5
320.129	125.5
320.358	139.5
320.587	133.5
320.816	131.5
321.046	128.5
321.275	115.5
321.504	122.5
321.733	128.5
321.962	134.5
322.191	131.5
322.42	113.5
322.649	128.5
322.878	132.5
323.108	127.5
323.337	105.5
323.566	131.5
323.795	113.5
324.024	129.5
324.253	124.5
324.482	128.5
324.71	113.5
324.939	118.5
325.168	118.5
325.397	129.5
325.626	124.5
325.855	127.5
326.084	128.5
326.313	112.5
326.542	134.5
326.77	132.5
326.999	127.5
327.228	142.5
327.457	118.5
327.686	121.5
327.914	123.5
328.143	147.5
328.372	143.5
328.6	125.5
328.829	135.5
329.058	135.5
329.287	122.5
329.515	124.5
329.744	135.5
329.972	127.5
330.201	153.5
330.43	122.5
330.658	118.5
330.887	133.5
331.115	126.5
331.344	130.5
331.572	134.5
331.801	141.5
332.03	135.5
332.258	129.5
332.486	140.5
332.715	146.5
332.943	137.5
333.172	145.5
333.4	130.5
333.629	155.5
333.857	134.5
334.085	164.5
334.314	163.5
334.542	143.5
334.771	142.5
334.999	148.5
335.227	142.5
335.455	144.5
335.684	152.5
335.912	148.5
336.14	130.5
336.369	126.5
336.597	130.5
336.825	132.5
337.053	141.5
337.281	130.5
337.51	133.5
337.738	131.5
337.966	133.5
338.194	128.5
338.422	125.5
338.65	154.5
338.878	147.5
339.106	137.5
339.334	132.5
339.562	127.5
339.79	132.5
340.018	118.5
340.246	131.5
340.474	146.5
340.702	127.5
340.93	131.5
341.158	134.5
341.386	132.5
341.614	129.5
341.842	127.5
342.07	125.5
342.298	131.5
342.526	116.5
342.754	142.5
342.981	141.5
343.209	143.5
343.437	164.5
343.665	146.5
343.893	152.5
344.12	157.5
344.348	140.5
344.576	156.5
344.804	139.5
345.031	114.5
345.259	134.5
345.487	149.5
345.714	126.5
345.942	127.5
346.17	125.5
346.397	122.5
346.625	126.5
346.853	129.5
347.08	114.5
347.308	141.5
347.535	134.5
347.763	130.5
347.99	123.5
348.218	130.5
348.445	143.5
348.673	125.5
348.9	130.5
349.128	125.5
349.355	116.5
349.583	116.5
349.81	140.5
350.037	128.5
350.265	129.5
350.492	107.5
350.72	134.5
350.947	135.5
351.174	132.5
351.402	131.5
351.629	120.5
351.856	134.5
352.083	115.5
352.311	123.5
352.538	117.5
352.765	137.5
352.992	146.5
353.22	135.5
353.447	128.5
353.674	124.5
353.901	130.5
354.128	137.5
354.355	148.5
354.583	130.5
354.81	131.5
355.037	130.5
355.264	141.5
355.491	132.5
355.718	120.5
355.945	136.5
356.172	142.5
356.399	123.5
356.626	121.5
356.853	141.5
357.08	124.5
357.307	130.5
357.534	120.5
357.761	129.5
357.988	125.5
358.215	124.5
358.441	122.5
358.668	119.5
358.895	132.5
359.122	137.5
359.349	129.5
359.576	135.5
359.802	128.5
360.029	134.5
360.256	124.5
360.483	133.5
360.709	121.5
360.936	125.5
361.163	128.5
361.39	119.5
361.616	120.5
361.843	135.5
362.07	132.5
362.296	125.5
362.523	130.5
362.749	127.5
362.976	127.5
363.203	149.5
363.429	106.5
363.656	120.5
363.882	132.5
364.109	142.5
364.335	131.5
364.562	130.5
364.788	130.5
365.015	150.5
365.241	124.5
365.468	126.5
365.694	124.5
365.92	121.5
366.147	131.5
366.373	129.5
366.599	144.5
366.826	132.5
367.052	133.5
367.278	127.5
367.505	135.5
367.731	152.5
367.957	132.5
368.184	111.5
368.41	122.5
368.636	144.5
368.862	132.5
369.089	132.5
369.315	132.5
369.541	147.5
369.767	130.5
369.993	136.5
370.219	128.5
370.445	144.5
370.672	128.5
370.898	133.5
371.124	141.5
371.35	122.5
371.576	145.5
371.802	129.5
372.028	146.5
372.254	127.5
372.48	126.5
372.706	130.5
372.932	140.5
373.158	137.5
373.384	140.5
373.61	132.5
373.835	133.5
374.061	130.5
374.287	131.5
374.513	140.5
374.739	137.5
374.965	144.5
375.191	148.5
375.416	145.5
375.642	131.5
375.868	141.5
376.094	143.5
376.319	127.5
376.545	135.5
376.771	137.5
376.997	133.5
377.222	121.5
377.448	143.5
377.674	116.5
377.899	125.5
378.125	142.5
378.35	133.5
378.576	130.5
378.802	137.5
379.027	138.5
379.253	141.5
379.478	105.5
379.704	129.5
379.929	124.5
380.155	137.5
380.38	128.5
380.606	139.5
380.831	137.5
381.057	142.5
381.282	152.5
381.507	123.5
381.733	140.5
381.958	129.5
382.184	136.5
382.409	151.5
382.634	151.5
382.86	143.5
383.085	147.5
383.31	147.5
383.535	160.5
383.761	151.5
383.986	140.5
384.211	150.5
384.436	144.5
384.662	153.5
384.887	144.5
385.112	135.5
385.337	146.5
385.562	141.5
385.787	154.5
386.013	152.5
386.238	158.5
386.463	148.5
386.688	189.5
386.913	149.5
387.138	153.5
387.363	142.5
387.588	153.5
387.813	148.5
388.038	132.5
388.263	160.5
388.488	131.5
388.713	141.5
388.938	140.5
389.163	135.5
389.387	144.5
389.612	145.5
389.837	141.5
390.062	156.5
390.287	153.5
390.512	144.5
390.736	142.5
390.961	131.5
391.186	158.5
391.411	162.5
391.636	143.5
391.86	164.5
392.085	146.5
392.31	145.5
392.534	162.5
392.759	153.5
392.984	158.5
393.208	150.5
393.433	168.5
393.658	152.5
393.882	164.5
394.107	158.5
394.331	154.5
394.556	142.5
394.78	161.5
395.005	154.5
395.229	163.5
395.454	156.5
395.678	160.5
395.903	178.5
396.127	162.5
396.352	148.5
396.576	160.5
396.801	151.5
397.025	156.5
397.249	158.5
397.474	155.5
397.698	147.5
397.922	167.5
398.147	152.5
398.371	170.5
398.595	170.5
398.82	168.5
399.044	192.5
399.268	184.5
399.492	228.5
399.717	226.5
399.941	211.5
400.165	191.5
400.389	192.5
400.613	179.5
400.837	158.5
401.062	163.5
401.286	166.5
401.51	164.5
401.734	138.5
401.958	190.5
402.182	169.5
402.406	169.5
402.63	188.5
402.854	178.5
403.078	161.5
403.302	181.5
403.526	183.5
403.75	172.5
403.974	174.5
404.198	191.5
404.422	194.5
404.645	191.5
404.869	177.5
405.093	185.5
405.317	187.5
405.541	166.5
405.765	179.5
405.988	184.5
406.212	175.5
406.436	174.5
406.66	197.5
406.883	177.5
407.107	190.5
407.331	211.5
407.555	192.5
407.778	192.5
408.002	201.5
408.226	203.5
408.449	194.5
408.673	178.5
408.896	178.5
409.12	189.5
409.344	198.5
409.567	182.5
409.791	182.5
410.014	181.5
410.238	176.5
410.461	180.5
410.685	173.5
410.908	175.5
411.132	178.5
411.355	172.5
411.578	177.5
411.802	172.5
412.025	194.5
412.249	177.5
412.472	159.5
412.695	161.5
412.919	167.5
413.142	171.5
413.365	173.5
413.589	174.5
413.812	161.5
414.035	173.5
414.258	183.5
414.482	164.5
414.705	165.5
414.928	162.5
415.151	174.5
415.374	172.5
415.597	175.5
415.821	173.5
416.044	153.5
416.267	163.5
416.49	156.5
416.713	153.5
416.936	187.5
417.159	167.5
417.382	183.5
417.605	171.5
417.828	182.5
418.051	164.5
418.274	169.5
418.497	161.5
418.72	182.5
418.943	193.5
419.166	161.5
419.389	189.5
419.611	177.5
419.834	183.5
420.057	170.5
420.28	168.5
420.503	168.5
420.726	181.5
420.948	172.5
421.171	162.5
421.394	176.5
421.617	183.5
421.839	160.5
422.062	159.5
422.285	176.5
422.507	164.5
422.73	158.5
422.953	180.5
423.175	189.5
423.398	168.5
423.621	184.5
423.843	181.5
424.066	179.5
424.288	190.5
424.511	180.5
424.733	184.5
424.956	182.5
425.178	180.5
425.401	176.5
425.623	168.5
425.846	164.5
426.068	173.5
426.291	154.5
426.513	149.5
426.735	159.5
426.958	156.5
427.18	168.5
427.402	154.5
427.625	169.5
427.847	164.5
428.069	145.5
428.292	164.5
428.514	170.5
428.736	146.5
428.958	165.5
429.181	161.5
429.403	172.5
429.625	160.5
429.847	136.5
430.069	161.5
430.292	169.5
430.514	159.5
430.736	166.5
430.958	162.5
431.18	145.5
431.402	163.5
431.624	160.5
431.846	147.5
432.068	167.5
432.29	175.5
432.512	161.5
432.734	158.5
432.956	160.5
433.178	164.5
433.4	154.5
433.622	154.5
433.844	171.5
434.066	160.5
434.287	162.5
434.509	166.5
434.731	174.5
434.953	188.5
435.175	152.5
435.397	177.5
435.618	181.5
435.84	170.5
436.062	158.5
436.284	145.5
436.505	144.5
436.727	148.5
436.949	169.5
437.17	143.5
437.392	136.5
437.614	164.5
437.835	146.5
438.057	162.5
438.278	154.5
438.5	150.5
438.721	158.5
438.943	140.5
439.165	146.5
439.386	143.5
439.608	170.5
439.829	145.5
440.05	165.5
440.272	155.5
440.493	159.5
440.715	151.5
440.936	161.5
441.158	157.5
441.379	177.5
441.6	186.5
441.822	169.5
442.043	173.5
442.264	169.5
442.486	167.5
442.707	167.5
442.928	170.5
443.149	167.5
443.371	171.5
443.592	162.5
443.813	153.5
444.034	173.5
444.255	186.5
444.476	195.5
444.698	204.5
444.919	186.5
445.14	385.5
445.361	265.5
445.582	169.5
445.803	170.5
446.024	172.5
446.245	175.5
446.466	165.5
446.687	171.5
446.908	177.5
447.129	154.5
447.35	157.5
447.571	161.5
447.792	143.5
448.013	145.5
448.234	164.5
448.455	163.5
448.675	156.5
448.896	146.5
449.117	166.5
449.338	161.5
449.559	149.5
449.779	137.5
450	152.5
450.221	141.5
450.442	134.5
450.662	136.5
450.883	158.5
451.104	160.5
451.324	139.5
451.545	152.5
451.766	148.5
451.986	142.5
452.207	146.5
452.428	152.5
452.648	151.5
452.869	145.5
453.089	141.5
453.31	127.5
453.53	153.5
453.751	155.5
453.971	135.5
454.192	148.5
454.412	140.5
454.633	148.5
454.853	158.5
455.073	127.5
455.294	119.5
455.514	131.5
455.734	125.5
455.955	149.5
456.175	142.5
456.395	146.5
456.616	152.5
456.836	141.5
457.056	143.5
457.276	134.5
457.497	147.5
457.717	129.5
457.937	168.5
458.157	135.5
458.377	144.5
458.598	163.5
458.818	149.5
459.038	154.5
459.258	152.5
459.478	178.5
459.698	166.5
459.918	168.5
460.138	185.5
460.358	179.5
460.578	179.5
460.798	180.5
461.018	169.5
461.238	148.5
461.458	181.5
461.678	196.5
461.898	158.5
462.118	187.5
462.338	164.5
462.558	196.5
462.777	191.5
462.997	199.5
463.217	201.5
463.437	212.5
463.657	198.5
463.876	218.5
464.096	209.5
464.316	198.5
464.536	199.5
464.755	194.5
464.975	184.5
465.195	180.5
465.414	182.5
465.634	159.5
465.854	160.5
466.073	159.5
466.293	167.5
466.512	157.5
466.732	137.5
466.951	152.5
467.171	150.5
467.391	162.5
467.61	156.5
467.829	150.5
468.049	156.5
468.268	135.5
468.488	145.5
468.707	137.5
468.927	143.5
469.146	159.5
469.365	155.5
469.585	144.5
469.804	137.5
470.023	159.5
470.243	168.5
470.462	161.5
470.681	165.5
470.901	143.5
471.12	142.5
471.339	150.5
471.558	140.5
471.777	161.5
471.997	150.5
472.216	147.5
472.435	146.5
472.654	141.5
472.873	147.5
473.092	131.5
473.311	145.5
473.53	147.5
473.749	136.5
473.968	152.5
474.187	152.5
474.406	153.5
474.625	149.5
474.844	153.5
475.063	141.5
475.282	156.5
475.501	146.5
475.72	161.5
475.939	145.5
476.158	149.5
476.377	141.5
476.596	143.5
476.814	135.5
477.033	152.5
477.252	145.5
477.471	172.5
477.69	141.5
477.908	159.5
478.127	184.5
478.346	161.5
478.564	175.5
478.783	176.5
479.002	176.5
479.22	157.5
479.439	166.5
479.658	166.5
479.876	176.5
480.095	172.5
480.313	177.5
480.532	194.5
480.751	185.5
480.969	168.5
481.188	172.5
481.406	158.5
481.624	168.5
481.843	170.5
482.061	160.5
482.28	165.5
482.498	162.5
482.717	145.5
482.935	161.5
483.153	163.5
483.372	153.5
483.59	165.5
483.808	183.5
484.027	183.5
484.245	165.5
484.463	161.5
484.681	183.5
484.9	158.5
485.118	168.5
485.336	173.5
485.554	188.5
485.772	169.5
485.99	179.5
486.209	158.5
486.427	170.5
486.645	180.5
486.863	190.5
487.081	153.5
487.299	176.5
487.517	176.5
487.735	168.5
487.953	168.5
488.171	182.5
488.389	160.5
488.607	160.5
488.825	169.5
489.043	160.5
489.261	182.5
489.479	168.5
489.696	168.5
489.914	162.5
490.132	154.5
490.35	167.5
490.568	160.5
490.786	166.5
491.003	162.5
491.221	176.5
491.439	164.5
491.657	178.5
491.874	179.5
492.092	173.5
492.31	178.5
492.527	170.5
492.745	174.5
492.963	179.5
493.18	184.5
493.398	183.5
493.615	172.5
493.833	167.5
494.05	168.5
494.268	164.5
494.485	178.5
494.703	178.5
494.92	190.5
495.138	180.5
495.355	176.5
495.573	176.5
495.79	170.5
496.008	176.5
496.225	177.5
496.442	168.5
496.66	185.5
496.877	176.5
497.094	193.5
497.312	187.5
497.529	169.5
497.746	183.5
497.963	196.5
498.181	190.5
498.398	199.5
498.615	207.5
498.832	215.5
499.049	249.5
499.267	245.5
499.484	269.5
499.701	270.5
499.918	321.5
500.135	339.5
500.352	388.5
500.569	399.5
500.786	388.5
501.003	366.5
501.22	325.5
501.437	282.5
501.654	268.5
501.871	240.5
502.088	241.5
502.305	240.5
502.522	204.5
502.739	211.5
502.956	226.5
503.172	195.5
503.389	197.5
503.606	189.5
503.823	171.5
504.04	184.5
504.256	204.5
504.473	182.5
504.69	185.5
504.907	190.5
505.123	190.5
505.34	184.5
505.557	190.5
505.773	176.5
505.99	168.5
506.207	173.5
506.423	153.5
506.64	166.5
506.856	158.5
507.073	156.5
507.289	142.5
507.506	159.5
507.722	156.5
507.939	149.5
508.155	158.5
508.372	162.5
508.588	169.5
508.805	154.5
509.021	165.5
509.238	156.5
509.454	156.5
509.67	145.5
509.887	133.5
510.103	152.5
510.319	152.5
510.536	163.5
510.752	163.5
510.968	141.5
511.184	153.5
511.401	147.5
511.617	171.5
511.833	139.5
512.049	154.5
512.265	160.5
512.481	166.5
512.698	144.5
512.914	166.5
513.13	164.5
513.346	145.5
513.562	158.5
513.778	155.5
513.994	160.5
514.21	149.5
514.426	160.5
514.642	158.5
514.858	152.5
515.074	152.5
515.29	174.5
515.506	144.5
515.721	143.5
515.937	172.5
516.153	164.5
516.369	149.5
516.585	155.5
516.801	182.5
517.016	193.5
517.232	185.5
517.448	189.5
517.664	186.5
517.879	180.5
518.095	179.5
518.311	193.5
518.527	189.5
518.742	188.5
518.958	163.5
519.173	174.5
519.389	157.5
519.605	173.5
519.82	168.5
520.036	150.5
520.251	158.5
520.467	153.5
520.682	176.5
520.898	155.5
521.113	149.5
521.329	158.5
521.544	161.5
521.76	144.5
521.975	154.5
522.19	141.5
522.406	154.5
522.621	151.5
522.836	159.5
523.052	151.5
523.267	133.5
523.482	125.5
