Data from SampG_HRD10591_00095.txt Node
Date: Mon Jan 19 11:54:16 EST 2026
User: Yrep
Spectrometer: HR+D1059
Trigger mode: 0
Integration Time (sec): 3.443000E-1
Scans to average: 1
Electric dark correction enabled: true
Nonlinearity correction enabled: false
Boxcar width: 0
XAxis mode: Wavelengths
Number of Pixels in Spectrum: 2048
>>>>>Begin Spectral Data<<<<<
223.165	-34.38
223.4	-34.38
223.635	-34.38
223.869	-18.38
224.104	-14.38
224.338	-26.38
224.573	-14.38
224.808	-7.38
225.042	-7.38
225.277	-2.38
225.511	-14.38
225.746	8.62
225.98	11.62
226.215	25.62
226.449	15.62
226.683	24.62
226.918	26.62
227.152	26.62
227.387	44.62
227.621	49.62
227.856	57.62
228.09	43.62
228.324	42.62
228.559	48.62
228.793	56.62
229.027	66.62
229.262	60.62
229.496	67.62
229.73	81.62
229.964	72.62
230.199	88.62
230.433	89.62
230.667	81.62
230.901	93.62
231.136	80.62
231.37	95.62
231.604	79.62
231.838	83.62
232.072	73.62
232.306	89.62
232.541	84.62
232.775	89.62
233.009	94.62
233.243	90.62
233.477	82.62
233.711	89.62
233.945	86.62
234.179	74.62
234.413	80.62
234.647	77.62
234.881	87.62
235.115	81.62
235.349	90.62
235.583	85.62
235.817	74.62
236.051	77.62
236.285	82.62
236.519	93.62
236.753	74.62
236.987	83.62
237.221	86.62
237.455	89.62
237.689	81.62
237.922	86.62
238.156	65.62
238.39	93.62
238.624	83.62
238.858	80.62
239.091	68.62
239.325	81.62
239.559	76.62
239.793	70.62
240.027	95.62
240.26	81.62
240.494	70.62
240.728	85.62
240.961	79.62
241.195	79.62
241.429	76.62
241.662	76.62
241.896	82.62
242.13	91.62
242.363	87.62
242.597	77.62
242.83	89.62
243.064	89.62
243.298	80.62
243.531	75.62
243.765	84.62
243.998	95.62
244.232	95.62
244.465	88.62
244.699	84.62
244.932	85.62
245.166	75.62
245.399	74.62
245.633	87.62
245.866	91.62
246.099	76.62
246.333	83.62
246.566	89.62
246.8	85.62
247.033	82.62
247.266	87.62
247.5	79.62
247.733	97.62
247.966	65.62
248.2	91.62
248.433	87.62
248.666	93.62
248.899	101.62
249.133	76.62
249.366	109.62
249.599	74.62
249.832	81.62
250.066	101.62
250.299	97.62
250.532	108.62
250.765	92.62
250.998	84.62
251.231	90.62
251.465	81.62
251.698	86.62
251.931	85.62
252.164	79.62
252.397	98.62
252.63	79.62
252.863	94.62
253.096	95.62
253.329	91.62
253.562	86.62
253.795	96.62
254.028	98.62
254.261	91.62
254.494	89.62
254.727	99.62
254.96	97.62
255.193	91.62
255.426	87.62
255.659	98.62
255.892	91.62
256.124	76.62
256.357	90.62
256.59	89.62
256.823	87.62
257.056	98.62
257.289	90.62
257.521	99.62
257.754	89.62
257.987	93.62
258.22	99.62
258.452	95.62
258.685	87.62
258.918	95.62
259.151	85.62
259.383	108.62
259.616	104.62
259.849	85.62
260.081	101.62
260.314	84.62
260.547	96.62
260.779	99.62
261.012	96.62
261.244	96.62
261.477	115.62
261.71	95.62
261.942	86.62
262.175	84.62
262.407	90.62
262.64	82.62
262.872	90.62
263.105	100.62
263.337	81.62
263.57	100.62
263.802	95.62
264.035	84.62
264.267	97.62
264.499	85.62
264.732	102.62
264.964	116.62
265.197	110.62
265.429	93.62
265.661	87.62
265.894	100.62
266.126	103.62
266.358	93.62
266.591	93.62
266.823	98.62
267.055	85.62
267.287	88.62
267.52	93.62
267.752	119.62
267.984	107.62
268.216	90.62
268.448	106.62
268.681	106.62
268.913	108.62
269.145	87.62
269.377	92.62
269.609	92.62
269.841	105.62
270.073	106.62
270.306	99.62
270.538	92.62
270.77	95.62
271.002	97.62
271.234	110.62
271.466	93.62
271.698	94.62
271.93	85.62
272.162	106.62
272.394	103.62
272.626	106.62
272.858	106.62
273.09	101.62
273.322	99.62
273.553	109.62
273.785	96.62
274.017	102.62
274.249	122.62
274.481	97.62
274.713	105.62
274.945	105.62
275.176	95.62
275.408	106.62
275.64	95.62
275.872	106.62
276.104	106.62
276.335	101.62
276.567	106.62
276.799	93.62
277.031	95.62
277.262	118.62
277.494	111.62
277.726	106.62
277.957	87.62
278.189	93.62
278.421	118.62
278.652	100.62
278.884	90.62
279.115	104.62
279.347	105.62
279.579	106.62
279.81	113.62
280.042	101.62
280.273	99.62
280.505	124.62
280.736	123.62
280.968	107.62
281.199	110.62
281.431	105.62
281.662	114.62
281.894	114.62
282.125	107.62
282.356	108.62
282.588	87.62
282.819	101.62
283.051	115.62
283.282	126.62
283.513	125.62
283.745	114.62
283.976	123.62
284.207	111.62
284.439	137.62
284.67	120.62
284.901	119.62
285.132	99.62
285.364	112.62
285.595	113.62
285.826	107.62
286.057	113.62
286.288	105.62
286.52	114.62
286.751	109.62
286.982	112.62
287.213	106.62
287.444	114.62
287.675	88.62
287.906	120.62
288.138	120.62
288.369	116.62
288.6	115.62
288.831	116.62
289.062	118.62
289.293	124.62
289.524	108.62
289.755	106.62
289.986	108.62
290.217	129.62
290.448	112.62
290.679	108.62
290.91	123.62
291.141	116.62
291.371	122.62
291.602	132.62
291.833	109.62
292.064	112.62
292.295	122.62
292.526	115.62
292.757	120.62
292.987	121.62
293.218	98.62
293.449	122.62
293.68	129.62
293.91	124.62
294.141	129.62
294.372	122.62
294.603	113.62
294.833	124.62
295.064	132.62
295.295	123.62
295.525	119.62
295.756	109.62
295.987	121.62
296.217	115.62
296.448	114.62
296.679	115.62
296.909	115.62
297.14	120.62
297.37	127.62
297.601	127.62
297.831	113.62
298.062	117.62
298.292	115.62
298.523	121.62
298.753	122.62
298.984	115.62
299.214	134.62
299.445	132.62
299.675	125.62
299.905	125.62
300.136	128.62
300.366	110.62
300.597	122.62
300.827	135.62
301.057	127.62
301.288	119.62
301.518	122.62
301.748	120.62
301.979	163.62
302.209	132.62
302.439	102.62
302.669	129.62
302.9	122.62
303.13	116.62
303.36	124.62
303.59	134.62
303.82	116.62
304.051	123.62
304.281	121.62
304.511	122.62
304.741	121.62
304.971	115.62
305.201	113.62
305.431	117.62
305.661	132.62
305.891	115.62
306.121	123.62
306.352	127.62
306.582	111.62
306.812	123.62
307.042	124.62
307.272	115.62
307.502	124.62
307.731	135.62
307.961	134.62
308.191	116.62
308.421	143.62
308.651	130.62
308.881	124.62
309.111	128.62
309.341	129.62
309.571	112.62
309.8	120.62
310.03	103.62
310.26	117.62
310.49	119.62
310.72	132.62
310.949	124.62
311.179	124.62
311.409	134.62
311.639	127.62
311.868	132.62
312.098	125.62
312.328	117.62
312.557	120.62
312.787	118.62
313.017	131.62
313.246	110.62
313.476	116.62
313.706	115.62
313.935	127.62
314.165	108.62
314.394	137.62
314.624	134.62
314.853	136.62
315.083	133.62
315.312	123.62
315.542	114.62
315.771	123.62
316.001	123.62
316.23	124.62
316.46	128.62
316.689	131.62
316.919	127.62
317.148	129.62
317.377	132.62
317.607	141.62
317.836	137.62
318.065	116.62
318.295	133.62
318.524	143.62
318.753	126.62
318.983	130.62
319.212	121.62
319.441	128.62
319.67	135.62
319.9	118.62
320.129	108.62
320.358	120.62
320.587	144.62
320.816	119.62
321.046	109.62
321.275	115.62
321.504	137.62
321.733	127.62
321.962	129.62
322.191	127.62
322.42	147.62
322.649	144.62
322.878	129.62
323.108	128.62
323.337	123.62
323.566	115.62
323.795	115.62
324.024	131.62
324.253	109.62
324.482	127.62
324.71	135.62
324.939	130.62
325.168	125.62
325.397	128.62
325.626	124.62
325.855	118.62
326.084	154.62
326.313	143.62
326.542	144.62
326.77	127.62
326.999	128.62
327.228	122.62
327.457	127.62
327.686	145.62
327.914	130.62
328.143	145.62
328.372	122.62
328.6	129.62
328.829	136.62
329.058	117.62
329.287	119.62
329.515	135.62
329.744	140.62
329.972	137.62
330.201	136.62
330.43	134.62
330.658	121.62
330.887	128.62
331.115	135.62
331.344	143.62
331.572	159.62
331.801	159.62
332.03	144.62
332.258	132.62
332.486	135.62
332.715	156.62
332.943	127.62
333.172	153.62
333.4	148.62
333.629	167.62
333.857	168.62
334.085	161.62
334.314	165.62
334.542	138.62
334.771	145.62
334.999	139.62
335.227	148.62
335.455	146.62
335.684	153.62
335.912	158.62
336.14	151.62
336.369	152.62
336.597	147.62
336.825	137.62
337.053	144.62
337.281	135.62
337.51	140.62
337.738	155.62
337.966	127.62
338.194	123.62
338.422	144.62
338.65	163.62
338.878	149.62
339.106	110.62
339.334	149.62
339.562	132.62
339.79	129.62
340.018	137.62
340.246	143.62
340.474	132.62
340.702	131.62
340.93	137.62
341.158	116.62
341.386	141.62
341.614	135.62
341.842	134.62
342.07	134.62
342.298	125.62
342.526	134.62
342.754	126.62
342.981	126.62
343.209	146.62
343.437	177.62
343.665	148.62
343.893	149.62
344.12	160.62
344.348	137.62
344.576	133.62
344.804	128.62
345.031	124.62
345.259	131.62
345.487	146.62
345.714	155.62
345.942	123.62
346.17	148.62
346.397	115.62
346.625	144.62
346.853	140.62
347.08	115.62
347.308	124.62
347.535	123.62
347.763	139.62
347.99	131.62
348.218	136.62
348.445	143.62
348.673	127.62
348.9	135.62
349.128	141.62
349.355	132.62
349.583	126.62
349.81	125.62
350.037	137.62
350.265	138.62
350.492	130.62
350.72	123.62
350.947	122.62
351.174	138.62
351.402	124.62
351.629	132.62
351.856	131.62
352.083	143.62
352.311	125.62
352.538	106.62
352.765	123.62
352.992	139.62
353.22	138.62
353.447	121.62
353.674	129.62
353.901	143.62
354.128	147.62
354.355	119.62
354.583	135.62
354.81	130.62
355.037	133.62
355.264	132.62
355.491	130.62
355.718	120.62
355.945	131.62
356.172	145.62
356.399	131.62
356.626	139.62
356.853	139.62
357.08	138.62
357.307	136.62
357.534	127.62
357.761	136.62
357.988	133.62
358.215	138.62
358.441	121.62
358.668	127.62
358.895	122.62
359.122	139.62
359.349	126.62
359.576	123.62
359.802	121.62
360.029	137.62
360.256	135.62
360.483	141.62
360.709	134.62
360.936	135.62
361.163	127.62
361.39	121.62
361.616	119.62
361.843	136.62
362.07	124.62
362.296	127.62
362.523	123.62
362.749	126.62
362.976	139.62
363.203	128.62
363.429	130.62
363.656	116.62
363.882	127.62
364.109	149.62
364.335	137.62
364.562	143.62
364.788	151.62
365.015	137.62
365.241	143.62
365.468	150.62
365.694	133.62
365.92	134.62
366.147	141.62
366.373	123.62
366.599	131.62
366.826	130.62
367.052	130.62
367.278	131.62
367.505	126.62
367.731	155.62
367.957	131.62
368.184	129.62
368.41	116.62
368.636	139.62
368.862	138.62
369.089	149.62
369.315	135.62
369.541	143.62
369.767	131.62
369.993	123.62
370.219	138.62
370.445	119.62
370.672	131.62
370.898	135.62
371.124	126.62
371.35	132.62
371.576	136.62
371.802	131.62
372.028	125.62
372.254	131.62
372.48	135.62
372.706	144.62
372.932	159.62
373.158	135.62
373.384	139.62
373.61	138.62
373.835	137.62
374.061	121.62
374.287	159.62
374.513	140.62
374.739	135.62
374.965	158.62
375.191	146.62
375.416	133.62
375.642	151.62
375.868	150.62
376.094	131.62
376.319	139.62
376.545	128.62
376.771	139.62
376.997	138.62
377.222	144.62
377.448	145.62
377.674	129.62
377.899	130.62
378.125	139.62
378.35	143.62
378.576	141.62
378.802	127.62
379.027	138.62
379.253	150.62
379.478	133.62
379.704	130.62
379.929	147.62
380.155	138.62
380.38	136.62
380.606	131.62
380.831	140.62
381.057	152.62
381.282	135.62
381.507	111.62
381.733	143.62
381.958	140.62
382.184	130.62
382.409	132.62
382.634	162.62
382.86	147.62
383.085	167.62
383.31	135.62
383.535	148.62
383.761	148.62
383.986	158.62
384.211	145.62
384.436	159.62
384.662	152.62
384.887	140.62
385.112	157.62
385.337	159.62
385.562	156.62
385.787	168.62
386.013	152.62
386.238	165.62
386.463	167.62
386.688	196.62
386.913	157.62
387.138	146.62
387.363	156.62
387.588	169.62
387.813	145.62
388.038	143.62
388.263	154.62
388.488	148.62
388.713	152.62
388.938	157.62
389.163	133.62
389.387	144.62
389.612	146.62
389.837	143.62
390.062	146.62
390.287	162.62
390.512	140.62
390.736	162.62
390.961	156.62
391.186	163.62
391.411	163.62
391.636	164.62
391.86	151.62
392.085	152.62
392.31	151.62
392.534	150.62
392.759	177.62
392.984	167.62
393.208	167.62
393.433	161.62
393.658	179.62
393.882	163.62
394.107	150.62
394.331	179.62
394.556	154.62
394.78	159.62
395.005	171.62
395.229	168.62
395.454	168.62
395.678	151.62
395.903	167.62
396.127	171.62
396.352	149.62
396.576	139.62
396.801	146.62
397.025	157.62
397.249	155.62
397.474	167.62
397.698	174.62
397.922	167.62
398.147	160.62
398.371	163.62
398.595	176.62
398.82	177.62
399.044	180.62
399.268	209.62
399.492	227.62
399.717	225.62
399.941	228.62
400.165	210.62
400.389	188.62
400.613	174.62
400.837	184.62
401.062	166.62
401.286	175.62
401.51	179.62
401.734	179.62
401.958	177.62
402.182	173.62
402.406	185.62
402.63	181.62
402.854	182.62
403.078	187.62
403.302	175.62
403.526	190.62
403.75	191.62
403.974	185.62
404.198	185.62
404.422	191.62
404.645	187.62
404.869	184.62
405.093	188.62
405.317	192.62
405.541	186.62
405.765	171.62
405.988	182.62
406.212	187.62
406.436	176.62
406.66	195.62
406.883	188.62
407.107	188.62
407.331	207.62
407.555	211.62
407.778	188.62
408.002	197.62
408.226	197.62
408.449	204.62
408.673	193.62
408.896	187.62
409.12	194.62
409.344	181.62
409.567	188.62
409.791	201.62
410.014	196.62
410.238	180.62
410.461	186.62
410.685	182.62
410.908	177.62
411.132	184.62
411.355	178.62
411.578	173.62
411.802	183.62
412.025	164.62
412.249	185.62
412.472	174.62
412.695	177.62
412.919	176.62
413.142	177.62
413.365	176.62
413.589	178.62
413.812	171.62
414.035	193.62
414.258	185.62
414.482	180.62
414.705	193.62
414.928	168.62
415.151	167.62
415.374	162.62
415.597	152.62
415.821	163.62
416.044	167.62
416.267	171.62
416.49	172.62
416.713	140.62
416.936	165.62
417.159	169.62
417.382	158.62
417.605	169.62
417.828	173.62
418.051	168.62
418.274	165.62
418.497	173.62
418.72	171.62
418.943	180.62
419.166	193.62
419.389	189.62
419.611	175.62
419.834	184.62
420.057	191.62
420.28	165.62
420.503	177.62
420.726	188.62
420.948	179.62
421.171	164.62
421.394	144.62
421.617	164.62
421.839	159.62
422.062	159.62
422.285	178.62
422.507	175.62
422.73	170.62
422.953	173.62
423.175	174.62
423.398	167.62
423.621	166.62
423.843	175.62
424.066	175.62
424.288	181.62
424.511	164.62
424.733	178.62
424.956	191.62
425.178	169.62
425.401	178.62
425.623	161.62
425.846	183.62
426.068	177.62
426.291	173.62
426.513	173.62
426.735	162.62
426.958	156.62
427.18	165.62
427.402	173.62
427.625	179.62
427.847	163.62
428.069	168.62
428.292	159.62
428.514	169.62
428.736	169.62
428.958	172.62
429.181	149.62
429.403	171.62
429.625	153.62
429.847	156.62
430.069	180.62
430.292	168.62
430.514	141.62
430.736	158.62
430.958	156.62
431.18	147.62
431.402	169.62
431.624	153.62
431.846	158.62
432.068	178.62
432.29	173.62
432.512	172.62
432.734	174.62
432.956	164.62
433.178	184.62
433.4	165.62
433.622	177.62
433.844	164.62
434.066	168.62
434.287	176.62
434.509	143.62
434.731	170.62
434.953	164.62
435.175	156.62
435.397	178.62
435.618	152.62
435.84	164.62
436.062	158.62
436.284	146.62
436.505	170.62
436.727	160.62
436.949	158.62
437.17	146.62
437.392	157.62
437.614	159.62
437.835	155.62
438.057	148.62
438.278	136.62
438.5	163.62
438.721	151.62
438.943	160.62
439.165	147.62
439.386	161.62
439.608	181.62
439.829	156.62
440.05	151.62
440.272	161.62
440.493	169.62
440.715	155.62
440.936	155.62
441.158	170.62
441.379	172.62
441.6	185.62
441.822	186.62
442.043	172.62
442.264	174.62
442.486	156.62
442.707	178.62
442.928	165.62
443.149	169.62
443.371	167.62
443.592	192.62
443.813	178.62
444.034	162.62
444.255	170.62
444.476	186.62
444.698	200.62
444.919	183.62
445.14	387.62
445.361	251.62
445.582	179.62
445.803	169.62
446.024	167.62
446.245	163.62
446.466	157.62
446.687	141.62
446.908	167.62
447.129	143.62
447.35	152.62
447.571	158.62
447.792	165.62
448.013	147.62
448.234	137.62
448.455	141.62
448.675	139.62
448.896	149.62
449.117	154.62
449.338	161.62
449.559	163.62
449.779	141.62
450	138.62
450.221	153.62
450.442	151.62
450.662	160.62
450.883	159.62
451.104	159.62
451.324	155.62
451.545	146.62
451.766	152.62
451.986	155.62
452.207	161.62
452.428	145.62
452.648	158.62
452.869	156.62
453.089	151.62
453.31	136.62
453.53	166.62
453.751	160.62
453.971	138.62
454.192	140.62
454.412	146.62
454.633	152.62
454.853	145.62
455.073	147.62
455.294	163.62
455.514	161.62
455.734	148.62
455.955	146.62
456.175	137.62
456.395	144.62
456.616	147.62
456.836	143.62
457.056	125.62
457.276	141.62
457.497	155.62
457.717	149.62
457.937	147.62
458.157	154.62
458.377	139.62
458.598	150.62
458.818	151.62
459.038	140.62
459.258	162.62
459.478	157.62
459.698	172.62
459.918	171.62
460.138	185.62
460.358	169.62
460.578	209.62
460.798	170.62
461.018	186.62
461.238	190.62
461.458	174.62
461.678	169.62
461.898	188.62
462.118	187.62
462.338	193.62
462.558	185.62
462.777	183.62
462.997	209.62
463.217	219.62
463.437	216.62
463.657	209.62
463.876	200.62
464.096	188.62
464.316	174.62
464.536	195.62
464.755	192.62
464.975	180.62
465.195	173.62
465.414	163.62
465.634	160.62
465.854	168.62
466.073	166.62
466.293	143.62
466.512	155.62
466.732	138.62
466.951	152.62
467.171	161.62
467.391	158.62
467.61	150.62
467.829	158.62
468.049	151.62
468.268	156.62
468.488	147.62
468.707	141.62
468.927	127.62
469.146	147.62
469.365	165.62
469.585	136.62
469.804	153.62
470.023	146.62
470.243	158.62
470.462	151.62
470.681	151.62
470.901	162.62
471.12	141.62
471.339	151.62
471.558	162.62
471.777	165.62
471.997	144.62
472.216	147.62
472.435	148.62
472.654	158.62
472.873	156.62
473.092	157.62
473.311	152.62
473.53	138.62
473.749	147.62
473.968	168.62
474.187	132.62
474.406	151.62
474.625	137.62
474.844	159.62
475.063	147.62
475.282	153.62
475.501	151.62
475.72	171.62
475.939	162.62
476.158	149.62
476.377	156.62
476.596	150.62
476.814	166.62
477.033	160.62
477.252	168.62
477.471	166.62
477.69	176.62
477.908	151.62
478.127	180.62
478.346	178.62
478.564	167.62
478.783	179.62
479.002	165.62
479.22	185.62
479.439	179.62
479.658	169.62
479.876	183.62
480.095	169.62
480.313	180.62
480.532	197.62
480.751	179.62
480.969	176.62
481.188	173.62
481.406	162.62
481.624	164.62
481.843	164.62
482.061	149.62
482.28	146.62
482.498	160.62
482.717	156.62
482.935	179.62
483.153	156.62
483.372	164.62
483.59	150.62
483.808	159.62
484.027	159.62
484.245	169.62
484.463	173.62
484.681	184.62
484.9	173.62
485.118	165.62
485.336	151.62
485.554	152.62
485.772	163.62
485.99	178.62
486.209	162.62
486.427	176.62
486.645	162.62
486.863	173.62
487.081	182.62
487.299	157.62
487.517	160.62
487.735	159.62
487.953	168.62
488.171	164.62
488.389	167.62
488.607	178.62
488.825	161.62
489.043	175.62
489.261	170.62
489.479	161.62
489.696	168.62
489.914	163.62
490.132	169.62
490.35	173.62
490.568	181.62
490.786	176.62
491.003	181.62
491.221	158.62
491.439	167.62
491.657	166.62
491.874	172.62
492.092	176.62
492.31	173.62
492.527	174.62
492.745	179.62
492.963	176.62
493.18	177.62
493.398	165.62
493.615	177.62
493.833	171.62
494.05	175.62
494.268	171.62
494.485	178.62
494.703	174.62
494.92	180.62
495.138	163.62
495.355	175.62
495.573	182.62
495.79	173.62
496.008	172.62
496.225	175.62
496.442	183.62
496.66	185.62
496.877	188.62
497.094	183.62
497.312	176.62
497.529	192.62
497.746	182.62
497.963	193.62
498.181	198.62
498.398	197.62
498.615	219.62
498.832	217.62
499.049	237.62
499.267	243.62
499.484	279.62
499.701	287.62
499.918	316.62
500.135	344.62
500.352	387.62
500.569	380.62
500.786	394.62
501.003	363.62
501.22	328.62
501.437	289.62
501.654	262.62
501.871	234.62
502.088	240.62
502.305	234.62
502.522	237.62
502.739	227.62
502.956	212.62
503.172	191.62
503.389	188.62
503.606	195.62
503.823	201.62
504.04	197.62
504.256	209.62
504.473	179.62
504.69	193.62
504.907	223.62
505.123	181.62
