Data from SampG_HRD10591_00038.txt Node
Date: Mon Jan 19 11:53:56 EST 2026
User: Yrep
Spectrometer: HR+D1059
Trigger mode: 0
Integration Time (sec): 3.443000E-1
Scans to average: 1
Electric dark correction enabled: true
Nonlinearity correction enabled: false
Boxcar width: 0
XAxis mode: Wavelengths
Number of Pixels in Spectrum: 2048
>>>>>Begin Spectral Data<<<<<
223.165	-11.56
223.4	-11.56
223.635	-11.56
223.869	-25.56
224.104	-20.56
224.338	-33.56
224.573	-9.56
224.808	-15.56
225.042	-11.56
225.277	-7.56
225.511	-14.56
225.746	1.44
225.98	16.44
226.215	23.44
226.449	26.44
226.683	23.44
226.918	28.44
227.152	30.44
227.387	48.44
227.621	41.44
227.856	40.44
228.09	42.44
228.324	62.44
228.559	70.44
228.793	38.44
229.027	52.44
229.262	64.44
229.496	58.44
229.73	69.44
229.964	98.44
230.199	77.44
230.433	76.44
230.667	85.44
230.901	79.44
231.136	77.44
231.37	77.44
231.604	90.44
231.838	85.44
232.072	87.44
232.306	89.44
232.541	84.44
232.775	79.44
233.009	80.44
233.243	83.44
233.477	100.44
233.711	93.44
233.945	98.44
234.179	96.44
234.413	95.44
234.647	80.44
234.881	95.44
235.115	68.44
235.349	88.44
235.583	105.44
235.817	80.44
236.051	83.44
236.285	87.44
236.519	89.44
236.753	84.44
236.987	87.44
237.221	83.44
237.455	70.44
237.689	90.44
237.922	80.44
238.156	68.44
238.39	81.44
238.624	91.44
238.858	76.44
239.091	94.44
239.325	90.44
239.559	87.44
239.793	100.44
240.027	80.44
240.26	84.44
240.494	80.44
240.728	80.44
240.961	73.44
241.195	95.44
241.429	73.44
241.662	98.44
241.896	83.44
242.13	84.44
242.363	80.44
242.597	83.44
242.83	91.44
243.064	85.44
243.298	77.44
243.531	91.44
243.765	78.44
243.998	84.44
244.232	97.44
244.465	107.44
244.699	103.44
244.932	84.44
245.166	79.44
245.399	94.44
245.633	93.44
245.866	83.44
246.099	83.44
246.333	78.44
246.566	76.44
246.8	86.44
247.033	101.44
247.266	78.44
247.5	85.44
247.733	78.44
247.966	87.44
248.2	106.44
248.433	96.44
248.666	96.44
248.899	84.44
249.133	105.44
249.366	88.44
249.599	85.44
249.832	81.44
250.066	115.44
250.299	103.44
250.532	95.44
250.765	80.44
250.998	94.44
251.231	98.44
251.465	98.44
251.698	90.44
251.931	93.44
252.164	95.44
252.397	102.44
252.63	90.44
252.863	89.44
253.096	83.44
253.329	108.44
253.562	105.44
253.795	100.44
254.028	91.44
254.261	113.44
254.494	96.44
254.727	103.44
254.96	97.44
255.193	96.44
255.426	95.44
255.659	92.44
255.892	118.44
256.124	111.44
256.357	110.44
256.59	107.44
256.823	105.44
257.056	99.44
257.289	90.44
257.521	112.44
257.754	96.44
257.987	89.44
258.22	111.44
258.452	87.44
258.685	101.44
258.918	91.44
259.151	109.44
259.383	118.44
259.616	122.44
259.849	99.44
260.081	96.44
260.314	106.44
260.547	104.44
260.779	110.44
261.012	110.44
261.244	92.44
261.477	119.44
261.71	99.44
261.942	103.44
262.175	120.44
262.407	104.44
262.64	89.44
262.872	108.44
263.105	99.44
263.337	112.44
263.57	100.44
263.802	105.44
264.035	120.44
264.267	104.44
264.499	93.44
264.732	103.44
264.964	88.44
265.197	97.44
265.429	102.44
265.661	124.44
265.894	103.44
266.126	111.44
266.358	110.44
266.591	86.44
266.823	108.44
267.055	99.44
267.287	101.44
267.52	88.44
267.752	92.44
267.984	108.44
268.216	107.44
268.448	118.44
268.681	105.44
268.913	109.44
269.145	102.44
269.377	119.44
269.609	99.44
269.841	109.44
270.073	100.44
270.306	113.44
270.538	105.44
270.77	107.44
271.002	127.44
271.234	115.44
271.466	119.44
271.698	116.44
271.93	112.44
272.162	121.44
272.394	125.44
272.626	113.44
272.858	115.44
273.09	104.44
273.322	107.44
273.553	107.44
273.785	117.44
274.017	106.44
274.249	104.44
274.481	113.44
274.713	102.44
274.945	127.44
275.176	108.44
275.408	119.44
275.64	126.44
275.872	101.44
276.104	116.44
276.335	102.44
276.567	112.44
276.799	117.44
277.031	104.44
277.262	110.44
277.494	113.44
277.726	119.44
277.957	117.44
278.189	113.44
278.421	124.44
278.652	112.44
278.884	122.44
279.115	119.44
279.347	119.44
279.579	123.44
279.81	99.44
280.042	107.44
280.273	103.44
280.505	117.44
280.736	108.44
280.968	115.44
281.199	122.44
281.431	115.44
281.662	116.44
281.894	123.44
282.125	126.44
282.356	116.44
282.588	121.44
282.819	114.44
283.051	118.44
283.282	128.44
283.513	144.44
283.745	121.44
283.976	121.44
284.207	123.44
284.439	116.44
284.67	113.44
284.901	119.44
285.132	110.44
285.364	125.44
285.595	103.44
285.826	115.44
286.057	111.44
286.288	109.44
286.52	109.44
286.751	127.44
286.982	115.44
287.213	115.44
287.444	125.44
287.675	120.44
287.906	128.44
288.138	125.44
288.369	120.44
288.6	105.44
288.831	118.44
289.062	127.44
289.293	111.44
289.524	123.44
289.755	120.44
289.986	113.44
290.217	119.44
290.448	123.44
290.679	126.44
290.91	126.44
291.141	129.44
291.371	124.44
291.602	132.44
291.833	124.44
292.064	120.44
292.295	109.44
292.526	125.44
292.757	114.44
292.987	111.44
293.218	132.44
293.449	114.44
293.68	112.44
293.91	115.44
294.141	144.44
294.372	118.44
294.603	137.44
294.833	132.44
295.064	125.44
295.295	112.44
295.525	123.44
295.756	132.44
295.987	121.44
296.217	123.44
296.448	140.44
296.679	139.44
296.909	113.44
297.14	136.44
297.37	122.44
297.601	138.44
297.831	136.44
298.062	122.44
298.292	129.44
298.523	140.44
298.753	131.44
298.984	121.44
299.214	127.44
299.445	126.44
299.675	139.44
299.905	136.44
300.136	137.44
300.366	128.44
300.597	132.44
300.827	151.44
301.057	120.44
301.288	139.44
301.518	149.44
301.748	132.44
301.979	162.44
302.209	129.44
302.439	124.44
302.669	117.44
302.9	110.44
303.13	129.44
303.36	134.44
303.59	133.44
303.82	119.44
304.051	129.44
304.281	155.44
304.511	135.44
304.741	135.44
304.971	128.44
305.201	136.44
305.431	129.44
305.661	133.44
305.891	125.44
306.121	140.44
306.352	124.44
306.582	121.44
306.812	141.44
307.042	133.44
307.272	138.44
307.502	131.44
307.731	129.44
307.961	131.44
308.191	117.44
308.421	138.44
308.651	146.44
308.881	130.44
309.111	133.44
309.341	132.44
309.571	134.44
309.8	142.44
310.03	132.44
310.26	139.44
310.49	136.44
310.72	117.44
310.949	113.44
311.179	132.44
311.409	115.44
311.639	126.44
311.868	123.44
312.098	120.44
312.328	132.44
312.557	141.44
312.787	124.44
313.017	152.44
313.246	144.44
313.476	133.44
313.706	125.44
313.935	136.44
314.165	135.44
314.394	142.44
314.624	136.44
314.853	138.44
315.083	124.44
315.312	125.44
315.542	132.44
315.771	122.44
316.001	139.44
316.23	129.44
316.46	136.44
316.689	130.44
316.919	129.44
317.148	120.44
317.377	143.44
317.607	140.44
317.836	137.44
318.065	125.44
318.295	136.44
318.524	126.44
318.753	136.44
318.983	149.44
319.212	143.44
319.441	129.44
319.67	120.44
319.9	136.44
320.129	136.44
320.358	134.44
320.587	112.44
320.816	144.44
321.046	127.44
321.275	134.44
321.504	128.44
321.733	147.44
321.962	121.44
322.191	130.44
322.42	130.44
322.649	137.44
322.878	149.44
323.108	153.44
323.337	115.44
323.566	137.44
323.795	120.44
324.024	144.44
324.253	145.44
324.482	139.44
324.71	138.44
324.939	147.44
325.168	132.44
325.397	145.44
325.626	150.44
325.855	136.44
326.084	134.44
326.313	137.44
326.542	149.44
326.77	141.44
326.999	138.44
327.228	136.44
327.457	147.44
327.686	135.44
327.914	143.44
328.143	153.44
328.372	146.44
328.6	132.44
328.829	138.44
329.058	124.44
329.287	134.44
329.515	150.44
329.744	132.44
329.972	127.44
330.201	139.44
330.43	141.44
330.658	135.44
330.887	143.44
331.115	149.44
331.344	149.44
331.572	153.44
331.801	124.44
332.03	138.44
332.258	151.44
332.486	143.44
332.715	151.44
332.943	151.44
333.172	148.44
333.4	155.44
333.629	154.44
333.857	162.44
334.085	176.44
334.314	154.44
334.542	143.44
334.771	160.44
334.999	158.44
335.227	155.44
335.455	160.44
335.684	157.44
335.912	146.44
336.14	141.44
336.369	157.44
336.597	147.44
336.825	160.44
337.053	145.44
337.281	152.44
337.51	156.44
337.738	149.44
337.966	142.44
338.194	151.44
338.422	151.44
338.65	132.44
338.878	157.44
339.106	139.44
339.334	152.44
339.562	167.44
339.79	148.44
340.018	138.44
340.246	137.44
340.474	145.44
340.702	158.44
340.93	131.44
341.158	147.44
341.386	129.44
341.614	133.44
341.842	142.44
342.07	141.44
342.298	151.44
342.526	155.44
342.754	142.44
342.981	155.44
343.209	133.44
343.437	184.44
343.665	149.44
343.893	160.44
344.12	173.44
344.348	149.44
344.576	144.44
344.804	133.44
345.031	144.44
345.259	131.44
345.487	140.44
345.714	142.44
345.942	141.44
346.17	129.44
346.397	142.44
346.625	150.44
346.853	133.44
347.08	138.44
347.308	148.44
347.535	140.44
347.763	143.44
347.99	138.44
348.218	171.44
348.445	154.44
348.673	151.44
348.9	147.44
349.128	148.44
349.355	146.44
349.583	140.44
349.81	134.44
350.037	147.44
350.265	133.44
350.492	135.44
350.72	131.44
350.947	126.44
351.174	143.44
351.402	139.44
351.629	133.44
351.856	138.44
352.083	129.44
352.311	134.44
352.538	138.44
352.765	122.44
352.992	150.44
353.22	138.44
353.447	147.44
353.674	138.44
353.901	153.44
354.128	139.44
354.355	138.44
354.583	131.44
354.81	141.44
355.037	134.44
355.264	149.44
355.491	133.44
355.718	129.44
355.945	147.44
356.172	141.44
356.399	142.44
356.626	136.44
356.853	145.44
357.08	135.44
357.307	154.44
357.534	141.44
357.761	140.44
357.988	168.44
358.215	129.44
358.441	148.44
358.668	154.44
358.895	140.44
359.122	144.44
359.349	136.44
359.576	136.44
359.802	126.44
360.029	133.44
360.256	139.44
360.483	131.44
360.709	125.44
360.936	144.44
361.163	134.44
361.39	142.44
361.616	129.44
361.843	145.44
362.07	136.44
362.296	143.44
362.523	132.44
362.749	139.44
362.976	119.44
363.203	150.44
363.429	133.44
363.656	134.44
363.882	120.44
364.109	137.44
364.335	156.44
364.562	141.44
364.788	124.44
365.015	135.44
365.241	139.44
365.468	160.44
365.694	140.44
365.92	141.44
366.147	131.44
366.373	151.44
366.599	132.44
366.826	135.44
367.052	142.44
367.278	149.44
367.505	127.44
367.731	171.44
367.957	126.44
368.184	142.44
368.41	153.44
368.636	142.44
368.862	127.44
369.089	127.44
369.315	134.44
369.541	142.44
369.767	139.44
369.993	150.44
370.219	126.44
370.445	130.44
370.672	138.44
370.898	129.44
371.124	135.44
371.35	142.44
371.576	138.44
371.802	132.44
372.028	146.44
372.254	156.44
372.48	139.44
372.706	131.44
372.932	131.44
373.158	140.44
373.384	147.44
373.61	151.44
373.835	141.44
374.061	134.44
374.287	149.44
374.513	158.44
374.739	151.44
374.965	144.44
375.191	161.44
375.416	161.44
375.642	161.44
375.868	142.44
376.094	148.44
376.319	156.44
376.545	131.44
376.771	131.44
376.997	148.44
377.222	142.44
377.448	144.44
377.674	146.44
377.899	142.44
378.125	148.44
378.35	151.44
378.576	151.44
378.802	139.44
379.027	142.44
379.253	152.44
379.478	138.44
379.704	141.44
379.929	141.44
380.155	138.44
380.38	141.44
380.606	142.44
380.831	155.44
381.057	157.44
381.282	150.44
381.507	140.44
381.733	144.44
381.958	129.44
382.184	163.44
382.409	136.44
382.634	159.44
382.86	151.44
383.085	166.44
383.31	152.44
383.535	158.44
383.761	167.44
383.986	164.44
384.211	151.44
384.436	158.44
384.662	144.44
384.887	155.44
385.112	163.44
385.337	148.44
385.562	163.44
385.787	166.44
386.013	163.44
386.238	154.44
386.463	160.44
386.688	185.44
386.913	147.44
387.138	165.44
387.363	154.44
387.588	173.44
387.813	159.44
388.038	163.44
388.263	170.44
388.488	154.44
388.713	140.44
388.938	140.44
389.163	163.44
389.387	131.44
389.612	149.44
389.837	155.44
390.062	160.44
390.287	161.44
390.512	149.44
390.736	148.44
390.961	142.44
391.186	166.44
391.411	168.44
391.636	173.44
391.86	156.44
392.085	165.44
392.31	180.44
392.534	175.44
392.759	168.44
392.984	163.44
393.208	158.44
393.433	159.44
393.658	174.44
393.882	177.44
394.107	166.44
394.331	167.44
394.556	150.44
394.78	181.44
395.005	173.44
395.229	165.44
395.454	182.44
395.678	177.44
395.903	176.44
396.127	163.44
396.352	147.44
396.576	161.44
396.801	162.44
397.025	148.44
397.249	172.44
397.474	176.44
397.698	169.44
397.922	182.44
398.147	177.44
398.371	188.44
398.595	180.44
398.82	169.44
399.044	192.44
399.268	221.44
399.492	238.44
399.717	258.44
399.941	223.44
400.165	207.44
400.389	181.44
400.613	199.44
400.837	200.44
401.062	192.44
401.286	170.44
401.51	192.44
401.734	180.44
401.958	178.44
402.182	188.44
402.406	199.44
402.63	193.44
402.854	186.44
403.078	196.44
403.302	187.44
403.526	206.44
403.75	204.44
403.974	191.44
404.198	211.44
404.422	198.44
404.645	192.44
404.869	201.44
405.093	198.44
405.317	194.44
405.541	187.44
405.765	193.44
405.988	199.44
406.212	184.44
406.436	176.44
406.66	194.44
406.883	184.44
407.107	213.44
407.331	213.44
407.555	208.44
407.778	204.44
408.002	218.44
408.226	195.44
408.449	193.44
408.673	191.44
408.896	198.44
409.12	191.44
409.344	195.44
409.567	191.44
409.791	199.44
410.014	195.44
410.238	203.44
410.461	185.44
410.685	206.44
410.908	192.44
411.132	195.44
411.355	177.44
411.578	188.44
411.802	187.44
412.025	182.44
412.249	175.44
412.472	177.44
412.695	180.44
412.919	180.44
413.142	187.44
413.365	187.44
413.589	182.44
413.812	195.44
414.035	188.44
414.258	190.44
414.482	185.44
414.705	187.44
414.928	173.44
415.151	200.44
415.374	184.44
415.597	169.44
415.821	167.44
416.044	155.44
416.267	182.44
416.49	173.44
416.713	177.44
416.936	193.44
417.159	179.44
417.382	180.44
417.605	173.44
417.828	185.44
418.051	183.44
418.274	194.44
418.497	193.44
418.72	173.44
418.943	190.44
419.166	202.44
419.389	203.44
419.611	197.44
419.834	176.44
420.057	182.44
420.28	188.44
420.503	189.44
420.726	187.44
420.948	192.44
421.171	187.44
421.394	187.44
421.617	192.44
421.839	191.44
422.062	188.44
422.285	159.44
422.507	185.44
422.73	182.44
422.953	208.44
423.175	206.44
423.398	188.44
423.621	195.44
423.843	182.44
424.066	211.44
424.288	181.44
424.511	191.44
424.733	199.44
424.956	175.44
425.178	197.44
425.401	173.44
425.623	165.44
425.846	166.44
426.068	189.44
426.291	178.44
426.513	190.44
426.735	189.44
426.958	189.44
427.18	176.44
427.402	165.44
427.625	170.44
427.847	158.44
428.069	179.44
428.292	160.44
428.514	165.44
428.736	183.44
428.958	165.44
429.181	173.44
429.403	164.44
429.625	159.44
429.847	160.44
430.069	187.44
430.292	172.44
430.514	177.44
430.736	160.44
430.958	155.44
431.18	174.44
431.402	169.44
431.624	174.44
431.846	181.44
432.068	178.44
432.29	164.44
432.512	192.44
432.734	171.44
432.956	183.44
433.178	168.44
433.4	171.44
433.622	181.44
433.844	178.44
434.066	181.44
434.287	172.44
434.509	181.44
434.731	179.44
434.953	184.44
435.175	177.44
435.397	186.44
435.618	177.44
435.84	164.44
436.062	187.44
436.284	161.44
436.505	165.44
436.727	170.44
436.949	186.44
437.17	160.44
437.392	156.44
437.614	164.44
437.835	159.44
438.057	168.44
438.278	173.44
438.5	163.44
438.721	164.44
438.943	177.44
439.165	166.44
439.386	185.44
439.608	177.44
439.829	173.44
440.05	170.44
440.272	175.44
440.493	162.44
440.715	171.44
440.936	187.44
441.158	187.44
441.379	177.44
441.6	183.44
441.822	187.44
442.043	176.44
442.264	185.44
442.486	175.44
442.707	170.44
442.928	198.44
443.149	172.44
443.371	200.44
443.592	188.44
443.813	179.44
444.034	183.44
444.255	184.44
444.476	197.44
444.698	217.44
444.919	195.44
445.14	462.44
445.361	313.44
445.582	189.44
445.803	185.44
446.024	170.44
446.245	189.44
446.466	165.44
446.687	158.44
446.908	163.44
447.129	177.44
447.35	163.44
447.571	151.44
447.792	179.44
448.013	160.44
448.234	157.44
448.455	151.44
448.675	171.44
448.896	169.44
449.117	164.44
449.338	167.44
449.559	169.44
449.779	150.44
450	169.44
450.221	161.44
450.442	161.44
450.662	172.44
450.883	180.44
451.104	165.44
451.324	156.44
451.545	167.44
451.766	168.44
451.986	167.44
452.207	170.44
452.428	170.44
452.648	178.44
452.869	173.44
453.089	165.44
453.31	155.44
453.53	152.44
453.751	156.44
453.971	183.44
454.192	147.44
454.412	153.44
454.633	151.44
454.853	167.44
455.073	143.44
455.294	159.44
455.514	149.44
455.734	133.44
455.955	154.44
456.175	163.44
456.395	138.44
456.616	160.44
456.836	151.44
457.056	157.44
457.276	151.44
457.497	166.44
457.717	149.44
457.937	166.44
458.157	156.44
458.377	164.44
458.598	177.44
458.818	155.44
459.038	148.44
459.258	168.44
459.478	172.44
459.698	175.44
459.918	186.44
460.138	186.44
460.358	176.44
460.578	202.44
460.798	189.44
461.018	173.44
461.238	191.44
461.458	192.44
461.678	195.44
461.898	209.44
462.118	189.44
462.338	191.44
462.558	185.44
462.777	192.44
462.997	207.44
463.217	214.44
463.437	219.44
463.657	218.44
463.876	214.44
464.096	184.44
464.316	213.44
464.536	214.44
464.755	207.44
464.975	199.44
465.195	181.44
465.414	190.44
465.634	171.44
465.854	170.44
466.073	173.44
466.293	164.44
466.512	178.44
466.732	171.44
466.951	177.44
467.171	165.44
467.391	164.44
467.61	167.44
467.829	163.44
468.049	166.44
468.268	158.44
468.488	146.44
468.707	152.44
468.927	165.44
469.146	150.44
469.365	159.44
469.585	168.44
469.804	165.44
470.023	165.44
470.243	157.44
470.462	183.44
470.681	173.44
470.901	164.44
471.12	167.44
471.339	181.44
471.558	172.44
471.777	160.44
471.997	172.44
472.216	164.44
472.435	165.44
472.654	164.44
472.873	168.44
473.092	156.44
473.311	152.44
473.53	156.44
473.749	172.44
473.968	155.44
474.187	163.44
474.406	161.44
474.625	173.44
474.844	160.44
475.063	147.44
475.282	170.44
475.501	161.44
475.72	180.44
475.939	156.44
476.158	169.44
476.377	165.44
476.596	162.44
476.814	155.44
477.033	160.44
477.252	157.44
477.471	187.44
477.69	174.44
477.908	192.44
478.127	197.44
478.346	185.44
478.564	190.44
478.783	188.44
479.002	181.44
479.22	184.44
479.439	174.44
479.658	177.44
479.876	184.44
480.095	157.44
480.313	183.44
480.532	204.44
480.751	185.44
480.969	188.44
481.188	195.44
481.406	192.44
481.624	179.44
481.843	172.44
482.061	165.44
482.28	168.44
482.498	156.44
482.717	166.44
482.935	173.44
483.153	149.44
483.372	155.44
483.59	175.44
483.808	179.44
484.027	187.44
484.245	154.44
484.463	153.44
484.681	201.44
484.9	174.44
485.118	188.44
485.336	186.44
485.554	184.44
485.772	169.44
485.99	183.44
486.209	171.44
486.427	181.44
486.645	192.44
486.863	173.44
487.081	177.44
487.299	195.44
487.517	192.44
487.735	181.44
487.953	175.44
488.171	183.44
488.389	188.44
488.607	175.44
488.825	175.44
489.043	161.44
489.261	186.44
489.479	167.44
489.696	167.44
489.914	177.44
490.132	177.44
490.35	189.44
490.568	175.44
490.786	183.44
491.003	178.44
491.221	182.44
491.439	169.44
491.657	181.44
491.874	185.44
492.092	192.44
492.31	187.44
492.527	172.44
492.745	187.44
492.963	176.44
493.18	174.44
493.398	196.44
493.615	181.44
493.833	188.44
494.05	193.44
494.268	177.44
494.485	195.44
494.703	186.44
494.92	207.44
495.138	174.44
495.355	192.44
495.573	204.44
495.79	185.44
496.008	204.44
496.225	192.44
496.442	191.44
496.66	199.44
496.877	195.44
497.094	191.44
497.312	199.44
497.529	198.44
497.746	205.44
497.963	199.44
498.181	215.44
498.398	219.44
498.615	225.44
498.832	240.44
499.049	256.44
499.267	276.44
499.484	273.44
499.701	333.44
499.918	339.44
500.135	375.44
500.352	411.44
500.569	415.44
500.786	419.44
501.003	377.44
501.22	339.44
501.437	303.44
501.654	281.44
501.871	273.44
502.088	246.44
502.305	259.44
502.522	230.44
502.739	232.44
502.956	217.44
503.172	221.44
503.389	220.44
503.606	189.44
503.823	206.44
504.04	198.44
504.256	209.44
