Data from SampG_HRD10591_00100.txt Node
Date: Mon Jan 19 11:54:17 EST 2026
User: Yrep
Spectrometer: HR+D1059
Trigger mode: 0
Integration Time (sec): 3.443000E-1
Scans to average: 1
Electric dark correction enabled: true
Nonlinearity correction enabled: false
Boxcar width: 0
XAxis mode: Wavelengths
Number of Pixels in Spectrum: 2048
>>>>>Begin Spectral Data<<<<<
223.165	-31.75
223.4	-31.75
223.635	-31.75
223.869	-28.75
224.104	-16.75
224.338	-10.75
224.573	-0.75
224.808	-19.75
225.042	8.25
225.277	-6.75
225.511	-4.75
225.746	8.25
225.98	7.25
226.215	15.25
226.449	4.25
226.683	23.25
226.918	23.25
227.152	30.25
227.387	30.25
227.621	47.25
227.856	37.25
228.09	48.25
228.324	47.25
228.559	49.25
228.793	77.25
229.027	76.25
229.262	65.25
229.496	70.25
229.73	69.25
229.964	72.25
230.199	79.25
230.433	70.25
230.667	70.25
230.901	75.25
231.136	82.25
231.37	83.25
231.604	76.25
231.838	73.25
232.072	77.25
232.306	62.25
232.541	85.25
232.775	82.25
233.009	83.25
233.243	89.25
233.477	76.25
233.711	91.25
233.945	75.25
234.179	88.25
234.413	93.25
234.647	93.25
234.881	85.25
235.115	76.25
235.349	83.25
235.583	93.25
235.817	87.25
236.051	93.25
236.285	70.25
236.519	97.25
236.753	85.25
236.987	75.25
237.221	71.25
237.455	76.25
237.689	89.25
237.922	83.25
238.156	65.25
238.39	61.25
238.624	69.25
238.858	93.25
239.091	87.25
239.325	86.25
239.559	87.25
239.793	91.25
240.027	101.25
240.26	65.25
240.494	92.25
240.728	92.25
240.961	74.25
241.195	106.25
241.429	75.25
241.662	79.25
241.896	87.25
242.13	85.25
242.363	76.25
242.597	70.25
242.83	82.25
243.064	74.25
243.298	88.25
243.531	74.25
243.765	76.25
243.998	85.25
244.232	99.25
244.465	77.25
244.699	69.25
244.932	78.25
245.166	78.25
245.399	76.25
245.633	87.25
245.866	69.25
246.099	81.25
246.333	86.25
246.566	87.25
246.8	80.25
247.033	79.25
247.266	83.25
247.5	78.25
247.733	71.25
247.966	71.25
248.2	89.25
248.433	77.25
248.666	72.25
248.899	83.25
249.133	97.25
249.366	83.25
249.599	109.25
249.832	85.25
250.066	97.25
250.299	83.25
250.532	85.25
250.765	96.25
250.998	76.25
251.231	77.25
251.465	85.25
251.698	95.25
251.931	92.25
252.164	72.25
252.397	106.25
252.63	95.25
252.863	73.25
253.096	81.25
253.329	89.25
253.562	81.25
253.795	98.25
254.028	77.25
254.261	93.25
254.494	79.25
254.727	94.25
254.96	89.25
255.193	77.25
255.426	104.25
255.659	83.25
255.892	108.25
256.124	71.25
256.357	102.25
256.59	102.25
256.823	75.25
257.056	75.25
257.289	82.25
257.521	101.25
257.754	85.25
257.987	69.25
258.22	106.25
258.452	101.25
258.685	88.25
258.918	94.25
259.151	79.25
259.383	89.25
259.616	85.25
259.849	85.25
260.081	86.25
260.314	101.25
260.547	101.25
260.779	79.25
261.012	95.25
261.244	84.25
261.477	92.25
261.71	88.25
261.942	79.25
262.175	106.25
262.407	79.25
262.64	94.25
262.872	86.25
263.105	85.25
263.337	99.25
263.57	95.25
263.802	83.25
264.035	97.25
264.267	83.25
264.499	79.25
264.732	101.25
264.964	100.25
265.197	95.25
265.429	87.25
265.661	91.25
265.894	93.25
266.126	101.25
266.358	79.25
266.591	89.25
266.823	97.25
267.055	98.25
267.287	111.25
267.52	86.25
267.752	107.25
267.984	92.25
268.216	103.25
268.448	114.25
268.681	99.25
268.913	99.25
269.145	87.25
269.377	99.25
269.609	78.25
269.841	95.25
270.073	91.25
270.306	102.25
270.538	100.25
270.77	85.25
271.002	91.25
271.234	95.25
271.466	102.25
271.698	107.25
271.93	94.25
272.162	95.25
272.394	103.25
272.626	94.25
272.858	103.25
273.09	90.25
273.322	102.25
273.553	86.25
273.785	98.25
274.017	91.25
274.249	100.25
274.481	99.25
274.713	90.25
274.945	95.25
275.176	99.25
275.408	87.25
275.64	88.25
275.872	79.25
276.104	104.25
276.335	91.25
276.567	96.25
276.799	96.25
277.031	93.25
277.262	114.25
277.494	84.25
277.726	110.25
277.957	96.25
278.189	102.25
278.421	103.25
278.652	92.25
278.884	106.25
279.115	85.25
279.347	90.25
279.579	97.25
279.81	94.25
280.042	97.25
280.273	91.25
280.505	91.25
280.736	105.25
280.968	97.25
281.199	105.25
281.431	106.25
281.662	98.25
281.894	93.25
282.125	104.25
282.356	99.25
282.588	99.25
282.819	93.25
283.051	110.25
283.282	91.25
283.513	110.25
283.745	101.25
283.976	97.25
284.207	86.25
284.439	101.25
284.67	99.25
284.901	87.25
285.132	101.25
285.364	109.25
285.595	126.25
285.826	94.25
286.057	100.25
286.288	109.25
286.52	100.25
286.751	103.25
286.982	97.25
287.213	96.25
287.444	97.25
287.675	93.25
287.906	103.25
288.138	102.25
288.369	94.25
288.6	93.25
288.831	99.25
289.062	92.25
289.293	108.25
289.524	102.25
289.755	104.25
289.986	101.25
290.217	101.25
290.448	94.25
290.679	98.25
290.91	102.25
291.141	106.25
291.371	103.25
291.602	97.25
291.833	92.25
292.064	89.25
292.295	105.25
292.526	107.25
292.757	113.25
292.987	121.25
293.218	101.25
293.449	103.25
293.68	110.25
293.91	95.25
294.141	115.25
294.372	104.25
294.603	102.25
294.833	94.25
295.064	95.25
295.295	101.25
295.525	103.25
295.756	121.25
295.987	101.25
296.217	114.25
296.448	98.25
296.679	97.25
296.909	116.25
297.14	109.25
297.37	99.25
297.601	98.25
297.831	103.25
298.062	103.25
298.292	107.25
298.523	100.25
298.753	104.25
298.984	111.25
299.214	98.25
299.445	108.25
299.675	106.25
299.905	108.25
300.136	97.25
300.366	92.25
300.597	100.25
300.827	109.25
301.057	102.25
301.288	100.25
301.518	117.25
301.748	101.25
301.979	135.25
302.209	101.25
302.439	92.25
302.669	93.25
302.9	99.25
303.13	94.25
303.36	99.25
303.59	107.25
303.82	122.25
304.051	110.25
304.281	117.25
304.511	106.25
304.741	109.25
304.971	120.25
305.201	110.25
305.431	106.25
305.661	109.25
305.891	113.25
306.121	107.25
306.352	112.25
306.582	99.25
306.812	104.25
307.042	102.25
307.272	101.25
307.502	101.25
307.731	99.25
307.961	108.25
308.191	109.25
308.421	109.25
308.651	99.25
308.881	112.25
309.111	125.25
309.341	115.25
309.571	93.25
309.8	112.25
310.03	103.25
310.26	88.25
310.49	93.25
310.72	99.25
310.949	101.25
311.179	95.25
311.409	106.25
311.639	119.25
311.868	102.25
312.098	121.25
312.328	100.25
312.557	110.25
312.787	114.25
313.017	115.25
313.246	101.25
313.476	100.25
313.706	105.25
313.935	104.25
314.165	109.25
314.394	109.25
314.624	107.25
314.853	115.25
315.083	100.25
315.312	106.25
315.542	97.25
315.771	98.25
316.001	94.25
316.23	99.25
316.46	102.25
316.689	110.25
316.919	100.25
317.148	102.25
317.377	108.25
317.607	124.25
317.836	105.25
318.065	107.25
318.295	112.25
318.524	105.25
318.753	105.25
318.983	111.25
319.212	111.25
319.441	103.25
319.67	100.25
319.9	102.25
320.129	96.25
320.358	120.25
320.587	107.25
320.816	110.25
321.046	105.25
321.275	116.25
321.504	109.25
321.733	114.25
321.962	107.25
322.191	107.25
322.42	108.25
322.649	96.25
322.878	109.25
323.108	99.25
323.337	102.25
323.566	94.25
323.795	102.25
324.024	105.25
324.253	105.25
324.482	100.25
324.71	101.25
324.939	112.25
325.168	91.25
325.397	108.25
325.626	125.25
325.855	110.25
326.084	113.25
326.313	98.25
326.542	114.25
326.77	98.25
326.999	107.25
327.228	101.25
327.457	100.25
327.686	107.25
327.914	113.25
328.143	114.25
328.372	103.25
328.6	104.25
328.829	115.25
329.058	94.25
329.287	100.25
329.515	107.25
329.744	107.25
329.972	103.25
330.201	115.25
330.43	97.25
330.658	105.25
330.887	121.25
331.115	103.25
331.344	115.25
331.572	121.25
331.801	106.25
332.03	128.25
332.258	131.25
332.486	109.25
332.715	119.25
332.943	111.25
333.172	113.25
333.4	118.25
333.629	131.25
333.857	111.25
334.085	110.25
334.314	129.25
334.542	129.25
334.771	117.25
334.999	106.25
335.227	110.25
335.455	126.25
335.684	123.25
335.912	114.25
336.14	105.25
336.369	119.25
336.597	119.25
336.825	111.25
337.053	97.25
337.281	121.25
337.51	115.25
337.738	114.25
337.966	92.25
338.194	121.25
338.422	103.25
338.65	121.25
338.878	120.25
339.106	95.25
339.334	125.25
339.562	112.25
339.79	110.25
340.018	109.25
340.246	109.25
340.474	94.25
340.702	124.25
340.93	114.25
341.158	107.25
341.386	99.25
341.614	110.25
341.842	107.25
342.07	117.25
342.298	106.25
342.526	112.25
342.754	103.25
342.981	116.25
343.209	113.25
343.437	138.25
343.665	121.25
343.893	123.25
344.12	126.25
344.348	117.25
344.576	104.25
344.804	111.25
345.031	107.25
345.259	111.25
345.487	104.25
345.714	97.25
345.942	103.25
346.17	107.25
346.397	95.25
346.625	121.25
346.853	107.25
347.08	102.25
347.308	104.25
347.535	94.25
347.763	116.25
347.99	107.25
348.218	105.25
348.445	106.25
348.673	114.25
348.9	110.25
349.128	105.25
349.355	106.25
349.583	108.25
349.81	98.25
350.037	114.25
350.265	121.25
350.492	116.25
350.72	118.25
350.947	108.25
351.174	109.25
351.402	100.25
351.629	106.25
351.856	114.25
352.083	108.25
352.311	111.25
352.538	106.25
352.765	118.25
352.992	137.25
353.22	109.25
353.447	106.25
353.674	102.25
353.901	107.25
354.128	100.25
354.355	98.25
354.583	102.25
354.81	104.25
355.037	104.25
355.264	114.25
355.491	105.25
355.718	98.25
355.945	125.25
356.172	125.25
356.399	97.25
356.626	107.25
356.853	114.25
357.08	120.25
357.307	119.25
357.534	106.25
357.761	124.25
357.988	123.25
358.215	110.25
358.441	104.25
358.668	107.25
358.895	107.25
359.122	111.25
359.349	104.25
359.576	114.25
359.802	103.25
360.029	107.25
360.256	106.25
360.483	105.25
360.709	109.25
360.936	111.25
361.163	93.25
361.39	87.25
361.616	96.25
361.843	111.25
362.07	101.25
362.296	116.25
362.523	107.25
362.749	98.25
362.976	98.25
363.203	120.25
363.429	101.25
363.656	108.25
363.882	88.25
364.109	117.25
364.335	109.25
364.562	99.25
364.788	108.25
365.015	108.25
365.241	103.25
365.468	110.25
365.694	98.25
365.92	115.25
366.147	118.25
366.373	97.25
366.599	104.25
366.826	113.25
367.052	103.25
367.278	105.25
367.505	116.25
367.731	130.25
367.957	94.25
368.184	103.25
368.41	110.25
368.636	102.25
368.862	107.25
369.089	118.25
369.315	92.25
369.541	127.25
369.767	114.25
369.993	97.25
370.219	122.25
370.445	101.25
370.672	102.25
370.898	110.25
371.124	108.25
371.35	101.25
371.576	102.25
371.802	97.25
372.028	105.25
372.254	115.25
372.48	99.25
372.706	108.25
372.932	113.25
373.158	100.25
373.384	106.25
373.61	109.25
373.835	97.25
374.061	99.25
374.287	105.25
374.513	111.25
374.739	112.25
374.965	107.25
375.191	108.25
375.416	120.25
375.642	117.25
375.868	115.25
376.094	114.25
376.319	100.25
376.545	95.25
376.771	116.25
376.997	97.25
377.222	103.25
377.448	127.25
377.674	115.25
377.899	113.25
378.125	116.25
378.35	100.25
378.576	102.25
378.802	111.25
379.027	120.25
379.253	110.25
379.478	103.25
379.704	106.25
379.929	102.25
380.155	110.25
380.38	110.25
380.606	99.25
380.831	115.25
381.057	123.25
381.282	115.25
381.507	112.25
381.733	112.25
381.958	106.25
382.184	120.25
382.409	115.25
382.634	119.25
382.86	123.25
383.085	125.25
383.31	115.25
383.535	115.25
383.761	130.25
383.986	117.25
384.211	120.25
384.436	117.25
384.662	106.25
384.887	121.25
385.112	110.25
385.337	121.25
385.562	123.25
385.787	107.25
386.013	116.25
386.238	122.25
386.463	122.25
386.688	151.25
386.913	111.25
387.138	115.25
387.363	119.25
387.588	128.25
387.813	116.25
388.038	107.25
388.263	121.25
388.488	102.25
388.713	114.25
388.938	117.25
389.163	114.25
389.387	107.25
389.612	119.25
389.837	105.25
390.062	121.25
390.287	116.25
390.512	112.25
390.736	109.25
390.961	109.25
391.186	123.25
391.411	115.25
391.636	105.25
391.86	120.25
392.085	120.25
392.31	125.25
392.534	110.25
392.759	123.25
392.984	109.25
393.208	111.25
393.433	130.25
393.658	118.25
393.882	114.25
394.107	130.25
394.331	127.25
394.556	116.25
394.78	108.25
395.005	109.25
395.229	105.25
395.454	131.25
395.678	118.25
395.903	110.25
396.127	138.25
396.352	102.25
396.576	109.25
396.801	124.25
397.025	107.25
397.249	118.25
397.474	117.25
397.698	118.25
397.922	135.25
398.147	123.25
398.371	128.25
398.595	118.25
398.82	115.25
399.044	115.25
399.268	138.25
399.492	163.25
399.717	158.25
399.941	134.25
400.165	157.25
400.389	146.25
400.613	135.25
400.837	129.25
401.062	128.25
401.286	128.25
401.51	130.25
401.734	124.25
401.958	130.25
402.182	131.25
402.406	138.25
402.63	114.25
402.854	116.25
403.078	125.25
403.302	133.25
403.526	139.25
403.75	137.25
403.974	134.25
404.198	142.25
404.422	149.25
404.645	133.25
404.869	138.25
405.093	131.25
405.317	120.25
405.541	125.25
405.765	116.25
405.988	133.25
406.212	146.25
406.436	141.25
406.66	136.25
406.883	134.25
407.107	140.25
407.331	117.25
407.555	116.25
407.778	137.25
408.002	132.25
408.226	138.25
408.449	132.25
408.673	137.25
408.896	136.25
409.12	137.25
409.344	121.25
409.567	137.25
409.791	137.25
410.014	151.25
410.238	123.25
410.461	139.25
410.685	135.25
410.908	128.25
411.132	140.25
411.355	123.25
411.578	135.25
411.802	125.25
412.025	126.25
412.249	133.25
412.472	130.25
412.695	130.25
412.919	127.25
413.142	132.25
413.365	124.25
413.589	124.25
413.812	141.25
414.035	137.25
414.258	128.25
414.482	117.25
414.705	121.25
414.928	128.25
415.151	129.25
415.374	131.25
415.597	103.25
415.821	119.25
416.044	126.25
416.267	139.25
416.49	122.25
416.713	142.25
416.936	125.25
417.159	109.25
417.382	121.25
417.605	128.25
417.828	126.25
418.051	118.25
418.274	124.25
418.497	122.25
418.72	133.25
418.943	122.25
419.166	131.25
419.389	123.25
419.611	120.25
419.834	124.25
420.057	129.25
420.28	116.25
420.503	121.25
420.726	121.25
420.948	123.25
421.171	118.25
421.394	119.25
421.617	118.25
421.839	125.25
422.062	122.25
422.285	125.25
422.507	128.25
422.73	113.25
422.953	133.25
423.175	136.25
423.398	125.25
423.621	149.25
423.843	136.25
424.066	132.25
424.288	131.25
424.511	119.25
424.733	114.25
424.956	125.25
425.178	126.25
425.401	115.25
425.623	111.25
425.846	116.25
426.068	133.25
426.291	132.25
426.513	117.25
426.735	123.25
426.958	119.25
427.18	118.25
427.402	116.25
427.625	115.25
427.847	110.25
428.069	121.25
428.292	110.25
428.514	123.25
428.736	122.25
428.958	117.25
429.181	116.25
429.403	132.25
429.625	104.25
429.847	121.25
430.069	114.25
430.292	130.25
430.514	117.25
430.736	103.25
430.958	110.25
431.18	116.25
431.402	121.25
431.624	108.25
431.846	129.25
432.068	127.25
432.29	120.25
432.512	125.25
432.734	117.25
432.956	131.25
433.178	138.25
433.4	134.25
433.622	117.25
433.844	122.25
434.066	131.25
434.287	119.25
434.509	133.25
434.731	116.25
434.953	126.25
435.175	145.25
435.397	117.25
435.618	115.25
435.84	124.25
436.062	122.25
436.284	129.25
436.505	121.25
436.727	115.25
436.949	126.25
437.17	110.25
437.392	109.25
437.614	115.25
437.835	126.25
438.057	123.25
438.278	107.25
438.5	133.25
438.721	125.25
438.943	116.25
439.165	104.25
439.386	110.25
439.608	128.25
439.829	117.25
440.05	124.25
440.272	120.25
440.493	112.25
440.715	131.25
440.936	120.25
441.158	122.25
441.379	124.25
441.6	127.25
441.822	134.25
442.043	122.25
442.264	127.25
442.486	117.25
442.707	117.25
442.928	117.25
443.149	119.25
443.371	125.25
443.592	124.25
443.813	121.25
444.034	118.25
444.255	143.25
444.476	137.25
444.698	130.25
444.919	124.25
445.14	385.25
445.361	251.25
445.582	149.25
445.803	130.25
446.024	124.25
446.245	131.25
446.466	125.25
446.687	121.25
446.908	103.25
447.129	128.25
447.35	117.25
447.571	129.25
447.792	111.25
448.013	112.25
448.234	118.25
448.455	124.25
448.675	133.25
448.896	115.25
449.117	117.25
449.338	126.25
449.559	122.25
449.779	119.25
450	115.25
450.221	131.25
450.442	131.25
450.662	113.25
450.883	128.25
451.104	134.25
451.324	122.25
451.545	108.25
451.766	108.25
451.986	118.25
452.207	113.25
452.428	111.25
452.648	125.25
452.869	111.25
453.089	106.25
453.31	115.25
453.53	110.25
453.751	115.25
453.971	135.25
454.192	109.25
454.412	118.25
454.633	125.25
454.853	111.25
455.073	122.25
455.294	123.25
455.514	114.25
455.734	114.25
455.955	125.25
456.175	116.25
456.395	123.25
456.616	111.25
456.836	121.25
457.056	110.25
457.276	105.25
457.497	95.25
457.717	118.25
457.937	120.25
458.157	96.25
458.377	113.25
458.598	113.25
458.818	108.25
459.038	111.25
459.258	119.25
459.478	137.25
459.698	131.25
459.918	120.25
460.138	120.25
460.358	130.25
460.578	149.25
460.798	127.25
461.018	129.25
461.238	122.25
461.458	122.25
461.678	124.25
461.898	142.25
462.118	126.25
462.338	131.25
462.558	133.25
462.777	140.25
462.997	148.25
463.217	142.25
463.437	145.25
463.657	130.25
463.876	145.25
464.096	145.25
464.316	131.25
464.536	145.25
464.755	147.25
464.975	133.25
465.195	135.25
465.414	135.25
465.634	139.25
465.854	120.25
466.073	125.25
466.293	120.25
466.512	122.25
466.732	119.25
466.951	106.25
467.171	118.25
467.391	102.25
467.61	111.25
467.829	119.25
468.049	123.25
468.268	115.25
468.488	115.25
468.707	114.25
468.927	116.25
469.146	118.25
469.365	104.25
469.585	125.25
469.804	118.25
470.023	118.25
470.243	117.25
470.462	120.25
470.681	135.25
470.901	114.25
471.12	120.25
471.339	134.25
471.558	111.25
471.777	121.25
471.997	117.25
472.216	125.25
472.435	115.25
472.654	109.25
472.873	119.25
473.092	127.25
473.311	124.25
473.53	111.25
473.749	129.25
473.968	121.25
474.187	116.25
474.406	107.25
474.625	118.25
474.844	122.25
475.063	117.25
475.282	100.25
475.501	118.25
475.72	124.25
475.939	125.25
476.158	124.25
476.377	125.25
476.596	114.25
476.814	114.25
477.033	108.25
477.252	137.25
477.471	133.25
477.69	129.25
477.908	113.25
478.127	104.25
478.346	118.25
478.564	112.25
478.783	126.25
479.002	127.25
479.22	119.25
479.439	123.25
479.658	139.25
479.876	132.25
480.095	121.25
480.313	125.25
480.532	143.25
480.751	142.25
480.969	130.25
481.188	134.25
481.406	123.25
481.624	119.25
481.843	121.25
482.061	117.25
482.28	113.25
482.498	121.25
482.717	115.25
482.935	125.25
483.153	132.25
483.372	119.25
483.59	112.25
483.808	128.25
484.027	139.25
484.245	109.25
484.463	117.25
484.681	126.25
484.9	128.25
485.118	151.25
485.336	125.25
485.554	138.25
485.772	118.25
485.99	135.25
486.209	126.25
486.427	137.25
486.645	128.25
486.863	153.25
487.081	113.25
487.299	127.25
487.517	126.25
487.735	127.25
487.953	137.25
488.171	134.25
488.389	123.25
488.607	115.25
488.825	110.25
489.043	130.25
489.261	135.25
489.479	136.25
489.696	123.25
489.914	120.25
490.132	115.25
490.35	126.25
490.568	109.25
490.786	134.25
491.003	134.25
491.221	129.25
491.439	128.25
491.657	122.25
491.874	126.25
492.092	124.25
492.31	122.25
492.527	123.25
492.745	117.25
492.963	138.25
493.18	108.25
493.398	127.25
493.615	130.25
493.833	140.25
494.05	128.25
494.268	131.25
494.485	115.25
494.703	141.25
494.92	129.25
495.138	112.25
495.355	122.25
495.573	136.25
495.79	123.25
496.008	129.25
496.225	144.25
496.442	128.25
496.66	134.25
496.877	130.25
497.094	146.25
497.312	136.25
497.529	121.25
497.746	137.25
497.963	139.25
498.181	145.25
498.398	148.25
498.615	153.25
498.832	145.25
499.049	149.25
499.267	171.25
499.484	184.25
499.701	193.25
499.918	216.25
500.135	221.25
500.352	229.25
500.569	238.25
500.786	231.25
501.003	226.25
501.22	192.25
501.437	203.25
501.654	185.25
501.871	166.25
502.088	156.25
502.305	153.25
502.522	145.25
502.739	151.25
502.956	143.25
503.172	156.25
503.389	138.25
503.606	137.25
503.823	128.25
504.04	148.25
504.256	130.25
504.473	132.25
504.69	136.25
504.907	148.25
505.123	135.25
505.34	136.25
505.557	149.25
505.773	121.25
505.99	124.25
506.207	121.25
506.423	122.25
506.64	123.25
