Data from SampG_HRD10591_00052.txt Node
Date: Mon Jan 19 11:54:01 EST 2026
User: Yrep
Spectrometer: HR+D1059
Trigger mode: 0
Integration Time (sec): 3.443000E-1
Scans to average: 1
Electric dark correction enabled: true
Nonlinearity correction enabled: false
Boxcar width: 0
XAxis mode: Wavelengths
Number of Pixels in Spectrum: 2048
>>>>>Begin Spectral Data<<<<<
223.165	-16.5
223.4	-16.5
223.635	-16.5
223.869	-31.5
224.104	-24.5
224.338	-9.5
224.573	-29.5
224.808	-11.5
225.042	-9.5
225.277	-6.5
225.511	5.5
225.746	8.5
225.98	9.5
226.215	15.5
226.449	29.5
226.683	17.5
226.918	25.5
227.152	27.5
227.387	28.5
227.621	44.5
227.856	55.5
228.09	46.5
228.324	64.5
228.559	68.5
228.793	63.5
229.027	64.5
229.262	65.5
229.496	78.5
229.73	74.5
229.964	83.5
230.199	64.5
230.433	74.5
230.667	92.5
230.901	77.5
231.136	80.5
231.37	81.5
231.604	70.5
231.838	88.5
232.072	76.5
232.306	85.5
232.541	74.5
232.775	92.5
233.009	92.5
233.243	88.5
233.477	99.5
233.711	85.5
233.945	94.5
234.179	88.5
234.413	78.5
234.647	88.5
234.881	99.5
235.115	89.5
235.349	77.5
235.583	90.5
235.817	94.5
236.051	93.5
236.285	84.5
236.519	81.5
236.753	106.5
236.987	92.5
237.221	93.5
237.455	81.5
237.689	93.5
237.922	79.5
238.156	83.5
238.39	76.5
238.624	77.5
238.858	82.5
239.091	95.5
239.325	77.5
239.559	104.5
239.793	86.5
240.027	97.5
240.26	93.5
240.494	82.5
240.728	87.5
240.961	79.5
241.195	97.5
241.429	92.5
241.662	78.5
241.896	91.5
242.13	102.5
242.363	82.5
242.597	98.5
242.83	105.5
243.064	76.5
243.298	95.5
243.531	97.5
243.765	103.5
243.998	97.5
244.232	97.5
244.465	94.5
244.699	98.5
244.932	80.5
245.166	80.5
245.399	96.5
245.633	94.5
245.866	88.5
246.099	90.5
246.333	88.5
246.566	88.5
246.8	75.5
247.033	90.5
247.266	97.5
247.5	93.5
247.733	91.5
247.966	94.5
248.2	95.5
248.433	102.5
248.666	89.5
248.899	89.5
249.133	87.5
249.366	114.5
249.599	105.5
249.832	90.5
250.066	91.5
250.299	102.5
250.532	104.5
250.765	97.5
250.998	91.5
251.231	100.5
251.465	105.5
251.698	95.5
251.931	96.5
252.164	95.5
252.397	79.5
252.63	88.5
252.863	89.5
253.096	92.5
253.329	100.5
253.562	103.5
253.795	106.5
254.028	107.5
254.261	89.5
254.494	84.5
254.727	112.5
254.96	96.5
255.193	107.5
255.426	95.5
255.659	89.5
255.892	108.5
256.124	72.5
256.357	104.5
256.59	92.5
256.823	106.5
257.056	103.5
257.289	92.5
257.521	96.5
257.754	94.5
257.987	102.5
258.22	98.5
258.452	96.5
258.685	117.5
258.918	105.5
259.151	94.5
259.383	110.5
259.616	101.5
259.849	90.5
260.081	123.5
260.314	104.5
260.547	84.5
260.779	110.5
261.012	97.5
261.244	109.5
261.477	113.5
261.71	90.5
261.942	98.5
262.175	104.5
262.407	106.5
262.64	82.5
262.872	99.5
263.105	96.5
263.337	97.5
263.57	100.5
263.802	114.5
264.035	103.5
264.267	113.5
264.499	100.5
264.732	122.5
264.964	124.5
265.197	95.5
265.429	111.5
265.661	102.5
265.894	99.5
266.126	91.5
266.358	101.5
266.591	101.5
266.823	109.5
267.055	94.5
267.287	108.5
267.52	88.5
267.752	130.5
267.984	109.5
268.216	96.5
268.448	119.5
268.681	126.5
268.913	112.5
269.145	111.5
269.377	124.5
269.609	104.5
269.841	117.5
270.073	110.5
270.306	109.5
270.538	102.5
270.77	109.5
271.002	97.5
271.234	115.5
271.466	121.5
271.698	112.5
271.93	103.5
272.162	119.5
272.394	119.5
272.626	109.5
272.858	115.5
273.09	110.5
273.322	107.5
273.553	101.5
273.785	106.5
274.017	96.5
274.249	120.5
274.481	97.5
274.713	122.5
274.945	120.5
275.176	99.5
275.408	119.5
275.64	115.5
275.872	113.5
276.104	113.5
276.335	113.5
276.567	109.5
276.799	98.5
277.031	110.5
277.262	118.5
277.494	116.5
277.726	119.5
277.957	100.5
278.189	127.5
278.421	126.5
278.652	105.5
278.884	122.5
279.115	114.5
279.347	114.5
279.579	124.5
279.81	108.5
280.042	112.5
280.273	117.5
280.505	113.5
280.736	110.5
280.968	113.5
281.199	103.5
281.431	120.5
281.662	118.5
281.894	113.5
282.125	112.5
282.356	113.5
282.588	112.5
282.819	113.5
283.051	104.5
283.282	125.5
283.513	122.5
283.745	108.5
283.976	112.5
284.207	112.5
284.439	126.5
284.67	128.5
284.901	120.5
285.132	123.5
285.364	110.5
285.595	128.5
285.826	124.5
286.057	119.5
286.288	131.5
286.52	125.5
286.751	122.5
286.982	121.5
287.213	118.5
287.444	118.5
287.675	117.5
287.906	124.5
288.138	118.5
288.369	114.5
288.6	117.5
288.831	125.5
289.062	129.5
289.293	119.5
289.524	128.5
289.755	126.5
289.986	116.5
290.217	116.5
290.448	121.5
290.679	124.5
290.91	117.5
291.141	135.5
291.371	114.5
291.602	120.5
291.833	118.5
292.064	143.5
292.295	129.5
292.526	115.5
292.757	133.5
292.987	125.5
293.218	121.5
293.449	108.5
293.68	120.5
293.91	135.5
294.141	136.5
294.372	124.5
294.603	124.5
294.833	111.5
295.064	119.5
295.295	134.5
295.525	133.5
295.756	131.5
295.987	140.5
296.217	127.5
296.448	134.5
296.679	127.5
296.909	132.5
297.14	132.5
297.37	137.5
297.601	120.5
297.831	115.5
298.062	127.5
298.292	131.5
298.523	124.5
298.753	126.5
298.984	122.5
299.214	128.5
299.445	135.5
299.675	135.5
299.905	129.5
300.136	135.5
300.366	123.5
300.597	121.5
300.827	128.5
301.057	137.5
301.288	139.5
301.518	142.5
301.748	126.5
301.979	159.5
302.209	136.5
302.439	138.5
302.669	134.5
302.9	134.5
303.13	133.5
303.36	124.5
303.59	124.5
303.82	129.5
304.051	138.5
304.281	144.5
304.511	144.5
304.741	119.5
304.971	133.5
305.201	120.5
305.431	119.5
305.661	128.5
305.891	142.5
306.121	126.5
306.352	131.5
306.582	141.5
306.812	136.5
307.042	129.5
307.272	121.5
307.502	119.5
307.731	132.5
307.961	135.5
308.191	133.5
308.421	134.5
308.651	132.5
308.881	112.5
309.111	135.5
309.341	133.5
309.571	125.5
309.8	140.5
310.03	117.5
310.26	131.5
310.49	119.5
310.72	114.5
310.949	141.5
311.179	128.5
311.409	121.5
311.639	122.5
311.868	128.5
312.098	139.5
312.328	134.5
312.557	138.5
312.787	126.5
313.017	143.5
313.246	125.5
313.476	146.5
313.706	136.5
313.935	133.5
314.165	125.5
314.394	141.5
314.624	133.5
314.853	138.5
315.083	135.5
315.312	127.5
315.542	134.5
315.771	136.5
316.001	122.5
316.23	125.5
316.46	135.5
316.689	141.5
316.919	127.5
317.148	133.5
317.377	154.5
317.607	141.5
317.836	141.5
318.065	128.5
318.295	126.5
318.524	126.5
318.753	131.5
318.983	125.5
319.212	130.5
319.441	133.5
319.67	121.5
319.9	132.5
320.129	139.5
320.358	133.5
320.587	131.5
320.816	127.5
321.046	138.5
321.275	148.5
321.504	130.5
321.733	134.5
321.962	126.5
322.191	137.5
322.42	137.5
322.649	136.5
322.878	139.5
323.108	132.5
323.337	141.5
323.566	138.5
323.795	138.5
324.024	136.5
324.253	119.5
324.482	126.5
324.71	132.5
324.939	144.5
325.168	136.5
325.397	150.5
325.626	147.5
325.855	138.5
326.084	141.5
326.313	133.5
326.542	125.5
326.77	135.5
326.999	152.5
327.228	138.5
327.457	129.5
327.686	134.5
327.914	140.5
328.143	140.5
328.372	166.5
328.6	154.5
328.829	138.5
329.058	133.5
329.287	154.5
329.515	142.5
329.744	135.5
329.972	153.5
330.201	150.5
330.43	139.5
330.658	145.5
330.887	145.5
331.115	143.5
331.344	144.5
331.572	169.5
331.801	129.5
332.03	144.5
332.258	135.5
332.486	154.5
332.715	143.5
332.943	140.5
333.172	158.5
333.4	165.5
333.629	157.5
333.857	166.5
334.085	168.5
334.314	172.5
334.542	155.5
334.771	144.5
334.999	141.5
335.227	140.5
335.455	140.5
335.684	159.5
335.912	146.5
336.14	140.5
336.369	156.5
336.597	156.5
336.825	162.5
337.053	136.5
337.281	142.5
337.51	149.5
337.738	160.5
337.966	133.5
338.194	143.5
338.422	152.5
338.65	142.5
338.878	144.5
339.106	142.5
339.334	157.5
339.562	139.5
339.79	129.5
340.018	130.5
340.246	121.5
340.474	130.5
340.702	143.5
340.93	141.5
341.158	128.5
341.386	132.5
341.614	124.5
341.842	144.5
342.07	135.5
342.298	135.5
342.526	136.5
342.754	137.5
342.981	148.5
343.209	133.5
343.437	186.5
343.665	166.5
343.893	148.5
344.12	155.5
344.348	141.5
344.576	143.5
344.804	137.5
345.031	129.5
345.259	125.5
345.487	149.5
345.714	139.5
345.942	141.5
346.17	140.5
346.397	133.5
346.625	131.5
346.853	143.5
347.08	141.5
347.308	136.5
347.535	145.5
347.763	125.5
347.99	137.5
348.218	133.5
348.445	128.5
348.673	139.5
348.9	138.5
349.128	138.5
349.355	141.5
349.583	150.5
349.81	142.5
350.037	144.5
350.265	142.5
350.492	137.5
350.72	131.5
350.947	126.5
351.174	134.5
351.402	138.5
351.629	124.5
351.856	140.5
352.083	153.5
352.311	127.5
352.538	119.5
352.765	142.5
352.992	154.5
353.22	149.5
353.447	143.5
353.674	149.5
353.901	145.5
354.128	144.5
354.355	125.5
354.583	126.5
354.81	126.5
355.037	128.5
355.264	146.5
355.491	140.5
355.718	143.5
355.945	144.5
356.172	135.5
356.399	150.5
356.626	130.5
356.853	129.5
357.08	126.5
357.307	136.5
357.534	140.5
357.761	147.5
357.988	162.5
358.215	134.5
358.441	139.5
358.668	139.5
358.895	146.5
359.122	138.5
359.349	140.5
359.576	135.5
359.802	128.5
360.029	139.5
360.256	137.5
360.483	137.5
360.709	134.5
360.936	152.5
361.163	133.5
361.39	133.5
361.616	138.5
361.843	140.5
362.07	150.5
362.296	126.5
362.523	130.5
362.749	132.5
362.976	128.5
363.203	155.5
363.429	147.5
363.656	141.5
363.882	124.5
364.109	145.5
364.335	152.5
364.562	141.5
364.788	140.5
365.015	150.5
365.241	135.5
365.468	150.5
365.694	155.5
365.92	140.5
366.147	121.5
366.373	135.5
366.599	137.5
366.826	135.5
367.052	123.5
367.278	131.5
367.505	149.5
367.731	148.5
367.957	137.5
368.184	152.5
368.41	150.5
368.636	141.5
368.862	144.5
369.089	134.5
369.315	126.5
369.541	151.5
369.767	141.5
369.993	147.5
370.219	130.5
370.445	117.5
370.672	130.5
370.898	150.5
371.124	157.5
371.35	131.5
371.576	152.5
371.802	151.5
372.028	148.5
372.254	153.5
372.48	151.5
372.706	151.5
372.932	135.5
373.158	156.5
373.384	145.5
373.61	144.5
373.835	146.5
374.061	132.5
374.287	156.5
374.513	152.5
374.739	150.5
374.965	150.5
375.191	151.5
375.416	162.5
375.642	152.5
375.868	165.5
376.094	142.5
376.319	152.5
376.545	144.5
376.771	134.5
376.997	139.5
377.222	133.5
377.448	158.5
377.674	138.5
377.899	153.5
378.125	143.5
378.35	138.5
378.576	139.5
378.802	142.5
379.027	144.5
379.253	138.5
379.478	152.5
379.704	148.5
379.929	156.5
380.155	139.5
380.38	127.5
380.606	142.5
380.831	153.5
381.057	148.5
381.282	146.5
381.507	150.5
381.733	133.5
381.958	158.5
382.184	146.5
382.409	141.5
382.634	141.5
382.86	155.5
383.085	149.5
383.31	141.5
383.535	166.5
383.761	145.5
383.986	164.5
384.211	154.5
384.436	162.5
384.662	148.5
384.887	162.5
385.112	140.5
385.337	166.5
385.562	152.5
385.787	137.5
386.013	157.5
386.238	148.5
386.463	157.5
386.688	189.5
386.913	154.5
387.138	143.5
387.363	162.5
387.588	161.5
387.813	170.5
388.038	164.5
388.263	162.5
388.488	170.5
388.713	172.5
388.938	152.5
389.163	143.5
389.387	142.5
389.612	149.5
389.837	160.5
390.062	152.5
390.287	168.5
390.512	154.5
390.736	145.5
390.961	164.5
391.186	145.5
391.411	178.5
391.636	149.5
391.86	167.5
392.085	180.5
392.31	152.5
392.534	152.5
392.759	162.5
392.984	161.5
393.208	174.5
393.433	145.5
393.658	159.5
393.882	154.5
394.107	156.5
394.331	172.5
394.556	165.5
394.78	178.5
395.005	168.5
395.229	154.5
395.454	168.5
395.678	172.5
395.903	168.5
396.127	166.5
396.352	156.5
396.576	166.5
396.801	169.5
397.025	150.5
397.249	179.5
397.474	175.5
397.698	174.5
397.922	169.5
398.147	172.5
398.371	178.5
398.595	191.5
398.82	181.5
399.044	204.5
399.268	218.5
399.492	240.5
399.717	252.5
399.941	217.5
400.165	208.5
400.389	201.5
400.613	178.5
400.837	167.5
401.062	186.5
401.286	187.5
401.51	188.5
401.734	181.5
401.958	174.5
402.182	181.5
402.406	188.5
402.63	167.5
402.854	183.5
403.078	192.5
403.302	185.5
403.526	186.5
403.75	198.5
403.974	193.5
404.198	197.5
404.422	217.5
404.645	185.5
404.869	197.5
405.093	183.5
405.317	198.5
405.541	190.5
405.765	198.5
405.988	178.5
406.212	180.5
406.436	182.5
406.66	192.5
406.883	201.5
407.107	182.5
407.331	203.5
407.555	195.5
407.778	210.5
408.002	194.5
408.226	206.5
408.449	197.5
408.673	175.5
408.896	199.5
409.12	199.5
409.344	192.5
409.567	192.5
409.791	181.5
410.014	182.5
410.238	197.5
410.461	186.5
410.685	183.5
410.908	189.5
411.132	196.5
411.355	191.5
411.578	197.5
411.802	188.5
412.025	205.5
412.249	198.5
412.472	184.5
412.695	171.5
412.919	160.5
413.142	177.5
413.365	174.5
413.589	174.5
413.812	174.5
414.035	181.5
414.258	177.5
414.482	175.5
414.705	170.5
414.928	188.5
415.151	182.5
415.374	182.5
415.597	173.5
415.821	186.5
416.044	166.5
416.267	168.5
416.49	170.5
416.713	177.5
416.936	182.5
417.159	176.5
417.382	187.5
417.605	178.5
417.828	196.5
418.051	172.5
418.274	182.5
418.497	178.5
418.72	176.5
418.943	193.5
419.166	205.5
419.389	186.5
419.611	190.5
419.834	194.5
420.057	193.5
420.28	180.5
420.503	178.5
420.726	168.5
420.948	185.5
421.171	185.5
421.394	192.5
421.617	182.5
421.839	179.5
422.062	176.5
422.285	166.5
422.507	176.5
422.73	186.5
422.953	182.5
423.175	183.5
423.398	184.5
423.621	195.5
423.843	203.5
424.066	182.5
424.288	179.5
424.511	178.5
424.733	185.5
424.956	176.5
425.178	183.5
425.401	193.5
425.623	170.5
425.846	177.5
426.068	166.5
426.291	166.5
426.513	154.5
426.735	172.5
426.958	176.5
427.18	177.5
427.402	169.5
427.625	166.5
427.847	164.5
428.069	160.5
428.292	176.5
428.514	165.5
428.736	174.5
428.958	169.5
429.181	175.5
429.403	182.5
429.625	178.5
429.847	170.5
430.069	159.5
430.292	192.5
430.514	161.5
430.736	157.5
430.958	154.5
431.18	155.5
431.402	178.5
431.624	168.5
431.846	169.5
432.068	170.5
432.29	181.5
432.512	164.5
432.734	151.5
432.956	175.5
433.178	162.5
433.4	173.5
433.622	168.5
433.844	166.5
434.066	170.5
434.287	170.5
434.509	159.5
434.731	172.5
434.953	172.5
435.175	179.5
435.397	177.5
435.618	153.5
435.84	164.5
436.062	180.5
436.284	159.5
436.505	164.5
436.727	158.5
436.949	159.5
437.17	159.5
437.392	171.5
437.614	165.5
437.835	171.5
438.057	143.5
438.278	157.5
438.5	154.5
438.721	156.5
438.943	169.5
439.165	163.5
439.386	162.5
439.608	182.5
439.829	158.5
440.05	163.5
440.272	164.5
440.493	173.5
440.715	172.5
440.936	148.5
441.158	171.5
441.379	183.5
441.6	185.5
441.822	174.5
442.043	184.5
442.264	165.5
442.486	166.5
442.707	168.5
442.928	159.5
443.149	180.5
443.371	188.5
443.592	174.5
443.813	184.5
444.034	167.5
444.255	177.5
444.476	182.5
444.698	190.5
444.919	205.5
445.14	480.5
445.361	303.5
445.582	197.5
445.803	170.5
446.024	170.5
446.245	185.5
446.466	178.5
446.687	166.5
446.908	164.5
447.129	145.5
447.35	157.5
447.571	161.5
447.792	151.5
448.013	178.5
448.234	155.5
448.455	162.5
448.675	155.5
448.896	148.5
449.117	146.5
449.338	164.5
449.559	171.5
449.779	152.5
450	151.5
450.221	146.5
450.442	184.5
450.662	167.5
450.883	162.5
451.104	164.5
451.324	142.5
451.545	170.5
451.766	146.5
451.986	154.5
452.207	168.5
452.428	150.5
452.648	173.5
452.869	155.5
453.089	151.5
453.31	152.5
453.53	171.5
453.751	150.5
453.971	156.5
454.192	150.5
454.412	159.5
454.633	148.5
454.853	150.5
455.073	154.5
455.294	165.5
455.514	152.5
455.734	158.5
455.955	166.5
456.175	145.5
456.395	153.5
456.616	148.5
456.836	143.5
457.056	161.5
457.276	141.5
457.497	150.5
457.717	142.5
457.937	164.5
458.157	142.5
458.377	175.5
458.598	146.5
458.818	151.5
459.038	154.5
459.258	171.5
459.478	161.5
459.698	161.5
459.918	178.5
460.138	180.5
460.358	180.5
460.578	204.5
460.798	194.5
461.018	176.5
461.238	184.5
461.458	188.5
461.678	188.5
461.898	194.5
462.118	211.5
462.338	194.5
462.558	204.5
462.777	216.5
462.997	218.5
463.217	224.5
463.437	219.5
463.657	189.5
463.876	207.5
464.096	189.5
464.316	191.5
464.536	200.5
464.755	205.5
464.975	203.5
465.195	193.5
465.414	176.5
465.634	179.5
465.854	183.5
466.073	169.5
466.293	155.5
466.512	176.5
466.732	168.5
466.951	159.5
467.171	172.5
467.391	167.5
467.61	152.5
467.829	158.5
468.049	168.5
468.268	174.5
468.488	180.5
468.707	154.5
468.927	146.5
469.146	174.5
469.365	144.5
469.585	177.5
469.804	156.5
470.023	178.5
470.243	170.5
470.462	168.5
470.681	179.5
470.901	181.5
471.12	150.5
471.339	170.5
471.558	162.5
471.777	148.5
471.997	153.5
472.216	151.5
472.435	171.5
472.654	152.5
472.873	164.5
473.092	135.5
473.311	158.5
473.53	148.5
473.749	160.5
473.968	167.5
474.187	152.5
474.406	151.5
474.625	145.5
474.844	166.5
475.063	149.5
475.282	144.5
475.501	158.5
475.72	176.5
475.939	148.5
476.158	161.5
476.377	166.5
476.596	167.5
476.814	157.5
477.033	167.5
477.252	148.5
477.471	163.5
477.69	153.5
477.908	182.5
478.127	179.5
478.346	177.5
478.564	174.5
478.783	173.5
479.002	172.5
479.22	158.5
479.439	185.5
479.658	192.5
479.876	205.5
480.095	181.5
480.313	195.5
480.532	188.5
480.751	188.5
480.969	182.5
481.188	170.5
481.406	183.5
481.624	181.5
481.843	170.5
482.061	169.5
482.28	166.5
482.498	176.5
482.717	187.5
482.935	194.5
483.153	175.5
483.372	170.5
483.59	168.5
483.808	164.5
484.027	172.5
484.245	169.5
484.463	190.5
484.681	196.5
484.9	166.5
485.118	169.5
485.336	167.5
485.554	172.5
485.772	185.5
485.99	180.5
486.209	184.5
486.427	169.5
486.645	186.5
486.863	173.5
487.081	184.5
487.299	183.5
487.517	152.5
487.735	164.5
487.953	189.5
488.171	188.5
488.389	170.5
488.607	171.5
488.825	171.5
489.043	173.5
489.261	183.5
489.479	164.5
489.696	172.5
489.914	173.5
490.132	178.5
490.35	178.5
490.568	162.5
490.786	165.5
491.003	177.5
491.221	175.5
491.439	166.5
491.657	172.5
491.874	175.5
492.092	184.5
492.31	177.5
492.527	172.5
492.745	177.5
492.963	176.5
493.18	182.5
493.398	189.5
493.615	168.5
493.833	184.5
494.05	181.5
494.268	176.5
494.485	186.5
494.703	185.5
494.92	183.5
495.138	195.5
495.355	196.5
495.573	196.5
495.79	189.5
496.008	181.5
496.225	199.5
496.442	193.5
496.66	195.5
496.877	187.5
497.094	216.5
497.312	188.5
497.529	196.5
497.746	188.5
497.963	201.5
498.181	210.5
498.398	206.5
498.615	218.5
498.832	214.5
499.049	230.5
499.267	266.5
499.484	279.5
499.701	292.5
499.918	328.5
500.135	359.5
500.352	402.5
500.569	408.5
500.786	408.5
501.003	365.5
501.22	328.5
501.437	313.5
501.654	282.5
501.871	262.5
502.088	240.5
502.305	244.5
502.522	223.5
502.739	228.5
502.956	222.5
503.172	197.5
503.389	216.5
503.606	199.5
503.823	200.5
504.04	200.5
504.256	209.5
504.473	193.5
504.69	202.5
504.907	214.5
505.123	190.5
505.34	194.5
505.557	192.5
505.773	187.5
505.99	184.5
506.207	174.5
506.423	188.5
506.64	179.5
506.856	158.5
507.073	169.5
507.289	164.5
507.506	165.5
507.722	166.5
507.939	169.5
508.155	160.5
508.372	165.5
508.588	170.5
508.805	180.5
509.021	148.5
509.238	168.5
509.454	164.5
509.67	151.5
509.887	154.5
510.103	164.5
510.319	163.5
510.536	173.5
510.752	156.5
510.968	149.5
511.184	148.5
511.401	154.5
511.617	154.5
511.833	153.5
512.049	142.5
512.265	152.5
512.481	168.5
512.698	159.5
512.914	156.5
513.13	177.5
513.346	174.5
513.562	175.5
513.778	137.5
513.994	171.5
514.21	173.5
514.426	156.5
514.642	175.5
514.858	166.5
515.074	171.5
515.29	177.5
515.506	174.5
515.721	171.5
515.937	178.5
516.153	171.5
516.369	171.5
516.585	184.5
516.801	181.5
517.016	208.5
517.232	192.5
517.448	192.5
517.664	213.5
517.879	208.5
518.095	206.5
518.311	208.5
518.527	180.5
518.742	181.5
518.958	157.5
519.173	203.5
519.389	177.5
519.605	170.5
519.82	168.5
520.036	162.5
520.251	168.5
520.467	159.5
520.682	159.5
520.898	153.5
521.113	182.5
521.329	166.5
521.544	166.5
521.76	172.5
521.975	170.5
522.19	142.5
522.406	154.5
522.621	152.5
