Data from SampG_HRD10591_00098.txt Node
Date: Mon Jan 19 11:54:17 EST 2026
User: Yrep
Spectrometer: HR+D1059
Trigger mode: 0
Integration Time (sec): 3.443000E-1
Scans to average: 1
Electric dark correction enabled: true
Nonlinearity correction enabled: false
Boxcar width: 0
XAxis mode: Wavelengths
Number of Pixels in Spectrum: 2048
>>>>>Begin Spectral Data<<<<<
223.165	-18.62
223.4	-18.62
223.635	-18.62
223.869	-17.62
224.104	-22.62
224.338	-15.62
224.573	-16.62
224.808	-18.62
225.042	-1.62
225.277	-8.62
225.511	-4.62
225.746	10.38
225.98	8.38
226.215	4.38
226.449	15.38
226.683	24.38
226.918	26.38
227.152	35.38
227.387	16.38
227.621	43.38
227.856	43.38
228.09	53.38
228.324	43.38
228.559	67.38
228.793	59.38
229.027	72.38
229.262	83.38
229.496	85.38
229.73	87.38
229.964	83.38
230.199	73.38
230.433	73.38
230.667	89.38
230.901	78.38
231.136	71.38
231.37	84.38
231.604	80.38
231.838	83.38
232.072	88.38
232.306	81.38
232.541	80.38
232.775	88.38
233.009	73.38
233.243	72.38
233.477	89.38
233.711	88.38
233.945	86.38
234.179	90.38
234.413	95.38
234.647	77.38
234.881	78.38
235.115	89.38
235.349	103.38
235.583	98.38
235.817	97.38
236.051	83.38
236.285	85.38
236.519	97.38
236.753	102.38
236.987	94.38
237.221	82.38
237.455	95.38
237.689	80.38
237.922	80.38
238.156	104.38
238.39	95.38
238.624	78.38
238.858	80.38
239.091	85.38
239.325	90.38
239.559	94.38
239.793	92.38
240.027	95.38
240.26	88.38
240.494	90.38
240.728	89.38
240.961	83.38
241.195	93.38
241.429	100.38
241.662	68.38
241.896	86.38
242.13	87.38
242.363	84.38
242.597	94.38
242.83	92.38
243.064	96.38
243.298	91.38
243.531	99.38
243.765	79.38
243.998	83.38
244.232	94.38
244.465	84.38
244.699	87.38
244.932	91.38
245.166	90.38
245.399	85.38
245.633	94.38
245.866	93.38
246.099	94.38
246.333	79.38
246.566	89.38
246.8	104.38
247.033	80.38
247.266	91.38
247.5	68.38
247.733	93.38
247.966	95.38
248.2	88.38
248.433	94.38
248.666	91.38
248.899	75.38
249.133	87.38
249.366	103.38
249.599	103.38
249.832	87.38
250.066	96.38
250.299	101.38
250.532	106.38
250.765	93.38
250.998	98.38
251.231	95.38
251.465	95.38
251.698	97.38
251.931	102.38
252.164	74.38
252.397	109.38
252.63	104.38
252.863	86.38
253.096	114.38
253.329	106.38
253.562	103.38
253.795	99.38
254.028	99.38
254.261	99.38
254.494	94.38
254.727	101.38
254.96	97.38
255.193	113.38
255.426	105.38
255.659	114.38
255.892	111.38
256.124	91.38
256.357	104.38
256.59	107.38
256.823	95.38
257.056	97.38
257.289	92.38
257.521	95.38
257.754	104.38
257.987	107.38
258.22	96.38
258.452	84.38
258.685	100.38
258.918	97.38
259.151	101.38
259.383	111.38
259.616	97.38
259.849	110.38
260.081	110.38
260.314	95.38
260.547	98.38
260.779	105.38
261.012	112.38
261.244	107.38
261.477	117.38
261.71	108.38
261.942	108.38
262.175	104.38
262.407	110.38
262.64	89.38
262.872	111.38
263.105	117.38
263.337	131.38
263.57	112.38
263.802	112.38
264.035	103.38
264.267	107.38
264.499	114.38
264.732	116.38
264.964	107.38
265.197	111.38
265.429	98.38
265.661	111.38
265.894	109.38
266.126	104.38
266.358	88.38
266.591	116.38
266.823	98.38
267.055	99.38
267.287	107.38
267.52	104.38
267.752	110.38
267.984	125.38
268.216	116.38
268.448	118.38
268.681	123.38
268.913	108.38
269.145	106.38
269.377	115.38
269.609	116.38
269.841	118.38
270.073	108.38
270.306	121.38
270.538	112.38
270.77	110.38
271.002	114.38
271.234	113.38
271.466	114.38
271.698	112.38
271.93	117.38
272.162	120.38
272.394	127.38
272.626	111.38
272.858	113.38
273.09	108.38
273.322	115.38
273.553	131.38
273.785	121.38
274.017	108.38
274.249	121.38
274.481	120.38
274.713	116.38
274.945	127.38
275.176	112.38
275.408	128.38
275.64	118.38
275.872	128.38
276.104	124.38
276.335	133.38
276.567	110.38
276.799	112.38
277.031	111.38
277.262	110.38
277.494	127.38
277.726	119.38
277.957	106.38
278.189	110.38
278.421	128.38
278.652	112.38
278.884	117.38
279.115	110.38
279.347	123.38
279.579	115.38
279.81	129.38
280.042	111.38
280.273	125.38
280.505	113.38
280.736	95.38
280.968	116.38
281.199	120.38
281.431	116.38
281.662	133.38
281.894	117.38
282.125	123.38
282.356	131.38
282.588	131.38
282.819	127.38
283.051	122.38
283.282	127.38
283.513	117.38
283.745	125.38
283.976	128.38
284.207	129.38
284.439	117.38
284.67	118.38
284.901	136.38
285.132	124.38
285.364	120.38
285.595	132.38
285.826	116.38
286.057	125.38
286.288	118.38
286.52	136.38
286.751	127.38
286.982	120.38
287.213	109.38
287.444	132.38
287.675	135.38
287.906	129.38
288.138	137.38
288.369	136.38
288.6	118.38
288.831	127.38
289.062	136.38
289.293	121.38
289.524	122.38
289.755	142.38
289.986	116.38
290.217	132.38
290.448	135.38
290.679	127.38
290.91	144.38
291.141	126.38
291.371	133.38
291.602	143.38
291.833	124.38
292.064	132.38
292.295	133.38
292.526	149.38
292.757	125.38
292.987	135.38
293.218	119.38
293.449	123.38
293.68	133.38
293.91	128.38
294.141	144.38
294.372	141.38
294.603	135.38
294.833	149.38
295.064	149.38
295.295	127.38
295.525	136.38
295.756	146.38
295.987	139.38
296.217	136.38
296.448	127.38
296.679	139.38
296.909	133.38
297.14	137.38
297.37	138.38
297.601	133.38
297.831	127.38
298.062	152.38
298.292	125.38
298.523	157.38
298.753	135.38
298.984	135.38
299.214	148.38
299.445	141.38
299.675	142.38
299.905	148.38
300.136	139.38
300.366	142.38
300.597	141.38
300.827	142.38
301.057	112.38
301.288	135.38
301.518	137.38
301.748	135.38
301.979	185.38
302.209	144.38
302.439	129.38
302.669	132.38
302.9	146.38
303.13	141.38
303.36	142.38
303.59	137.38
303.82	149.38
304.051	149.38
304.281	150.38
304.511	145.38
304.741	140.38
304.971	140.38
305.201	132.38
305.431	135.38
305.661	143.38
305.891	142.38
306.121	138.38
306.352	145.38
306.582	157.38
306.812	143.38
307.042	132.38
307.272	124.38
307.502	135.38
307.731	153.38
307.961	134.38
308.191	139.38
308.421	132.38
308.651	134.38
308.881	127.38
309.111	138.38
309.341	135.38
309.571	150.38
309.8	148.38
310.03	135.38
310.26	140.38
310.49	126.38
310.72	141.38
310.949	141.38
311.179	129.38
311.409	150.38
311.639	118.38
311.868	135.38
312.098	148.38
312.328	149.38
312.557	151.38
312.787	134.38
313.017	137.38
313.246	153.38
313.476	154.38
313.706	145.38
313.935	137.38
314.165	152.38
314.394	137.38
314.624	157.38
314.853	144.38
315.083	135.38
315.312	152.38
315.542	150.38
315.771	143.38
316.001	139.38
316.23	132.38
316.46	144.38
316.689	156.38
316.919	147.38
317.148	149.38
317.377	141.38
317.607	126.38
317.836	141.38
318.065	141.38
318.295	151.38
318.524	153.38
318.753	144.38
318.983	141.38
319.212	147.38
319.441	131.38
319.67	140.38
319.9	141.38
320.129	135.38
320.358	143.38
320.587	138.38
320.816	133.38
321.046	158.38
321.275	134.38
321.504	130.38
321.733	119.38
321.962	143.38
322.191	153.38
322.42	161.38
322.649	141.38
322.878	143.38
323.108	138.38
323.337	163.38
323.566	152.38
323.795	127.38
324.024	124.38
324.253	132.38
324.482	128.38
324.71	156.38
324.939	128.38
325.168	132.38
325.397	143.38
325.626	163.38
325.855	139.38
326.084	167.38
326.313	140.38
326.542	143.38
326.77	160.38
326.999	157.38
327.228	160.38
327.457	151.38
327.686	145.38
327.914	156.38
328.143	148.38
328.372	144.38
328.6	145.38
328.829	159.38
329.058	152.38
329.287	139.38
329.515	147.38
329.744	169.38
329.972	156.38
330.201	142.38
330.43	145.38
330.658	154.38
330.887	159.38
331.115	183.38
331.344	163.38
331.572	163.38
331.801	155.38
332.03	157.38
332.258	163.38
332.486	183.38
332.715	149.38
332.943	167.38
333.172	175.38
333.4	186.38
333.629	173.38
333.857	181.38
334.085	176.38
334.314	195.38
334.542	178.38
334.771	163.38
334.999	167.38
335.227	164.38
335.455	169.38
335.684	180.38
335.912	189.38
336.14	172.38
336.369	165.38
336.597	156.38
336.825	181.38
337.053	167.38
337.281	151.38
337.51	143.38
337.738	167.38
337.966	144.38
338.194	158.38
338.422	131.38
338.65	149.38
338.878	164.38
339.106	158.38
339.334	150.38
339.562	180.38
339.79	149.38
340.018	148.38
340.246	142.38
340.474	149.38
340.702	156.38
340.93	151.38
341.158	152.38
341.386	164.38
341.614	161.38
341.842	159.38
342.07	153.38
342.298	150.38
342.526	156.38
342.754	147.38
342.981	156.38
343.209	153.38
343.437	190.38
343.665	167.38
343.893	183.38
344.12	190.38
344.348	163.38
344.576	149.38
344.804	170.38
345.031	149.38
345.259	171.38
345.487	158.38
345.714	162.38
345.942	153.38
346.17	160.38
346.397	147.38
346.625	172.38
346.853	154.38
347.08	155.38
347.308	160.38
347.535	163.38
347.763	158.38
347.99	153.38
348.218	152.38
348.445	150.38
348.673	151.38
348.9	161.38
349.128	155.38
349.355	147.38
349.583	154.38
349.81	144.38
350.037	141.38
350.265	144.38
350.492	149.38
350.72	155.38
350.947	151.38
351.174	158.38
351.402	144.38
351.629	140.38
351.856	161.38
352.083	151.38
352.311	140.38
352.538	143.38
352.765	148.38
352.992	161.38
353.22	155.38
353.447	140.38
353.674	156.38
353.901	149.38
354.128	142.38
354.355	150.38
354.583	142.38
354.81	150.38
355.037	141.38
355.264	147.38
355.491	157.38
355.718	138.38
355.945	169.38
356.172	142.38
356.399	148.38
356.626	139.38
356.853	143.38
357.08	143.38
357.307	151.38
357.534	150.38
357.761	142.38
357.988	149.38
358.215	149.38
358.441	138.38
358.668	153.38
358.895	154.38
359.122	152.38
359.349	155.38
359.576	140.38
359.802	147.38
360.029	147.38
360.256	144.38
360.483	138.38
360.709	148.38
360.936	161.38
361.163	159.38
361.39	148.38
361.616	155.38
361.843	154.38
362.07	152.38
362.296	138.38
362.523	153.38
362.749	153.38
362.976	140.38
363.203	156.38
363.429	139.38
363.656	144.38
363.882	148.38
364.109	153.38
364.335	160.38
364.562	130.38
364.788	128.38
365.015	140.38
365.241	148.38
365.468	152.38
365.694	154.38
365.92	153.38
366.147	165.38
366.373	137.38
366.599	156.38
366.826	151.38
367.052	136.38
367.278	153.38
367.505	159.38
367.731	158.38
367.957	151.38
368.184	159.38
368.41	148.38
368.636	149.38
368.862	130.38
369.089	150.38
369.315	151.38
369.541	162.38
369.767	155.38
369.993	171.38
370.219	149.38
370.445	157.38
370.672	151.38
370.898	149.38
371.124	158.38
371.35	155.38
371.576	174.38
371.802	166.38
372.028	153.38
372.254	159.38
372.48	156.38
372.706	156.38
372.932	163.38
373.158	161.38
373.384	152.38
373.61	158.38
373.835	153.38
374.061	150.38
374.287	163.38
374.513	153.38
374.739	170.38
374.965	169.38
375.191	167.38
375.416	169.38
375.642	160.38
375.868	184.38
376.094	164.38
376.319	158.38
376.545	159.38
376.771	141.38
376.997	144.38
377.222	148.38
377.448	148.38
377.674	156.38
377.899	155.38
378.125	148.38
378.35	166.38
378.576	158.38
378.802	155.38
379.027	144.38
379.253	153.38
379.478	163.38
379.704	175.38
379.929	154.38
380.155	148.38
380.38	163.38
380.606	167.38
380.831	157.38
381.057	179.38
381.282	167.38
381.507	147.38
381.733	164.38
381.958	160.38
382.184	170.38
382.409	157.38
382.634	168.38
382.86	166.38
383.085	156.38
383.31	175.38
383.535	171.38
383.761	172.38
383.986	182.38
384.211	198.38
384.436	158.38
384.662	155.38
384.887	188.38
385.112	194.38
385.337	182.38
385.562	175.38
385.787	183.38
386.013	191.38
386.238	186.38
386.463	174.38
386.688	221.38
386.913	177.38
387.138	172.38
387.363	182.38
387.588	191.38
387.813	197.38
388.038	168.38
388.263	179.38
388.488	167.38
388.713	178.38
388.938	169.38
389.163	167.38
389.387	164.38
389.612	166.38
389.837	173.38
390.062	179.38
390.287	161.38
390.512	170.38
390.736	164.38
390.961	190.38
391.186	186.38
391.411	184.38
391.636	185.38
391.86	193.38
392.085	194.38
392.31	185.38
392.534	188.38
392.759	190.38
392.984	176.38
393.208	184.38
393.433	188.38
393.658	180.38
393.882	171.38
394.107	193.38
394.331	171.38
394.556	175.38
394.78	186.38
395.005	171.38
395.229	165.38
395.454	201.38
395.678	192.38
395.903	167.38
396.127	190.38
396.352	197.38
396.576	166.38
396.801	190.38
397.025	166.38
397.249	178.38
397.474	190.38
397.698	198.38
397.922	205.38
398.147	195.38
398.371	187.38
398.595	190.38
398.82	212.38
399.044	201.38
399.268	231.38
399.492	245.38
399.717	283.38
399.941	249.38
400.165	249.38
400.389	226.38
400.613	198.38
400.837	219.38
401.062	211.38
401.286	195.38
401.51	207.38
401.734	198.38
401.958	206.38
402.182	192.38
402.406	220.38
402.63	203.38
402.854	216.38
403.078	220.38
403.302	231.38
403.526	233.38
403.75	256.38
403.974	227.38
404.198	236.38
404.422	223.38
404.645	203.38
404.869	223.38
405.093	223.38
405.317	218.38
405.541	212.38
405.765	220.38
405.988	207.38
406.212	209.38
406.436	221.38
406.66	236.38
406.883	217.38
407.107	222.38
407.331	229.38
407.555	249.38
407.778	229.38
408.002	210.38
408.226	231.38
408.449	217.38
408.673	228.38
408.896	215.38
409.12	208.38
409.344	222.38
409.567	233.38
409.791	219.38
410.014	205.38
410.238	222.38
410.461	211.38
410.685	209.38
410.908	195.38
411.132	223.38
411.355	223.38
411.578	198.38
411.802	206.38
412.025	199.38
412.249	214.38
412.472	208.38
412.695	190.38
412.919	191.38
413.142	204.38
413.365	208.38
413.589	198.38
413.812	198.38
414.035	207.38
414.258	201.38
414.482	208.38
414.705	185.38
414.928	213.38
415.151	204.38
415.374	205.38
415.597	217.38
415.821	206.38
416.044	207.38
416.267	197.38
416.49	201.38
416.713	197.38
416.936	189.38
417.159	199.38
417.382	203.38
417.605	192.38
417.828	213.38
418.051	196.38
418.274	211.38
418.497	211.38
418.72	201.38
418.943	223.38
419.166	196.38
419.389	221.38
419.611	219.38
419.834	214.38
420.057	223.38
420.28	207.38
420.503	213.38
420.726	192.38
420.948	209.38
421.171	215.38
421.394	196.38
421.617	202.38
421.839	182.38
422.062	207.38
422.285	190.38
422.507	215.38
422.73	197.38
422.953	189.38
423.175	223.38
423.398	213.38
423.621	212.38
423.843	227.38
424.066	215.38
424.288	208.38
424.511	204.38
424.733	212.38
424.956	201.38
425.178	218.38
425.401	213.38
425.623	227.38
425.846	211.38
426.068	185.38
426.291	196.38
426.513	183.38
426.735	190.38
426.958	196.38
427.18	198.38
427.402	195.38
427.625	182.38
427.847	200.38
428.069	177.38
428.292	197.38
428.514	186.38
428.736	183.38
428.958	186.38
429.181	194.38
429.403	174.38
429.625	191.38
429.847	178.38
430.069	174.38
430.292	174.38
430.514	182.38
430.736	175.38
430.958	189.38
431.18	177.38
431.402	197.38
431.624	165.38
431.846	183.38
432.068	189.38
432.29	196.38
432.512	188.38
432.734	189.38
432.956	185.38
433.178	189.38
433.4	191.38
433.622	187.38
433.844	202.38
434.066	192.38
434.287	196.38
434.509	194.38
434.731	208.38
434.953	193.38
435.175	212.38
435.397	205.38
435.618	211.38
435.84	211.38
436.062	180.38
436.284	192.38
436.505	194.38
436.727	185.38
436.949	160.38
437.17	172.38
437.392	181.38
437.614	183.38
437.835	169.38
438.057	197.38
438.278	177.38
438.5	183.38
438.721	188.38
438.943	183.38
439.165	187.38
439.386	188.38
439.608	192.38
439.829	185.38
440.05	181.38
440.272	199.38
440.493	191.38
440.715	187.38
440.936	185.38
441.158	188.38
441.379	196.38
441.6	182.38
441.822	213.38
442.043	209.38
442.264	195.38
442.486	207.38
442.707	204.38
442.928	185.38
443.149	197.38
443.371	204.38
443.592	196.38
443.813	216.38
444.034	208.38
444.255	204.38
444.476	206.38
444.698	224.38
444.919	244.38
445.14	411.38
445.361	305.38
445.582	219.38
445.803	200.38
446.024	191.38
446.245	187.38
446.466	190.38
446.687	175.38
446.908	191.38
447.129	196.38
447.35	189.38
447.571	191.38
447.792	188.38
448.013	186.38
448.234	192.38
448.455	183.38
448.675	175.38
448.896	171.38
449.117	185.38
449.338	176.38
449.559	185.38
449.779	177.38
450	168.38
450.221	159.38
450.442	164.38
450.662	180.38
450.883	169.38
451.104	196.38
451.324	174.38
451.545	162.38
451.766	168.38
451.986	167.38
452.207	177.38
452.428	177.38
452.648	178.38
452.869	164.38
453.089	168.38
453.31	172.38
453.53	181.38
453.751	169.38
453.971	179.38
454.192	155.38
454.412	172.38
454.633	164.38
454.853	168.38
455.073	166.38
455.294	166.38
455.514	176.38
455.734	183.38
455.955	177.38
456.175	183.38
456.395	158.38
456.616	156.38
456.836	172.38
457.056	169.38
457.276	167.38
457.497	170.38
457.717	144.38
457.937	175.38
458.157	181.38
458.377	185.38
458.598	168.38
458.818	158.38
459.038	186.38
459.258	171.38
459.478	186.38
459.698	199.38
459.918	195.38
460.138	190.38
460.358	205.38
460.578	211.38
460.798	224.38
461.018	220.38
461.238	204.38
461.458	197.38
461.678	207.38
461.898	220.38
462.118	203.38
462.338	217.38
462.558	221.38
462.777	230.38
462.997	240.38
463.217	272.38
463.437	259.38
463.657	252.38
463.876	233.38
464.096	236.38
464.316	219.38
464.536	234.38
464.755	226.38
464.975	220.38
465.195	223.38
465.414	204.38
465.634	177.38
465.854	196.38
466.073	195.38
466.293	200.38
466.512	185.38
466.732	183.38
466.951	196.38
467.171	197.38
467.391	176.38
467.61	186.38
467.829	177.38
468.049	188.38
468.268	183.38
468.488	184.38
468.707	183.38
468.927	176.38
469.146	167.38
469.365	182.38
469.585	197.38
469.804	197.38
470.023	177.38
470.243	192.38
470.462	181.38
470.681	204.38
470.901	180.38
471.12	191.38
471.339	185.38
471.558	172.38
471.777	177.38
471.997	167.38
472.216	176.38
472.435	179.38
472.654	178.38
472.873	193.38
473.092	193.38
473.311	179.38
473.53	171.38
473.749	168.38
473.968	189.38
474.187	192.38
474.406	172.38
474.625	191.38
474.844	185.38
475.063	184.38
475.282	191.38
475.501	166.38
475.72	198.38
475.939	177.38
476.158	167.38
476.377	174.38
476.596	181.38
476.814	183.38
477.033	174.38
477.252	175.38
477.471	180.38
477.69	197.38
477.908	205.38
478.127	201.38
478.346	204.38
478.564	224.38
478.783	193.38
479.002	216.38
479.22	202.38
479.439	222.38
479.658	199.38
479.876	209.38
480.095	210.38
480.313	222.38
480.532	214.38
480.751	209.38
480.969	213.38
481.188	206.38
481.406	211.38
481.624	195.38
481.843	192.38
482.061	180.38
482.28	188.38
482.498	187.38
482.717	197.38
482.935	195.38
483.153	190.38
483.372	189.38
483.59	192.38
483.808	202.38
484.027	193.38
484.245	192.38
484.463	189.38
484.681	209.38
484.9	197.38
485.118	212.38
485.336	193.38
485.554	199.38
485.772	186.38
485.99	219.38
486.209	194.38
486.427	189.38
486.645	192.38
486.863	200.38
487.081	193.38
487.299	191.38
487.517	208.38
487.735	213.38
487.953	201.38
488.171	205.38
488.389	205.38
488.607	198.38
488.825	190.38
489.043	188.38
489.261	193.38
489.479	209.38
489.696	209.38
489.914	204.38
490.132	203.38
490.35	186.38
490.568	207.38
490.786	208.38
491.003	204.38
491.221	188.38
491.439	205.38
491.657	183.38
491.874	184.38
492.092	202.38
492.31	229.38
492.527	201.38
492.745	213.38
492.963	208.38
493.18	192.38
493.398	227.38
493.615	199.38
493.833	205.38
494.05	204.38
494.268	213.38
494.485	219.38
494.703	204.38
494.92	199.38
495.138	208.38
495.355	208.38
495.573	220.38
495.79	205.38
496.008	211.38
496.225	208.38
496.442	223.38
496.66	233.38
496.877	219.38
497.094	208.38
497.312	221.38
497.529	217.38
497.746	227.38
497.963	234.38
498.181	226.38
498.398	229.38
498.615	253.38
498.832	283.38
499.049	309.38
499.267	310.38
499.484	314.38
499.701	345.38
499.918	393.38
500.135	448.38
500.352	486.38
500.569	489.38
500.786	475.38
501.003	438.38
501.22	409.38
501.437	353.38
501.654	316.38
501.871	295.38
502.088	295.38
502.305	284.38
502.522	270.38
502.739	266.38
502.956	240.38
503.172	235.38
503.389	225.38
503.606	223.38
503.823	219.38
504.04	236.38
504.256	215.38
