Data from SampG_HRD10591_00020.txt Node
Date: Mon Jan 19 11:53:50 EST 2026
User: Yrep
Spectrometer: HR+D1059
Trigger mode: 0
Integration Time (sec): 3.443000E-1
Scans to average: 1
Electric dark correction enabled: true
Nonlinearity correction enabled: false
Boxcar width: 0
XAxis mode: Wavelengths
Number of Pixels in Spectrum: 2048
>>>>>Begin Spectral Data<<<<<
223.165	-26.62
223.4	-26.62
223.635	-26.62
223.869	-21.62
224.104	-31.62
224.338	-1.62
224.573	-24.62
224.808	-20.62
225.042	-1.62
225.277	-5.62
225.511	3.38
225.746	17.38
225.98	8.38
226.215	17.38
226.449	3.38
226.683	23.38
226.918	22.38
227.152	38.38
227.387	33.38
227.621	41.38
227.856	58.38
228.09	54.38
228.324	49.38
228.559	51.38
228.793	59.38
229.027	62.38
229.262	84.38
229.496	75.38
229.73	82.38
229.964	83.38
230.199	66.38
230.433	73.38
230.667	60.38
230.901	71.38
231.136	75.38
231.37	87.38
231.604	85.38
231.838	84.38
232.072	80.38
232.306	80.38
232.541	70.38
232.775	79.38
233.009	82.38
233.243	94.38
233.477	80.38
233.711	96.38
233.945	83.38
234.179	89.38
234.413	91.38
234.647	90.38
234.881	90.38
235.115	86.38
235.349	93.38
235.583	95.38
235.817	69.38
236.051	70.38
236.285	77.38
236.519	89.38
236.753	72.38
236.987	63.38
237.221	83.38
237.455	68.38
237.689	89.38
237.922	86.38
238.156	103.38
238.39	77.38
238.624	74.38
238.858	81.38
239.091	76.38
239.325	81.38
239.559	74.38
239.793	61.38
240.027	101.38
240.26	84.38
240.494	84.38
240.728	89.38
240.961	68.38
241.195	83.38
241.429	93.38
241.662	93.38
241.896	91.38
242.13	83.38
242.363	75.38
242.597	92.38
242.83	87.38
243.064	81.38
243.298	80.38
243.531	79.38
243.765	89.38
243.998	81.38
244.232	86.38
244.465	87.38
244.699	102.38
244.932	80.38
245.166	93.38
245.399	98.38
245.633	78.38
245.866	95.38
246.099	74.38
246.333	90.38
246.566	77.38
246.8	90.38
247.033	78.38
247.266	72.38
247.5	91.38
247.733	83.38
247.966	85.38
248.2	87.38
248.433	88.38
248.666	74.38
248.899	91.38
249.133	83.38
249.366	108.38
249.599	98.38
249.832	99.38
250.066	91.38
250.299	97.38
250.532	86.38
250.765	91.38
250.998	73.38
251.231	82.38
251.465	98.38
251.698	72.38
251.931	84.38
252.164	83.38
252.397	82.38
252.63	94.38
252.863	93.38
253.096	86.38
253.329	91.38
253.562	90.38
253.795	94.38
254.028	112.38
254.261	89.38
254.494	95.38
254.727	97.38
254.96	90.38
255.193	83.38
255.426	85.38
255.659	78.38
255.892	83.38
256.124	96.38
256.357	91.38
256.59	79.38
256.823	101.38
257.056	83.38
257.289	97.38
257.521	93.38
257.754	86.38
257.987	79.38
258.22	103.38
258.452	93.38
258.685	98.38
258.918	74.38
259.151	88.38
259.383	97.38
259.616	93.38
259.849	106.38
260.081	86.38
260.314	109.38
260.547	89.38
260.779	79.38
261.012	95.38
261.244	85.38
261.477	103.38
261.71	92.38
261.942	106.38
262.175	96.38
262.407	83.38
262.64	94.38
262.872	101.38
263.105	77.38
263.337	94.38
263.57	93.38
263.802	93.38
264.035	86.38
264.267	96.38
264.499	100.38
264.732	103.38
264.964	100.38
265.197	104.38
265.429	92.38
265.661	91.38
265.894	99.38
266.126	104.38
266.358	93.38
266.591	105.38
266.823	102.38
267.055	111.38
267.287	87.38
267.52	102.38
267.752	100.38
267.984	97.38
268.216	93.38
268.448	94.38
268.681	108.38
268.913	107.38
269.145	98.38
269.377	105.38
269.609	103.38
269.841	104.38
270.073	98.38
270.306	102.38
270.538	103.38
270.77	96.38
271.002	100.38
271.234	106.38
271.466	107.38
271.698	106.38
271.93	110.38
272.162	103.38
272.394	105.38
272.626	101.38
272.858	93.38
273.09	103.38
273.322	106.38
273.553	97.38
273.785	95.38
274.017	97.38
274.249	107.38
274.481	106.38
274.713	104.38
274.945	109.38
275.176	93.38
275.408	107.38
275.64	102.38
275.872	98.38
276.104	118.38
276.335	99.38
276.567	104.38
276.799	96.38
277.031	119.38
277.262	115.38
277.494	109.38
277.726	102.38
277.957	101.38
278.189	104.38
278.421	120.38
278.652	100.38
278.884	114.38
279.115	123.38
279.347	135.38
279.579	106.38
279.81	105.38
280.042	115.38
280.273	112.38
280.505	93.38
280.736	105.38
280.968	111.38
281.199	117.38
281.431	107.38
281.662	109.38
281.894	107.38
282.125	111.38
282.356	117.38
282.588	113.38
282.819	107.38
283.051	91.38
283.282	119.38
283.513	119.38
283.745	132.38
283.976	118.38
284.207	112.38
284.439	116.38
284.67	118.38
284.901	112.38
285.132	132.38
285.364	126.38
285.595	115.38
285.826	119.38
286.057	120.38
286.288	110.38
286.52	109.38
286.751	119.38
286.982	106.38
287.213	120.38
287.444	113.38
287.675	121.38
287.906	130.38
288.138	117.38
288.369	106.38
288.6	106.38
288.831	133.38
289.062	130.38
289.293	116.38
289.524	128.38
289.755	110.38
289.986	102.38
290.217	123.38
290.448	125.38
290.679	115.38
290.91	117.38
291.141	106.38
291.371	134.38
291.602	106.38
291.833	117.38
292.064	113.38
292.295	104.38
292.526	120.38
292.757	118.38
292.987	117.38
293.218	119.38
293.449	113.38
293.68	128.38
293.91	96.38
294.141	127.38
294.372	115.38
294.603	121.38
294.833	116.38
295.064	120.38
295.295	112.38
295.525	124.38
295.756	120.38
295.987	116.38
296.217	128.38
296.448	125.38
296.679	116.38
296.909	117.38
297.14	112.38
297.37	132.38
297.601	110.38
297.831	109.38
298.062	118.38
298.292	114.38
298.523	121.38
298.753	126.38
298.984	114.38
299.214	132.38
299.445	114.38
299.675	114.38
299.905	121.38
300.136	127.38
300.366	123.38
300.597	127.38
300.827	137.38
301.057	134.38
301.288	138.38
301.518	110.38
301.748	126.38
301.979	176.38
302.209	118.38
302.439	134.38
302.669	105.38
302.9	110.38
303.13	127.38
303.36	110.38
303.59	113.38
303.82	132.38
304.051	124.38
304.281	122.38
304.511	116.38
304.741	132.38
304.971	125.38
305.201	124.38
305.431	125.38
305.661	128.38
305.891	112.38
306.121	117.38
306.352	124.38
306.582	111.38
306.812	119.38
307.042	118.38
307.272	102.38
307.502	121.38
307.731	144.38
307.961	130.38
308.191	119.38
308.421	114.38
308.651	117.38
308.881	111.38
309.111	135.38
309.341	117.38
309.571	126.38
309.8	130.38
310.03	112.38
310.26	131.38
310.49	126.38
310.72	118.38
310.949	115.38
311.179	120.38
311.409	134.38
311.639	119.38
311.868	122.38
312.098	116.38
312.328	118.38
312.557	113.38
312.787	124.38
313.017	130.38
313.246	115.38
313.476	130.38
313.706	123.38
313.935	121.38
314.165	130.38
314.394	134.38
314.624	136.38
314.853	121.38
315.083	128.38
315.312	131.38
315.542	121.38
315.771	136.38
316.001	132.38
316.23	126.38
316.46	122.38
316.689	122.38
316.919	121.38
317.148	122.38
317.377	135.38
317.607	115.38
317.836	130.38
318.065	121.38
318.295	125.38
318.524	120.38
318.753	131.38
318.983	122.38
319.212	139.38
319.441	127.38
319.67	131.38
319.9	129.38
320.129	126.38
320.358	129.38
320.587	125.38
320.816	120.38
321.046	127.38
321.275	110.38
321.504	130.38
321.733	122.38
321.962	115.38
322.191	128.38
322.42	127.38
322.649	126.38
322.878	133.38
323.108	114.38
323.337	129.38
323.566	128.38
323.795	133.38
324.024	136.38
324.253	128.38
324.482	141.38
324.71	138.38
324.939	136.38
325.168	131.38
325.397	126.38
325.626	141.38
325.855	118.38
326.084	118.38
326.313	136.38
326.542	127.38
326.77	132.38
326.999	135.38
327.228	125.38
327.457	131.38
327.686	111.38
327.914	136.38
328.143	138.38
328.372	129.38
328.6	138.38
328.829	130.38
329.058	113.38
329.287	125.38
329.515	133.38
329.744	125.38
329.972	124.38
330.201	136.38
330.43	130.38
330.658	128.38
330.887	138.38
331.115	135.38
331.344	139.38
331.572	134.38
331.801	133.38
332.03	137.38
332.258	145.38
332.486	145.38
332.715	162.38
332.943	138.38
333.172	155.38
333.4	128.38
333.629	151.38
333.857	149.38
334.085	163.38
334.314	146.38
334.542	159.38
334.771	145.38
334.999	137.38
335.227	151.38
335.455	143.38
335.684	137.38
335.912	138.38
336.14	143.38
336.369	143.38
336.597	145.38
336.825	125.38
337.053	141.38
337.281	133.38
337.51	129.38
337.738	142.38
337.966	139.38
338.194	135.38
338.422	142.38
338.65	146.38
338.878	144.38
339.106	117.38
339.334	150.38
339.562	159.38
339.79	129.38
340.018	120.38
340.246	119.38
340.474	130.38
340.702	144.38
340.93	146.38
341.158	126.38
341.386	120.38
341.614	126.38
341.842	134.38
342.07	123.38
342.298	139.38
342.526	134.38
342.754	122.38
342.981	127.38
343.209	125.38
343.437	168.38
343.665	130.38
343.893	148.38
344.12	134.38
344.348	136.38
344.576	135.38
344.804	129.38
345.031	125.38
345.259	133.38
345.487	136.38
345.714	134.38
345.942	124.38
346.17	118.38
346.397	126.38
346.625	162.38
346.853	121.38
347.08	127.38
347.308	138.38
347.535	131.38
347.763	133.38
347.99	130.38
348.218	122.38
348.445	117.38
348.673	126.38
348.9	141.38
349.128	135.38
349.355	143.38
349.583	131.38
349.81	122.38
350.037	118.38
350.265	126.38
350.492	119.38
350.72	135.38
350.947	136.38
351.174	133.38
351.402	131.38
351.629	130.38
351.856	133.38
352.083	138.38
352.311	142.38
352.538	126.38
352.765	128.38
352.992	147.38
353.22	133.38
353.447	129.38
353.674	133.38
353.901	145.38
354.128	135.38
354.355	126.38
354.583	134.38
354.81	141.38
355.037	127.38
355.264	141.38
355.491	146.38
355.718	128.38
355.945	147.38
356.172	125.38
356.399	130.38
356.626	137.38
356.853	144.38
357.08	132.38
357.307	133.38
357.534	121.38
357.761	128.38
357.988	132.38
358.215	144.38
358.441	130.38
358.668	118.38
358.895	122.38
359.122	130.38
359.349	123.38
359.576	127.38
359.802	113.38
360.029	128.38
360.256	129.38
360.483	136.38
360.709	121.38
360.936	146.38
361.163	161.38
361.39	136.38
361.616	120.38
361.843	123.38
362.07	112.38
362.296	143.38
362.523	135.38
362.749	111.38
362.976	133.38
363.203	152.38
363.429	119.38
363.656	134.38
363.882	120.38
364.109	147.38
364.335	131.38
364.562	133.38
364.788	110.38
365.015	130.38
365.241	131.38
365.468	144.38
365.694	124.38
365.92	143.38
366.147	118.38
366.373	119.38
366.599	127.38
366.826	128.38
367.052	136.38
367.278	132.38
367.505	130.38
367.731	157.38
367.957	123.38
368.184	128.38
368.41	124.38
368.636	129.38
368.862	136.38
369.089	125.38
369.315	114.38
369.541	139.38
369.767	129.38
369.993	139.38
370.219	131.38
370.445	128.38
370.672	136.38
370.898	137.38
371.124	139.38
371.35	123.38
371.576	130.38
371.802	148.38
372.028	129.38
372.254	146.38
372.48	147.38
372.706	141.38
372.932	145.38
373.158	144.38
373.384	150.38
373.61	161.38
373.835	141.38
374.061	138.38
374.287	147.38
374.513	139.38
374.739	137.38
374.965	151.38
375.191	151.38
375.416	154.38
375.642	147.38
375.868	160.38
376.094	126.38
376.319	129.38
376.545	133.38
376.771	149.38
376.997	138.38
377.222	124.38
377.448	125.38
377.674	135.38
377.899	130.38
378.125	141.38
378.35	134.38
378.576	115.38
378.802	138.38
379.027	156.38
379.253	156.38
379.478	135.38
379.704	145.38
379.929	153.38
380.155	129.38
380.38	130.38
380.606	122.38
380.831	138.38
381.057	153.38
381.282	136.38
381.507	129.38
381.733	133.38
381.958	139.38
382.184	133.38
382.409	149.38
382.634	138.38
382.86	143.38
383.085	159.38
383.31	146.38
383.535	145.38
383.761	135.38
383.986	152.38
384.211	156.38
384.436	140.38
384.662	124.38
384.887	162.38
385.112	166.38
385.337	147.38
385.562	146.38
385.787	143.38
386.013	151.38
386.238	165.38
386.463	155.38
386.688	165.38
386.913	144.38
387.138	148.38
387.363	159.38
387.588	167.38
387.813	146.38
388.038	150.38
388.263	173.38
388.488	161.38
388.713	151.38
388.938	146.38
389.163	141.38
389.387	150.38
389.612	134.38
389.837	151.38
390.062	144.38
390.287	154.38
390.512	159.38
390.736	152.38
390.961	163.38
391.186	164.38
391.411	158.38
391.636	152.38
391.86	171.38
392.085	153.38
392.31	161.38
392.534	142.38
392.759	158.38
392.984	162.38
393.208	145.38
393.433	145.38
393.658	154.38
393.882	164.38
394.107	177.38
394.331	162.38
394.556	151.38
394.78	148.38
395.005	152.38
395.229	146.38
395.454	164.38
395.678	156.38
395.903	172.38
396.127	145.38
396.352	156.38
396.576	165.38
396.801	164.38
397.025	159.38
397.249	164.38
397.474	165.38
397.698	164.38
397.922	162.38
398.147	163.38
398.371	170.38
398.595	183.38
398.82	176.38
399.044	200.38
399.268	196.38
399.492	217.38
399.717	251.38
399.941	207.38
400.165	205.38
400.389	183.38
400.613	183.38
400.837	181.38
401.062	176.38
401.286	159.38
401.51	161.38
401.734	177.38
401.958	186.38
402.182	178.38
402.406	171.38
402.63	178.38
402.854	185.38
403.078	189.38
403.302	194.38
403.526	168.38
403.75	184.38
403.974	185.38
404.198	196.38
404.422	187.38
404.645	188.38
404.869	181.38
405.093	182.38
405.317	200.38
405.541	180.38
405.765	187.38
405.988	189.38
406.212	173.38
406.436	190.38
406.66	193.38
406.883	198.38
407.107	198.38
407.331	203.38
407.555	196.38
407.778	201.38
408.002	202.38
408.226	190.38
408.449	204.38
408.673	186.38
408.896	182.38
409.12	179.38
409.344	191.38
409.567	169.38
409.791	186.38
410.014	195.38
410.238	186.38
410.461	184.38
410.685	181.38
410.908	165.38
411.132	180.38
411.355	180.38
411.578	170.38
411.802	180.38
412.025	171.38
412.249	180.38
412.472	177.38
412.695	183.38
412.919	165.38
413.142	166.38
413.365	165.38
413.589	176.38
413.812	173.38
414.035	181.38
414.258	180.38
414.482	183.38
414.705	162.38
414.928	185.38
415.151	179.38
415.374	181.38
415.597	164.38
415.821	181.38
416.044	179.38
416.267	164.38
416.49	167.38
416.713	185.38
416.936	180.38
417.159	171.38
417.382	160.38
417.605	177.38
417.828	168.38
418.051	177.38
418.274	165.38
418.497	170.38
418.72	180.38
418.943	166.38
419.166	175.38
419.389	194.38
419.611	176.38
419.834	161.38
420.057	184.38
420.28	151.38
420.503	169.38
420.726	157.38
420.948	172.38
421.171	171.38
421.394	155.38
421.617	155.38
421.839	175.38
422.062	186.38
422.285	171.38
422.507	182.38
422.73	175.38
422.953	153.38
423.175	173.38
423.398	182.38
423.621	200.38
423.843	183.38
424.066	185.38
424.288	171.38
424.511	175.38
424.733	163.38
424.956	180.38
425.178	159.38
425.401	170.38
425.623	170.38
425.846	160.38
426.068	178.38
426.291	171.38
426.513	172.38
426.735	165.38
426.958	169.38
427.18	167.38
427.402	155.38
427.625	174.38
427.847	154.38
428.069	162.38
428.292	172.38
428.514	164.38
428.736	169.38
428.958	167.38
429.181	159.38
429.403	148.38
429.625	160.38
429.847	146.38
430.069	162.38
430.292	167.38
430.514	162.38
430.736	152.38
430.958	165.38
431.18	146.38
431.402	149.38
431.624	165.38
431.846	160.38
432.068	161.38
432.29	145.38
432.512	147.38
432.734	176.38
432.956	176.38
433.178	171.38
433.4	168.38
433.622	159.38
433.844	159.38
434.066	167.38
434.287	181.38
434.509	188.38
434.731	161.38
434.953	173.38
435.175	170.38
435.397	173.38
435.618	154.38
435.84	167.38
436.062	159.38
436.284	154.38
436.505	165.38
436.727	147.38
436.949	167.38
437.17	161.38
437.392	147.38
437.614	175.38
437.835	154.38
438.057	160.38
438.278	148.38
438.5	159.38
438.721	166.38
438.943	153.38
439.165	176.38
439.386	161.38
439.608	160.38
439.829	151.38
440.05	151.38
440.272	143.38
440.493	136.38
440.715	173.38
440.936	174.38
441.158	169.38
441.379	178.38
441.6	171.38
441.822	185.38
442.043	186.38
442.264	169.38
442.486	160.38
442.707	175.38
442.928	170.38
443.149	170.38
443.371	177.38
443.592	168.38
443.813	174.38
444.034	188.38
444.255	179.38
444.476	194.38
444.698	185.38
444.919	186.38
445.14	476.38
445.361	299.38
445.582	189.38
445.803	177.38
446.024	176.38
446.245	166.38
446.466	171.38
446.687	149.38
446.908	145.38
447.129	141.38
447.35	154.38
447.571	130.38
447.792	155.38
448.013	144.38
448.234	154.38
448.455	142.38
448.675	164.38
448.896	159.38
449.117	163.38
449.338	141.38
449.559	167.38
449.779	135.38
450	155.38
450.221	163.38
450.442	148.38
450.662	159.38
450.883	161.38
451.104	157.38
451.324	149.38
451.545	150.38
451.766	153.38
451.986	144.38
452.207	166.38
452.428	155.38
452.648	161.38
452.869	152.38
453.089	167.38
453.31	153.38
453.53	139.38
453.751	143.38
453.971	146.38
454.192	139.38
454.412	145.38
454.633	159.38
454.853	155.38
455.073	149.38
455.294	144.38
455.514	154.38
455.734	144.38
455.955	157.38
456.175	144.38
456.395	133.38
456.616	145.38
456.836	140.38
457.056	157.38
457.276	151.38
457.497	139.38
457.717	144.38
457.937	140.38
458.157	155.38
458.377	151.38
458.598	136.38
458.818	171.38
459.038	153.38
459.258	161.38
459.478	152.38
459.698	167.38
459.918	167.38
460.138	186.38
460.358	183.38
460.578	192.38
460.798	185.38
461.018	188.38
461.238	182.38
461.458	180.38
461.678	166.38
461.898	176.38
462.118	175.38
462.338	190.38
462.558	192.38
462.777	192.38
462.997	207.38
463.217	199.38
463.437	223.38
463.657	204.38
463.876	195.38
464.096	192.38
464.316	183.38
464.536	177.38
464.755	176.38
464.975	168.38
465.195	172.38
465.414	178.38
465.634	160.38
465.854	164.38
466.073	169.38
466.293	158.38
466.512	158.38
466.732	155.38
466.951	149.38
467.171	150.38
467.391	164.38
467.61	153.38
467.829	162.38
468.049	162.38
468.268	171.38
468.488	158.38
468.707	153.38
468.927	161.38
469.146	149.38
469.365	154.38
469.585	155.38
469.804	167.38
470.023	151.38
470.243	158.38
470.462	168.38
470.681	141.38
470.901	163.38
471.12	155.38
471.339	147.38
471.558	156.38
471.777	142.38
471.997	165.38
472.216	159.38
472.435	151.38
472.654	151.38
472.873	145.38
473.092	168.38
473.311	161.38
473.53	144.38
473.749	160.38
473.968	143.38
474.187	141.38
474.406	150.38
474.625	162.38
474.844	142.38
475.063	149.38
475.282	156.38
475.501	135.38
475.72	159.38
475.939	155.38
476.158	152.38
476.377	159.38
476.596	163.38
476.814	152.38
477.033	158.38
477.252	149.38
477.471	159.38
477.69	151.38
477.908	168.38
478.127	182.38
478.346	163.38
478.564	183.38
478.783	171.38
479.002	166.38
479.22	165.38
479.439	181.38
479.658	173.38
479.876	191.38
480.095	171.38
480.313	181.38
480.532	182.38
480.751	184.38
480.969	164.38
481.188	175.38
481.406	182.38
481.624	162.38
481.843	161.38
482.061	149.38
482.28	159.38
482.498	178.38
482.717	156.38
482.935	166.38
483.153	166.38
483.372	176.38
483.59	180.38
483.808	144.38
484.027	166.38
484.245	162.38
484.463	167.38
484.681	168.38
484.9	183.38
485.118	189.38
485.336	150.38
485.554	161.38
485.772	177.38
485.99	168.38
486.209	185.38
486.427	166.38
486.645	165.38
486.863	178.38
487.081	185.38
487.299	179.38
487.517	184.38
487.735	168.38
487.953	170.38
488.171	161.38
488.389	175.38
488.607	173.38
488.825	163.38
489.043	169.38
489.261	162.38
489.479	167.38
489.696	174.38
489.914	174.38
490.132	169.38
490.35	178.38
490.568	171.38
490.786	174.38
491.003	156.38
491.221	163.38
491.439	169.38
491.657	182.38
491.874	175.38
492.092	170.38
492.31	154.38
492.527	174.38
492.745	165.38
492.963	179.38
493.18	181.38
493.398	187.38
493.615	165.38
493.833	171.38
494.05	167.38
494.268	177.38
494.485	181.38
494.703	183.38
494.92	176.38
495.138	173.38
495.355	171.38
495.573	183.38
495.79	182.38
496.008	182.38
496.225	194.38
496.442	168.38
496.66	190.38
496.877	191.38
497.094	203.38
497.312	205.38
497.529	203.38
497.746	189.38
497.963	189.38
498.181	208.38
498.398	185.38
498.615	226.38
498.832	233.38
499.049	259.38
499.267	269.38
499.484	275.38
499.701	303.38
499.918	350.38
500.135	369.38
500.352	404.38
500.569	392.38
500.786	373.38
501.003	351.38
501.22	333.38
501.437	287.38
501.654	267.38
501.871	263.38
502.088	231.38
502.305	235.38
502.522	217.38
502.739	213.38
502.956	214.38
503.172	214.38
503.389	200.38
503.606	194.38
503.823	201.38
504.04	210.38
504.256	194.38
504.473	183.38
504.69	215.38
504.907	216.38
