Data from SampG_HRD10591_00016.txt Node
Date: Mon Jan 19 11:53:48 EST 2026
User: Yrep
Spectrometer: HR+D1059
Trigger mode: 0
Integration Time (sec): 3.443000E-1
Scans to average: 1
Electric dark correction enabled: true
Nonlinearity correction enabled: false
Boxcar width: 0
XAxis mode: Wavelengths
Number of Pixels in Spectrum: 2048
>>>>>Begin Spectral Data<<<<<
223.165	-22.19
223.4	-22.19
223.635	-22.19
223.869	-25.19
224.104	-23.19
224.338	-18.19
224.573	-21.19
224.808	-14.19
225.042	-11.19
225.277	-2.19
225.511	-3.19
225.746	12.81
225.98	10.81
226.215	1.81
226.449	29.81
226.683	29.81
226.918	23.81
227.152	31.81
227.387	34.81
227.621	25.81
227.856	49.81
228.09	41.81
228.324	45.81
228.559	56.81
228.793	65.81
229.027	69.81
229.262	65.81
229.496	66.81
229.73	69.81
229.964	73.81
230.199	67.81
230.433	74.81
230.667	89.81
230.901	89.81
231.136	78.81
231.37	73.81
231.604	87.81
231.838	81.81
232.072	83.81
232.306	69.81
232.541	85.81
232.775	87.81
233.009	93.81
233.243	87.81
233.477	99.81
233.711	85.81
233.945	95.81
234.179	89.81
234.413	98.81
234.647	84.81
234.881	94.81
235.115	75.81
235.349	75.81
235.583	73.81
235.817	86.81
236.051	86.81
236.285	83.81
236.519	87.81
236.753	84.81
236.987	86.81
237.221	83.81
237.455	101.81
237.689	66.81
237.922	79.81
238.156	94.81
238.39	91.81
238.624	76.81
238.858	89.81
239.091	91.81
239.325	86.81
239.559	95.81
239.793	90.81
240.027	98.81
240.26	86.81
240.494	88.81
240.728	83.81
240.961	77.81
241.195	79.81
241.429	85.81
241.662	91.81
241.896	85.81
242.13	75.81
242.363	80.81
242.597	75.81
242.83	80.81
243.064	88.81
243.298	84.81
243.531	68.81
243.765	96.81
243.998	73.81
244.232	95.81
244.465	71.81
244.699	87.81
244.932	94.81
245.166	84.81
245.399	73.81
245.633	83.81
245.866	71.81
246.099	81.81
246.333	84.81
246.566	82.81
246.8	90.81
247.033	79.81
247.266	82.81
247.5	89.81
247.733	88.81
247.966	86.81
248.2	87.81
248.433	94.81
248.666	95.81
248.899	95.81
249.133	117.81
249.366	102.81
249.599	86.81
249.832	83.81
250.066	98.81
250.299	96.81
250.532	107.81
250.765	85.81
250.998	79.81
251.231	93.81
251.465	99.81
251.698	95.81
251.931	103.81
252.164	98.81
252.397	73.81
252.63	83.81
252.863	97.81
253.096	95.81
253.329	92.81
253.562	83.81
253.795	97.81
254.028	102.81
254.261	88.81
254.494	92.81
254.727	91.81
254.96	90.81
255.193	76.81
255.426	94.81
255.659	98.81
255.892	86.81
256.124	95.81
256.357	95.81
256.59	93.81
256.823	102.81
257.056	102.81
257.289	108.81
257.521	96.81
257.754	86.81
257.987	103.81
258.22	91.81
258.452	110.81
258.685	91.81
258.918	102.81
259.151	81.81
259.383	103.81
259.616	99.81
259.849	102.81
260.081	109.81
260.314	109.81
260.547	107.81
260.779	98.81
261.012	108.81
261.244	106.81
261.477	127.81
261.71	96.81
261.942	99.81
262.175	96.81
262.407	98.81
262.64	84.81
262.872	89.81
263.105	109.81
263.337	108.81
263.57	98.81
263.802	93.81
264.035	107.81
264.267	102.81
264.499	105.81
264.732	100.81
264.964	97.81
265.197	112.81
265.429	106.81
265.661	102.81
265.894	107.81
266.126	107.81
266.358	99.81
266.591	106.81
266.823	106.81
267.055	102.81
267.287	82.81
267.52	87.81
267.752	109.81
267.984	108.81
268.216	108.81
268.448	106.81
268.681	117.81
268.913	123.81
269.145	103.81
269.377	105.81
269.609	107.81
269.841	110.81
270.073	97.81
270.306	94.81
270.538	91.81
270.77	99.81
271.002	118.81
271.234	115.81
271.466	99.81
271.698	106.81
271.93	109.81
272.162	97.81
272.394	110.81
272.626	115.81
272.858	101.81
273.09	105.81
273.322	116.81
273.553	100.81
273.785	93.81
274.017	101.81
274.249	110.81
274.481	106.81
274.713	110.81
274.945	104.81
275.176	112.81
275.408	110.81
275.64	118.81
275.872	126.81
276.104	110.81
276.335	107.81
276.567	102.81
276.799	105.81
277.031	95.81
277.262	116.81
277.494	109.81
277.726	99.81
277.957	99.81
278.189	104.81
278.421	100.81
278.652	106.81
278.884	104.81
279.115	116.81
279.347	110.81
279.579	120.81
279.81	105.81
280.042	120.81
280.273	111.81
280.505	116.81
280.736	99.81
280.968	127.81
281.199	109.81
281.431	118.81
281.662	118.81
281.894	134.81
282.125	111.81
282.356	106.81
282.588	116.81
282.819	119.81
283.051	111.81
283.282	114.81
283.513	125.81
283.745	102.81
283.976	124.81
284.207	115.81
284.439	117.81
284.67	108.81
284.901	114.81
285.132	115.81
285.364	116.81
285.595	118.81
285.826	103.81
286.057	119.81
286.288	118.81
286.52	117.81
286.751	122.81
286.982	107.81
287.213	124.81
287.444	102.81
287.675	106.81
287.906	122.81
288.138	109.81
288.369	113.81
288.6	122.81
288.831	111.81
289.062	126.81
289.293	121.81
289.524	120.81
289.755	106.81
289.986	123.81
290.217	117.81
290.448	119.81
290.679	129.81
290.91	120.81
291.141	121.81
291.371	122.81
291.602	106.81
291.833	119.81
292.064	101.81
292.295	138.81
292.526	124.81
292.757	127.81
292.987	120.81
293.218	104.81
293.449	113.81
293.68	103.81
293.91	112.81
294.141	110.81
294.372	127.81
294.603	120.81
294.833	122.81
295.064	126.81
295.295	102.81
295.525	137.81
295.756	130.81
295.987	121.81
296.217	121.81
296.448	111.81
296.679	125.81
296.909	125.81
297.14	143.81
297.37	125.81
297.601	125.81
297.831	116.81
298.062	118.81
298.292	119.81
298.523	133.81
298.753	115.81
298.984	121.81
299.214	122.81
299.445	118.81
299.675	134.81
299.905	134.81
300.136	124.81
300.366	138.81
300.597	126.81
300.827	135.81
301.057	131.81
301.288	150.81
301.518	123.81
301.748	114.81
301.979	162.81
302.209	118.81
302.439	129.81
302.669	123.81
302.9	123.81
303.13	119.81
303.36	125.81
303.59	121.81
303.82	130.81
304.051	119.81
304.281	128.81
304.511	142.81
304.741	130.81
304.971	117.81
305.201	133.81
305.431	126.81
305.661	127.81
305.891	116.81
306.121	146.81
306.352	124.81
306.582	116.81
306.812	132.81
307.042	116.81
307.272	131.81
307.502	115.81
307.731	129.81
307.961	123.81
308.191	132.81
308.421	129.81
308.651	125.81
308.881	148.81
309.111	131.81
309.341	129.81
309.571	124.81
309.8	119.81
310.03	113.81
310.26	120.81
310.49	130.81
310.72	127.81
310.949	124.81
311.179	127.81
311.409	138.81
311.639	133.81
311.868	139.81
312.098	138.81
312.328	129.81
312.557	131.81
312.787	128.81
313.017	127.81
313.246	132.81
313.476	117.81
313.706	134.81
313.935	127.81
314.165	139.81
314.394	115.81
314.624	126.81
314.853	128.81
315.083	138.81
315.312	134.81
315.542	126.81
315.771	118.81
316.001	122.81
316.23	126.81
316.46	122.81
316.689	133.81
316.919	120.81
317.148	126.81
317.377	142.81
317.607	109.81
317.836	119.81
318.065	135.81
318.295	124.81
318.524	125.81
318.753	122.81
318.983	131.81
319.212	141.81
319.441	143.81
319.67	118.81
319.9	137.81
320.129	130.81
320.358	138.81
320.587	130.81
320.816	121.81
321.046	118.81
321.275	128.81
321.504	128.81
321.733	145.81
321.962	123.81
322.191	129.81
322.42	127.81
322.649	127.81
322.878	125.81
323.108	122.81
323.337	140.81
323.566	144.81
323.795	138.81
324.024	138.81
324.253	121.81
324.482	122.81
324.71	125.81
324.939	142.81
325.168	136.81
325.397	136.81
325.626	139.81
325.855	142.81
326.084	141.81
326.313	142.81
326.542	130.81
326.77	140.81
326.999	132.81
327.228	134.81
327.457	136.81
327.686	133.81
327.914	120.81
328.143	133.81
328.372	132.81
328.6	124.81
328.829	137.81
329.058	126.81
329.287	136.81
329.515	128.81
329.744	137.81
329.972	143.81
330.201	137.81
330.43	131.81
330.658	132.81
330.887	138.81
331.115	148.81
331.344	135.81
331.572	140.81
331.801	126.81
332.03	125.81
332.258	142.81
332.486	143.81
332.715	136.81
332.943	165.81
333.172	159.81
333.4	148.81
333.629	175.81
333.857	155.81
334.085	163.81
334.314	174.81
334.542	145.81
334.771	145.81
334.999	158.81
335.227	143.81
335.455	162.81
335.684	167.81
335.912	138.81
336.14	131.81
336.369	139.81
336.597	132.81
336.825	144.81
337.053	131.81
337.281	139.81
337.51	134.81
337.738	149.81
337.966	139.81
338.194	117.81
338.422	142.81
338.65	128.81
338.878	127.81
339.106	127.81
339.334	156.81
339.562	122.81
339.79	132.81
340.018	132.81
340.246	125.81
340.474	141.81
340.702	134.81
340.93	145.81
341.158	136.81
341.386	132.81
341.614	137.81
341.842	133.81
342.07	140.81
342.298	135.81
342.526	131.81
342.754	145.81
342.981	148.81
343.209	142.81
343.437	161.81
343.665	161.81
343.893	149.81
344.12	172.81
344.348	156.81
344.576	141.81
344.804	133.81
345.031	121.81
345.259	146.81
345.487	139.81
345.714	136.81
345.942	145.81
346.17	138.81
346.397	129.81
346.625	142.81
346.853	125.81
347.08	124.81
347.308	131.81
347.535	132.81
347.763	145.81
347.99	129.81
348.218	138.81
348.445	121.81
348.673	117.81
348.9	134.81
349.128	149.81
349.355	134.81
349.583	147.81
349.81	121.81
350.037	135.81
350.265	140.81
350.492	137.81
350.72	119.81
350.947	146.81
351.174	126.81
351.402	129.81
351.629	140.81
351.856	133.81
352.083	136.81
352.311	148.81
352.538	122.81
352.765	125.81
352.992	137.81
353.22	136.81
353.447	147.81
353.674	128.81
353.901	127.81
354.128	135.81
354.355	141.81
354.583	135.81
354.81	122.81
355.037	120.81
355.264	127.81
355.491	148.81
355.718	146.81
355.945	141.81
356.172	130.81
356.399	131.81
356.626	125.81
356.853	126.81
357.08	139.81
357.307	148.81
357.534	127.81
357.761	143.81
357.988	145.81
358.215	131.81
358.441	132.81
358.668	122.81
358.895	128.81
359.122	125.81
359.349	137.81
359.576	129.81
359.802	122.81
360.029	132.81
360.256	147.81
360.483	124.81
360.709	124.81
360.936	132.81
361.163	125.81
361.39	126.81
361.616	141.81
361.843	142.81
362.07	130.81
362.296	129.81
362.523	120.81
362.749	143.81
362.976	117.81
363.203	155.81
363.429	133.81
363.656	127.81
363.882	143.81
364.109	141.81
364.335	126.81
364.562	145.81
364.788	129.81
365.015	135.81
365.241	140.81
365.468	142.81
365.694	118.81
365.92	135.81
366.147	132.81
366.373	125.81
366.599	122.81
366.826	129.81
367.052	133.81
367.278	148.81
367.505	133.81
367.731	154.81
367.957	127.81
368.184	126.81
368.41	134.81
368.636	137.81
368.862	158.81
369.089	126.81
369.315	139.81
369.541	135.81
369.767	138.81
369.993	151.81
370.219	126.81
370.445	115.81
370.672	141.81
370.898	131.81
371.124	145.81
371.35	134.81
371.576	156.81
371.802	139.81
372.028	136.81
372.254	146.81
372.48	136.81
372.706	160.81
372.932	158.81
373.158	134.81
373.384	140.81
373.61	140.81
373.835	130.81
374.061	141.81
374.287	166.81
374.513	135.81
374.739	142.81
374.965	151.81
375.191	151.81
375.416	148.81
375.642	138.81
375.868	149.81
376.094	142.81
376.319	131.81
376.545	138.81
376.771	142.81
376.997	153.81
377.222	145.81
377.448	143.81
377.674	138.81
377.899	131.81
378.125	125.81
378.35	147.81
378.576	141.81
378.802	146.81
379.027	150.81
379.253	161.81
379.478	146.81
379.704	156.81
379.929	125.81
380.155	148.81
380.38	126.81
380.606	138.81
380.831	150.81
381.057	139.81
381.282	139.81
381.507	138.81
381.733	137.81
381.958	141.81
382.184	138.81
382.409	140.81
382.634	147.81
382.86	147.81
383.085	159.81
383.31	166.81
383.535	158.81
383.761	145.81
383.986	161.81
384.211	135.81
384.436	160.81
384.662	155.81
384.887	146.81
385.112	147.81
385.337	149.81
385.562	145.81
385.787	149.81
386.013	167.81
386.238	169.81
386.463	163.81
386.688	183.81
386.913	149.81
387.138	149.81
387.363	155.81
387.588	167.81
387.813	155.81
388.038	157.81
388.263	157.81
388.488	154.81
388.713	148.81
388.938	157.81
389.163	146.81
389.387	142.81
389.612	147.81
389.837	153.81
390.062	157.81
390.287	157.81
390.512	147.81
390.736	146.81
390.961	157.81
391.186	159.81
391.411	165.81
391.636	174.81
391.86	182.81
392.085	147.81
392.31	179.81
392.534	175.81
392.759	150.81
392.984	157.81
393.208	156.81
393.433	157.81
393.658	166.81
393.882	159.81
394.107	164.81
394.331	177.81
394.556	165.81
394.78	158.81
395.005	149.81
395.229	156.81
395.454	186.81
395.678	163.81
395.903	188.81
396.127	170.81
396.352	176.81
396.576	163.81
396.801	171.81
397.025	158.81
397.249	156.81
397.474	165.81
397.698	170.81
397.922	179.81
398.147	166.81
398.371	167.81
398.595	168.81
398.82	180.81
399.044	184.81
399.268	210.81
399.492	237.81
399.717	239.81
399.941	219.81
400.165	198.81
400.389	195.81
400.613	182.81
400.837	172.81
401.062	187.81
401.286	169.81
401.51	164.81
401.734	166.81
401.958	178.81
402.182	179.81
402.406	177.81
402.63	187.81
402.854	168.81
403.078	187.81
403.302	196.81
403.526	198.81
403.75	196.81
403.974	199.81
404.198	181.81
404.422	211.81
404.645	182.81
404.869	185.81
405.093	203.81
405.317	191.81
405.541	199.81
405.765	190.81
405.988	176.81
406.212	193.81
406.436	194.81
406.66	181.81
406.883	200.81
407.107	196.81
407.331	197.81
407.555	217.81
407.778	195.81
408.002	201.81
408.226	187.81
408.449	202.81
408.673	174.81
408.896	182.81
409.12	189.81
409.344	201.81
409.567	170.81
409.791	197.81
410.014	197.81
410.238	188.81
410.461	181.81
410.685	182.81
410.908	178.81
411.132	175.81
411.355	191.81
411.578	201.81
411.802	165.81
412.025	172.81
412.249	174.81
412.472	171.81
412.695	173.81
412.919	158.81
413.142	181.81
413.365	195.81
413.589	190.81
413.812	168.81
414.035	197.81
414.258	187.81
414.482	178.81
414.705	178.81
414.928	183.81
415.151	181.81
415.374	174.81
415.597	185.81
415.821	191.81
416.044	172.81
416.267	163.81
416.49	182.81
416.713	181.81
416.936	191.81
417.159	159.81
417.382	173.81
417.605	177.81
417.828	179.81
418.051	181.81
418.274	165.81
418.497	189.81
418.72	179.81
418.943	189.81
419.166	175.81
419.389	191.81
419.611	179.81
419.834	185.81
420.057	184.81
420.28	173.81
420.503	182.81
420.726	168.81
420.948	165.81
421.171	184.81
421.394	185.81
421.617	183.81
421.839	183.81
422.062	163.81
422.285	183.81
422.507	170.81
422.73	181.81
422.953	186.81
423.175	173.81
423.398	183.81
423.621	186.81
423.843	181.81
424.066	184.81
424.288	196.81
424.511	176.81
424.733	181.81
424.956	177.81
425.178	189.81
425.401	174.81
425.623	181.81
425.846	179.81
426.068	148.81
426.291	183.81
426.513	169.81
426.735	179.81
426.958	169.81
427.18	181.81
427.402	163.81
427.625	158.81
427.847	158.81
428.069	163.81
428.292	155.81
428.514	160.81
428.736	152.81
428.958	174.81
429.181	165.81
429.403	182.81
429.625	162.81
429.847	159.81
430.069	157.81
430.292	161.81
430.514	148.81
430.736	163.81
430.958	177.81
431.18	174.81
431.402	153.81
431.624	158.81
431.846	154.81
432.068	173.81
432.29	165.81
432.512	173.81
432.734	164.81
432.956	171.81
433.178	182.81
433.4	177.81
433.622	185.81
433.844	167.81
434.066	167.81
434.287	175.81
434.509	167.81
434.731	173.81
434.953	180.81
435.175	185.81
435.397	175.81
435.618	162.81
435.84	165.81
436.062	163.81
436.284	145.81
436.505	151.81
436.727	154.81
436.949	170.81
437.17	157.81
437.392	142.81
437.614	168.81
437.835	161.81
438.057	158.81
438.278	161.81
438.5	148.81
438.721	167.81
438.943	163.81
439.165	160.81
439.386	164.81
439.608	151.81
439.829	171.81
440.05	156.81
440.272	151.81
440.493	159.81
440.715	164.81
440.936	162.81
441.158	173.81
441.379	174.81
441.6	180.81
441.822	182.81
442.043	182.81
442.264	182.81
442.486	166.81
442.707	186.81
442.928	168.81
443.149	162.81
443.371	168.81
443.592	176.81
443.813	184.81
444.034	170.81
444.255	169.81
444.476	200.81
444.698	198.81
444.919	189.81
445.14	449.81
445.361	302.81
445.582	195.81
445.803	181.81
446.024	178.81
446.245	186.81
446.466	174.81
446.687	170.81
446.908	146.81
447.129	182.81
447.35	172.81
447.571	168.81
447.792	156.81
448.013	161.81
448.234	159.81
448.455	164.81
448.675	153.81
448.896	163.81
449.117	153.81
449.338	154.81
449.559	172.81
449.779	172.81
450	149.81
450.221	154.81
450.442	143.81
450.662	162.81
450.883	152.81
451.104	171.81
451.324	149.81
451.545	152.81
451.766	164.81
451.986	145.81
452.207	150.81
452.428	172.81
452.648	169.81
452.869	153.81
453.089	169.81
453.31	151.81
453.53	150.81
453.751	167.81
453.971	164.81
454.192	152.81
454.412	145.81
454.633	162.81
454.853	152.81
455.073	147.81
455.294	131.81
455.514	180.81
455.734	148.81
455.955	138.81
456.175	138.81
456.395	159.81
456.616	148.81
456.836	142.81
457.056	137.81
457.276	137.81
457.497	150.81
457.717	161.81
457.937	149.81
458.157	135.81
458.377	149.81
458.598	147.81
458.818	150.81
459.038	165.81
459.258	177.81
459.478	154.81
459.698	180.81
459.918	165.81
460.138	175.81
460.358	189.81
460.578	170.81
460.798	192.81
461.018	176.81
461.238	202.81
461.458	189.81
461.678	173.81
461.898	194.81
462.118	185.81
462.338	201.81
462.558	202.81
462.777	195.81
462.997	216.81
463.217	224.81
463.437	212.81
463.657	212.81
463.876	200.81
464.096	185.81
464.316	197.81
464.536	202.81
464.755	209.81
464.975	184.81
465.195	202.81
465.414	178.81
465.634	155.81
465.854	171.81
466.073	170.81
466.293	168.81
466.512	162.81
466.732	173.81
466.951	157.81
467.171	153.81
467.391	159.81
467.61	162.81
467.829	155.81
468.049	173.81
468.268	164.81
468.488	152.81
468.707	150.81
468.927	161.81
469.146	154.81
469.365	157.81
469.585	171.81
469.804	158.81
470.023	152.81
470.243	155.81
470.462	165.81
470.681	166.81
470.901	161.81
471.12	186.81
471.339	147.81
471.558	157.81
471.777	150.81
471.997	154.81
472.216	154.81
472.435	150.81
472.654	143.81
472.873	173.81
473.092	161.81
473.311	152.81
473.53	154.81
473.749	147.81
473.968	166.81
474.187	162.81
474.406	139.81
474.625	172.81
474.844	166.81
475.063	166.81
475.282	141.81
475.501	150.81
475.72	166.81
475.939	139.81
476.158	145.81
476.377	154.81
476.596	151.81
476.814	170.81
477.033	169.81
477.252	175.81
477.471	155.81
477.69	194.81
477.908	164.81
478.127	181.81
478.346	165.81
478.564	172.81
478.783	179.81
479.002	169.81
479.22	163.81
479.439	182.81
479.658	182.81
479.876	170.81
480.095	170.81
480.313	197.81
480.532	200.81
480.751	194.81
480.969	175.81
481.188	181.81
481.406	178.81
481.624	171.81
481.843	165.81
482.061	177.81
482.28	155.81
482.498	181.81
482.717	169.81
482.935	183.81
483.153	167.81
483.372	179.81
483.59	169.81
483.808	167.81
484.027	173.81
484.245	162.81
484.463	178.81
484.681	189.81
484.9	163.81
485.118	171.81
485.336	176.81
485.554	183.81
485.772	176.81
485.99	152.81
486.209	181.81
486.427	186.81
486.645	174.81
486.863	163.81
487.081	162.81
487.299	182.81
487.517	155.81
487.735	175.81
487.953	166.81
488.171	178.81
488.389	178.81
488.607	175.81
488.825	159.81
489.043	155.81
489.261	170.81
489.479	185.81
489.696	176.81
489.914	168.81
490.132	185.81
490.35	184.81
490.568	167.81
490.786	188.81
491.003	177.81
491.221	165.81
491.439	191.81
491.657	165.81
491.874	184.81
492.092	164.81
492.31	178.81
492.527	182.81
492.745	174.81
492.963	165.81
493.18	181.81
493.398	182.81
493.615	180.81
493.833	167.81
494.05	176.81
494.268	185.81
494.485	181.81
494.703	198.81
494.92	201.81
495.138	186.81
495.355	195.81
495.573	199.81
495.79	187.81
496.008	185.81
496.225	181.81
496.442	174.81
496.66	188.81
496.877	189.81
497.094	204.81
497.312	193.81
497.529	205.81
497.746	190.81
497.963	211.81
498.181	195.81
498.398	199.81
498.615	243.81
498.832	216.81
499.049	247.81
499.267	252.81
499.484	285.81
499.701	310.81
499.918	349.81
500.135	363.81
500.352	398.81
500.569	401.81
500.786	392.81
501.003	365.81
501.22	357.81
501.437	290.81
501.654	266.81
501.871	254.81
502.088	233.81
502.305	239.81
502.522	226.81
502.739	235.81
502.956	207.81
503.172	200.81
503.389	206.81
503.606	198.81
503.823	200.81
504.04	207.81
504.256	185.81
504.473	195.81
504.69	187.81
