Data from SampG_HRD10591_00030.txt Node
Date: Mon Jan 19 11:53:53 EST 2026
User: Yrep
Spectrometer: HR+D1059
Trigger mode: 0
Integration Time (sec): 3.443000E-1
Scans to average: 1
Electric dark correction enabled: true
Nonlinearity correction enabled: false
Boxcar width: 0
XAxis mode: Wavelengths
Number of Pixels in Spectrum: 2048
>>>>>Begin Spectral Data<<<<<
223.165	-17.38
223.4	-17.38
223.635	-17.38
223.869	-31.38
224.104	-10.38
224.338	-11.38
224.573	-9.38
224.808	-21.38
225.042	2.62
225.277	-5.38
225.511	13.62
225.746	2.62
225.98	4.62
226.215	-1.38
226.449	12.62
226.683	26.62
226.918	11.62
227.152	33.62
227.387	36.62
227.621	37.62
227.856	52.62
228.09	33.62
228.324	65.62
228.559	68.62
228.793	52.62
229.027	76.62
229.262	71.62
229.496	59.62
229.73	58.62
229.964	67.62
230.199	80.62
230.433	69.62
230.667	98.62
230.901	82.62
231.136	91.62
231.37	101.62
231.604	75.62
231.838	82.62
232.072	74.62
232.306	86.62
232.541	88.62
232.775	84.62
233.009	88.62
233.243	90.62
233.477	87.62
233.711	86.62
233.945	86.62
234.179	83.62
234.413	98.62
234.647	96.62
234.881	78.62
235.115	93.62
235.349	89.62
235.583	92.62
235.817	84.62
236.051	72.62
236.285	75.62
236.519	73.62
236.753	86.62
236.987	94.62
237.221	91.62
237.455	90.62
237.689	86.62
237.922	86.62
238.156	72.62
238.39	76.62
238.624	64.62
238.858	86.62
239.091	83.62
239.325	83.62
239.559	91.62
239.793	96.62
240.027	96.62
240.26	83.62
240.494	85.62
240.728	76.62
240.961	89.62
241.195	79.62
241.429	79.62
241.662	93.62
241.896	93.62
242.13	78.62
242.363	84.62
242.597	87.62
242.83	84.62
243.064	88.62
243.298	88.62
243.531	89.62
243.765	102.62
243.998	97.62
244.232	98.62
244.465	88.62
244.699	73.62
244.932	97.62
245.166	87.62
245.399	86.62
245.633	81.62
245.866	84.62
246.099	94.62
246.333	90.62
246.566	83.62
246.8	83.62
247.033	91.62
247.266	79.62
247.5	86.62
247.733	96.62
247.966	82.62
248.2	91.62
248.433	77.62
248.666	84.62
248.899	104.62
249.133	90.62
249.366	100.62
249.599	105.62
249.832	91.62
250.066	94.62
250.299	108.62
250.532	97.62
250.765	83.62
250.998	77.62
251.231	83.62
251.465	96.62
251.698	86.62
251.931	81.62
252.164	83.62
252.397	92.62
252.63	80.62
252.863	85.62
253.096	100.62
253.329	91.62
253.562	101.62
253.795	97.62
254.028	100.62
254.261	91.62
254.494	82.62
254.727	93.62
254.96	105.62
255.193	109.62
255.426	94.62
255.659	86.62
255.892	88.62
256.124	94.62
256.357	100.62
256.59	97.62
256.823	97.62
257.056	97.62
257.289	97.62
257.521	81.62
257.754	101.62
257.987	94.62
258.22	105.62
258.452	103.62
258.685	108.62
258.918	100.62
259.151	113.62
259.383	95.62
259.616	88.62
259.849	100.62
260.081	96.62
260.314	98.62
260.547	111.62
260.779	118.62
261.012	86.62
261.244	94.62
261.477	96.62
261.71	97.62
261.942	93.62
262.175	96.62
262.407	88.62
262.64	82.62
262.872	111.62
263.105	89.62
263.337	100.62
263.57	96.62
263.802	102.62
264.035	99.62
264.267	94.62
264.499	107.62
264.732	114.62
264.964	121.62
265.197	86.62
265.429	89.62
265.661	102.62
265.894	106.62
266.126	113.62
266.358	105.62
266.591	120.62
266.823	104.62
267.055	113.62
267.287	101.62
267.52	107.62
267.752	106.62
267.984	91.62
268.216	100.62
268.448	124.62
268.681	108.62
268.913	118.62
269.145	89.62
269.377	112.62
269.609	100.62
269.841	93.62
270.073	82.62
270.306	100.62
270.538	112.62
270.77	109.62
271.002	98.62
271.234	99.62
271.466	118.62
271.698	105.62
271.93	116.62
272.162	107.62
272.394	106.62
272.626	113.62
272.858	108.62
273.09	122.62
273.322	98.62
273.553	97.62
273.785	108.62
274.017	114.62
274.249	98.62
274.481	106.62
274.713	109.62
274.945	110.62
275.176	116.62
275.408	116.62
275.64	111.62
275.872	108.62
276.104	112.62
276.335	112.62
276.567	115.62
276.799	118.62
277.031	100.62
277.262	106.62
277.494	114.62
277.726	108.62
277.957	104.62
278.189	105.62
278.421	105.62
278.652	118.62
278.884	123.62
279.115	112.62
279.347	96.62
279.579	114.62
279.81	110.62
280.042	114.62
280.273	116.62
280.505	124.62
280.736	101.62
280.968	107.62
281.199	106.62
281.431	115.62
281.662	133.62
281.894	112.62
282.125	105.62
282.356	114.62
282.588	100.62
282.819	112.62
283.051	113.62
283.282	92.62
283.513	112.62
283.745	128.62
283.976	121.62
284.207	121.62
284.439	120.62
284.67	121.62
284.901	122.62
285.132	125.62
285.364	107.62
285.595	123.62
285.826	117.62
286.057	110.62
286.288	125.62
286.52	109.62
286.751	114.62
286.982	116.62
287.213	110.62
287.444	107.62
287.675	111.62
287.906	116.62
288.138	98.62
288.369	116.62
288.6	119.62
288.831	115.62
289.062	117.62
289.293	120.62
289.524	125.62
289.755	114.62
289.986	103.62
290.217	124.62
290.448	121.62
290.679	115.62
290.91	140.62
291.141	110.62
291.371	126.62
291.602	114.62
291.833	128.62
292.064	110.62
292.295	104.62
292.526	126.62
292.757	126.62
292.987	126.62
293.218	131.62
293.449	119.62
293.68	114.62
293.91	117.62
294.141	117.62
294.372	137.62
294.603	116.62
294.833	121.62
295.064	119.62
295.295	126.62
295.525	106.62
295.756	134.62
295.987	132.62
296.217	126.62
296.448	122.62
296.679	118.62
296.909	123.62
297.14	138.62
297.37	135.62
297.601	122.62
297.831	111.62
298.062	137.62
298.292	134.62
298.523	114.62
298.753	126.62
298.984	121.62
299.214	124.62
299.445	133.62
299.675	132.62
299.905	122.62
300.136	116.62
300.366	119.62
300.597	138.62
300.827	126.62
301.057	132.62
301.288	144.62
301.518	130.62
301.748	104.62
301.979	162.62
302.209	118.62
302.439	121.62
302.669	123.62
302.9	134.62
303.13	143.62
303.36	132.62
303.59	118.62
303.82	119.62
304.051	131.62
304.281	124.62
304.511	128.62
304.741	138.62
304.971	127.62
305.201	128.62
305.431	127.62
305.661	141.62
305.891	125.62
306.121	132.62
306.352	126.62
306.582	114.62
306.812	123.62
307.042	122.62
307.272	130.62
307.502	123.62
307.731	133.62
307.961	124.62
308.191	135.62
308.421	132.62
308.651	109.62
308.881	133.62
309.111	121.62
309.341	121.62
309.571	139.62
309.8	130.62
310.03	132.62
310.26	139.62
310.49	119.62
310.72	125.62
310.949	123.62
311.179	148.62
311.409	125.62
311.639	139.62
311.868	135.62
312.098	132.62
312.328	138.62
312.557	127.62
312.787	112.62
313.017	126.62
313.246	136.62
313.476	127.62
313.706	124.62
313.935	132.62
314.165	118.62
314.394	125.62
314.624	130.62
314.853	145.62
315.083	130.62
315.312	130.62
315.542	114.62
315.771	121.62
316.001	125.62
316.23	120.62
316.46	128.62
316.689	125.62
316.919	104.62
317.148	129.62
317.377	123.62
317.607	135.62
317.836	125.62
318.065	131.62
318.295	125.62
318.524	122.62
318.753	144.62
318.983	124.62
319.212	136.62
319.441	110.62
319.67	129.62
319.9	131.62
320.129	122.62
320.358	128.62
320.587	125.62
320.816	135.62
321.046	130.62
321.275	137.62
321.504	134.62
321.733	133.62
321.962	141.62
322.191	146.62
322.42	130.62
322.649	136.62
322.878	125.62
323.108	131.62
323.337	138.62
323.566	149.62
323.795	128.62
324.024	123.62
324.253	119.62
324.482	121.62
324.71	138.62
324.939	139.62
325.168	132.62
325.397	127.62
325.626	117.62
325.855	138.62
326.084	132.62
326.313	135.62
326.542	125.62
326.77	129.62
326.999	126.62
327.228	128.62
327.457	136.62
327.686	132.62
327.914	127.62
328.143	129.62
328.372	138.62
328.6	128.62
328.829	137.62
329.058	137.62
329.287	135.62
329.515	128.62
329.744	131.62
329.972	134.62
330.201	139.62
330.43	135.62
330.658	139.62
330.887	145.62
331.115	140.62
331.344	130.62
331.572	149.62
331.801	148.62
332.03	129.62
332.258	149.62
332.486	149.62
332.715	136.62
332.943	155.62
333.172	163.62
333.4	155.62
333.629	151.62
333.857	156.62
334.085	165.62
334.314	163.62
334.542	166.62
334.771	153.62
334.999	150.62
335.227	141.62
335.455	146.62
335.684	152.62
335.912	142.62
336.14	139.62
336.369	152.62
336.597	158.62
336.825	154.62
337.053	155.62
337.281	157.62
337.51	145.62
337.738	145.62
337.966	147.62
338.194	157.62
338.422	138.62
338.65	142.62
338.878	163.62
339.106	133.62
339.334	145.62
339.562	147.62
339.79	126.62
340.018	125.62
340.246	132.62
340.474	124.62
340.702	137.62
340.93	135.62
341.158	133.62
341.386	142.62
341.614	139.62
341.842	130.62
342.07	133.62
342.298	151.62
342.526	145.62
342.754	146.62
342.981	148.62
343.209	130.62
343.437	161.62
343.665	142.62
343.893	165.62
344.12	162.62
344.348	153.62
344.576	131.62
344.804	148.62
345.031	142.62
345.259	136.62
345.487	147.62
345.714	138.62
345.942	142.62
346.17	137.62
346.397	148.62
346.625	131.62
346.853	139.62
347.08	132.62
347.308	128.62
347.535	147.62
347.763	140.62
347.99	151.62
348.218	140.62
348.445	140.62
348.673	127.62
348.9	132.62
349.128	160.62
349.355	115.62
349.583	146.62
349.81	146.62
350.037	131.62
350.265	139.62
350.492	126.62
350.72	135.62
350.947	145.62
351.174	138.62
351.402	129.62
351.629	133.62
351.856	153.62
352.083	120.62
352.311	134.62
352.538	136.62
352.765	127.62
352.992	147.62
353.22	115.62
353.447	125.62
353.674	153.62
353.901	134.62
354.128	129.62
354.355	128.62
354.583	128.62
354.81	149.62
355.037	133.62
355.264	137.62
355.491	130.62
355.718	141.62
355.945	137.62
356.172	133.62
356.399	126.62
356.626	146.62
356.853	133.62
357.08	137.62
357.307	132.62
357.534	135.62
357.761	139.62
357.988	141.62
358.215	149.62
358.441	141.62
358.668	134.62
358.895	139.62
359.122	122.62
359.349	144.62
359.576	134.62
359.802	131.62
360.029	134.62
360.256	146.62
360.483	119.62
360.709	139.62
360.936	140.62
361.163	149.62
361.39	131.62
361.616	133.62
361.843	141.62
362.07	129.62
362.296	120.62
362.523	137.62
362.749	121.62
362.976	129.62
363.203	141.62
363.429	145.62
363.656	135.62
363.882	140.62
364.109	138.62
364.335	146.62
364.562	144.62
364.788	135.62
365.015	137.62
365.241	125.62
365.468	138.62
365.694	118.62
365.92	137.62
366.147	132.62
366.373	131.62
366.599	151.62
366.826	134.62
367.052	138.62
367.278	136.62
367.505	141.62
367.731	158.62
367.957	140.62
368.184	137.62
368.41	129.62
368.636	132.62
368.862	133.62
369.089	135.62
369.315	130.62
369.541	146.62
369.767	124.62
369.993	137.62
370.219	115.62
370.445	123.62
370.672	139.62
370.898	136.62
371.124	150.62
371.35	145.62
371.576	136.62
371.802	133.62
372.028	160.62
372.254	136.62
372.48	125.62
372.706	144.62
372.932	137.62
373.158	134.62
373.384	142.62
373.61	153.62
373.835	149.62
374.061	131.62
374.287	149.62
374.513	151.62
374.739	146.62
374.965	149.62
375.191	163.62
375.416	165.62
375.642	150.62
375.868	132.62
376.094	134.62
376.319	161.62
376.545	136.62
376.771	137.62
376.997	129.62
377.222	145.62
377.448	145.62
377.674	146.62
377.899	146.62
378.125	139.62
378.35	145.62
378.576	131.62
378.802	130.62
379.027	147.62
379.253	155.62
379.478	123.62
379.704	141.62
379.929	137.62
380.155	147.62
380.38	141.62
380.606	129.62
380.831	141.62
381.057	165.62
381.282	141.62
381.507	142.62
381.733	136.62
381.958	140.62
382.184	139.62
382.409	138.62
382.634	135.62
382.86	139.62
383.085	160.62
383.31	137.62
383.535	154.62
383.761	153.62
383.986	173.62
384.211	160.62
384.436	139.62
384.662	146.62
384.887	163.62
385.112	147.62
385.337	148.62
385.562	141.62
385.787	158.62
386.013	164.62
386.238	163.62
386.463	161.62
386.688	194.62
386.913	162.62
387.138	152.62
387.363	142.62
387.588	153.62
387.813	162.62
388.038	163.62
388.263	156.62
388.488	155.62
388.713	138.62
388.938	146.62
389.163	156.62
389.387	146.62
389.612	162.62
389.837	169.62
390.062	158.62
390.287	153.62
390.512	154.62
390.736	152.62
390.961	149.62
391.186	168.62
391.411	160.62
391.636	171.62
391.86	182.62
392.085	165.62
392.31	171.62
392.534	170.62
392.759	181.62
392.984	157.62
393.208	163.62
393.433	154.62
393.658	173.62
393.882	171.62
394.107	173.62
394.331	149.62
394.556	167.62
394.78	165.62
395.005	157.62
395.229	156.62
395.454	162.62
395.678	174.62
395.903	192.62
396.127	158.62
396.352	157.62
396.576	140.62
396.801	164.62
397.025	175.62
397.249	187.62
397.474	172.62
397.698	167.62
397.922	178.62
398.147	169.62
398.371	160.62
398.595	172.62
398.82	180.62
399.044	181.62
399.268	197.62
399.492	236.62
399.717	254.62
399.941	218.62
400.165	218.62
400.389	194.62
400.613	193.62
400.837	205.62
401.062	195.62
401.286	173.62
401.51	177.62
401.734	172.62
401.958	171.62
402.182	178.62
402.406	173.62
402.63	188.62
402.854	191.62
403.078	194.62
403.302	194.62
403.526	201.62
403.75	192.62
403.974	197.62
404.198	218.62
404.422	194.62
404.645	209.62
404.869	205.62
405.093	205.62
405.317	181.62
405.541	186.62
405.765	199.62
405.988	192.62
406.212	204.62
406.436	187.62
406.66	201.62
406.883	193.62
407.107	221.62
407.331	206.62
407.555	193.62
407.778	196.62
408.002	222.62
408.226	197.62
408.449	205.62
408.673	191.62
408.896	204.62
409.12	193.62
409.344	184.62
409.567	188.62
409.791	191.62
410.014	177.62
410.238	199.62
410.461	196.62
410.685	188.62
410.908	182.62
411.132	201.62
411.355	200.62
411.578	197.62
411.802	178.62
412.025	187.62
412.249	201.62
412.472	193.62
412.695	169.62
412.919	180.62
413.142	179.62
413.365	180.62
413.589	190.62
413.812	164.62
414.035	200.62
414.258	178.62
414.482	182.62
414.705	188.62
414.928	198.62
415.151	189.62
415.374	155.62
415.597	178.62
415.821	171.62
416.044	183.62
416.267	194.62
416.49	185.62
416.713	180.62
416.936	169.62
417.159	182.62
417.382	175.62
417.605	171.62
417.828	186.62
418.051	168.62
418.274	185.62
418.497	190.62
418.72	162.62
418.943	191.62
419.166	192.62
419.389	189.62
419.611	201.62
419.834	180.62
420.057	197.62
420.28	172.62
420.503	184.62
420.726	181.62
420.948	174.62
421.171	153.62
421.394	177.62
421.617	160.62
421.839	168.62
422.062	189.62
422.285	172.62
422.507	187.62
422.73	173.62
422.953	170.62
423.175	185.62
423.398	185.62
423.621	210.62
423.843	189.62
424.066	183.62
424.288	187.62
424.511	205.62
424.733	188.62
424.956	196.62
425.178	182.62
425.401	187.62
425.623	177.62
425.846	163.62
426.068	186.62
426.291	170.62
426.513	182.62
426.735	169.62
426.958	176.62
427.18	166.62
427.402	168.62
427.625	163.62
427.847	161.62
428.069	170.62
428.292	144.62
428.514	174.62
428.736	185.62
428.958	149.62
429.181	172.62
429.403	150.62
429.625	177.62
429.847	166.62
430.069	173.62
430.292	181.62
430.514	173.62
430.736	161.62
430.958	172.62
431.18	183.62
431.402	166.62
431.624	162.62
431.846	173.62
432.068	173.62
432.29	204.62
432.512	188.62
432.734	169.62
432.956	179.62
433.178	178.62
433.4	149.62
433.622	156.62
433.844	165.62
434.066	173.62
434.287	160.62
434.509	177.62
434.731	162.62
434.953	186.62
435.175	189.62
435.397	198.62
435.618	191.62
435.84	179.62
436.062	147.62
436.284	168.62
436.505	161.62
436.727	164.62
436.949	171.62
437.17	176.62
437.392	151.62
437.614	162.62
437.835	153.62
438.057	160.62
438.278	161.62
438.5	154.62
438.721	159.62
438.943	154.62
439.165	155.62
439.386	180.62
439.608	169.62
439.829	174.62
440.05	176.62
440.272	179.62
440.493	154.62
440.715	168.62
440.936	186.62
441.158	173.62
441.379	183.62
441.6	201.62
441.822	199.62
442.043	182.62
442.264	176.62
442.486	168.62
442.707	178.62
442.928	173.62
443.149	168.62
443.371	166.62
443.592	179.62
443.813	178.62
444.034	182.62
444.255	194.62
444.476	188.62
444.698	213.62
444.919	189.62
445.14	479.62
445.361	297.62
445.582	187.62
445.803	170.62
446.024	157.62
446.245	162.62
446.466	173.62
446.687	175.62
446.908	166.62
447.129	160.62
447.35	182.62
447.571	178.62
447.792	180.62
448.013	147.62
448.234	169.62
448.455	168.62
448.675	161.62
448.896	159.62
449.117	147.62
449.338	136.62
449.559	144.62
449.779	160.62
450	148.62
450.221	148.62
450.442	146.62
450.662	147.62
450.883	157.62
451.104	162.62
451.324	167.62
451.545	156.62
451.766	158.62
451.986	174.62
452.207	172.62
452.428	145.62
452.648	163.62
452.869	152.62
453.089	168.62
453.31	165.62
453.53	177.62
453.751	146.62
453.971	148.62
454.192	151.62
454.412	169.62
454.633	168.62
454.853	162.62
455.073	167.62
455.294	145.62
455.514	165.62
455.734	137.62
455.955	144.62
456.175	146.62
456.395	154.62
456.616	136.62
456.836	135.62
457.056	145.62
457.276	139.62
457.497	154.62
457.717	135.62
457.937	154.62
458.157	147.62
458.377	146.62
458.598	171.62
458.818	158.62
459.038	153.62
459.258	179.62
459.478	151.62
459.698	173.62
459.918	179.62
460.138	179.62
460.358	181.62
460.578	196.62
460.798	193.62
461.018	188.62
461.238	188.62
461.458	185.62
461.678	173.62
461.898	208.62
462.118	170.62
462.338	197.62
462.558	197.62
462.777	200.62
462.997	222.62
463.217	231.62
463.437	238.62
463.657	214.62
463.876	204.62
464.096	201.62
464.316	197.62
464.536	210.62
464.755	189.62
464.975	197.62
465.195	185.62
465.414	199.62
465.634	168.62
465.854	180.62
466.073	152.62
466.293	175.62
466.512	155.62
466.732	158.62
466.951	152.62
467.171	157.62
467.391	162.62
467.61	154.62
467.829	160.62
468.049	168.62
468.268	152.62
468.488	164.62
468.707	148.62
468.927	161.62
469.146	144.62
469.365	149.62
469.585	174.62
469.804	149.62
470.023	180.62
470.243	163.62
470.462	183.62
470.681	182.62
470.901	148.62
471.12	150.62
471.339	163.62
471.558	161.62
471.777	160.62
471.997	168.62
472.216	164.62
472.435	156.62
472.654	161.62
472.873	166.62
473.092	165.62
473.311	170.62
473.53	142.62
473.749	163.62
473.968	167.62
474.187	158.62
474.406	137.62
474.625	144.62
474.844	172.62
475.063	160.62
475.282	147.62
475.501	140.62
475.72	166.62
475.939	152.62
476.158	168.62
476.377	166.62
476.596	173.62
476.814	162.62
477.033	164.62
477.252	171.62
477.471	179.62
477.69	169.62
477.908	184.62
478.127	183.62
478.346	170.62
478.564	174.62
478.783	172.62
479.002	176.62
479.22	183.62
479.439	180.62
479.658	182.62
479.876	172.62
480.095	180.62
480.313	182.62
480.532	194.62
480.751	175.62
480.969	185.62
481.188	179.62
481.406	162.62
481.624	168.62
481.843	175.62
482.061	172.62
482.28	172.62
482.498	177.62
482.717	162.62
482.935	168.62
483.153	166.62
483.372	170.62
483.59	151.62
483.808	177.62
484.027	166.62
484.245	172.62
484.463	177.62
484.681	186.62
484.9	184.62
485.118	182.62
485.336	185.62
485.554	178.62
485.772	169.62
485.99	176.62
486.209	189.62
486.427	170.62
486.645	174.62
486.863	166.62
487.081	188.62
487.299	173.62
487.517	184.62
487.735	180.62
487.953	183.62
488.171	183.62
488.389	173.62
488.607	172.62
488.825	171.62
489.043	174.62
489.261	180.62
489.479	173.62
489.696	169.62
489.914	169.62
490.132	177.62
490.35	179.62
490.568	164.62
490.786	169.62
491.003	170.62
491.221	166.62
491.439	174.62
491.657	184.62
491.874	186.62
492.092	176.62
492.31	174.62
492.527	172.62
492.745	176.62
492.963	186.62
493.18	171.62
493.398	181.62
493.615	193.62
493.833	174.62
494.05	173.62
494.268	204.62
494.485	193.62
494.703	168.62
494.92	165.62
495.138	164.62
495.355	202.62
495.573	176.62
495.79	174.62
496.008	176.62
496.225	189.62
496.442	182.62
496.66	194.62
496.877	184.62
497.094	197.62
497.312	200.62
497.529	190.62
497.746	194.62
497.963	205.62
498.181	197.62
498.398	206.62
498.615	234.62
498.832	224.62
499.049	240.62
499.267	280.62
499.484	295.62
499.701	307.62
499.918	336.62
500.135	364.62
500.352	409.62
500.569	424.62
500.786	443.62
501.003	378.62
501.22	342.62
501.437	308.62
501.654	280.62
501.871	256.62
502.088	242.62
502.305	237.62
502.522	236.62
502.739	219.62
502.956	215.62
503.172	219.62
503.389	209.62
503.606	192.62
503.823	210.62
504.04	214.62
504.256	217.62
504.473	200.62
504.69	217.62
