Data from SampG_HRD10591_00023.txt Node
Date: Mon Jan 19 11:53:51 EST 2026
User: Yrep
Spectrometer: HR+D1059
Trigger mode: 0
Integration Time (sec): 3.443000E-1
Scans to average: 1
Electric dark correction enabled: true
Nonlinearity correction enabled: false
Boxcar width: 0
XAxis mode: Wavelengths
Number of Pixels in Spectrum: 2048
>>>>>Begin Spectral Data<<<<<
223.165	-23.75
223.4	-23.75
223.635	-23.75
223.869	-30.75
224.104	-19.75
224.338	-19.75
224.573	-10.75
224.808	-7.75
225.042	4.25
225.277	-9.75
225.511	-0.75
225.746	8.25
225.98	4.25
226.215	8.25
226.449	18.25
226.683	20.25
226.918	23.25
227.152	36.25
227.387	38.25
227.621	42.25
227.856	47.25
228.09	61.25
228.324	56.25
228.559	59.25
228.793	52.25
229.027	55.25
229.262	72.25
229.496	65.25
229.73	69.25
229.964	76.25
230.199	77.25
230.433	76.25
230.667	86.25
230.901	74.25
231.136	74.25
231.37	74.25
231.604	89.25
231.838	85.25
232.072	86.25
232.306	72.25
232.541	73.25
232.775	83.25
233.009	89.25
233.243	81.25
233.477	94.25
233.711	77.25
233.945	91.25
234.179	81.25
234.413	93.25
234.647	78.25
234.881	94.25
235.115	83.25
235.349	81.25
235.583	87.25
235.817	93.25
236.051	84.25
236.285	81.25
236.519	90.25
236.753	92.25
236.987	88.25
237.221	86.25
237.455	93.25
237.689	89.25
237.922	100.25
238.156	88.25
238.39	81.25
238.624	78.25
238.858	83.25
239.091	78.25
239.325	76.25
239.559	66.25
239.793	92.25
240.027	106.25
240.26	86.25
240.494	87.25
240.728	89.25
240.961	75.25
241.195	91.25
241.429	84.25
241.662	92.25
241.896	79.25
242.13	82.25
242.363	92.25
242.597	85.25
242.83	98.25
243.064	91.25
243.298	87.25
243.531	96.25
243.765	98.25
243.998	91.25
244.232	99.25
244.465	85.25
244.699	87.25
244.932	85.25
245.166	72.25
245.399	108.25
245.633	85.25
245.866	91.25
246.099	87.25
246.333	83.25
246.566	103.25
246.8	93.25
247.033	83.25
247.266	74.25
247.5	87.25
247.733	87.25
247.966	92.25
248.2	92.25
248.433	76.25
248.666	93.25
248.899	102.25
249.133	94.25
249.366	108.25
249.599	97.25
249.832	79.25
250.066	97.25
250.299	95.25
250.532	92.25
250.765	88.25
250.998	78.25
251.231	89.25
251.465	89.25
251.698	76.25
251.931	85.25
252.164	99.25
252.397	92.25
252.63	91.25
252.863	92.25
253.096	83.25
253.329	98.25
253.562	99.25
253.795	105.25
254.028	93.25
254.261	102.25
254.494	106.25
254.727	103.25
254.96	91.25
255.193	90.25
255.426	94.25
255.659	98.25
255.892	104.25
256.124	92.25
256.357	96.25
256.59	86.25
256.823	97.25
257.056	88.25
257.289	93.25
257.521	100.25
257.754	91.25
257.987	102.25
258.22	110.25
258.452	87.25
258.685	92.25
258.918	92.25
259.151	104.25
259.383	84.25
259.616	97.25
259.849	97.25
260.081	93.25
260.314	94.25
260.547	102.25
260.779	98.25
261.012	106.25
261.244	98.25
261.477	116.25
261.71	97.25
261.942	96.25
262.175	97.25
262.407	109.25
262.64	109.25
262.872	93.25
263.105	99.25
263.337	95.25
263.57	96.25
263.802	91.25
264.035	107.25
264.267	90.25
264.499	96.25
264.732	91.25
264.964	115.25
265.197	105.25
265.429	104.25
265.661	108.25
265.894	91.25
266.126	102.25
266.358	106.25
266.591	101.25
266.823	93.25
267.055	94.25
267.287	89.25
267.52	102.25
267.752	102.25
267.984	103.25
268.216	106.25
268.448	110.25
268.681	98.25
268.913	111.25
269.145	125.25
269.377	99.25
269.609	106.25
269.841	122.25
270.073	106.25
270.306	106.25
270.538	109.25
270.77	97.25
271.002	101.25
271.234	110.25
271.466	94.25
271.698	90.25
271.93	118.25
272.162	109.25
272.394	117.25
272.626	100.25
272.858	98.25
273.09	127.25
273.322	107.25
273.553	97.25
273.785	120.25
274.017	131.25
274.249	123.25
274.481	107.25
274.713	108.25
274.945	103.25
275.176	102.25
275.408	116.25
275.64	89.25
275.872	117.25
276.104	123.25
276.335	110.25
276.567	103.25
276.799	130.25
277.031	110.25
277.262	118.25
277.494	119.25
277.726	105.25
277.957	124.25
278.189	113.25
278.421	105.25
278.652	109.25
278.884	106.25
279.115	116.25
279.347	101.25
279.579	114.25
279.81	113.25
280.042	110.25
280.273	104.25
280.505	103.25
280.736	111.25
280.968	104.25
281.199	117.25
281.431	115.25
281.662	133.25
281.894	124.25
282.125	124.25
282.356	120.25
282.588	119.25
282.819	114.25
283.051	114.25
283.282	125.25
283.513	123.25
283.745	115.25
283.976	137.25
284.207	120.25
284.439	123.25
284.67	123.25
284.901	114.25
285.132	117.25
285.364	116.25
285.595	119.25
285.826	118.25
286.057	109.25
286.288	115.25
286.52	119.25
286.751	120.25
286.982	136.25
287.213	118.25
287.444	122.25
287.675	116.25
287.906	127.25
288.138	123.25
288.369	111.25
288.6	122.25
288.831	116.25
289.062	120.25
289.293	114.25
289.524	126.25
289.755	125.25
289.986	116.25
290.217	126.25
290.448	140.25
290.679	135.25
290.91	129.25
291.141	108.25
291.371	118.25
291.602	109.25
291.833	120.25
292.064	128.25
292.295	116.25
292.526	116.25
292.757	119.25
292.987	115.25
293.218	131.25
293.449	133.25
293.68	130.25
293.91	117.25
294.141	134.25
294.372	114.25
294.603	133.25
294.833	122.25
295.064	141.25
295.295	131.25
295.525	102.25
295.756	135.25
295.987	124.25
296.217	114.25
296.448	121.25
296.679	122.25
296.909	125.25
297.14	123.25
297.37	148.25
297.601	129.25
297.831	120.25
298.062	134.25
298.292	133.25
298.523	142.25
298.753	120.25
298.984	126.25
299.214	123.25
299.445	116.25
299.675	127.25
299.905	137.25
300.136	140.25
300.366	138.25
300.597	132.25
300.827	124.25
301.057	124.25
301.288	126.25
301.518	130.25
301.748	133.25
301.979	176.25
302.209	139.25
302.439	131.25
302.669	131.25
302.9	128.25
303.13	135.25
303.36	127.25
303.59	138.25
303.82	134.25
304.051	133.25
304.281	137.25
304.511	124.25
304.741	127.25
304.971	121.25
305.201	139.25
305.431	131.25
305.661	130.25
305.891	132.25
306.121	131.25
306.352	137.25
306.582	124.25
306.812	132.25
307.042	122.25
307.272	131.25
307.502	121.25
307.731	132.25
307.961	128.25
308.191	136.25
308.421	137.25
308.651	127.25
308.881	122.25
309.111	133.25
309.341	116.25
309.571	119.25
309.8	120.25
310.03	127.25
310.26	138.25
310.49	114.25
310.72	129.25
310.949	124.25
311.179	125.25
311.409	111.25
311.639	124.25
311.868	127.25
312.098	126.25
312.328	123.25
312.557	149.25
312.787	139.25
313.017	147.25
313.246	126.25
313.476	148.25
313.706	123.25
313.935	135.25
314.165	137.25
314.394	144.25
314.624	137.25
314.853	129.25
315.083	134.25
315.312	128.25
315.542	126.25
315.771	125.25
316.001	123.25
316.23	137.25
316.46	128.25
316.689	109.25
316.919	118.25
317.148	127.25
317.377	153.25
317.607	146.25
317.836	151.25
318.065	136.25
318.295	115.25
318.524	135.25
318.753	131.25
318.983	142.25
319.212	126.25
319.441	132.25
319.67	125.25
319.9	126.25
320.129	119.25
320.358	121.25
320.587	131.25
320.816	138.25
321.046	137.25
321.275	122.25
321.504	124.25
321.733	139.25
321.962	122.25
322.191	127.25
322.42	122.25
322.649	140.25
322.878	131.25
323.108	132.25
323.337	145.25
323.566	134.25
323.795	121.25
324.024	150.25
324.253	133.25
324.482	129.25
324.71	151.25
324.939	148.25
325.168	142.25
325.397	146.25
325.626	141.25
325.855	140.25
326.084	141.25
326.313	145.25
326.542	132.25
326.77	133.25
326.999	132.25
327.228	127.25
327.457	149.25
327.686	127.25
327.914	129.25
328.143	129.25
328.372	132.25
328.6	142.25
328.829	160.25
329.058	145.25
329.287	137.25
329.515	137.25
329.744	140.25
329.972	143.25
330.201	142.25
330.43	154.25
330.658	139.25
330.887	143.25
331.115	135.25
331.344	130.25
331.572	148.25
331.801	138.25
332.03	139.25
332.258	139.25
332.486	159.25
332.715	155.25
332.943	146.25
333.172	150.25
333.4	165.25
333.629	170.25
333.857	158.25
334.085	167.25
334.314	161.25
334.542	174.25
334.771	173.25
334.999	157.25
335.227	132.25
335.455	141.25
335.684	152.25
335.912	147.25
336.14	153.25
336.369	143.25
336.597	131.25
336.825	148.25
337.053	148.25
337.281	133.25
337.51	146.25
337.738	159.25
337.966	149.25
338.194	147.25
338.422	135.25
338.65	146.25
338.878	134.25
339.106	138.25
339.334	163.25
339.562	136.25
339.79	145.25
340.018	135.25
340.246	121.25
340.474	137.25
340.702	137.25
340.93	138.25
341.158	136.25
341.386	144.25
341.614	146.25
341.842	130.25
342.07	123.25
342.298	127.25
342.526	137.25
342.754	153.25
342.981	144.25
343.209	152.25
343.437	183.25
343.665	136.25
343.893	146.25
344.12	169.25
344.348	147.25
344.576	149.25
344.804	139.25
345.031	151.25
345.259	151.25
345.487	139.25
345.714	150.25
345.942	131.25
346.17	142.25
346.397	126.25
346.625	131.25
346.853	131.25
347.08	139.25
347.308	148.25
347.535	137.25
347.763	134.25
347.99	156.25
348.218	144.25
348.445	132.25
348.673	152.25
348.9	135.25
349.128	155.25
349.355	136.25
349.583	134.25
349.81	137.25
350.037	139.25
350.265	140.25
350.492	134.25
350.72	124.25
350.947	117.25
351.174	141.25
351.402	133.25
351.629	128.25
351.856	136.25
352.083	131.25
352.311	140.25
352.538	126.25
352.765	145.25
352.992	145.25
353.22	126.25
353.447	143.25
353.674	154.25
353.901	132.25
354.128	141.25
354.355	131.25
354.583	126.25
354.81	141.25
355.037	151.25
355.264	136.25
355.491	137.25
355.718	148.25
355.945	138.25
356.172	119.25
356.399	147.25
356.626	129.25
356.853	124.25
357.08	131.25
357.307	136.25
357.534	133.25
357.761	151.25
357.988	136.25
358.215	140.25
358.441	130.25
358.668	133.25
358.895	137.25
359.122	147.25
359.349	124.25
359.576	136.25
359.802	138.25
360.029	145.25
360.256	149.25
360.483	136.25
360.709	127.25
360.936	143.25
361.163	144.25
361.39	125.25
361.616	124.25
361.843	136.25
362.07	145.25
362.296	150.25
362.523	129.25
362.749	137.25
362.976	145.25
363.203	146.25
363.429	136.25
363.656	141.25
363.882	129.25
364.109	133.25
364.335	138.25
364.562	129.25
364.788	127.25
365.015	132.25
365.241	140.25
365.468	134.25
365.694	127.25
365.92	136.25
366.147	144.25
366.373	133.25
366.599	131.25
366.826	135.25
367.052	137.25
367.278	146.25
367.505	137.25
367.731	142.25
367.957	141.25
368.184	132.25
368.41	129.25
368.636	138.25
368.862	134.25
369.089	145.25
369.315	130.25
369.541	139.25
369.767	147.25
369.993	135.25
370.219	137.25
370.445	130.25
370.672	136.25
370.898	141.25
371.124	129.25
371.35	138.25
371.576	131.25
371.802	143.25
372.028	137.25
372.254	140.25
372.48	131.25
372.706	134.25
372.932	146.25
373.158	150.25
373.384	150.25
373.61	140.25
373.835	141.25
374.061	144.25
374.287	137.25
374.513	132.25
374.739	165.25
374.965	152.25
375.191	147.25
375.416	149.25
375.642	151.25
375.868	141.25
376.094	146.25
376.319	147.25
376.545	141.25
376.771	131.25
376.997	153.25
377.222	138.25
377.448	147.25
377.674	142.25
377.899	148.25
378.125	141.25
378.35	129.25
378.576	147.25
378.802	137.25
379.027	135.25
379.253	151.25
379.478	133.25
379.704	135.25
379.929	129.25
380.155	134.25
380.38	129.25
380.606	139.25
380.831	150.25
381.057	140.25
381.282	134.25
381.507	151.25
381.733	149.25
381.958	154.25
382.184	134.25
382.409	149.25
382.634	163.25
382.86	151.25
383.085	153.25
383.31	163.25
383.535	138.25
383.761	149.25
383.986	157.25
384.211	159.25
384.436	154.25
384.662	145.25
384.887	153.25
385.112	162.25
385.337	164.25
385.562	155.25
385.787	165.25
386.013	146.25
386.238	171.25
386.463	153.25
386.688	180.25
386.913	144.25
387.138	147.25
387.363	160.25
387.588	164.25
387.813	161.25
388.038	161.25
388.263	175.25
388.488	161.25
388.713	172.25
388.938	151.25
389.163	168.25
389.387	169.25
389.612	147.25
389.837	147.25
390.062	146.25
390.287	161.25
390.512	157.25
390.736	154.25
390.961	178.25
391.186	185.25
391.411	162.25
391.636	167.25
391.86	174.25
392.085	165.25
392.31	159.25
392.534	153.25
392.759	162.25
392.984	160.25
393.208	168.25
393.433	166.25
393.658	170.25
393.882	155.25
394.107	165.25
394.331	177.25
394.556	168.25
394.78	167.25
395.005	163.25
395.229	159.25
395.454	167.25
395.678	172.25
395.903	164.25
396.127	173.25
396.352	182.25
396.576	161.25
396.801	164.25
397.025	149.25
397.249	171.25
397.474	185.25
397.698	169.25
397.922	156.25
398.147	165.25
398.371	165.25
398.595	169.25
398.82	163.25
399.044	181.25
399.268	199.25
399.492	226.25
399.717	238.25
399.941	246.25
400.165	207.25
400.389	197.25
400.613	198.25
400.837	189.25
401.062	184.25
401.286	176.25
401.51	182.25
401.734	174.25
401.958	174.25
402.182	174.25
402.406	188.25
402.63	175.25
402.854	177.25
403.078	189.25
403.302	196.25
403.526	204.25
403.75	181.25
403.974	188.25
404.198	192.25
404.422	202.25
404.645	190.25
404.869	190.25
405.093	185.25
405.317	186.25
405.541	187.25
405.765	199.25
405.988	198.25
406.212	175.25
406.436	182.25
406.66	205.25
406.883	215.25
407.107	215.25
407.331	226.25
407.555	209.25
407.778	198.25
408.002	188.25
408.226	196.25
408.449	201.25
408.673	184.25
408.896	193.25
409.12	182.25
409.344	192.25
409.567	196.25
409.791	198.25
410.014	195.25
410.238	200.25
410.461	183.25
410.685	188.25
410.908	195.25
411.132	211.25
411.355	175.25
411.578	194.25
411.802	171.25
412.025	182.25
412.249	181.25
412.472	190.25
412.695	186.25
412.919	179.25
413.142	183.25
413.365	183.25
413.589	173.25
413.812	166.25
414.035	181.25
414.258	192.25
414.482	183.25
414.705	182.25
414.928	191.25
415.151	187.25
415.374	181.25
415.597	173.25
415.821	156.25
416.044	174.25
416.267	172.25
416.49	185.25
416.713	161.25
416.936	174.25
417.159	181.25
417.382	168.25
417.605	169.25
417.828	186.25
418.051	180.25
418.274	178.25
418.497	169.25
418.72	187.25
418.943	187.25
419.166	188.25
419.389	174.25
419.611	190.25
419.834	188.25
420.057	183.25
420.28	168.25
420.503	165.25
420.726	195.25
420.948	178.25
421.171	169.25
421.394	170.25
421.617	158.25
421.839	175.25
422.062	182.25
422.285	175.25
422.507	196.25
422.73	179.25
422.953	186.25
423.175	191.25
423.398	178.25
423.621	178.25
423.843	181.25
424.066	179.25
424.288	190.25
424.511	184.25
424.733	197.25
424.956	176.25
425.178	186.25
425.401	186.25
425.623	185.25
425.846	171.25
426.068	154.25
426.291	167.25
426.513	157.25
426.735	182.25
426.958	178.25
427.18	163.25
427.402	170.25
427.625	163.25
427.847	180.25
428.069	189.25
428.292	174.25
428.514	173.25
428.736	180.25
428.958	179.25
429.181	172.25
429.403	163.25
429.625	161.25
429.847	158.25
430.069	167.25
430.292	175.25
430.514	155.25
430.736	180.25
430.958	181.25
431.18	160.25
431.402	154.25
431.624	175.25
431.846	167.25
432.068	157.25
432.29	170.25
432.512	170.25
432.734	164.25
432.956	172.25
433.178	169.25
433.4	172.25
433.622	172.25
433.844	156.25
434.066	170.25
434.287	171.25
434.509	172.25
434.731	174.25
434.953	183.25
435.175	175.25
435.397	175.25
435.618	167.25
435.84	153.25
436.062	171.25
436.284	166.25
436.505	156.25
436.727	170.25
436.949	181.25
437.17	158.25
437.392	149.25
437.614	161.25
437.835	167.25
438.057	154.25
438.278	157.25
438.5	146.25
438.721	167.25
438.943	173.25
439.165	164.25
439.386	154.25
439.608	188.25
439.829	169.25
440.05	167.25
440.272	167.25
440.493	175.25
440.715	160.25
440.936	159.25
441.158	185.25
441.379	155.25
441.6	187.25
441.822	174.25
442.043	167.25
442.264	195.25
442.486	171.25
442.707	161.25
442.928	165.25
443.149	188.25
443.371	195.25
443.592	174.25
443.813	171.25
444.034	173.25
444.255	173.25
444.476	212.25
444.698	200.25
444.919	210.25
445.14	460.25
445.361	313.25
445.582	188.25
445.803	160.25
446.024	176.25
446.245	200.25
446.466	167.25
446.687	163.25
446.908	185.25
447.129	179.25
447.35	179.25
447.571	158.25
447.792	154.25
448.013	166.25
448.234	160.25
448.455	160.25
448.675	144.25
448.896	173.25
449.117	155.25
449.338	167.25
449.559	165.25
449.779	150.25
450	166.25
450.221	179.25
450.442	168.25
450.662	155.25
450.883	167.25
451.104	161.25
451.324	133.25
451.545	169.25
451.766	158.25
451.986	169.25
452.207	169.25
452.428	164.25
452.648	155.25
452.869	149.25
453.089	156.25
453.31	153.25
453.53	166.25
453.751	159.25
453.971	145.25
454.192	138.25
454.412	163.25
454.633	149.25
454.853	145.25
455.073	154.25
455.294	129.25
455.514	154.25
455.734	161.25
455.955	151.25
456.175	148.25
456.395	153.25
456.616	154.25
456.836	145.25
457.056	148.25
457.276	149.25
457.497	144.25
457.717	141.25
457.937	154.25
458.157	175.25
458.377	141.25
458.598	150.25
458.818	153.25
459.038	157.25
459.258	167.25
459.478	147.25
459.698	161.25
459.918	183.25
460.138	172.25
460.358	183.25
460.578	203.25
460.798	199.25
461.018	191.25
461.238	196.25
461.458	181.25
461.678	199.25
461.898	186.25
462.118	193.25
462.338	193.25
462.558	206.25
462.777	193.25
462.997	213.25
463.217	202.25
463.437	231.25
463.657	201.25
463.876	209.25
464.096	198.25
464.316	207.25
464.536	198.25
464.755	189.25
464.975	187.25
465.195	179.25
465.414	170.25
465.634	158.25
465.854	166.25
466.073	191.25
466.293	176.25
466.512	165.25
466.732	147.25
466.951	176.25
467.171	165.25
467.391	165.25
467.61	169.25
467.829	159.25
468.049	165.25
468.268	136.25
468.488	149.25
468.707	154.25
468.927	141.25
469.146	150.25
469.365	162.25
469.585	156.25
469.804	179.25
470.023	153.25
470.243	176.25
470.462	169.25
470.681	161.25
470.901	169.25
471.12	170.25
471.339	170.25
471.558	165.25
471.777	157.25
471.997	157.25
472.216	152.25
472.435	162.25
472.654	155.25
472.873	157.25
473.092	156.25
473.311	159.25
473.53	159.25
473.749	165.25
473.968	165.25
474.187	155.25
474.406	139.25
474.625	136.25
474.844	163.25
475.063	148.25
475.282	149.25
475.501	151.25
475.72	177.25
475.939	171.25
476.158	170.25
476.377	167.25
476.596	153.25
476.814	161.25
477.033	157.25
477.252	157.25
477.471	172.25
477.69	162.25
477.908	180.25
478.127	185.25
478.346	187.25
478.564	168.25
478.783	174.25
479.002	170.25
479.22	186.25
479.439	181.25
479.658	181.25
479.876	179.25
480.095	204.25
480.313	179.25
480.532	181.25
480.751	183.25
480.969	181.25
481.188	178.25
481.406	171.25
481.624	177.25
481.843	173.25
482.061	184.25
482.28	167.25
482.498	169.25
482.717	171.25
482.935	163.25
483.153	194.25
483.372	185.25
483.59	183.25
483.808	168.25
484.027	178.25
484.245	171.25
484.463	165.25
484.681	181.25
484.9	184.25
485.118	183.25
485.336	161.25
485.554	178.25
485.772	173.25
485.99	176.25
486.209	183.25
486.427	194.25
486.645	171.25
486.863	163.25
487.081	181.25
487.299	193.25
487.517	181.25
487.735	157.25
487.953	154.25
488.171	181.25
488.389	182.25
488.607	154.25
488.825	165.25
489.043	174.25
489.261	178.25
489.479	187.25
489.696	191.25
489.914	164.25
490.132	183.25
490.35	161.25
490.568	173.25
490.786	168.25
491.003	178.25
491.221	174.25
491.439	184.25
491.657	188.25
491.874	181.25
492.092	185.25
492.31	170.25
492.527	187.25
492.745	185.25
492.963	181.25
493.18	190.25
493.398	198.25
493.615	177.25
493.833	171.25
494.05	188.25
494.268	175.25
494.485	192.25
494.703	176.25
494.92	202.25
495.138	179.25
495.355	203.25
495.573	199.25
495.79	191.25
496.008	185.25
496.225	182.25
496.442	177.25
496.66	190.25
496.877	187.25
497.094	217.25
497.312	182.25
497.529	202.25
497.746	211.25
497.963	204.25
498.181	204.25
498.398	211.25
498.615	233.25
498.832	234.25
499.049	239.25
499.267	273.25
499.484	287.25
499.701	301.25
499.918	353.25
500.135	361.25
500.352	412.25
500.569	408.25
500.786	397.25
501.003	388.25
501.22	343.25
501.437	301.25
501.654	277.25
501.871	259.25
502.088	252.25
502.305	245.25
502.522	228.25
502.739	229.25
502.956	229.25
503.172	232.25
503.389	207.25
503.606	194.25
503.823	220.25
504.04	197.25
504.256	196.25
504.473	202.25
504.69	220.25
