Data from SampG_HRD10591_00073.txt Node
Date: Mon Jan 19 11:54:08 EST 2026
User: Yrep
Spectrometer: HR+D1059
Trigger mode: 0
Integration Time (sec): 3.443000E-1
Scans to average: 1
Electric dark correction enabled: true
Nonlinearity correction enabled: false
Boxcar width: 0
XAxis mode: Wavelengths
Number of Pixels in Spectrum: 2048
>>>>>Begin Spectral Data<<<<<
223.165	-21.12
223.4	-21.12
223.635	-21.12
223.869	-28.12
224.104	-21.12
224.338	-29.12
224.573	-3.12
224.808	-18.12
225.042	-6.12
225.277	1.88
225.511	0.88
225.746	3.88
225.98	18.88
226.215	22.88
226.449	8.88
226.683	14.88
226.918	17.88
227.152	36.88
227.387	42.88
227.621	30.88
227.856	46.88
228.09	43.88
228.324	32.88
228.559	56.88
228.793	61.88
229.027	61.88
229.262	58.88
229.496	75.88
229.73	78.88
229.964	85.88
230.199	84.88
230.433	69.88
230.667	82.88
230.901	79.88
231.136	96.88
231.37	80.88
231.604	85.88
231.838	92.88
232.072	82.88
232.306	85.88
232.541	84.88
232.775	94.88
233.009	80.88
233.243	84.88
233.477	84.88
233.711	105.88
233.945	96.88
234.179	94.88
234.413	81.88
234.647	77.88
234.881	89.88
235.115	84.88
235.349	67.88
235.583	85.88
235.817	83.88
236.051	82.88
236.285	74.88
236.519	82.88
236.753	95.88
236.987	74.88
237.221	69.88
237.455	80.88
237.689	83.88
237.922	96.88
238.156	88.88
238.39	66.88
238.624	80.88
238.858	84.88
239.091	80.88
239.325	61.88
239.559	86.88
239.793	87.88
240.027	77.88
240.26	84.88
240.494	105.88
240.728	71.88
240.961	80.88
241.195	83.88
241.429	84.88
241.662	69.88
241.896	82.88
242.13	92.88
242.363	89.88
242.597	97.88
242.83	96.88
243.064	92.88
243.298	84.88
243.531	91.88
243.765	88.88
243.998	84.88
244.232	85.88
244.465	96.88
244.699	82.88
244.932	86.88
245.166	85.88
245.399	65.88
245.633	77.88
245.866	88.88
246.099	77.88
246.333	78.88
246.566	81.88
246.8	98.88
247.033	86.88
247.266	98.88
247.5	69.88
247.733	94.88
247.966	84.88
248.2	80.88
248.433	84.88
248.666	101.88
248.899	92.88
249.133	89.88
249.366	88.88
249.599	74.88
249.832	97.88
250.066	111.88
250.299	94.88
250.532	97.88
250.765	81.88
250.998	81.88
251.231	102.88
251.465	102.88
251.698	96.88
251.931	82.88
252.164	84.88
252.397	92.88
252.63	84.88
252.863	71.88
253.096	98.88
253.329	109.88
253.562	89.88
253.795	86.88
254.028	91.88
254.261	92.88
254.494	92.88
254.727	100.88
254.96	92.88
255.193	74.88
255.426	109.88
255.659	97.88
255.892	97.88
256.124	81.88
256.357	105.88
256.59	92.88
256.823	82.88
257.056	86.88
257.289	99.88
257.521	90.88
257.754	85.88
257.987	93.88
258.22	93.88
258.452	92.88
258.685	94.88
258.918	83.88
259.151	107.88
259.383	95.88
259.616	100.88
259.849	102.88
260.081	103.88
260.314	92.88
260.547	93.88
260.779	96.88
261.012	99.88
261.244	108.88
261.477	110.88
261.71	92.88
261.942	95.88
262.175	101.88
262.407	90.88
262.64	90.88
262.872	117.88
263.105	107.88
263.337	106.88
263.57	106.88
263.802	104.88
264.035	98.88
264.267	101.88
264.499	108.88
264.732	108.88
264.964	96.88
265.197	102.88
265.429	97.88
265.661	112.88
265.894	95.88
266.126	101.88
266.358	97.88
266.591	92.88
266.823	106.88
267.055	95.88
267.287	114.88
267.52	111.88
267.752	114.88
267.984	102.88
268.216	107.88
268.448	90.88
268.681	104.88
268.913	111.88
269.145	108.88
269.377	102.88
269.609	108.88
269.841	113.88
270.073	103.88
270.306	99.88
270.538	114.88
270.77	104.88
271.002	98.88
271.234	95.88
271.466	114.88
271.698	105.88
271.93	104.88
272.162	93.88
272.394	104.88
272.626	100.88
272.858	98.88
273.09	110.88
273.322	106.88
273.553	101.88
273.785	101.88
274.017	108.88
274.249	106.88
274.481	120.88
274.713	98.88
274.945	109.88
275.176	97.88
275.408	116.88
275.64	118.88
275.872	116.88
276.104	109.88
276.335	105.88
276.567	95.88
276.799	99.88
277.031	119.88
277.262	114.88
277.494	115.88
277.726	108.88
277.957	118.88
278.189	114.88
278.421	115.88
278.652	111.88
278.884	104.88
279.115	97.88
279.347	108.88
279.579	100.88
279.81	108.88
280.042	95.88
280.273	113.88
280.505	118.88
280.736	111.88
280.968	95.88
281.199	105.88
281.431	118.88
281.662	98.88
281.894	102.88
282.125	114.88
282.356	112.88
282.588	112.88
282.819	98.88
283.051	114.88
283.282	120.88
283.513	122.88
283.745	113.88
283.976	114.88
284.207	115.88
284.439	123.88
284.67	115.88
284.901	105.88
285.132	121.88
285.364	119.88
285.595	121.88
285.826	123.88
286.057	112.88
286.288	120.88
286.52	113.88
286.751	114.88
286.982	120.88
287.213	113.88
287.444	134.88
287.675	111.88
287.906	125.88
288.138	128.88
288.369	118.88
288.6	107.88
288.831	100.88
289.062	122.88
289.293	116.88
289.524	110.88
289.755	121.88
289.986	116.88
290.217	117.88
290.448	118.88
290.679	119.88
290.91	118.88
291.141	121.88
291.371	132.88
291.602	113.88
291.833	103.88
292.064	123.88
292.295	131.88
292.526	125.88
292.757	118.88
292.987	118.88
293.218	118.88
293.449	120.88
293.68	112.88
293.91	109.88
294.141	124.88
294.372	120.88
294.603	122.88
294.833	124.88
295.064	110.88
295.295	119.88
295.525	116.88
295.756	129.88
295.987	112.88
296.217	114.88
296.448	125.88
296.679	127.88
296.909	129.88
297.14	113.88
297.37	130.88
297.601	115.88
297.831	120.88
298.062	115.88
298.292	129.88
298.523	146.88
298.753	120.88
298.984	111.88
299.214	130.88
299.445	139.88
299.675	122.88
299.905	139.88
300.136	128.88
300.366	119.88
300.597	111.88
300.827	131.88
301.057	122.88
301.288	135.88
301.518	113.88
301.748	115.88
301.979	163.88
302.209	128.88
302.439	127.88
302.669	118.88
302.9	118.88
303.13	136.88
303.36	125.88
303.59	120.88
303.82	124.88
304.051	131.88
304.281	132.88
304.511	136.88
304.741	116.88
304.971	121.88
305.201	149.88
305.431	130.88
305.661	121.88
305.891	110.88
306.121	117.88
306.352	124.88
306.582	117.88
306.812	110.88
307.042	117.88
307.272	132.88
307.502	137.88
307.731	118.88
307.961	118.88
308.191	121.88
308.421	123.88
308.651	128.88
308.881	121.88
309.111	118.88
309.341	129.88
309.571	123.88
309.8	129.88
310.03	132.88
310.26	116.88
310.49	117.88
310.72	119.88
310.949	136.88
311.179	118.88
311.409	123.88
311.639	132.88
311.868	128.88
312.098	132.88
312.328	140.88
312.557	126.88
312.787	137.88
313.017	123.88
313.246	119.88
313.476	125.88
313.706	132.88
313.935	137.88
314.165	129.88
314.394	137.88
314.624	130.88
314.853	132.88
315.083	125.88
315.312	124.88
315.542	116.88
315.771	135.88
316.001	135.88
316.23	113.88
316.46	110.88
316.689	118.88
316.919	121.88
317.148	124.88
317.377	137.88
317.607	142.88
317.836	122.88
318.065	129.88
318.295	121.88
318.524	125.88
318.753	137.88
318.983	129.88
319.212	133.88
319.441	120.88
319.67	118.88
319.9	129.88
320.129	121.88
320.358	128.88
320.587	135.88
320.816	134.88
321.046	118.88
321.275	132.88
321.504	125.88
321.733	121.88
321.962	138.88
322.191	137.88
322.42	125.88
322.649	131.88
322.878	133.88
323.108	122.88
323.337	128.88
323.566	102.88
323.795	124.88
324.024	144.88
324.253	136.88
324.482	130.88
324.71	131.88
324.939	136.88
325.168	129.88
325.397	131.88
325.626	146.88
325.855	129.88
326.084	123.88
326.313	129.88
326.542	152.88
326.77	139.88
326.999	126.88
327.228	131.88
327.457	134.88
327.686	133.88
327.914	133.88
328.143	146.88
328.372	131.88
328.6	134.88
328.829	127.88
329.058	122.88
329.287	120.88
329.515	128.88
329.744	137.88
329.972	123.88
330.201	133.88
330.43	134.88
330.658	155.88
330.887	151.88
331.115	144.88
331.344	149.88
331.572	146.88
331.801	133.88
332.03	134.88
332.258	138.88
332.486	147.88
332.715	154.88
332.943	146.88
333.172	149.88
333.4	154.88
333.629	173.88
333.857	145.88
334.085	159.88
334.314	164.88
334.542	158.88
334.771	135.88
334.999	160.88
335.227	170.88
335.455	148.88
335.684	146.88
335.912	169.88
336.14	163.88
336.369	146.88
336.597	137.88
336.825	152.88
337.053	138.88
337.281	147.88
337.51	130.88
337.738	155.88
337.966	141.88
338.194	139.88
338.422	141.88
338.65	137.88
338.878	144.88
339.106	144.88
339.334	134.88
339.562	129.88
339.79	145.88
340.018	146.88
340.246	137.88
340.474	134.88
340.702	146.88
340.93	137.88
341.158	132.88
341.386	135.88
341.614	122.88
341.842	130.88
342.07	129.88
342.298	133.88
342.526	137.88
342.754	146.88
342.981	141.88
343.209	147.88
343.437	173.88
343.665	158.88
343.893	174.88
344.12	154.88
344.348	148.88
344.576	140.88
344.804	136.88
345.031	145.88
345.259	141.88
345.487	125.88
345.714	121.88
345.942	146.88
346.17	134.88
346.397	144.88
346.625	145.88
346.853	130.88
347.08	150.88
347.308	148.88
347.535	146.88
347.763	131.88
347.99	136.88
348.218	130.88
348.445	110.88
348.673	139.88
348.9	126.88
349.128	163.88
349.355	130.88
349.583	122.88
349.81	134.88
350.037	132.88
350.265	132.88
350.492	126.88
350.72	133.88
350.947	125.88
351.174	135.88
351.402	132.88
351.629	137.88
351.856	117.88
352.083	125.88
352.311	150.88
352.538	121.88
352.765	139.88
352.992	131.88
353.22	134.88
353.447	142.88
353.674	148.88
353.901	134.88
354.128	141.88
354.355	109.88
354.583	139.88
354.81	151.88
355.037	147.88
355.264	130.88
355.491	144.88
355.718	128.88
355.945	144.88
356.172	125.88
356.399	138.88
356.626	135.88
356.853	137.88
357.08	125.88
357.307	147.88
357.534	142.88
357.761	134.88
357.988	135.88
358.215	133.88
358.441	121.88
358.668	136.88
358.895	127.88
359.122	149.88
359.349	140.88
359.576	127.88
359.802	116.88
360.029	129.88
360.256	137.88
360.483	124.88
360.709	136.88
360.936	145.88
361.163	157.88
361.39	146.88
361.616	124.88
361.843	147.88
362.07	140.88
362.296	136.88
362.523	138.88
362.749	130.88
362.976	131.88
363.203	151.88
363.429	136.88
363.656	134.88
363.882	123.88
364.109	142.88
364.335	124.88
364.562	137.88
364.788	140.88
365.015	132.88
365.241	136.88
365.468	160.88
365.694	130.88
365.92	139.88
366.147	127.88
366.373	133.88
366.599	126.88
366.826	128.88
367.052	133.88
367.278	157.88
367.505	133.88
367.731	138.88
367.957	133.88
368.184	132.88
368.41	124.88
368.636	133.88
368.862	127.88
369.089	137.88
369.315	135.88
369.541	126.88
369.767	137.88
369.993	123.88
370.219	137.88
370.445	148.88
370.672	144.88
370.898	136.88
371.124	128.88
371.35	142.88
371.576	137.88
371.802	144.88
372.028	133.88
372.254	140.88
372.48	126.88
372.706	145.88
372.932	140.88
373.158	148.88
373.384	145.88
373.61	152.88
373.835	130.88
374.061	150.88
374.287	139.88
374.513	147.88
374.739	146.88
374.965	158.88
375.191	142.88
375.416	150.88
375.642	151.88
375.868	140.88
376.094	143.88
376.319	152.88
376.545	138.88
376.771	131.88
376.997	146.88
377.222	133.88
377.448	149.88
377.674	139.88
377.899	130.88
378.125	144.88
378.35	139.88
378.576	136.88
378.802	146.88
379.027	156.88
379.253	138.88
379.478	139.88
379.704	140.88
379.929	139.88
380.155	122.88
380.38	131.88
380.606	146.88
380.831	147.88
381.057	145.88
381.282	152.88
381.507	151.88
381.733	151.88
381.958	140.88
382.184	144.88
382.409	138.88
382.634	146.88
382.86	150.88
383.085	153.88
383.31	123.88
383.535	172.88
383.761	144.88
383.986	142.88
384.211	134.88
384.436	134.88
384.662	164.88
384.887	177.88
385.112	165.88
385.337	157.88
385.562	137.88
385.787	143.88
386.013	144.88
386.238	166.88
386.463	149.88
386.688	179.88
386.913	155.88
387.138	154.88
387.363	157.88
387.588	157.88
387.813	144.88
388.038	148.88
388.263	173.88
388.488	150.88
388.713	145.88
388.938	148.88
389.163	145.88
389.387	161.88
389.612	150.88
389.837	167.88
390.062	161.88
390.287	157.88
390.512	153.88
390.736	150.88
390.961	142.88
391.186	162.88
391.411	167.88
391.636	161.88
391.86	169.88
392.085	145.88
392.31	158.88
392.534	175.88
392.759	162.88
392.984	163.88
393.208	160.88
393.433	157.88
393.658	168.88
393.882	155.88
394.107	168.88
394.331	158.88
394.556	158.88
394.78	173.88
395.005	171.88
395.229	174.88
395.454	168.88
395.678	163.88
395.903	158.88
396.127	166.88
396.352	163.88
396.576	160.88
396.801	156.88
397.025	147.88
397.249	167.88
397.474	174.88
397.698	173.88
397.922	166.88
398.147	166.88
398.371	169.88
398.595	181.88
398.82	178.88
399.044	179.88
399.268	189.88
399.492	229.88
399.717	255.88
399.941	217.88
400.165	202.88
400.389	174.88
400.613	182.88
400.837	170.88
401.062	176.88
401.286	180.88
401.51	184.88
401.734	177.88
401.958	184.88
402.182	161.88
402.406	168.88
402.63	178.88
402.854	188.88
403.078	172.88
403.302	174.88
403.526	201.88
403.75	199.88
403.974	192.88
404.198	199.88
404.422	188.88
404.645	178.88
404.869	184.88
405.093	169.88
405.317	186.88
405.541	169.88
405.765	182.88
405.988	196.88
406.212	197.88
406.436	178.88
406.66	190.88
406.883	201.88
407.107	215.88
407.331	200.88
407.555	214.88
407.778	198.88
408.002	216.88
408.226	196.88
408.449	183.88
408.673	198.88
408.896	199.88
409.12	203.88
409.344	190.88
409.567	177.88
409.791	196.88
410.014	190.88
410.238	170.88
410.461	190.88
410.685	190.88
410.908	182.88
411.132	173.88
411.355	190.88
411.578	178.88
411.802	173.88
412.025	170.88
412.249	180.88
412.472	180.88
412.695	186.88
412.919	189.88
413.142	190.88
413.365	181.88
413.589	181.88
413.812	174.88
414.035	168.88
414.258	179.88
414.482	182.88
414.705	172.88
414.928	182.88
415.151	186.88
415.374	173.88
415.597	175.88
415.821	168.88
416.044	166.88
416.267	174.88
416.49	162.88
416.713	160.88
416.936	161.88
417.159	169.88
417.382	173.88
417.605	178.88
417.828	173.88
418.051	176.88
418.274	182.88
418.497	166.88
418.72	178.88
418.943	175.88
419.166	186.88
419.389	188.88
419.611	170.88
419.834	164.88
420.057	192.88
420.28	166.88
420.503	184.88
420.726	182.88
420.948	180.88
421.171	158.88
421.394	174.88
421.617	154.88
421.839	160.88
422.062	174.88
422.285	172.88
422.507	179.88
422.73	180.88
422.953	172.88
423.175	172.88
423.398	193.88
423.621	179.88
423.843	194.88
424.066	182.88
424.288	181.88
424.511	193.88
424.733	173.88
424.956	180.88
425.178	160.88
425.401	170.88
425.623	162.88
425.846	163.88
426.068	152.88
426.291	162.88
426.513	179.88
426.735	179.88
426.958	178.88
427.18	166.88
427.402	165.88
427.625	173.88
427.847	145.88
428.069	164.88
428.292	173.88
428.514	164.88
428.736	155.88
428.958	160.88
429.181	158.88
429.403	173.88
429.625	163.88
429.847	143.88
430.069	156.88
430.292	166.88
430.514	160.88
430.736	166.88
430.958	174.88
431.18	152.88
431.402	159.88
431.624	152.88
431.846	159.88
432.068	159.88
432.29	169.88
432.512	178.88
432.734	160.88
432.956	164.88
433.178	170.88
433.4	150.88
433.622	167.88
433.844	160.88
434.066	172.88
434.287	159.88
434.509	156.88
434.731	180.88
434.953	201.88
435.175	180.88
435.397	185.88
435.618	154.88
435.84	149.88
436.062	178.88
436.284	153.88
436.505	149.88
436.727	178.88
436.949	150.88
437.17	166.88
437.392	167.88
437.614	160.88
437.835	165.88
438.057	150.88
438.278	165.88
438.5	155.88
438.721	149.88
438.943	173.88
439.165	169.88
439.386	163.88
439.608	146.88
439.829	151.88
440.05	145.88
440.272	152.88
440.493	157.88
440.715	171.88
440.936	192.88
441.158	164.88
441.379	162.88
441.6	174.88
441.822	177.88
442.043	172.88
442.264	180.88
442.486	164.88
442.707	167.88
442.928	175.88
443.149	176.88
443.371	177.88
443.592	171.88
443.813	176.88
444.034	168.88
444.255	184.88
444.476	195.88
444.698	190.88
444.919	196.88
445.14	404.88
445.361	277.88
445.582	180.88
445.803	167.88
446.024	167.88
446.245	170.88
446.466	173.88
446.687	177.88
446.908	172.88
447.129	149.88
447.35	153.88
447.571	162.88
447.792	140.88
448.013	156.88
448.234	142.88
448.455	146.88
448.675	152.88
448.896	171.88
449.117	141.88
449.338	141.88
449.559	149.88
449.779	150.88
450	149.88
450.221	154.88
450.442	151.88
450.662	158.88
450.883	155.88
451.104	156.88
451.324	159.88
451.545	164.88
451.766	132.88
451.986	162.88
452.207	160.88
452.428	142.88
452.648	153.88
452.869	157.88
453.089	156.88
453.31	153.88
453.53	160.88
453.751	156.88
453.971	138.88
454.192	160.88
454.412	157.88
454.633	145.88
454.853	148.88
455.073	149.88
455.294	145.88
455.514	154.88
455.734	134.88
455.955	144.88
456.175	155.88
456.395	146.88
456.616	136.88
456.836	134.88
457.056	148.88
457.276	147.88
457.497	153.88
457.717	153.88
457.937	148.88
458.157	155.88
458.377	148.88
458.598	149.88
458.818	157.88
459.038	149.88
459.258	168.88
459.478	147.88
459.698	150.88
459.918	172.88
460.138	162.88
460.358	180.88
460.578	190.88
460.798	163.88
461.018	178.88
461.238	180.88
461.458	182.88
461.678	160.88
461.898	178.88
462.118	195.88
462.338	180.88
462.558	197.88
462.777	220.88
462.997	218.88
463.217	206.88
463.437	221.88
463.657	186.88
463.876	184.88
464.096	186.88
464.316	189.88
464.536	196.88
464.755	189.88
464.975	185.88
465.195	182.88
465.414	163.88
465.634	174.88
465.854	166.88
466.073	168.88
466.293	167.88
466.512	148.88
466.732	167.88
466.951	176.88
467.171	157.88
467.391	162.88
467.61	157.88
467.829	170.88
468.049	154.88
468.268	156.88
468.488	149.88
468.707	144.88
468.927	158.88
469.146	136.88
469.365	150.88
469.585	141.88
469.804	172.88
470.023	162.88
470.243	169.88
470.462	151.88
470.681	155.88
470.901	167.88
471.12	150.88
471.339	166.88
471.558	143.88
471.777	149.88
471.997	158.88
472.216	161.88
472.435	160.88
472.654	135.88
472.873	169.88
473.092	152.88
473.311	141.88
473.53	138.88
473.749	161.88
473.968	174.88
474.187	164.88
474.406	149.88
474.625	156.88
474.844	151.88
475.063	141.88
475.282	151.88
475.501	153.88
475.72	167.88
475.939	158.88
476.158	152.88
476.377	164.88
476.596	149.88
476.814	169.88
477.033	152.88
477.252	165.88
477.471	168.88
477.69	169.88
477.908	163.88
478.127	198.88
478.346	188.88
478.564	194.88
478.783	157.88
479.002	180.88
479.22	169.88
479.439	177.88
479.658	152.88
479.876	178.88
480.095	187.88
480.313	184.88
480.532	189.88
480.751	183.88
480.969	183.88
481.188	167.88
481.406	185.88
481.624	152.88
481.843	164.88
482.061	154.88
482.28	175.88
482.498	170.88
482.717	164.88
482.935	174.88
483.153	153.88
483.372	178.88
483.59	168.88
483.808	190.88
484.027	171.88
484.245	171.88
484.463	167.88
484.681	189.88
484.9	164.88
485.118	172.88
485.336	149.88
485.554	153.88
485.772	156.88
485.99	163.88
486.209	188.88
486.427	167.88
486.645	171.88
486.863	171.88
487.081	162.88
487.299	166.88
487.517	172.88
487.735	163.88
487.953	171.88
488.171	172.88
488.389	165.88
488.607	148.88
488.825	152.88
489.043	169.88
489.261	185.88
489.479	170.88
489.696	174.88
489.914	172.88
490.132	174.88
490.35	178.88
490.568	171.88
490.786	176.88
491.003	162.88
491.221	157.88
491.439	180.88
491.657	171.88
491.874	187.88
492.092	196.88
492.31	173.88
492.527	160.88
492.745	168.88
492.963	190.88
493.18	188.88
493.398	194.88
493.615	165.88
493.833	164.88
494.05	181.88
494.268	178.88
494.485	185.88
494.703	171.88
494.92	173.88
495.138	184.88
495.355	187.88
495.573	173.88
495.79	196.88
496.008	185.88
496.225	172.88
496.442	178.88
496.66	194.88
496.877	177.88
497.094	192.88
497.312	192.88
497.529	183.88
497.746	216.88
497.963	210.88
498.181	217.88
498.398	216.88
498.615	213.88
498.832	212.88
499.049	230.88
499.267	249.88
499.484	272.88
499.701	288.88
499.918	347.88
500.135	359.88
500.352	396.88
500.569	391.88
500.786	392.88
501.003	355.88
501.22	314.88
501.437	300.88
501.654	286.88
501.871	247.88
502.088	260.88
502.305	235.88
502.522	229.88
502.739	235.88
502.956	216.88
503.172	212.88
503.389	195.88
503.606	196.88
503.823	208.88
504.04	185.88
504.256	198.88
504.473	195.88
504.69	206.88
504.907	214.88
