Data from SampG_HRD10591_00003.txt Node
Date: Mon Jan 19 11:53:44 EST 2026
User: Yrep
Spectrometer: HR+D1059
Trigger mode: 0
Integration Time (sec): 3.443000E-1
Scans to average: 1
Electric dark correction enabled: true
Nonlinearity correction enabled: false
Boxcar width: 0
XAxis mode: Wavelengths
Number of Pixels in Spectrum: 2048
>>>>>Begin Spectral Data<<<<<
223.165	-27.88
223.4	-27.88
223.635	-27.88
223.869	-22.88
224.104	-32.88
224.338	-11.88
224.573	-5.88
224.808	-20.88
225.042	-3.88
225.277	3.12
225.511	-4.88
225.746	10.12
225.98	18.12
226.215	14.12
226.449	9.12
226.683	13.12
226.918	33.12
227.152	30.12
227.387	42.12
227.621	24.12
227.856	40.12
228.09	48.12
228.324	57.12
228.559	71.12
228.793	66.12
229.027	55.12
229.262	86.12
229.496	70.12
229.73	74.12
229.964	67.12
230.199	63.12
230.433	85.12
230.667	73.12
230.901	77.12
231.136	87.12
231.37	90.12
231.604	80.12
231.838	78.12
232.072	69.12
232.306	88.12
232.541	90.12
232.775	82.12
233.009	79.12
233.243	83.12
233.477	92.12
233.711	83.12
233.945	91.12
234.179	77.12
234.413	86.12
234.647	94.12
234.881	91.12
235.115	87.12
235.349	94.12
235.583	91.12
235.817	79.12
236.051	76.12
236.285	77.12
236.519	87.12
236.753	88.12
236.987	84.12
237.221	82.12
237.455	81.12
237.689	92.12
237.922	93.12
238.156	84.12
238.39	75.12
238.624	86.12
238.858	98.12
239.091	77.12
239.325	71.12
239.559	72.12
239.793	87.12
240.027	93.12
240.26	66.12
240.494	56.12
240.728	67.12
240.961	73.12
241.195	78.12
241.429	79.12
241.662	78.12
241.896	77.12
242.13	76.12
242.363	79.12
242.597	78.12
242.83	79.12
243.064	84.12
243.298	80.12
243.531	89.12
243.765	79.12
243.998	94.12
244.232	88.12
244.465	84.12
244.699	85.12
244.932	78.12
245.166	93.12
245.399	84.12
245.633	87.12
245.866	99.12
246.099	87.12
246.333	77.12
246.566	86.12
246.8	85.12
247.033	81.12
247.266	87.12
247.5	88.12
247.733	92.12
247.966	92.12
248.2	76.12
248.433	76.12
248.666	79.12
248.899	92.12
249.133	99.12
249.366	87.12
249.599	82.12
249.832	96.12
250.066	88.12
250.299	92.12
250.532	79.12
250.765	80.12
250.998	72.12
251.231	86.12
251.465	72.12
251.698	76.12
251.931	82.12
252.164	95.12
252.397	97.12
252.63	96.12
252.863	92.12
253.096	82.12
253.329	96.12
253.562	79.12
253.795	90.12
254.028	93.12
254.261	85.12
254.494	83.12
254.727	99.12
254.96	86.12
255.193	77.12
255.426	79.12
255.659	89.12
255.892	96.12
256.124	84.12
256.357	72.12
256.59	85.12
256.823	90.12
257.056	90.12
257.289	100.12
257.521	85.12
257.754	82.12
257.987	92.12
258.22	100.12
258.452	103.12
258.685	88.12
258.918	99.12
259.151	92.12
259.383	88.12
259.616	79.12
259.849	78.12
260.081	97.12
260.314	94.12
260.547	86.12
260.779	91.12
261.012	100.12
261.244	91.12
261.477	110.12
261.71	91.12
261.942	93.12
262.175	101.12
262.407	86.12
262.64	92.12
262.872	88.12
263.105	94.12
263.337	90.12
263.57	90.12
263.802	74.12
264.035	94.12
264.267	105.12
264.499	78.12
264.732	93.12
264.964	88.12
265.197	83.12
265.429	83.12
265.661	91.12
265.894	87.12
266.126	114.12
266.358	77.12
266.591	101.12
266.823	81.12
267.055	95.12
267.287	102.12
267.52	86.12
267.752	92.12
267.984	103.12
268.216	95.12
268.448	100.12
268.681	98.12
268.913	96.12
269.145	98.12
269.377	103.12
269.609	105.12
269.841	91.12
270.073	96.12
270.306	104.12
270.538	97.12
270.77	92.12
271.002	95.12
271.234	94.12
271.466	91.12
271.698	75.12
271.93	82.12
272.162	89.12
272.394	110.12
272.626	109.12
272.858	94.12
273.09	108.12
273.322	100.12
273.553	95.12
273.785	94.12
274.017	91.12
274.249	90.12
274.481	99.12
274.713	92.12
274.945	90.12
275.176	91.12
275.408	101.12
275.64	93.12
275.872	118.12
276.104	115.12
276.335	110.12
276.567	94.12
276.799	94.12
277.031	99.12
277.262	88.12
277.494	104.12
277.726	102.12
277.957	89.12
278.189	96.12
278.421	92.12
278.652	88.12
278.884	109.12
279.115	96.12
279.347	95.12
279.579	103.12
279.81	97.12
280.042	106.12
280.273	82.12
280.505	83.12
280.736	86.12
280.968	103.12
281.199	92.12
281.431	90.12
281.662	90.12
281.894	116.12
282.125	107.12
282.356	107.12
282.588	102.12
282.819	108.12
283.051	101.12
283.282	103.12
283.513	110.12
283.745	88.12
283.976	87.12
284.207	103.12
284.439	92.12
284.67	105.12
284.901	102.12
285.132	106.12
285.364	96.12
285.595	96.12
285.826	98.12
286.057	109.12
286.288	108.12
286.52	91.12
286.751	94.12
286.982	105.12
287.213	88.12
287.444	106.12
287.675	101.12
287.906	106.12
288.138	99.12
288.369	102.12
288.6	109.12
288.831	86.12
289.062	121.12
289.293	98.12
289.524	86.12
289.755	97.12
289.986	87.12
290.217	106.12
290.448	100.12
290.679	101.12
290.91	108.12
291.141	89.12
291.371	102.12
291.602	115.12
291.833	100.12
292.064	105.12
292.295	90.12
292.526	102.12
292.757	88.12
292.987	81.12
293.218	105.12
293.449	91.12
293.68	112.12
293.91	106.12
294.141	102.12
294.372	100.12
294.603	88.12
294.833	100.12
295.064	92.12
295.295	88.12
295.525	95.12
295.756	99.12
295.987	102.12
296.217	90.12
296.448	101.12
296.679	104.12
296.909	109.12
297.14	111.12
297.37	111.12
297.601	104.12
297.831	99.12
298.062	116.12
298.292	114.12
298.523	95.12
298.753	90.12
298.984	94.12
299.214	115.12
299.445	94.12
299.675	98.12
299.905	104.12
300.136	104.12
300.366	108.12
300.597	109.12
300.827	99.12
301.057	105.12
301.288	112.12
301.518	103.12
301.748	105.12
301.979	146.12
302.209	107.12
302.439	99.12
302.669	102.12
302.9	123.12
303.13	115.12
303.36	130.12
303.59	109.12
303.82	102.12
304.051	104.12
304.281	118.12
304.511	115.12
304.741	98.12
304.971	110.12
305.201	113.12
305.431	129.12
305.661	102.12
305.891	105.12
306.121	103.12
306.352	103.12
306.582	104.12
306.812	107.12
307.042	96.12
307.272	105.12
307.502	91.12
307.731	103.12
307.961	107.12
308.191	100.12
308.421	112.12
308.651	107.12
308.881	110.12
309.111	96.12
309.341	112.12
309.571	104.12
309.8	110.12
310.03	100.12
310.26	105.12
310.49	97.12
310.72	108.12
310.949	101.12
311.179	109.12
311.409	103.12
311.639	96.12
311.868	95.12
312.098	97.12
312.328	117.12
312.557	116.12
312.787	107.12
313.017	121.12
313.246	92.12
313.476	106.12
313.706	100.12
313.935	107.12
314.165	102.12
314.394	105.12
314.624	95.12
314.853	101.12
315.083	106.12
315.312	110.12
315.542	121.12
315.771	118.12
316.001	107.12
316.23	113.12
316.46	88.12
316.689	96.12
316.919	97.12
317.148	100.12
317.377	116.12
317.607	111.12
317.836	105.12
318.065	104.12
318.295	99.12
318.524	110.12
318.753	103.12
318.983	110.12
319.212	106.12
319.441	100.12
319.67	111.12
319.9	120.12
320.129	106.12
320.358	106.12
320.587	109.12
320.816	99.12
321.046	98.12
321.275	117.12
321.504	100.12
321.733	105.12
321.962	124.12
322.191	110.12
322.42	106.12
322.649	108.12
322.878	103.12
323.108	119.12
323.337	111.12
323.566	113.12
323.795	92.12
324.024	114.12
324.253	106.12
324.482	104.12
324.71	113.12
324.939	122.12
325.168	125.12
325.397	101.12
325.626	110.12
325.855	111.12
326.084	108.12
326.313	103.12
326.542	100.12
326.77	112.12
326.999	117.12
327.228	101.12
327.457	104.12
327.686	119.12
327.914	111.12
328.143	133.12
328.372	117.12
328.6	93.12
328.829	106.12
329.058	106.12
329.287	105.12
329.515	118.12
329.744	105.12
329.972	111.12
330.201	116.12
330.43	107.12
330.658	110.12
330.887	116.12
331.115	92.12
331.344	111.12
331.572	123.12
331.801	108.12
332.03	112.12
332.258	123.12
332.486	122.12
332.715	107.12
332.943	122.12
333.172	110.12
333.4	117.12
333.629	123.12
333.857	123.12
334.085	125.12
334.314	104.12
334.542	128.12
334.771	129.12
334.999	118.12
335.227	107.12
335.455	128.12
335.684	124.12
335.912	137.12
336.14	112.12
336.369	121.12
336.597	111.12
336.825	110.12
337.053	108.12
337.281	83.12
337.51	116.12
337.738	100.12
337.966	114.12
338.194	108.12
338.422	113.12
338.65	120.12
338.878	121.12
339.106	125.12
339.334	105.12
339.562	102.12
339.79	122.12
340.018	102.12
340.246	119.12
340.474	122.12
340.702	112.12
340.93	119.12
341.158	124.12
341.386	101.12
341.614	106.12
341.842	117.12
342.07	97.12
342.298	117.12
342.526	100.12
342.754	106.12
342.981	120.12
343.209	112.12
343.437	142.12
343.665	125.12
343.893	117.12
344.12	123.12
344.348	119.12
344.576	101.12
344.804	115.12
345.031	100.12
345.259	125.12
345.487	112.12
345.714	109.12
345.942	113.12
346.17	131.12
346.397	119.12
346.625	111.12
346.853	101.12
347.08	98.12
347.308	110.12
347.535	112.12
347.763	125.12
347.99	122.12
348.218	107.12
348.445	104.12
348.673	107.12
348.9	96.12
349.128	107.12
349.355	94.12
349.583	111.12
349.81	103.12
350.037	119.12
350.265	112.12
350.492	106.12
350.72	109.12
350.947	105.12
351.174	119.12
351.402	98.12
351.629	109.12
351.856	116.12
352.083	103.12
352.311	97.12
352.538	109.12
352.765	112.12
352.992	120.12
353.22	105.12
353.447	102.12
353.674	109.12
353.901	118.12
354.128	116.12
354.355	107.12
354.583	102.12
354.81	115.12
355.037	110.12
355.264	116.12
355.491	97.12
355.718	115.12
355.945	105.12
356.172	99.12
356.399	120.12
356.626	104.12
356.853	106.12
357.08	111.12
357.307	115.12
357.534	122.12
357.761	128.12
357.988	126.12
358.215	106.12
358.441	106.12
358.668	92.12
358.895	98.12
359.122	100.12
359.349	103.12
359.576	106.12
359.802	102.12
360.029	111.12
360.256	96.12
360.483	118.12
360.709	110.12
360.936	118.12
361.163	95.12
361.39	110.12
361.616	103.12
361.843	124.12
362.07	109.12
362.296	117.12
362.523	111.12
362.749	98.12
362.976	103.12
363.203	116.12
363.429	94.12
363.656	109.12
363.882	103.12
364.109	125.12
364.335	108.12
364.562	104.12
364.788	112.12
365.015	107.12
365.241	116.12
365.468	104.12
365.694	120.12
365.92	112.12
366.147	102.12
366.373	90.12
366.599	101.12
366.826	112.12
367.052	110.12
367.278	108.12
367.505	97.12
367.731	118.12
367.957	106.12
368.184	98.12
368.41	95.12
368.636	113.12
368.862	107.12
369.089	110.12
369.315	101.12
369.541	93.12
369.767	118.12
369.993	108.12
370.219	118.12
370.445	89.12
370.672	100.12
370.898	102.12
371.124	100.12
371.35	119.12
371.576	114.12
371.802	112.12
372.028	118.12
372.254	122.12
372.48	111.12
372.706	102.12
372.932	115.12
373.158	106.12
373.384	117.12
373.61	127.12
373.835	115.12
374.061	117.12
374.287	121.12
374.513	130.12
374.739	108.12
374.965	116.12
375.191	108.12
375.416	116.12
375.642	110.12
375.868	122.12
376.094	116.12
376.319	116.12
376.545	100.12
376.771	111.12
376.997	117.12
377.222	112.12
377.448	107.12
377.674	109.12
377.899	118.12
378.125	102.12
378.35	125.12
378.576	102.12
378.802	130.12
379.027	116.12
379.253	95.12
379.478	94.12
379.704	107.12
379.929	103.12
380.155	108.12
380.38	110.12
380.606	117.12
380.831	110.12
381.057	122.12
381.282	119.12
381.507	112.12
381.733	99.12
381.958	104.12
382.184	106.12
382.409	116.12
382.634	124.12
382.86	118.12
383.085	107.12
383.31	115.12
383.535	107.12
383.761	113.12
383.986	127.12
384.211	104.12
384.436	118.12
384.662	117.12
384.887	122.12
385.112	123.12
385.337	115.12
385.562	107.12
385.787	100.12
386.013	124.12
386.238	121.12
386.463	123.12
386.688	143.12
386.913	110.12
387.138	118.12
387.363	115.12
387.588	126.12
387.813	134.12
388.038	127.12
388.263	127.12
388.488	122.12
388.713	107.12
388.938	106.12
389.163	109.12
389.387	110.12
389.612	122.12
389.837	108.12
390.062	104.12
390.287	117.12
390.512	127.12
390.736	125.12
390.961	110.12
391.186	128.12
391.411	122.12
391.636	116.12
391.86	122.12
392.085	123.12
392.31	117.12
392.534	113.12
392.759	116.12
392.984	115.12
393.208	116.12
393.433	105.12
393.658	137.12
393.882	123.12
394.107	125.12
394.331	104.12
394.556	118.12
394.78	127.12
395.005	125.12
395.229	126.12
395.454	133.12
395.678	124.12
395.903	114.12
396.127	127.12
396.352	103.12
396.576	118.12
396.801	121.12
397.025	109.12
397.249	128.12
397.474	133.12
397.698	117.12
397.922	130.12
398.147	123.12
398.371	126.12
398.595	124.12
398.82	124.12
399.044	135.12
399.268	137.12
399.492	150.12
399.717	172.12
399.941	146.12
400.165	147.12
400.389	124.12
400.613	138.12
400.837	131.12
401.062	125.12
401.286	120.12
401.51	109.12
401.734	123.12
401.958	115.12
402.182	123.12
402.406	120.12
402.63	131.12
402.854	140.12
403.078	120.12
403.302	134.12
403.526	123.12
403.75	130.12
403.974	127.12
404.198	130.12
404.422	134.12
404.645	119.12
404.869	137.12
405.093	123.12
405.317	131.12
405.541	133.12
405.765	102.12
405.988	114.12
406.212	141.12
406.436	140.12
406.66	146.12
406.883	131.12
407.107	148.12
407.331	137.12
407.555	131.12
407.778	143.12
408.002	148.12
408.226	144.12
408.449	133.12
408.673	134.12
408.896	135.12
409.12	125.12
409.344	133.12
409.567	134.12
409.791	127.12
410.014	133.12
410.238	134.12
410.461	132.12
410.685	146.12
410.908	116.12
411.132	139.12
411.355	122.12
411.578	127.12
411.802	125.12
412.025	128.12
412.249	127.12
412.472	131.12
412.695	131.12
412.919	120.12
413.142	128.12
413.365	128.12
413.589	128.12
413.812	126.12
414.035	131.12
414.258	143.12
414.482	122.12
414.705	123.12
414.928	120.12
415.151	117.12
415.374	124.12
415.597	129.12
415.821	126.12
416.044	116.12
416.267	123.12
416.49	108.12
416.713	131.12
416.936	137.12
417.159	128.12
417.382	116.12
417.605	123.12
417.828	122.12
418.051	129.12
418.274	138.12
418.497	110.12
418.72	119.12
418.943	135.12
419.166	131.12
419.389	131.12
419.611	120.12
419.834	126.12
420.057	130.12
420.28	120.12
420.503	116.12
420.726	112.12
420.948	131.12
421.171	119.12
421.394	120.12
421.617	136.12
421.839	138.12
422.062	127.12
422.285	127.12
422.507	134.12
422.73	118.12
422.953	143.12
423.175	119.12
423.398	139.12
423.621	135.12
423.843	123.12
424.066	125.12
424.288	126.12
424.511	133.12
424.733	131.12
424.956	129.12
425.178	123.12
425.401	119.12
425.623	107.12
425.846	118.12
426.068	118.12
426.291	133.12
426.513	113.12
426.735	134.12
426.958	127.12
427.18	111.12
427.402	114.12
427.625	118.12
427.847	105.12
428.069	110.12
428.292	127.12
428.514	133.12
428.736	112.12
428.958	114.12
429.181	120.12
429.403	119.12
429.625	126.12
429.847	118.12
430.069	122.12
430.292	114.12
430.514	103.12
430.736	123.12
430.958	118.12
431.18	107.12
431.402	116.12
431.624	123.12
431.846	124.12
432.068	132.12
432.29	130.12
432.512	125.12
432.734	116.12
432.956	122.12
433.178	122.12
433.4	129.12
433.622	124.12
433.844	134.12
434.066	113.12
434.287	115.12
434.509	123.12
434.731	116.12
434.953	120.12
435.175	110.12
435.397	122.12
435.618	121.12
435.84	134.12
436.062	109.12
436.284	115.12
436.505	110.12
436.727	109.12
436.949	115.12
437.17	122.12
437.392	120.12
437.614	126.12
437.835	116.12
438.057	112.12
438.278	124.12
438.5	108.12
438.721	121.12
438.943	118.12
439.165	106.12
439.386	119.12
439.608	125.12
439.829	120.12
440.05	127.12
440.272	128.12
440.493	132.12
440.715	117.12
440.936	130.12
441.158	138.12
441.379	126.12
441.6	125.12
441.822	123.12
442.043	120.12
442.264	132.12
442.486	131.12
442.707	111.12
442.928	126.12
443.149	134.12
443.371	130.12
443.592	131.12
443.813	123.12
444.034	136.12
444.255	137.12
444.476	118.12
444.698	137.12
444.919	135.12
445.14	394.12
445.361	244.12
445.582	137.12
445.803	135.12
446.024	128.12
446.245	126.12
446.466	125.12
446.687	108.12
446.908	108.12
447.129	118.12
447.35	123.12
447.571	115.12
447.792	135.12
448.013	121.12
448.234	110.12
448.455	115.12
448.675	103.12
448.896	107.12
449.117	108.12
449.338	109.12
449.559	112.12
449.779	109.12
450	91.12
450.221	116.12
450.442	106.12
450.662	108.12
450.883	117.12
451.104	116.12
451.324	121.12
451.545	104.12
451.766	114.12
451.986	110.12
452.207	122.12
452.428	112.12
452.648	113.12
452.869	102.12
453.089	119.12
453.31	99.12
453.53	123.12
453.751	106.12
453.971	114.12
454.192	113.12
454.412	132.12
454.633	115.12
454.853	122.12
455.073	116.12
455.294	100.12
455.514	116.12
455.734	111.12
455.955	122.12
456.175	116.12
456.395	104.12
456.616	112.12
456.836	119.12
457.056	108.12
457.276	103.12
457.497	96.12
457.717	123.12
457.937	111.12
458.157	115.12
458.377	105.12
458.598	101.12
458.818	117.12
459.038	113.12
459.258	114.12
459.478	122.12
459.698	113.12
459.918	131.12
460.138	113.12
460.358	122.12
460.578	125.12
460.798	130.12
461.018	129.12
461.238	118.12
461.458	126.12
461.678	133.12
461.898	130.12
462.118	139.12
462.338	131.12
462.558	122.12
462.777	121.12
462.997	154.12
463.217	143.12
463.437	144.12
463.657	143.12
463.876	137.12
464.096	121.12
464.316	139.12
464.536	148.12
464.755	125.12
464.975	124.12
465.195	126.12
465.414	114.12
465.634	116.12
465.854	126.12
466.073	123.12
466.293	130.12
466.512	111.12
466.732	115.12
466.951	114.12
467.171	98.12
467.391	123.12
467.61	100.12
467.829	122.12
468.049	115.12
468.268	98.12
468.488	106.12
468.707	121.12
468.927	116.12
469.146	98.12
469.365	102.12
469.585	115.12
469.804	112.12
470.023	121.12
470.243	118.12
470.462	116.12
470.681	118.12
470.901	116.12
471.12	123.12
471.339	126.12
471.558	112.12
471.777	101.12
471.997	127.12
472.216	126.12
472.435	127.12
472.654	107.12
472.873	118.12
473.092	112.12
473.311	120.12
473.53	111.12
473.749	122.12
473.968	115.12
474.187	112.12
474.406	111.12
474.625	124.12
474.844	140.12
475.063	126.12
475.282	121.12
475.501	119.12
475.72	136.12
475.939	114.12
476.158	100.12
476.377	106.12
476.596	92.12
476.814	116.12
477.033	116.12
477.252	112.12
477.471	120.12
477.69	122.12
477.908	123.12
478.127	127.12
478.346	120.12
478.564	120.12
478.783	124.12
479.002	117.12
479.22	118.12
479.439	135.12
479.658	127.12
479.876	129.12
480.095	118.12
480.313	124.12
480.532	130.12
480.751	131.12
480.969	116.12
481.188	104.12
481.406	128.12
481.624	123.12
481.843	116.12
482.061	114.12
482.28	104.12
482.498	132.12
482.717	132.12
482.935	124.12
483.153	130.12
483.372	126.12
483.59	133.12
483.808	120.12
484.027	117.12
484.245	127.12
484.463	109.12
484.681	139.12
484.9	110.12
485.118	137.12
485.336	120.12
485.554	143.12
485.772	124.12
485.99	135.12
486.209	132.12
486.427	119.12
486.645	122.12
486.863	126.12
487.081	123.12
487.299	111.12
487.517	135.12
487.735	139.12
487.953	115.12
488.171	129.12
488.389	123.12
488.607	120.12
488.825	131.12
489.043	122.12
489.261	125.12
489.479	126.12
489.696	122.12
489.914	106.12
490.132	116.12
490.35	129.12
490.568	132.12
490.786	127.12
491.003	127.12
491.221	125.12
491.439	117.12
491.657	116.12
491.874	128.12
492.092	129.12
492.31	132.12
492.527	125.12
492.745	137.12
492.963	134.12
493.18	151.12
493.398	131.12
493.615	118.12
493.833	127.12
494.05	116.12
494.268	125.12
494.485	134.12
494.703	147.12
494.92	122.12
495.138	125.12
495.355	120.12
495.573	119.12
495.79	124.12
496.008	122.12
496.225	130.12
496.442	123.12
496.66	143.12
496.877	136.12
497.094	147.12
497.312	119.12
497.529	150.12
497.746	139.12
497.963	128.12
498.181	139.12
498.398	146.12
498.615	149.12
498.832	159.12
499.049	157.12
499.267	179.12
499.484	184.12
499.701	189.12
499.918	210.12
500.135	223.12
500.352	246.12
500.569	255.12
500.786	252.12
501.003	210.12
501.22	223.12
501.437	191.12
501.654	159.12
501.871	151.12
502.088	156.12
502.305	170.12
502.522	147.12
502.739	154.12
502.956	162.12
503.172	141.12
503.389	122.12
503.606	135.12
503.823	136.12
504.04	149.12
504.256	147.12
504.473	131.12
504.69	148.12
504.907	151.12
505.123	144.12
505.34	132.12
505.557	128.12
505.773	131.12
505.99	108.12
506.207	125.12
506.423	131.12
506.64	119.12
