Data from SampG_HRD10591_00074.txt Node
Date: Mon Jan 19 11:54:08 EST 2026
User: Yrep
Spectrometer: HR+D1059
Trigger mode: 0
Integration Time (sec): 3.443000E-1
Scans to average: 1
Electric dark correction enabled: true
Nonlinearity correction enabled: false
Boxcar width: 0
XAxis mode: Wavelengths
Number of Pixels in Spectrum: 2048
>>>>>Begin Spectral Data<<<<<
223.165	-21.38
223.4	-21.38
223.635	-21.38
223.869	-36.38
224.104	-17.38
224.338	-15.38
224.573	-12.38
224.808	-9.38
225.042	-15.38
225.277	-1.38
225.511	4.62
225.746	14.62
225.98	4.62
226.215	3.62
226.449	14.62
226.683	9.62
226.918	34.62
227.152	42.62
227.387	29.62
227.621	45.62
227.856	63.62
228.09	47.62
228.324	45.62
228.559	70.62
228.793	62.62
229.027	73.62
229.262	70.62
229.496	55.62
229.73	69.62
229.964	76.62
230.199	84.62
230.433	89.62
230.667	92.62
230.901	87.62
231.136	75.62
231.37	89.62
231.604	97.62
231.838	94.62
232.072	100.62
232.306	98.62
232.541	92.62
232.775	71.62
233.009	99.62
233.243	85.62
233.477	73.62
233.711	83.62
233.945	98.62
234.179	84.62
234.413	74.62
234.647	68.62
234.881	78.62
235.115	83.62
235.349	72.62
235.583	81.62
235.817	87.62
236.051	79.62
236.285	76.62
236.519	83.62
236.753	100.62
236.987	73.62
237.221	84.62
237.455	81.62
237.689	86.62
237.922	93.62
238.156	81.62
238.39	73.62
238.624	85.62
238.858	90.62
239.091	69.62
239.325	82.62
239.559	84.62
239.793	78.62
240.027	98.62
240.26	89.62
240.494	92.62
240.728	94.62
240.961	88.62
241.195	94.62
241.429	98.62
241.662	85.62
241.896	85.62
242.13	82.62
242.363	77.62
242.597	72.62
242.83	82.62
243.064	93.62
243.298	98.62
243.531	93.62
243.765	91.62
243.998	96.62
244.232	109.62
244.465	81.62
244.699	88.62
244.932	90.62
245.166	97.62
245.399	83.62
245.633	93.62
245.866	90.62
246.099	79.62
246.333	86.62
246.566	97.62
246.8	89.62
247.033	100.62
247.266	91.62
247.5	73.62
247.733	94.62
247.966	83.62
248.2	93.62
248.433	67.62
248.666	86.62
248.899	91.62
249.133	85.62
249.366	109.62
249.599	89.62
249.832	100.62
250.066	100.62
250.299	93.62
250.532	71.62
250.765	91.62
250.998	85.62
251.231	91.62
251.465	109.62
251.698	94.62
251.931	92.62
252.164	78.62
252.397	87.62
252.63	100.62
252.863	91.62
253.096	87.62
253.329	93.62
253.562	87.62
253.795	83.62
254.028	104.62
254.261	99.62
254.494	93.62
254.727	94.62
254.96	99.62
255.193	87.62
255.426	88.62
255.659	93.62
255.892	97.62
256.124	100.62
256.357	99.62
256.59	102.62
256.823	91.62
257.056	88.62
257.289	103.62
257.521	87.62
257.754	83.62
257.987	80.62
258.22	98.62
258.452	83.62
258.685	101.62
258.918	103.62
259.151	107.62
259.383	94.62
259.616	94.62
259.849	108.62
260.081	123.62
260.314	90.62
260.547	98.62
260.779	93.62
261.012	95.62
261.244	105.62
261.477	112.62
261.71	87.62
261.942	97.62
262.175	97.62
262.407	97.62
262.64	93.62
262.872	122.62
263.105	93.62
263.337	103.62
263.57	103.62
263.802	109.62
264.035	99.62
264.267	99.62
264.499	95.62
264.732	97.62
264.964	106.62
265.197	104.62
265.429	102.62
265.661	113.62
265.894	115.62
266.126	120.62
266.358	111.62
266.591	109.62
266.823	106.62
267.055	98.62
267.287	108.62
267.52	102.62
267.752	107.62
267.984	98.62
268.216	98.62
268.448	114.62
268.681	98.62
268.913	105.62
269.145	106.62
269.377	102.62
269.609	112.62
269.841	107.62
270.073	99.62
270.306	105.62
270.538	98.62
270.77	99.62
271.002	107.62
271.234	93.62
271.466	110.62
271.698	100.62
271.93	101.62
272.162	104.62
272.394	108.62
272.626	95.62
272.858	91.62
273.09	99.62
273.322	118.62
273.553	114.62
273.785	106.62
274.017	104.62
274.249	99.62
274.481	107.62
274.713	114.62
274.945	126.62
275.176	100.62
275.408	105.62
275.64	107.62
275.872	115.62
276.104	105.62
276.335	119.62
276.567	113.62
276.799	120.62
277.031	115.62
277.262	113.62
277.494	122.62
277.726	108.62
277.957	94.62
278.189	118.62
278.421	99.62
278.652	102.62
278.884	111.62
279.115	120.62
279.347	105.62
279.579	114.62
279.81	110.62
280.042	115.62
280.273	117.62
280.505	126.62
280.736	106.62
280.968	115.62
281.199	120.62
281.431	116.62
281.662	111.62
281.894	121.62
282.125	117.62
282.356	102.62
282.588	108.62
282.819	119.62
283.051	111.62
283.282	95.62
283.513	130.62
283.745	120.62
283.976	101.62
284.207	110.62
284.439	114.62
284.67	127.62
284.901	120.62
285.132	104.62
285.364	119.62
285.595	107.62
285.826	109.62
286.057	130.62
286.288	110.62
286.52	132.62
286.751	120.62
286.982	101.62
287.213	110.62
287.444	117.62
287.675	102.62
287.906	114.62
288.138	110.62
288.369	100.62
288.6	111.62
288.831	115.62
289.062	125.62
289.293	114.62
289.524	115.62
289.755	105.62
289.986	102.62
290.217	119.62
290.448	116.62
290.679	110.62
290.91	143.62
291.141	121.62
291.371	134.62
291.602	138.62
291.833	128.62
292.064	124.62
292.295	128.62
292.526	115.62
292.757	114.62
292.987	129.62
293.218	129.62
293.449	138.62
293.68	138.62
293.91	125.62
294.141	115.62
294.372	125.62
294.603	105.62
294.833	117.62
295.064	117.62
295.295	111.62
295.525	131.62
295.756	136.62
295.987	113.62
296.217	112.62
296.448	98.62
296.679	121.62
296.909	115.62
297.14	128.62
297.37	127.62
297.601	124.62
297.831	124.62
298.062	142.62
298.292	111.62
298.523	123.62
298.753	107.62
298.984	121.62
299.214	130.62
299.445	126.62
299.675	112.62
299.905	135.62
300.136	127.62
300.366	131.62
300.597	129.62
300.827	123.62
301.057	115.62
301.288	114.62
301.518	127.62
301.748	132.62
301.979	168.62
302.209	134.62
302.439	118.62
302.669	125.62
302.9	138.62
303.13	122.62
303.36	129.62
303.59	119.62
303.82	123.62
304.051	118.62
304.281	119.62
304.511	129.62
304.741	126.62
304.971	127.62
305.201	138.62
305.431	126.62
305.661	122.62
305.891	119.62
306.121	130.62
306.352	123.62
306.582	117.62
306.812	121.62
307.042	129.62
307.272	126.62
307.502	121.62
307.731	130.62
307.961	124.62
308.191	139.62
308.421	124.62
308.651	111.62
308.881	122.62
309.111	130.62
309.341	124.62
309.571	125.62
309.8	128.62
310.03	129.62
310.26	129.62
310.49	124.62
310.72	120.62
310.949	121.62
311.179	125.62
311.409	133.62
311.639	126.62
311.868	139.62
312.098	126.62
312.328	129.62
312.557	122.62
312.787	116.62
313.017	140.62
313.246	134.62
313.476	130.62
313.706	118.62
313.935	119.62
314.165	109.62
314.394	141.62
314.624	138.62
314.853	121.62
315.083	134.62
315.312	116.62
315.542	122.62
315.771	133.62
316.001	133.62
316.23	129.62
316.46	122.62
316.689	132.62
316.919	134.62
317.148	130.62
317.377	142.62
317.607	140.62
317.836	120.62
318.065	120.62
318.295	114.62
318.524	129.62
318.753	129.62
318.983	109.62
319.212	132.62
319.441	137.62
319.67	139.62
319.9	120.62
320.129	132.62
320.358	111.62
320.587	110.62
320.816	119.62
321.046	122.62
321.275	150.62
321.504	126.62
321.733	120.62
321.962	135.62
322.191	121.62
322.42	116.62
322.649	133.62
322.878	129.62
323.108	138.62
323.337	124.62
323.566	123.62
323.795	127.62
324.024	119.62
324.253	123.62
324.482	122.62
324.71	138.62
324.939	140.62
325.168	137.62
325.397	121.62
325.626	137.62
325.855	145.62
326.084	138.62
326.313	138.62
326.542	133.62
326.77	153.62
326.999	141.62
327.228	132.62
327.457	137.62
327.686	136.62
327.914	129.62
328.143	137.62
328.372	124.62
328.6	134.62
328.829	134.62
329.058	115.62
329.287	135.62
329.515	137.62
329.744	137.62
329.972	153.62
330.201	143.62
330.43	139.62
330.658	116.62
330.887	127.62
331.115	133.62
331.344	131.62
331.572	132.62
331.801	138.62
332.03	147.62
332.258	149.62
332.486	143.62
332.715	140.62
332.943	136.62
333.172	146.62
333.4	138.62
333.629	148.62
333.857	155.62
334.085	139.62
334.314	164.62
334.542	136.62
334.771	149.62
334.999	149.62
335.227	158.62
335.455	155.62
335.684	149.62
335.912	133.62
336.14	140.62
336.369	142.62
336.597	135.62
336.825	144.62
337.053	139.62
337.281	134.62
337.51	140.62
337.738	149.62
337.966	136.62
338.194	133.62
338.422	119.62
338.65	144.62
338.878	141.62
339.106	133.62
339.334	147.62
339.562	135.62
339.79	136.62
340.018	128.62
340.246	141.62
340.474	136.62
340.702	141.62
340.93	128.62
341.158	135.62
341.386	131.62
341.614	139.62
341.842	136.62
342.07	142.62
342.298	138.62
342.526	138.62
342.754	136.62
342.981	121.62
343.209	140.62
343.437	168.62
343.665	147.62
343.893	141.62
344.12	177.62
344.348	149.62
344.576	146.62
344.804	132.62
345.031	140.62
345.259	124.62
345.487	132.62
345.714	133.62
345.942	122.62
346.17	140.62
346.397	121.62
346.625	147.62
346.853	137.62
347.08	130.62
347.308	141.62
347.535	142.62
347.763	150.62
347.99	126.62
348.218	143.62
348.445	126.62
348.673	131.62
348.9	145.62
349.128	141.62
349.355	130.62
349.583	119.62
349.81	108.62
350.037	126.62
350.265	145.62
350.492	122.62
350.72	118.62
350.947	124.62
351.174	141.62
351.402	123.62
351.629	128.62
351.856	136.62
352.083	126.62
352.311	147.62
352.538	141.62
352.765	133.62
352.992	147.62
353.22	117.62
353.447	130.62
353.674	145.62
353.901	136.62
354.128	140.62
354.355	126.62
354.583	136.62
354.81	133.62
355.037	130.62
355.264	129.62
355.491	123.62
355.718	124.62
355.945	127.62
356.172	120.62
356.399	124.62
356.626	122.62
356.853	124.62
357.08	140.62
357.307	137.62
357.534	130.62
357.761	133.62
357.988	149.62
358.215	129.62
358.441	121.62
358.668	138.62
358.895	129.62
359.122	131.62
359.349	120.62
359.576	140.62
359.802	116.62
360.029	126.62
360.256	131.62
360.483	124.62
360.709	122.62
360.936	153.62
361.163	125.62
361.39	141.62
361.616	145.62
361.843	142.62
362.07	149.62
362.296	115.62
362.523	126.62
362.749	136.62
362.976	115.62
363.203	136.62
363.429	137.62
363.656	149.62
363.882	133.62
364.109	141.62
364.335	116.62
364.562	151.62
364.788	132.62
365.015	129.62
365.241	131.62
365.468	137.62
365.694	125.62
365.92	131.62
366.147	127.62
366.373	129.62
366.599	141.62
366.826	130.62
367.052	124.62
367.278	124.62
367.505	127.62
367.731	143.62
367.957	129.62
368.184	136.62
368.41	135.62
368.636	129.62
368.862	128.62
369.089	125.62
369.315	126.62
369.541	136.62
369.767	149.62
369.993	137.62
370.219	123.62
370.445	126.62
370.672	141.62
370.898	127.62
371.124	122.62
371.35	126.62
371.576	132.62
371.802	121.62
372.028	130.62
372.254	145.62
372.48	141.62
372.706	157.62
372.932	145.62
373.158	125.62
373.384	142.62
373.61	145.62
373.835	140.62
374.061	129.62
374.287	123.62
374.513	129.62
374.739	137.62
374.965	149.62
375.191	130.62
375.416	141.62
375.642	150.62
375.868	138.62
376.094	162.62
376.319	130.62
376.545	153.62
376.771	137.62
376.997	133.62
377.222	136.62
377.448	168.62
377.674	134.62
377.899	130.62
378.125	136.62
378.35	133.62
378.576	135.62
378.802	141.62
379.027	147.62
379.253	144.62
379.478	139.62
379.704	147.62
379.929	139.62
380.155	122.62
380.38	138.62
380.606	145.62
380.831	126.62
381.057	149.62
381.282	123.62
381.507	129.62
381.733	137.62
381.958	147.62
382.184	138.62
382.409	131.62
382.634	142.62
382.86	145.62
383.085	146.62
383.31	155.62
383.535	139.62
383.761	143.62
383.986	166.62
384.211	141.62
384.436	157.62
384.662	163.62
384.887	122.62
385.112	151.62
385.337	142.62
385.562	161.62
385.787	141.62
386.013	164.62
386.238	155.62
386.463	146.62
386.688	179.62
386.913	166.62
387.138	156.62
387.363	148.62
387.588	158.62
387.813	159.62
388.038	148.62
388.263	142.62
388.488	167.62
388.713	155.62
388.938	126.62
389.163	159.62
389.387	146.62
389.612	149.62
389.837	148.62
390.062	151.62
390.287	148.62
390.512	159.62
390.736	153.62
390.961	147.62
391.186	163.62
391.411	168.62
391.636	169.62
391.86	159.62
392.085	166.62
392.31	165.62
392.534	145.62
392.759	172.62
392.984	153.62
393.208	147.62
393.433	160.62
393.658	161.62
393.882	146.62
394.107	140.62
394.331	157.62
394.556	154.62
394.78	157.62
395.005	151.62
395.229	173.62
395.454	163.62
395.678	166.62
395.903	157.62
396.127	166.62
396.352	163.62
396.576	168.62
396.801	151.62
397.025	163.62
397.249	154.62
397.474	178.62
397.698	165.62
397.922	175.62
398.147	172.62
398.371	147.62
398.595	171.62
398.82	175.62
399.044	172.62
399.268	193.62
399.492	206.62
399.717	226.62
399.941	212.62
400.165	194.62
400.389	187.62
400.613	179.62
400.837	178.62
401.062	188.62
401.286	163.62
401.51	154.62
401.734	163.62
401.958	169.62
402.182	163.62
402.406	192.62
402.63	161.62
402.854	186.62
403.078	176.62
403.302	182.62
403.526	193.62
403.75	177.62
403.974	175.62
404.198	198.62
404.422	191.62
404.645	187.62
404.869	199.62
405.093	196.62
405.317	195.62
405.541	189.62
405.765	171.62
405.988	172.62
406.212	182.62
406.436	179.62
406.66	177.62
406.883	189.62
407.107	188.62
407.331	191.62
407.555	188.62
407.778	199.62
408.002	219.62
408.226	182.62
408.449	176.62
408.673	190.62
408.896	180.62
409.12	190.62
409.344	188.62
409.567	196.62
409.791	203.62
410.014	178.62
410.238	183.62
410.461	170.62
410.685	182.62
410.908	161.62
411.132	183.62
411.355	179.62
411.578	169.62
411.802	179.62
412.025	173.62
412.249	172.62
412.472	159.62
412.695	172.62
412.919	170.62
413.142	171.62
413.365	170.62
413.589	182.62
413.812	167.62
414.035	172.62
414.258	177.62
414.482	171.62
414.705	167.62
414.928	173.62
415.151	172.62
415.374	181.62
415.597	155.62
415.821	186.62
416.044	160.62
416.267	163.62
416.49	150.62
416.713	166.62
416.936	175.62
417.159	155.62
417.382	164.62
417.605	165.62
417.828	165.62
418.051	164.62
418.274	183.62
418.497	160.62
418.72	170.62
418.943	189.62
419.166	166.62
419.389	182.62
419.611	183.62
419.834	181.62
420.057	181.62
420.28	183.62
420.503	162.62
420.726	165.62
420.948	159.62
421.171	158.62
421.394	171.62
421.617	161.62
421.839	176.62
422.062	175.62
422.285	163.62
422.507	165.62
422.73	159.62
422.953	160.62
423.175	171.62
423.398	163.62
423.621	176.62
423.843	183.62
424.066	174.62
424.288	169.62
424.511	175.62
424.733	155.62
424.956	173.62
425.178	171.62
425.401	172.62
425.623	166.62
425.846	157.62
426.068	175.62
426.291	168.62
426.513	156.62
426.735	171.62
426.958	177.62
427.18	173.62
427.402	172.62
427.625	161.62
427.847	151.62
428.069	142.62
428.292	149.62
428.514	155.62
428.736	142.62
428.958	162.62
429.181	166.62
429.403	160.62
429.625	153.62
429.847	161.62
430.069	171.62
430.292	152.62
430.514	154.62
430.736	159.62
430.958	170.62
431.18	147.62
431.402	157.62
431.624	149.62
431.846	155.62
432.068	171.62
432.29	171.62
432.512	153.62
432.734	163.62
432.956	148.62
433.178	179.62
433.4	164.62
433.622	164.62
433.844	175.62
434.066	165.62
434.287	154.62
434.509	144.62
434.731	162.62
434.953	163.62
435.175	167.62
435.397	167.62
435.618	152.62
435.84	179.62
436.062	161.62
436.284	158.62
436.505	173.62
436.727	154.62
436.949	159.62
437.17	150.62
437.392	155.62
437.614	165.62
437.835	150.62
438.057	153.62
438.278	159.62
438.5	136.62
438.721	159.62
438.943	181.62
439.165	152.62
439.386	159.62
439.608	157.62
439.829	165.62
440.05	178.62
440.272	165.62
440.493	165.62
440.715	171.62
440.936	167.62
441.158	165.62
441.379	148.62
441.6	157.62
441.822	164.62
442.043	181.62
442.264	170.62
442.486	165.62
442.707	161.62
442.928	147.62
443.149	170.62
443.371	170.62
443.592	173.62
443.813	187.62
444.034	186.62
444.255	190.62
444.476	176.62
444.698	177.62
444.919	187.62
445.14	385.62
445.361	268.62
445.582	167.62
445.803	160.62
446.024	163.62
446.245	164.62
446.466	157.62
446.687	151.62
446.908	153.62
447.129	165.62
447.35	168.62
447.571	163.62
447.792	162.62
448.013	132.62
448.234	151.62
448.455	150.62
448.675	161.62
448.896	144.62
449.117	150.62
449.338	146.62
449.559	156.62
449.779	151.62
450	143.62
450.221	137.62
450.442	149.62
450.662	161.62
450.883	150.62
451.104	171.62
451.324	145.62
451.545	142.62
451.766	159.62
451.986	173.62
452.207	136.62
452.428	145.62
452.648	159.62
452.869	151.62
453.089	151.62
453.31	137.62
453.53	145.62
453.751	149.62
453.971	151.62
454.192	131.62
454.412	147.62
454.633	151.62
454.853	150.62
455.073	145.62
455.294	167.62
455.514	152.62
455.734	145.62
455.955	140.62
456.175	136.62
456.395	150.62
456.616	140.62
456.836	153.62
457.056	135.62
457.276	132.62
457.497	132.62
457.717	155.62
457.937	140.62
458.157	142.62
458.377	139.62
458.598	132.62
458.818	156.62
459.038	150.62
459.258	172.62
459.478	156.62
459.698	156.62
459.918	150.62
460.138	155.62
460.358	159.62
460.578	180.62
460.798	175.62
461.018	177.62
461.238	181.62
461.458	170.62
461.678	187.62
461.898	180.62
462.118	170.62
462.338	195.62
462.558	196.62
462.777	190.62
462.997	220.62
463.217	227.62
463.437	197.62
463.657	190.62
463.876	201.62
464.096	191.62
464.316	198.62
464.536	200.62
464.755	206.62
464.975	196.62
465.195	171.62
465.414	176.62
465.634	158.62
465.854	167.62
466.073	160.62
466.293	155.62
466.512	163.62
466.732	154.62
466.951	153.62
467.171	163.62
467.391	156.62
467.61	158.62
467.829	154.62
468.049	169.62
468.268	165.62
468.488	151.62
468.707	136.62
468.927	149.62
469.146	159.62
469.365	155.62
469.585	153.62
469.804	165.62
470.023	183.62
470.243	181.62
470.462	162.62
470.681	177.62
470.901	149.62
471.12	163.62
471.339	166.62
471.558	163.62
471.777	171.62
471.997	155.62
472.216	140.62
472.435	155.62
472.654	161.62
472.873	164.62
473.092	152.62
473.311	159.62
473.53	147.62
473.749	168.62
473.968	167.62
474.187	148.62
474.406	140.62
474.625	159.62
474.844	155.62
475.063	143.62
475.282	149.62
475.501	130.62
475.72	169.62
475.939	154.62
476.158	143.62
476.377	153.62
476.596	160.62
476.814	159.62
477.033	163.62
477.252	165.62
477.471	168.62
477.69	159.62
477.908	165.62
478.127	186.62
478.346	160.62
478.564	174.62
478.783	166.62
479.002	171.62
479.22	167.62
479.439	186.62
479.658	172.62
479.876	179.62
480.095	183.62
480.313	184.62
480.532	200.62
480.751	179.62
480.969	161.62
481.188	187.62
481.406	151.62
481.624	165.62
481.843	160.62
482.061	166.62
482.28	162.62
482.498	164.62
482.717	155.62
482.935	169.62
483.153	166.62
483.372	151.62
483.59	170.62
483.808	159.62
484.027	164.62
484.245	177.62
484.463	168.62
484.681	188.62
484.9	183.62
485.118	181.62
485.336	153.62
485.554	172.62
485.772	164.62
485.99	179.62
486.209	171.62
486.427	178.62
486.645	177.62
486.863	170.62
487.081	181.62
487.299	176.62
487.517	174.62
487.735	171.62
487.953	163.62
488.171	162.62
488.389	173.62
488.607	170.62
488.825	159.62
489.043	171.62
489.261	181.62
489.479	173.62
489.696	165.62
489.914	156.62
490.132	161.62
490.35	167.62
490.568	165.62
490.786	188.62
491.003	164.62
491.221	179.62
491.439	177.62
491.657	176.62
491.874	188.62
492.092	172.62
492.31	188.62
492.527	166.62
492.745	162.62
492.963	174.62
493.18	168.62
493.398	173.62
493.615	174.62
493.833	183.62
494.05	173.62
494.268	159.62
494.485	179.62
494.703	179.62
494.92	164.62
495.138	170.62
495.355	180.62
495.573	184.62
495.79	162.62
496.008	189.62
496.225	169.62
496.442	167.62
496.66	197.62
496.877	179.62
497.094	185.62
497.312	175.62
497.529	174.62
497.746	194.62
497.963	188.62
498.181	197.62
498.398	198.62
498.615	213.62
498.832	221.62
499.049	234.62
499.267	257.62
499.484	274.62
499.701	301.62
499.918	311.62
500.135	350.62
500.352	368.62
500.569	382.62
500.786	371.62
501.003	343.62
501.22	315.62
501.437	283.62
501.654	257.62
501.871	253.62
502.088	248.62
502.305	233.62
502.522	229.62
502.739	213.62
502.956	199.62
503.172	203.62
503.389	192.62
503.606	189.62
503.823	195.62
504.04	196.62
504.256	188.62
504.473	211.62
504.69	202.62
