Data from SampG_HRD10591_00070.txt Node
Date: Mon Jan 19 11:54:07 EST 2026
User: Yrep
Spectrometer: HR+D1059
Trigger mode: 0
Integration Time (sec): 3.443000E-1
Scans to average: 1
Electric dark correction enabled: true
Nonlinearity correction enabled: false
Boxcar width: 0
XAxis mode: Wavelengths
Number of Pixels in Spectrum: 2048
>>>>>Begin Spectral Data<<<<<
223.165	-12.25
223.4	-12.25
223.635	-12.25
223.869	-19.25
224.104	-30.25
224.338	-22.25
224.573	-22.25
224.808	-18.25
225.042	-1.25
225.277	-8.25
225.511	-8.25
225.746	9.75
225.98	10.75
226.215	11.75
226.449	14.75
226.683	26.75
226.918	34.75
227.152	33.75
227.387	42.75
227.621	36.75
227.856	50.75
228.09	52.75
228.324	55.75
228.559	64.75
228.793	68.75
229.027	72.75
229.262	77.75
229.496	84.75
229.73	72.75
229.964	76.75
230.199	75.75
230.433	79.75
230.667	91.75
230.901	77.75
231.136	71.75
231.37	91.75
231.604	98.75
231.838	98.75
232.072	72.75
232.306	79.75
232.541	97.75
232.775	91.75
233.009	77.75
233.243	101.75
233.477	79.75
233.711	88.75
233.945	92.75
234.179	82.75
234.413	93.75
234.647	85.75
234.881	77.75
235.115	84.75
235.349	94.75
235.583	89.75
235.817	81.75
236.051	88.75
236.285	90.75
236.519	97.75
236.753	98.75
236.987	81.75
237.221	85.75
237.455	84.75
237.689	97.75
237.922	86.75
238.156	92.75
238.39	73.75
238.624	90.75
238.858	82.75
239.091	92.75
239.325	81.75
239.559	80.75
239.793	73.75
240.027	82.75
240.26	91.75
240.494	78.75
240.728	94.75
240.961	88.75
241.195	95.75
241.429	96.75
241.662	80.75
241.896	85.75
242.13	79.75
242.363	81.75
242.597	93.75
242.83	107.75
243.064	89.75
243.298	81.75
243.531	92.75
243.765	98.75
243.998	89.75
244.232	95.75
244.465	87.75
244.699	103.75
244.932	72.75
245.166	96.75
245.399	93.75
245.633	92.75
245.866	88.75
246.099	94.75
246.333	92.75
246.566	97.75
246.8	96.75
247.033	86.75
247.266	107.75
247.5	71.75
247.733	104.75
247.966	85.75
248.2	92.75
248.433	77.75
248.666	91.75
248.899	93.75
249.133	103.75
249.366	108.75
249.599	92.75
249.832	100.75
250.066	96.75
250.299	94.75
250.532	92.75
250.765	93.75
250.998	91.75
251.231	87.75
251.465	92.75
251.698	89.75
251.931	104.75
252.164	90.75
252.397	102.75
252.63	92.75
252.863	92.75
253.096	90.75
253.329	104.75
253.562	92.75
253.795	102.75
254.028	102.75
254.261	108.75
254.494	71.75
254.727	113.75
254.96	105.75
255.193	88.75
255.426	97.75
255.659	94.75
255.892	113.75
256.124	99.75
256.357	93.75
256.59	108.75
256.823	90.75
257.056	113.75
257.289	108.75
257.521	88.75
257.754	97.75
257.987	94.75
258.22	104.75
258.452	100.75
258.685	107.75
258.918	99.75
259.151	93.75
259.383	105.75
259.616	84.75
259.849	103.75
260.081	96.75
260.314	103.75
260.547	95.75
260.779	106.75
261.012	93.75
261.244	105.75
261.477	106.75
261.71	105.75
261.942	98.75
262.175	109.75
262.407	92.75
262.64	111.75
262.872	110.75
263.105	98.75
263.337	109.75
263.57	117.75
263.802	106.75
264.035	116.75
264.267	111.75
264.499	98.75
264.732	107.75
264.964	113.75
265.197	100.75
265.429	109.75
265.661	114.75
265.894	93.75
266.126	117.75
266.358	96.75
266.591	105.75
266.823	100.75
267.055	105.75
267.287	112.75
267.52	104.75
267.752	106.75
267.984	105.75
268.216	114.75
268.448	122.75
268.681	114.75
268.913	106.75
269.145	101.75
269.377	106.75
269.609	109.75
269.841	108.75
270.073	95.75
270.306	105.75
270.538	100.75
270.77	104.75
271.002	110.75
271.234	117.75
271.466	115.75
271.698	107.75
271.93	100.75
272.162	108.75
272.394	112.75
272.626	97.75
272.858	104.75
273.09	90.75
273.322	102.75
273.553	103.75
273.785	121.75
274.017	92.75
274.249	109.75
274.481	103.75
274.713	89.75
274.945	98.75
275.176	101.75
275.408	104.75
275.64	106.75
275.872	101.75
276.104	103.75
276.335	115.75
276.567	116.75
276.799	122.75
277.031	90.75
277.262	106.75
277.494	106.75
277.726	119.75
277.957	123.75
278.189	116.75
278.421	124.75
278.652	124.75
278.884	106.75
279.115	129.75
279.347	111.75
279.579	108.75
279.81	98.75
280.042	118.75
280.273	108.75
280.505	112.75
280.736	117.75
280.968	122.75
281.199	102.75
281.431	117.75
281.662	102.75
281.894	102.75
282.125	123.75
282.356	124.75
282.588	119.75
282.819	117.75
283.051	106.75
283.282	107.75
283.513	124.75
283.745	117.75
283.976	107.75
284.207	117.75
284.439	114.75
284.67	128.75
284.901	126.75
285.132	121.75
285.364	111.75
285.595	118.75
285.826	116.75
286.057	125.75
286.288	122.75
286.52	121.75
286.751	112.75
286.982	112.75
287.213	119.75
287.444	120.75
287.675	132.75
287.906	121.75
288.138	126.75
288.369	114.75
288.6	119.75
288.831	115.75
289.062	137.75
289.293	130.75
289.524	121.75
289.755	128.75
289.986	123.75
290.217	120.75
290.448	116.75
290.679	121.75
290.91	133.75
291.141	125.75
291.371	111.75
291.602	118.75
291.833	119.75
292.064	132.75
292.295	132.75
292.526	121.75
292.757	137.75
292.987	128.75
293.218	108.75
293.449	127.75
293.68	127.75
293.91	114.75
294.141	122.75
294.372	101.75
294.603	130.75
294.833	135.75
295.064	136.75
295.295	131.75
295.525	121.75
295.756	119.75
295.987	133.75
296.217	137.75
296.448	126.75
296.679	117.75
296.909	121.75
297.14	117.75
297.37	131.75
297.601	139.75
297.831	115.75
298.062	119.75
298.292	129.75
298.523	137.75
298.753	124.75
298.984	120.75
299.214	120.75
299.445	130.75
299.675	137.75
299.905	124.75
300.136	129.75
300.366	125.75
300.597	125.75
300.827	119.75
301.057	120.75
301.288	137.75
301.518	122.75
301.748	123.75
301.979	172.75
302.209	137.75
302.439	124.75
302.669	142.75
302.9	125.75
303.13	138.75
303.36	133.75
303.59	122.75
303.82	127.75
304.051	129.75
304.281	123.75
304.511	133.75
304.741	128.75
304.971	134.75
305.201	126.75
305.431	136.75
305.661	124.75
305.891	134.75
306.121	137.75
306.352	126.75
306.582	119.75
306.812	126.75
307.042	134.75
307.272	121.75
307.502	124.75
307.731	129.75
307.961	119.75
308.191	135.75
308.421	129.75
308.651	129.75
308.881	131.75
309.111	136.75
309.341	120.75
309.571	137.75
309.8	112.75
310.03	112.75
310.26	120.75
310.49	136.75
310.72	137.75
310.949	136.75
311.179	142.75
311.409	127.75
311.639	128.75
311.868	140.75
312.098	136.75
312.328	131.75
312.557	133.75
312.787	129.75
313.017	139.75
313.246	135.75
313.476	138.75
313.706	135.75
313.935	133.75
314.165	120.75
314.394	125.75
314.624	126.75
314.853	129.75
315.083	132.75
315.312	132.75
315.542	130.75
315.771	133.75
316.001	120.75
316.23	126.75
316.46	133.75
316.689	118.75
316.919	137.75
317.148	140.75
317.377	146.75
317.607	126.75
317.836	128.75
318.065	122.75
318.295	113.75
318.524	125.75
318.753	126.75
318.983	149.75
319.212	138.75
319.441	125.75
319.67	135.75
319.9	136.75
320.129	126.75
320.358	132.75
320.587	134.75
320.816	120.75
321.046	134.75
321.275	122.75
321.504	118.75
321.733	135.75
321.962	140.75
322.191	136.75
322.42	128.75
322.649	124.75
322.878	130.75
323.108	133.75
323.337	142.75
323.566	135.75
323.795	138.75
324.024	141.75
324.253	138.75
324.482	133.75
324.71	148.75
324.939	118.75
325.168	137.75
325.397	142.75
325.626	124.75
325.855	127.75
326.084	157.75
326.313	139.75
326.542	142.75
326.77	128.75
326.999	125.75
327.228	127.75
327.457	141.75
327.686	146.75
327.914	129.75
328.143	140.75
328.372	138.75
328.6	141.75
328.829	143.75
329.058	125.75
329.287	124.75
329.515	118.75
329.744	154.75
329.972	142.75
330.201	132.75
330.43	125.75
330.658	122.75
330.887	136.75
331.115	142.75
331.344	142.75
331.572	141.75
331.801	141.75
332.03	133.75
332.258	159.75
332.486	148.75
332.715	137.75
332.943	154.75
333.172	158.75
333.4	164.75
333.629	155.75
333.857	157.75
334.085	168.75
334.314	144.75
334.542	148.75
334.771	153.75
334.999	164.75
335.227	137.75
335.455	151.75
335.684	156.75
335.912	161.75
336.14	149.75
336.369	161.75
336.597	170.75
336.825	160.75
337.053	149.75
337.281	148.75
337.51	154.75
337.738	133.75
337.966	127.75
338.194	128.75
338.422	156.75
338.65	142.75
338.878	152.75
339.106	134.75
339.334	141.75
339.562	137.75
339.79	143.75
340.018	132.75
340.246	125.75
340.474	136.75
340.702	142.75
340.93	132.75
341.158	140.75
341.386	138.75
341.614	137.75
341.842	137.75
342.07	150.75
342.298	155.75
342.526	135.75
342.754	137.75
342.981	136.75
343.209	138.75
343.437	187.75
343.665	143.75
343.893	164.75
344.12	162.75
344.348	146.75
344.576	132.75
344.804	150.75
345.031	133.75
345.259	132.75
345.487	123.75
345.714	119.75
345.942	124.75
346.17	128.75
346.397	140.75
346.625	137.75
346.853	140.75
347.08	139.75
347.308	146.75
347.535	146.75
347.763	138.75
347.99	145.75
348.218	151.75
348.445	141.75
348.673	126.75
348.9	145.75
349.128	140.75
349.355	137.75
349.583	117.75
349.81	150.75
350.037	142.75
350.265	141.75
350.492	143.75
350.72	131.75
350.947	126.75
351.174	132.75
351.402	138.75
351.629	142.75
351.856	128.75
352.083	137.75
352.311	161.75
352.538	136.75
352.765	147.75
352.992	138.75
353.22	133.75
353.447	140.75
353.674	140.75
353.901	138.75
354.128	141.75
354.355	122.75
354.583	137.75
354.81	149.75
355.037	144.75
355.264	129.75
355.491	140.75
355.718	145.75
355.945	145.75
356.172	142.75
356.399	137.75
356.626	145.75
356.853	140.75
357.08	142.75
357.307	131.75
357.534	136.75
357.761	141.75
357.988	140.75
358.215	125.75
358.441	132.75
358.668	144.75
358.895	136.75
359.122	137.75
359.349	123.75
359.576	125.75
359.802	139.75
360.029	128.75
360.256	137.75
360.483	134.75
360.709	129.75
360.936	137.75
361.163	139.75
361.39	124.75
361.616	137.75
361.843	136.75
362.07	136.75
362.296	133.75
362.523	124.75
362.749	132.75
362.976	123.75
363.203	141.75
363.429	135.75
363.656	121.75
363.882	136.75
364.109	137.75
364.335	153.75
364.562	142.75
364.788	125.75
365.015	143.75
365.241	141.75
365.468	142.75
365.694	138.75
365.92	129.75
366.147	143.75
366.373	104.75
366.599	135.75
366.826	141.75
367.052	149.75
367.278	134.75
367.505	137.75
367.731	144.75
367.957	128.75
368.184	132.75
368.41	153.75
368.636	139.75
368.862	133.75
369.089	121.75
369.315	132.75
369.541	142.75
369.767	132.75
369.993	137.75
370.219	127.75
370.445	118.75
370.672	132.75
370.898	135.75
371.124	144.75
371.35	133.75
371.576	146.75
371.802	152.75
372.028	136.75
372.254	141.75
372.48	152.75
372.706	130.75
372.932	146.75
373.158	150.75
373.384	152.75
373.61	143.75
373.835	135.75
374.061	141.75
374.287	144.75
374.513	143.75
374.739	156.75
374.965	165.75
375.191	148.75
375.416	152.75
375.642	146.75
375.868	167.75
376.094	150.75
376.319	138.75
376.545	138.75
376.771	156.75
376.997	148.75
377.222	139.75
377.448	129.75
377.674	123.75
377.899	146.75
378.125	152.75
378.35	147.75
378.576	137.75
378.802	145.75
379.027	132.75
379.253	146.75
379.478	144.75
379.704	142.75
379.929	144.75
380.155	138.75
380.38	135.75
380.606	141.75
380.831	153.75
381.057	150.75
381.282	135.75
381.507	139.75
381.733	154.75
381.958	153.75
382.184	131.75
382.409	126.75
382.634	149.75
382.86	156.75
383.085	155.75
383.31	170.75
383.535	151.75
383.761	159.75
383.986	165.75
384.211	151.75
384.436	162.75
384.662	166.75
384.887	144.75
385.112	161.75
385.337	150.75
385.562	158.75
385.787	152.75
386.013	156.75
386.238	166.75
386.463	163.75
386.688	179.75
386.913	164.75
387.138	162.75
387.363	146.75
387.588	154.75
387.813	145.75
388.038	141.75
388.263	169.75
388.488	156.75
388.713	151.75
388.938	152.75
389.163	135.75
389.387	150.75
389.612	156.75
389.837	166.75
390.062	167.75
390.287	154.75
390.512	141.75
390.736	145.75
390.961	170.75
391.186	161.75
391.411	168.75
391.636	180.75
391.86	168.75
392.085	170.75
392.31	166.75
392.534	166.75
392.759	157.75
392.984	149.75
393.208	174.75
393.433	155.75
393.658	162.75
393.882	175.75
394.107	164.75
394.331	154.75
394.556	154.75
394.78	137.75
395.005	158.75
395.229	178.75
395.454	155.75
395.678	158.75
395.903	162.75
396.127	160.75
396.352	154.75
396.576	155.75
396.801	157.75
397.025	148.75
397.249	165.75
397.474	176.75
397.698	164.75
397.922	172.75
398.147	166.75
398.371	167.75
398.595	158.75
398.82	176.75
399.044	184.75
399.268	203.75
399.492	215.75
399.717	237.75
399.941	225.75
400.165	202.75
400.389	199.75
400.613	189.75
400.837	190.75
401.062	168.75
401.286	184.75
401.51	180.75
401.734	161.75
401.958	164.75
402.182	164.75
402.406	162.75
402.63	175.75
402.854	196.75
403.078	167.75
403.302	191.75
403.526	201.75
403.75	205.75
403.974	181.75
404.198	198.75
404.422	184.75
404.645	188.75
404.869	200.75
405.093	173.75
405.317	190.75
405.541	187.75
405.765	198.75
405.988	175.75
406.212	199.75
406.436	175.75
406.66	190.75
406.883	185.75
407.107	187.75
407.331	214.75
407.555	219.75
407.778	186.75
408.002	190.75
408.226	198.75
408.449	197.75
408.673	190.75
408.896	200.75
409.12	193.75
409.344	181.75
409.567	186.75
409.791	188.75
410.014	197.75
410.238	184.75
410.461	190.75
410.685	196.75
410.908	187.75
411.132	192.75
411.355	189.75
411.578	178.75
411.802	166.75
412.025	169.75
412.249	181.75
412.472	180.75
412.695	170.75
412.919	173.75
413.142	184.75
413.365	174.75
413.589	188.75
413.812	164.75
414.035	173.75
414.258	188.75
414.482	176.75
414.705	173.75
414.928	178.75
415.151	164.75
415.374	168.75
415.597	176.75
415.821	178.75
416.044	174.75
416.267	162.75
416.49	174.75
416.713	170.75
416.936	172.75
417.159	177.75
417.382	172.75
417.605	175.75
417.828	181.75
418.051	190.75
418.274	178.75
418.497	171.75
418.72	186.75
418.943	205.75
419.166	173.75
419.389	186.75
419.611	190.75
419.834	201.75
420.057	183.75
420.28	184.75
420.503	186.75
420.726	173.75
420.948	173.75
421.171	188.75
421.394	169.75
421.617	190.75
421.839	193.75
422.062	182.75
422.285	184.75
422.507	164.75
422.73	173.75
422.953	176.75
423.175	164.75
423.398	186.75
423.621	191.75
423.843	191.75
424.066	186.75
424.288	169.75
424.511	181.75
424.733	186.75
424.956	179.75
425.178	185.75
425.401	181.75
425.623	161.75
425.846	169.75
426.068	182.75
426.291	171.75
426.513	176.75
426.735	182.75
426.958	160.75
427.18	170.75
427.402	177.75
427.625	164.75
427.847	169.75
428.069	172.75
428.292	171.75
428.514	179.75
428.736	165.75
428.958	165.75
429.181	173.75
429.403	180.75
429.625	167.75
429.847	163.75
430.069	169.75
430.292	174.75
430.514	166.75
430.736	174.75
430.958	156.75
431.18	160.75
431.402	161.75
431.624	152.75
431.846	183.75
432.068	171.75
432.29	144.75
432.512	168.75
432.734	166.75
432.956	174.75
433.178	165.75
433.4	168.75
433.622	179.75
433.844	169.75
434.066	179.75
434.287	174.75
434.509	160.75
434.731	164.75
434.953	184.75
435.175	176.75
435.397	180.75
435.618	161.75
435.84	157.75
436.062	153.75
436.284	169.75
436.505	155.75
436.727	163.75
436.949	162.75
437.17	160.75
437.392	152.75
437.614	152.75
437.835	146.75
438.057	148.75
438.278	172.75
438.5	165.75
438.721	166.75
438.943	170.75
439.165	174.75
439.386	166.75
439.608	176.75
439.829	176.75
440.05	162.75
440.272	159.75
440.493	165.75
440.715	153.75
440.936	166.75
441.158	170.75
441.379	168.75
441.6	179.75
441.822	171.75
442.043	172.75
442.264	175.75
442.486	178.75
442.707	158.75
442.928	179.75
443.149	183.75
443.371	171.75
443.592	161.75
443.813	179.75
444.034	167.75
444.255	188.75
444.476	182.75
444.698	188.75
444.919	209.75
445.14	395.75
445.361	270.75
445.582	189.75
445.803	180.75
446.024	181.75
446.245	174.75
446.466	184.75
446.687	159.75
446.908	175.75
447.129	172.75
447.35	156.75
447.571	164.75
447.792	156.75
448.013	162.75
448.234	148.75
448.455	139.75
448.675	151.75
448.896	156.75
449.117	170.75
449.338	152.75
449.559	167.75
449.779	159.75
450	168.75
450.221	148.75
450.442	173.75
450.662	148.75
450.883	151.75
451.104	174.75
451.324	166.75
451.545	157.75
451.766	160.75
451.986	141.75
452.207	159.75
452.428	162.75
452.648	151.75
452.869	162.75
453.089	140.75
453.31	146.75
453.53	159.75
453.751	166.75
453.971	152.75
454.192	133.75
454.412	135.75
454.633	153.75
454.853	148.75
455.073	142.75
455.294	160.75
455.514	168.75
455.734	137.75
455.955	159.75
456.175	162.75
456.395	159.75
456.616	157.75
456.836	131.75
457.056	153.75
457.276	148.75
457.497	141.75
457.717	157.75
457.937	129.75
458.157	152.75
458.377	149.75
458.598	153.75
458.818	149.75
459.038	153.75
459.258	165.75
459.478	158.75
459.698	164.75
459.918	169.75
460.138	178.75
460.358	169.75
460.578	187.75
460.798	184.75
461.018	184.75
461.238	182.75
461.458	188.75
461.678	196.75
461.898	185.75
462.118	192.75
462.338	189.75
462.558	198.75
462.777	204.75
462.997	208.75
463.217	218.75
463.437	217.75
463.657	199.75
463.876	189.75
464.096	207.75
464.316	195.75
464.536	193.75
464.755	182.75
464.975	189.75
465.195	183.75
465.414	182.75
465.634	180.75
465.854	167.75
466.073	167.75
466.293	161.75
466.512	173.75
466.732	164.75
466.951	160.75
467.171	150.75
467.391	145.75
467.61	153.75
467.829	164.75
468.049	164.75
468.268	152.75
468.488	153.75
468.707	167.75
468.927	162.75
469.146	140.75
469.365	168.75
469.585	160.75
469.804	164.75
470.023	176.75
470.243	160.75
470.462	162.75
470.681	162.75
470.901	161.75
471.12	175.75
471.339	157.75
471.558	146.75
471.777	178.75
471.997	147.75
472.216	155.75
472.435	150.75
472.654	150.75
472.873	159.75
473.092	159.75
473.311	147.75
473.53	145.75
473.749	148.75
473.968	137.75
474.187	145.75
474.406	153.75
474.625	152.75
474.844	144.75
475.063	161.75
475.282	170.75
475.501	160.75
475.72	168.75
475.939	150.75
476.158	150.75
476.377	153.75
476.596	156.75
476.814	140.75
477.033	168.75
477.252	162.75
477.471	174.75
477.69	155.75
477.908	173.75
478.127	180.75
478.346	154.75
478.564	184.75
478.783	177.75
479.002	165.75
479.22	169.75
479.439	164.75
479.658	168.75
479.876	183.75
480.095	177.75
480.313	186.75
480.532	190.75
480.751	181.75
480.969	171.75
481.188	176.75
481.406	189.75
481.624	186.75
481.843	204.75
482.061	179.75
482.28	163.75
482.498	169.75
482.717	155.75
482.935	156.75
483.153	170.75
483.372	156.75
483.59	164.75
483.808	169.75
484.027	184.75
484.245	174.75
484.463	164.75
484.681	166.75
484.9	184.75
485.118	180.75
485.336	181.75
485.554	152.75
485.772	184.75
485.99	159.75
486.209	169.75
486.427	177.75
486.645	155.75
486.863	166.75
487.081	172.75
487.299	179.75
487.517	172.75
487.735	177.75
487.953	165.75
488.171	173.75
488.389	184.75
488.607	180.75
488.825	171.75
489.043	182.75
489.261	176.75
489.479	168.75
489.696	172.75
489.914	156.75
490.132	176.75
490.35	176.75
490.568	159.75
490.786	156.75
491.003	163.75
491.221	169.75
491.439	176.75
491.657	165.75
491.874	167.75
492.092	172.75
492.31	173.75
492.527	185.75
492.745	180.75
492.963	176.75
493.18	183.75
493.398	182.75
493.615	178.75
493.833	179.75
494.05	155.75
494.268	181.75
494.485	181.75
494.703	179.75
494.92	171.75
495.138	174.75
495.355	202.75
495.573	184.75
495.79	157.75
496.008	180.75
496.225	174.75
496.442	166.75
496.66	177.75
496.877	180.75
497.094	215.75
497.312	191.75
497.529	193.75
497.746	197.75
497.963	205.75
498.181	204.75
498.398	208.75
498.615	221.75
498.832	225.75
499.049	237.75
499.267	249.75
499.484	268.75
499.701	297.75
499.918	330.75
500.135	340.75
500.352	382.75
500.569	394.75
500.786	393.75
501.003	328.75
501.22	325.75
501.437	293.75
501.654	272.75
501.871	261.75
502.088	247.75
502.305	237.75
502.522	221.75
502.739	206.75
502.956	219.75
503.172	218.75
503.389	200.75
503.606	197.75
503.823	195.75
504.04	196.75
504.256	198.75
504.473	193.75
