Data from SampG_HRD10591_00053.txt Node
Date: Mon Jan 19 11:54:01 EST 2026
User: Yrep
Spectrometer: HR+D1059
Trigger mode: 0
Integration Time (sec): 3.443000E-1
Scans to average: 1
Electric dark correction enabled: true
Nonlinearity correction enabled: false
Boxcar width: 0
XAxis mode: Wavelengths
Number of Pixels in Spectrum: 2048
>>>>>Begin Spectral Data<<<<<
223.165	-22.44
223.4	-22.44
223.635	-22.44
223.869	-21.44
224.104	-24.44
224.338	-12.44
224.573	-21.44
224.808	-13.44
225.042	5.56
225.277	-14.44
225.511	-6.44
225.746	8.56
225.98	6.56
226.215	16.56
226.449	13.56
226.683	26.56
226.918	28.56
227.152	30.56
227.387	34.56
227.621	41.56
227.856	43.56
228.09	25.56
228.324	55.56
228.559	75.56
228.793	57.56
229.027	75.56
229.262	72.56
229.496	67.56
229.73	70.56
229.964	69.56
230.199	63.56
230.433	71.56
230.667	77.56
230.901	69.56
231.136	80.56
231.37	75.56
231.604	83.56
231.838	75.56
232.072	80.56
232.306	88.56
232.541	86.56
232.775	84.56
233.009	93.56
233.243	84.56
233.477	77.56
233.711	96.56
233.945	72.56
234.179	86.56
234.413	101.56
234.647	90.56
234.881	84.56
235.115	94.56
235.349	74.56
235.583	98.56
235.817	86.56
236.051	77.56
236.285	80.56
236.519	86.56
236.753	86.56
236.987	84.56
237.221	89.56
237.455	84.56
237.689	96.56
237.922	87.56
238.156	60.56
238.39	70.56
238.624	59.56
238.858	96.56
239.091	89.56
239.325	83.56
239.559	82.56
239.793	81.56
240.027	96.56
240.26	84.56
240.494	97.56
240.728	70.56
240.961	88.56
241.195	84.56
241.429	98.56
241.662	71.56
241.896	93.56
242.13	80.56
242.363	78.56
242.597	88.56
242.83	84.56
243.064	82.56
243.298	86.56
243.531	81.56
243.765	83.56
243.998	88.56
244.232	81.56
244.465	94.56
244.699	81.56
244.932	78.56
245.166	94.56
245.399	96.56
245.633	71.56
245.866	82.56
246.099	81.56
246.333	81.56
246.566	84.56
246.8	78.56
247.033	79.56
247.266	82.56
247.5	83.56
247.733	89.56
247.966	76.56
248.2	82.56
248.433	76.56
248.666	69.56
248.899	84.56
249.133	91.56
249.366	87.56
249.599	88.56
249.832	98.56
250.066	102.56
250.299	80.56
250.532	98.56
250.765	89.56
250.998	77.56
251.231	78.56
251.465	91.56
251.698	84.56
251.931	100.56
252.164	90.56
252.397	87.56
252.63	93.56
252.863	77.56
253.096	90.56
253.329	87.56
253.562	100.56
253.795	91.56
254.028	95.56
254.261	80.56
254.494	90.56
254.727	91.56
254.96	83.56
255.193	83.56
255.426	100.56
255.659	85.56
255.892	90.56
256.124	83.56
256.357	99.56
256.59	85.56
256.823	85.56
257.056	94.56
257.289	89.56
257.521	105.56
257.754	97.56
257.987	98.56
258.22	74.56
258.452	99.56
258.685	84.56
258.918	108.56
259.151	100.56
259.383	84.56
259.616	95.56
259.849	99.56
260.081	91.56
260.314	88.56
260.547	93.56
260.779	93.56
261.012	92.56
261.244	97.56
261.477	110.56
261.71	96.56
261.942	82.56
262.175	92.56
262.407	88.56
262.64	111.56
262.872	101.56
263.105	83.56
263.337	97.56
263.57	97.56
263.802	98.56
264.035	101.56
264.267	81.56
264.499	92.56
264.732	99.56
264.964	76.56
265.197	85.56
265.429	91.56
265.661	81.56
265.894	96.56
266.126	96.56
266.358	102.56
266.591	99.56
266.823	102.56
267.055	80.56
267.287	105.56
267.52	90.56
267.752	95.56
267.984	94.56
268.216	82.56
268.448	112.56
268.681	82.56
268.913	99.56
269.145	102.56
269.377	101.56
269.609	91.56
269.841	100.56
270.073	89.56
270.306	96.56
270.538	104.56
270.77	93.56
271.002	87.56
271.234	86.56
271.466	86.56
271.698	77.56
271.93	107.56
272.162	115.56
272.394	88.56
272.626	104.56
272.858	104.56
273.09	108.56
273.322	94.56
273.553	97.56
273.785	92.56
274.017	89.56
274.249	87.56
274.481	81.56
274.713	86.56
274.945	110.56
275.176	109.56
275.408	81.56
275.64	86.56
275.872	110.56
276.104	87.56
276.335	102.56
276.567	92.56
276.799	98.56
277.031	102.56
277.262	104.56
277.494	100.56
277.726	99.56
277.957	93.56
278.189	94.56
278.421	96.56
278.652	99.56
278.884	97.56
279.115	93.56
279.347	94.56
279.579	98.56
279.81	86.56
280.042	100.56
280.273	103.56
280.505	105.56
280.736	87.56
280.968	94.56
281.199	100.56
281.431	89.56
281.662	77.56
281.894	100.56
282.125	103.56
282.356	100.56
282.588	103.56
282.819	108.56
283.051	107.56
283.282	114.56
283.513	98.56
283.745	112.56
283.976	85.56
284.207	93.56
284.439	107.56
284.67	105.56
284.901	96.56
285.132	106.56
285.364	89.56
285.595	103.56
285.826	86.56
286.057	100.56
286.288	115.56
286.52	105.56
286.751	101.56
286.982	101.56
287.213	92.56
287.444	93.56
287.675	104.56
287.906	86.56
288.138	99.56
288.369	113.56
288.6	106.56
288.831	104.56
289.062	118.56
289.293	103.56
289.524	93.56
289.755	107.56
289.986	98.56
290.217	96.56
290.448	104.56
290.679	104.56
290.91	121.56
291.141	90.56
291.371	98.56
291.602	107.56
291.833	118.56
292.064	91.56
292.295	130.56
292.526	95.56
292.757	107.56
292.987	103.56
293.218	104.56
293.449	96.56
293.68	106.56
293.91	104.56
294.141	97.56
294.372	102.56
294.603	97.56
294.833	98.56
295.064	90.56
295.295	106.56
295.525	104.56
295.756	112.56
295.987	122.56
296.217	102.56
296.448	103.56
296.679	106.56
296.909	101.56
297.14	113.56
297.37	108.56
297.601	106.56
297.831	115.56
298.062	99.56
298.292	111.56
298.523	107.56
298.753	96.56
298.984	116.56
299.214	109.56
299.445	113.56
299.675	117.56
299.905	115.56
300.136	105.56
300.366	104.56
300.597	103.56
300.827	105.56
301.057	90.56
301.288	109.56
301.518	113.56
301.748	112.56
301.979	132.56
302.209	104.56
302.439	119.56
302.669	116.56
302.9	117.56
303.13	103.56
303.36	109.56
303.59	109.56
303.82	101.56
304.051	110.56
304.281	99.56
304.511	123.56
304.741	114.56
304.971	95.56
305.201	102.56
305.431	104.56
305.661	121.56
305.891	115.56
306.121	120.56
306.352	108.56
306.582	104.56
306.812	104.56
307.042	104.56
307.272	115.56
307.502	102.56
307.731	118.56
307.961	92.56
308.191	109.56
308.421	105.56
308.651	116.56
308.881	93.56
309.111	106.56
309.341	103.56
309.571	105.56
309.8	104.56
310.03	117.56
310.26	88.56
310.49	106.56
310.72	102.56
310.949	128.56
311.179	104.56
311.409	101.56
311.639	109.56
311.868	107.56
312.098	109.56
312.328	99.56
312.557	115.56
312.787	106.56
313.017	104.56
313.246	124.56
313.476	110.56
313.706	98.56
313.935	96.56
314.165	112.56
314.394	117.56
314.624	110.56
314.853	104.56
315.083	113.56
315.312	108.56
315.542	110.56
315.771	108.56
316.001	113.56
316.23	104.56
316.46	97.56
316.689	106.56
316.919	101.56
317.148	107.56
317.377	125.56
317.607	123.56
317.836	111.56
318.065	102.56
318.295	114.56
318.524	105.56
318.753	109.56
318.983	87.56
319.212	116.56
319.441	115.56
319.67	107.56
319.9	130.56
320.129	102.56
320.358	126.56
320.587	102.56
320.816	98.56
321.046	106.56
321.275	113.56
321.504	103.56
321.733	110.56
321.962	114.56
322.191	100.56
322.42	115.56
322.649	107.56
322.878	106.56
323.108	106.56
323.337	104.56
323.566	114.56
323.795	118.56
324.024	125.56
324.253	105.56
324.482	105.56
324.71	118.56
324.939	108.56
325.168	107.56
325.397	118.56
325.626	119.56
325.855	107.56
326.084	108.56
326.313	118.56
326.542	101.56
326.77	114.56
326.999	97.56
327.228	116.56
327.457	116.56
327.686	112.56
327.914	116.56
328.143	115.56
328.372	118.56
328.6	111.56
328.829	100.56
329.058	97.56
329.287	116.56
329.515	105.56
329.744	119.56
329.972	121.56
330.201	108.56
330.43	122.56
330.658	113.56
330.887	97.56
331.115	120.56
331.344	110.56
331.572	128.56
331.801	115.56
332.03	121.56
332.258	119.56
332.486	110.56
332.715	100.56
332.943	130.56
333.172	125.56
333.4	122.56
333.629	128.56
333.857	123.56
334.085	125.56
334.314	116.56
334.542	119.56
334.771	131.56
334.999	124.56
335.227	117.56
335.455	111.56
335.684	132.56
335.912	122.56
336.14	120.56
336.369	117.56
336.597	130.56
336.825	125.56
337.053	107.56
337.281	117.56
337.51	114.56
337.738	134.56
337.966	130.56
338.194	116.56
338.422	113.56
338.65	115.56
338.878	133.56
339.106	106.56
339.334	124.56
339.562	116.56
339.79	112.56
340.018	121.56
340.246	117.56
340.474	105.56
340.702	115.56
340.93	115.56
341.158	114.56
341.386	118.56
341.614	131.56
341.842	122.56
342.07	114.56
342.298	121.56
342.526	102.56
342.754	114.56
342.981	109.56
343.209	104.56
343.437	122.56
343.665	112.56
343.893	132.56
344.12	129.56
344.348	116.56
344.576	130.56
344.804	107.56
345.031	124.56
345.259	110.56
345.487	103.56
345.714	120.56
345.942	107.56
346.17	113.56
346.397	121.56
346.625	108.56
346.853	95.56
347.08	114.56
347.308	115.56
347.535	115.56
347.763	113.56
347.99	116.56
348.218	105.56
348.445	114.56
348.673	110.56
348.9	127.56
349.128	123.56
349.355	101.56
349.583	108.56
349.81	118.56
350.037	124.56
350.265	121.56
350.492	111.56
350.72	102.56
350.947	109.56
351.174	97.56
351.402	102.56
351.629	104.56
351.856	120.56
352.083	112.56
352.311	108.56
352.538	101.56
352.765	119.56
352.992	137.56
353.22	118.56
353.447	125.56
353.674	109.56
353.901	115.56
354.128	104.56
354.355	101.56
354.583	112.56
354.81	124.56
355.037	97.56
355.264	109.56
355.491	117.56
355.718	112.56
355.945	114.56
356.172	108.56
356.399	114.56
356.626	107.56
356.853	116.56
357.08	104.56
357.307	103.56
357.534	100.56
357.761	123.56
357.988	122.56
358.215	117.56
358.441	111.56
358.668	101.56
358.895	106.56
359.122	123.56
359.349	107.56
359.576	102.56
359.802	109.56
360.029	126.56
360.256	100.56
360.483	110.56
360.709	106.56
360.936	121.56
361.163	117.56
361.39	110.56
361.616	112.56
361.843	100.56
362.07	107.56
362.296	129.56
362.523	113.56
362.749	104.56
362.976	114.56
363.203	115.56
363.429	106.56
363.656	105.56
363.882	104.56
364.109	108.56
364.335	109.56
364.562	109.56
364.788	106.56
365.015	114.56
365.241	110.56
365.468	114.56
365.694	108.56
365.92	114.56
366.147	125.56
366.373	105.56
366.599	116.56
366.826	104.56
367.052	115.56
367.278	115.56
367.505	111.56
367.731	130.56
367.957	118.56
368.184	98.56
368.41	116.56
368.636	117.56
368.862	113.56
369.089	107.56
369.315	98.56
369.541	116.56
369.767	106.56
369.993	110.56
370.219	103.56
370.445	108.56
370.672	104.56
370.898	121.56
371.124	112.56
371.35	104.56
371.576	108.56
371.802	111.56
372.028	110.56
372.254	113.56
372.48	125.56
372.706	111.56
372.932	123.56
373.158	101.56
373.384	114.56
373.61	132.56
373.835	113.56
374.061	96.56
374.287	111.56
374.513	117.56
374.739	120.56
374.965	121.56
375.191	113.56
375.416	125.56
375.642	110.56
375.868	115.56
376.094	117.56
376.319	117.56
376.545	117.56
376.771	128.56
376.997	124.56
377.222	93.56
377.448	116.56
377.674	114.56
377.899	125.56
378.125	112.56
378.35	126.56
378.576	124.56
378.802	107.56
379.027	105.56
379.253	119.56
379.478	107.56
379.704	123.56
379.929	116.56
380.155	118.56
380.38	123.56
380.606	116.56
380.831	108.56
381.057	131.56
381.282	110.56
381.507	107.56
381.733	120.56
381.958	126.56
382.184	110.56
382.409	123.56
382.634	138.56
382.86	110.56
383.085	119.56
383.31	109.56
383.535	136.56
383.761	126.56
383.986	127.56
384.211	121.56
384.436	131.56
384.662	113.56
384.887	122.56
385.112	116.56
385.337	123.56
385.562	117.56
385.787	108.56
386.013	122.56
386.238	116.56
386.463	124.56
386.688	146.56
386.913	122.56
387.138	104.56
387.363	102.56
387.588	135.56
387.813	128.56
388.038	120.56
388.263	133.56
388.488	123.56
388.713	118.56
388.938	107.56
389.163	110.56
389.387	122.56
389.612	120.56
389.837	117.56
390.062	124.56
390.287	118.56
390.512	121.56
390.736	118.56
390.961	122.56
391.186	123.56
391.411	122.56
391.636	126.56
391.86	131.56
392.085	128.56
392.31	107.56
392.534	132.56
392.759	136.56
392.984	126.56
393.208	118.56
393.433	119.56
393.658	130.56
393.882	145.56
394.107	137.56
394.331	121.56
394.556	134.56
394.78	118.56
395.005	127.56
395.229	125.56
395.454	125.56
395.678	143.56
395.903	134.56
396.127	124.56
396.352	126.56
396.576	131.56
396.801	119.56
397.025	124.56
397.249	125.56
397.474	156.56
397.698	140.56
397.922	128.56
398.147	119.56
398.371	124.56
398.595	124.56
398.82	120.56
399.044	145.56
399.268	150.56
399.492	168.56
399.717	180.56
399.941	144.56
400.165	145.56
400.389	134.56
400.613	130.56
400.837	123.56
401.062	123.56
401.286	131.56
401.51	125.56
401.734	134.56
401.958	144.56
402.182	133.56
402.406	137.56
402.63	124.56
402.854	140.56
403.078	144.56
403.302	146.56
403.526	141.56
403.75	146.56
403.974	139.56
404.198	145.56
404.422	147.56
404.645	141.56
404.869	150.56
405.093	141.56
405.317	162.56
405.541	127.56
405.765	120.56
405.988	132.56
406.212	147.56
406.436	134.56
406.66	147.56
406.883	154.56
407.107	147.56
407.331	147.56
407.555	148.56
407.778	147.56
408.002	154.56
408.226	148.56
408.449	146.56
408.673	144.56
408.896	148.56
409.12	133.56
409.344	148.56
409.567	162.56
409.791	138.56
410.014	131.56
410.238	152.56
410.461	137.56
410.685	129.56
410.908	130.56
411.132	149.56
411.355	129.56
411.578	142.56
411.802	120.56
412.025	136.56
412.249	139.56
412.472	133.56
412.695	129.56
412.919	140.56
413.142	131.56
413.365	133.56
413.589	154.56
413.812	130.56
414.035	127.56
414.258	144.56
414.482	133.56
414.705	125.56
414.928	139.56
415.151	128.56
415.374	127.56
415.597	146.56
415.821	127.56
416.044	135.56
416.267	131.56
416.49	132.56
416.713	121.56
416.936	129.56
417.159	141.56
417.382	144.56
417.605	118.56
417.828	144.56
418.051	123.56
418.274	139.56
418.497	122.56
418.72	137.56
418.943	126.56
419.166	129.56
419.389	141.56
419.611	144.56
419.834	141.56
420.057	128.56
420.28	125.56
420.503	147.56
420.726	124.56
420.948	135.56
421.171	134.56
421.394	131.56
421.617	127.56
421.839	112.56
422.062	129.56
422.285	123.56
422.507	133.56
422.73	120.56
422.953	128.56
423.175	129.56
423.398	130.56
423.621	122.56
423.843	144.56
424.066	138.56
424.288	130.56
424.511	131.56
424.733	123.56
424.956	128.56
425.178	127.56
425.401	136.56
425.623	136.56
425.846	118.56
426.068	129.56
426.291	120.56
426.513	124.56
426.735	137.56
426.958	102.56
427.18	132.56
427.402	129.56
427.625	124.56
427.847	110.56
428.069	145.56
428.292	118.56
428.514	140.56
428.736	126.56
428.958	119.56
429.181	117.56
429.403	123.56
429.625	135.56
429.847	126.56
430.069	122.56
430.292	128.56
430.514	107.56
430.736	118.56
430.958	116.56
431.18	134.56
431.402	125.56
431.624	112.56
431.846	123.56
432.068	127.56
432.29	132.56
432.512	135.56
432.734	122.56
432.956	125.56
433.178	134.56
433.4	113.56
433.622	146.56
433.844	136.56
434.066	129.56
434.287	122.56
434.509	127.56
434.731	134.56
434.953	119.56
435.175	125.56
435.397	133.56
435.618	132.56
435.84	123.56
436.062	121.56
436.284	121.56
436.505	119.56
436.727	125.56
436.949	119.56
437.17	131.56
437.392	119.56
437.614	107.56
437.835	115.56
438.057	116.56
438.278	124.56
438.5	118.56
438.721	141.56
438.943	125.56
439.165	129.56
439.386	117.56
439.608	118.56
439.829	125.56
440.05	127.56
440.272	120.56
440.493	128.56
440.715	117.56
440.936	125.56
441.158	146.56
441.379	132.56
441.6	133.56
441.822	124.56
442.043	134.56
442.264	130.56
442.486	118.56
442.707	127.56
442.928	126.56
443.149	129.56
443.371	141.56
443.592	130.56
443.813	133.56
444.034	131.56
444.255	135.56
444.476	145.56
444.698	133.56
444.919	136.56
445.14	420.56
445.361	263.56
445.582	136.56
445.803	148.56
446.024	144.56
446.245	131.56
446.466	106.56
446.687	125.56
446.908	130.56
447.129	129.56
447.35	123.56
447.571	134.56
447.792	138.56
448.013	103.56
448.234	109.56
448.455	116.56
448.675	117.56
448.896	110.56
449.117	130.56
449.338	128.56
449.559	128.56
449.779	109.56
450	113.56
450.221	119.56
450.442	113.56
450.662	121.56
450.883	131.56
451.104	127.56
451.324	136.56
451.545	126.56
451.766	125.56
451.986	120.56
452.207	130.56
452.428	133.56
452.648	123.56
452.869	120.56
453.089	124.56
453.31	119.56
453.53	117.56
453.751	118.56
453.971	119.56
454.192	120.56
454.412	106.56
454.633	115.56
454.853	116.56
455.073	116.56
455.294	115.56
455.514	131.56
455.734	128.56
455.955	122.56
456.175	101.56
456.395	107.56
456.616	104.56
456.836	133.56
457.056	116.56
457.276	108.56
457.497	122.56
457.717	116.56
457.937	118.56
458.157	116.56
458.377	116.56
458.598	121.56
458.818	109.56
459.038	120.56
459.258	128.56
459.478	128.56
459.698	120.56
459.918	124.56
460.138	142.56
460.358	132.56
460.578	148.56
460.798	140.56
461.018	133.56
461.238	139.56
461.458	136.56
461.678	140.56
461.898	144.56
462.118	149.56
462.338	153.56
462.558	140.56
462.777	140.56
462.997	159.56
463.217	145.56
463.437	168.56
463.657	147.56
463.876	158.56
464.096	147.56
464.316	138.56
464.536	133.56
464.755	137.56
464.975	131.56
465.195	149.56
465.414	122.56
465.634	136.56
465.854	136.56
466.073	131.56
466.293	117.56
466.512	117.56
466.732	121.56
466.951	123.56
467.171	117.56
467.391	108.56
467.61	120.56
467.829	121.56
468.049	113.56
468.268	113.56
468.488	102.56
468.707	125.56
468.927	125.56
469.146	125.56
469.365	115.56
469.585	110.56
469.804	117.56
470.023	121.56
470.243	120.56
470.462	134.56
470.681	145.56
470.901	119.56
471.12	124.56
471.339	124.56
471.558	122.56
471.777	127.56
471.997	99.56
472.216	130.56
472.435	132.56
472.654	118.56
472.873	125.56
473.092	124.56
473.311	126.56
473.53	124.56
473.749	126.56
473.968	135.56
474.187	128.56
474.406	121.56
474.625	114.56
474.844	125.56
475.063	128.56
475.282	126.56
475.501	120.56
475.72	144.56
475.939	123.56
476.158	126.56
476.377	108.56
476.596	121.56
476.814	133.56
477.033	122.56
477.252	112.56
477.471	133.56
477.69	118.56
477.908	120.56
478.127	148.56
478.346	146.56
478.564	122.56
478.783	123.56
479.002	124.56
479.22	138.56
479.439	137.56
479.658	133.56
479.876	133.56
480.095	125.56
480.313	114.56
480.532	143.56
480.751	142.56
480.969	153.56
481.188	133.56
481.406	137.56
481.624	123.56
481.843	139.56
482.061	122.56
482.28	118.56
482.498	116.56
482.717	129.56
482.935	136.56
483.153	137.56
483.372	126.56
483.59	125.56
483.808	121.56
484.027	139.56
484.245	141.56
484.463	124.56
484.681	136.56
484.9	119.56
485.118	133.56
485.336	124.56
485.554	141.56
485.772	129.56
485.99	135.56
486.209	136.56
486.427	133.56
486.645	142.56
486.863	121.56
487.081	134.56
487.299	125.56
487.517	135.56
487.735	129.56
487.953	134.56
488.171	125.56
488.389	147.56
488.607	134.56
488.825	128.56
489.043	137.56
489.261	118.56
489.479	139.56
489.696	135.56
489.914	140.56
490.132	132.56
490.35	126.56
490.568	130.56
490.786	148.56
491.003	129.56
491.221	130.56
491.439	124.56
491.657	123.56
491.874	141.56
492.092	133.56
492.31	136.56
492.527	125.56
492.745	131.56
492.963	131.56
493.18	141.56
493.398	124.56
493.615	124.56
493.833	120.56
494.05	141.56
494.268	141.56
494.485	147.56
494.703	126.56
494.92	134.56
495.138	135.56
495.355	132.56
495.573	140.56
495.79	128.56
496.008	141.56
496.225	137.56
496.442	140.56
496.66	146.56
496.877	146.56
497.094	166.56
497.312	145.56
497.529	148.56
497.746	157.56
497.963	144.56
498.181	141.56
498.398	146.56
498.615	156.56
498.832	165.56
499.049	178.56
499.267	194.56
499.484	189.56
499.701	208.56
499.918	226.56
500.135	237.56
500.352	255.56
500.569	260.56
500.786	267.56
501.003	252.56
501.22	215.56
501.437	213.56
501.654	180.56
501.871	163.56
502.088	169.56
502.305	169.56
502.522	157.56
502.739	177.56
502.956	141.56
503.172	139.56
503.389	145.56
503.606	149.56
503.823	143.56
504.04	148.56
504.256	164.56
504.473	154.56
504.69	150.56
504.907	169.56
505.123	139.56
505.34	134.56
505.557	140.56
505.773	138.56
505.99	132.56
