Data from SampG_HRD10591_00050.txt Node
Date: Mon Jan 19 11:54:00 EST 2026
User: Yrep
Spectrometer: HR+D1059
Trigger mode: 0
Integration Time (sec): 3.443000E-1
Scans to average: 1
Electric dark correction enabled: true
Nonlinearity correction enabled: false
Boxcar width: 0
XAxis mode: Wavelengths
Number of Pixels in Spectrum: 2048
>>>>>Begin Spectral Data<<<<<
223.165	-28.44
223.4	-28.44
223.635	-28.44
223.869	-20.44
224.104	-33.44
224.338	-10.44
224.573	-16.44
224.808	-4.44
225.042	-13.44
225.277	-6.44
225.511	5.56
225.746	20.56
225.98	14.56
226.215	7.56
226.449	22.56
226.683	11.56
226.918	20.56
227.152	30.56
227.387	33.56
227.621	36.56
227.856	59.56
228.09	41.56
228.324	43.56
228.559	52.56
228.793	61.56
229.027	64.56
229.262	66.56
229.496	63.56
229.73	66.56
229.964	72.56
230.199	72.56
230.433	65.56
230.667	86.56
230.901	76.56
231.136	89.56
231.37	84.56
231.604	71.56
231.838	83.56
232.072	86.56
232.306	94.56
232.541	82.56
232.775	87.56
233.009	96.56
233.243	79.56
233.477	94.56
233.711	90.56
233.945	80.56
234.179	79.56
234.413	93.56
234.647	80.56
234.881	104.56
235.115	88.56
235.349	87.56
235.583	83.56
235.817	85.56
236.051	88.56
236.285	82.56
236.519	99.56
236.753	83.56
236.987	75.56
237.221	84.56
237.455	98.56
237.689	95.56
237.922	66.56
238.156	60.56
238.39	83.56
238.624	72.56
238.858	82.56
239.091	86.56
239.325	70.56
239.559	80.56
239.793	97.56
240.027	84.56
240.26	92.56
240.494	76.56
240.728	85.56
240.961	78.56
241.195	93.56
241.429	84.56
241.662	77.56
241.896	73.56
242.13	70.56
242.363	75.56
242.597	81.56
242.83	84.56
243.064	79.56
243.298	86.56
243.531	76.56
243.765	90.56
243.998	82.56
244.232	100.56
244.465	79.56
244.699	98.56
244.932	92.56
245.166	73.56
245.399	75.56
245.633	82.56
245.866	98.56
246.099	78.56
246.333	95.56
246.566	75.56
246.8	89.56
247.033	79.56
247.266	67.56
247.5	90.56
247.733	94.56
247.966	80.56
248.2	79.56
248.433	100.56
248.666	85.56
248.899	101.56
249.133	84.56
249.366	100.56
249.599	89.56
249.832	74.56
250.066	104.56
250.299	81.56
250.532	91.56
250.765	68.56
250.998	101.56
251.231	84.56
251.465	78.56
251.698	79.56
251.931	86.56
252.164	90.56
252.397	82.56
252.63	92.56
252.863	72.56
253.096	82.56
253.329	86.56
253.562	86.56
253.795	79.56
254.028	84.56
254.261	98.56
254.494	96.56
254.727	88.56
254.96	98.56
255.193	106.56
255.426	86.56
255.659	89.56
255.892	111.56
256.124	85.56
256.357	96.56
256.59	88.56
256.823	85.56
257.056	108.56
257.289	93.56
257.521	70.56
257.754	86.56
257.987	93.56
258.22	99.56
258.452	97.56
258.685	90.56
258.918	82.56
259.151	90.56
259.383	91.56
259.616	88.56
259.849	74.56
260.081	104.56
260.314	93.56
260.547	91.56
260.779	80.56
261.012	99.56
261.244	74.56
261.477	103.56
261.71	99.56
261.942	92.56
262.175	91.56
262.407	85.56
262.64	94.56
262.872	97.56
263.105	94.56
263.337	94.56
263.57	85.56
263.802	86.56
264.035	74.56
264.267	99.56
264.499	86.56
264.732	94.56
264.964	91.56
265.197	93.56
265.429	86.56
265.661	94.56
265.894	95.56
266.126	112.56
266.358	100.56
266.591	106.56
266.823	102.56
267.055	94.56
267.287	98.56
267.52	91.56
267.752	107.56
267.984	99.56
268.216	93.56
268.448	90.56
268.681	102.56
268.913	95.56
269.145	94.56
269.377	99.56
269.609	96.56
269.841	98.56
270.073	97.56
270.306	80.56
270.538	111.56
270.77	97.56
271.002	98.56
271.234	105.56
271.466	100.56
271.698	93.56
271.93	92.56
272.162	94.56
272.394	117.56
272.626	109.56
272.858	103.56
273.09	88.56
273.322	95.56
273.553	88.56
273.785	118.56
274.017	101.56
274.249	92.56
274.481	98.56
274.713	94.56
274.945	80.56
275.176	95.56
275.408	99.56
275.64	104.56
275.872	92.56
276.104	89.56
276.335	114.56
276.567	107.56
276.799	82.56
277.031	91.56
277.262	92.56
277.494	108.56
277.726	91.56
277.957	89.56
278.189	95.56
278.421	87.56
278.652	112.56
278.884	110.56
279.115	110.56
279.347	95.56
279.579	96.56
279.81	97.56
280.042	111.56
280.273	94.56
280.505	111.56
280.736	89.56
280.968	111.56
281.199	101.56
281.431	106.56
281.662	106.56
281.894	96.56
282.125	103.56
282.356	101.56
282.588	114.56
282.819	91.56
283.051	104.56
283.282	105.56
283.513	98.56
283.745	99.56
283.976	98.56
284.207	106.56
284.439	106.56
284.67	117.56
284.901	96.56
285.132	105.56
285.364	82.56
285.595	92.56
285.826	94.56
286.057	103.56
286.288	92.56
286.52	103.56
286.751	99.56
286.982	93.56
287.213	103.56
287.444	117.56
287.675	93.56
287.906	96.56
288.138	100.56
288.369	110.56
288.6	100.56
288.831	94.56
289.062	105.56
289.293	90.56
289.524	103.56
289.755	107.56
289.986	103.56
290.217	116.56
290.448	109.56
290.679	86.56
290.91	122.56
291.141	99.56
291.371	106.56
291.602	104.56
291.833	110.56
292.064	112.56
292.295	98.56
292.526	108.56
292.757	86.56
292.987	100.56
293.218	106.56
293.449	102.56
293.68	99.56
293.91	101.56
294.141	98.56
294.372	90.56
294.603	102.56
294.833	117.56
295.064	114.56
295.295	102.56
295.525	94.56
295.756	106.56
295.987	103.56
296.217	107.56
296.448	101.56
296.679	99.56
296.909	100.56
297.14	106.56
297.37	106.56
297.601	91.56
297.831	98.56
298.062	119.56
298.292	98.56
298.523	99.56
298.753	111.56
298.984	118.56
299.214	110.56
299.445	109.56
299.675	98.56
299.905	121.56
300.136	108.56
300.366	98.56
300.597	102.56
300.827	115.56
301.057	105.56
301.288	96.56
301.518	91.56
301.748	115.56
301.979	154.56
302.209	111.56
302.439	107.56
302.669	96.56
302.9	108.56
303.13	110.56
303.36	109.56
303.59	110.56
303.82	114.56
304.051	98.56
304.281	116.56
304.511	108.56
304.741	111.56
304.971	99.56
305.201	104.56
305.431	116.56
305.661	102.56
305.891	108.56
306.121	104.56
306.352	98.56
306.582	108.56
306.812	101.56
307.042	102.56
307.272	117.56
307.502	102.56
307.731	106.56
307.961	104.56
308.191	102.56
308.421	110.56
308.651	109.56
308.881	104.56
309.111	98.56
309.341	104.56
309.571	99.56
309.8	122.56
310.03	95.56
310.26	93.56
310.49	106.56
310.72	110.56
310.949	113.56
311.179	114.56
311.409	103.56
311.639	117.56
311.868	114.56
312.098	108.56
312.328	118.56
312.557	112.56
312.787	120.56
313.017	123.56
313.246	113.56
313.476	110.56
313.706	122.56
313.935	109.56
314.165	107.56
314.394	105.56
314.624	115.56
314.853	107.56
315.083	111.56
315.312	101.56
315.542	101.56
315.771	114.56
316.001	108.56
316.23	121.56
316.46	101.56
316.689	114.56
316.919	109.56
317.148	108.56
317.377	125.56
317.607	116.56
317.836	100.56
318.065	108.56
318.295	99.56
318.524	111.56
318.753	120.56
318.983	104.56
319.212	109.56
319.441	122.56
319.67	112.56
319.9	98.56
320.129	100.56
320.358	103.56
320.587	111.56
320.816	107.56
321.046	115.56
321.275	117.56
321.504	107.56
321.733	103.56
321.962	109.56
322.191	107.56
322.42	104.56
322.649	99.56
322.878	106.56
323.108	108.56
323.337	112.56
323.566	112.56
323.795	125.56
324.024	104.56
324.253	122.56
324.482	112.56
324.71	105.56
324.939	107.56
325.168	109.56
325.397	115.56
325.626	120.56
325.855	111.56
326.084	112.56
326.313	115.56
326.542	107.56
326.77	99.56
326.999	126.56
327.228	106.56
327.457	112.56
327.686	120.56
327.914	119.56
328.143	107.56
328.372	126.56
328.6	130.56
328.829	112.56
329.058	112.56
329.287	103.56
329.515	102.56
329.744	102.56
329.972	120.56
330.201	118.56
330.43	107.56
330.658	120.56
330.887	90.56
331.115	122.56
331.344	110.56
331.572	111.56
331.801	119.56
332.03	116.56
332.258	109.56
332.486	102.56
332.715	118.56
332.943	126.56
333.172	128.56
333.4	125.56
333.629	119.56
333.857	115.56
334.085	132.56
334.314	122.56
334.542	118.56
334.771	120.56
334.999	110.56
335.227	122.56
335.455	124.56
335.684	130.56
335.912	119.56
336.14	111.56
336.369	109.56
336.597	119.56
336.825	127.56
337.053	111.56
337.281	121.56
337.51	123.56
337.738	122.56
337.966	103.56
338.194	106.56
338.422	105.56
338.65	123.56
338.878	122.56
339.106	115.56
339.334	124.56
339.562	111.56
339.79	112.56
340.018	105.56
340.246	130.56
340.474	109.56
340.702	112.56
340.93	110.56
341.158	108.56
341.386	110.56
341.614	120.56
341.842	103.56
342.07	96.56
342.298	106.56
342.526	118.56
342.754	120.56
342.981	115.56
343.209	114.56
343.437	144.56
343.665	124.56
343.893	125.56
344.12	125.56
344.348	116.56
344.576	108.56
344.804	121.56
345.031	106.56
345.259	119.56
345.487	108.56
345.714	121.56
345.942	121.56
346.17	92.56
346.397	114.56
346.625	113.56
346.853	108.56
347.08	101.56
347.308	108.56
347.535	109.56
347.763	108.56
347.99	114.56
348.218	103.56
348.445	106.56
348.673	106.56
348.9	112.56
349.128	112.56
349.355	100.56
349.583	123.56
349.81	118.56
350.037	116.56
350.265	101.56
350.492	117.56
350.72	114.56
350.947	117.56
351.174	111.56
351.402	107.56
351.629	103.56
351.856	108.56
352.083	101.56
352.311	118.56
352.538	98.56
352.765	105.56
352.992	116.56
353.22	105.56
353.447	102.56
353.674	119.56
353.901	128.56
354.128	119.56
354.355	100.56
354.583	100.56
354.81	107.56
355.037	108.56
355.264	109.56
355.491	108.56
355.718	109.56
355.945	126.56
356.172	122.56
356.399	112.56
356.626	93.56
356.853	98.56
357.08	126.56
357.307	114.56
357.534	114.56
357.761	103.56
357.988	117.56
358.215	124.56
358.441	115.56
358.668	119.56
358.895	105.56
359.122	100.56
359.349	105.56
359.576	123.56
359.802	104.56
360.029	111.56
360.256	114.56
360.483	117.56
360.709	102.56
360.936	108.56
361.163	106.56
361.39	107.56
361.616	108.56
361.843	116.56
362.07	112.56
362.296	99.56
362.523	98.56
362.749	111.56
362.976	112.56
363.203	118.56
363.429	115.56
363.656	124.56
363.882	107.56
364.109	117.56
364.335	117.56
364.562	121.56
364.788	99.56
365.015	116.56
365.241	99.56
365.468	106.56
365.694	106.56
365.92	116.56
366.147	115.56
366.373	98.56
366.599	108.56
366.826	98.56
367.052	123.56
367.278	115.56
367.505	114.56
367.731	122.56
367.957	113.56
368.184	108.56
368.41	114.56
368.636	110.56
368.862	109.56
369.089	108.56
369.315	110.56
369.541	118.56
369.767	107.56
369.993	114.56
370.219	106.56
370.445	113.56
370.672	99.56
370.898	112.56
371.124	109.56
371.35	102.56
371.576	118.56
371.802	115.56
372.028	115.56
372.254	120.56
372.48	108.56
372.706	113.56
372.932	132.56
373.158	109.56
373.384	117.56
373.61	128.56
373.835	98.56
374.061	124.56
374.287	131.56
374.513	111.56
374.739	122.56
374.965	109.56
375.191	107.56
375.416	112.56
375.642	116.56
375.868	120.56
376.094	122.56
376.319	90.56
376.545	121.56
376.771	120.56
376.997	107.56
377.222	111.56
377.448	117.56
377.674	114.56
377.899	104.56
378.125	110.56
378.35	111.56
378.576	111.56
378.802	110.56
379.027	120.56
379.253	116.56
379.478	109.56
379.704	109.56
379.929	119.56
380.155	103.56
380.38	104.56
380.606	100.56
380.831	111.56
381.057	112.56
381.282	112.56
381.507	122.56
381.733	111.56
381.958	106.56
382.184	105.56
382.409	113.56
382.634	108.56
382.86	116.56
383.085	131.56
383.31	124.56
383.535	129.56
383.761	115.56
383.986	122.56
384.211	119.56
384.436	121.56
384.662	135.56
384.887	115.56
385.112	115.56
385.337	129.56
385.562	122.56
385.787	122.56
386.013	118.56
386.238	123.56
386.463	116.56
386.688	150.56
386.913	111.56
387.138	102.56
387.363	107.56
387.588	121.56
387.813	118.56
388.038	115.56
388.263	126.56
388.488	116.56
388.713	110.56
388.938	110.56
389.163	107.56
389.387	118.56
389.612	130.56
389.837	107.56
390.062	126.56
390.287	116.56
390.512	118.56
390.736	117.56
390.961	109.56
391.186	125.56
391.411	118.56
391.636	121.56
391.86	133.56
392.085	125.56
392.31	110.56
392.534	106.56
392.759	128.56
392.984	120.56
393.208	131.56
393.433	132.56
393.658	147.56
393.882	123.56
394.107	114.56
394.331	118.56
394.556	130.56
394.78	119.56
395.005	119.56
395.229	115.56
395.454	136.56
395.678	127.56
395.903	114.56
396.127	127.56
396.352	107.56
396.576	127.56
396.801	122.56
397.025	116.56
397.249	124.56
397.474	119.56
397.698	133.56
397.922	118.56
398.147	118.56
398.371	118.56
398.595	116.56
398.82	127.56
399.044	137.56
399.268	136.56
399.492	140.56
399.717	174.56
399.941	154.56
400.165	135.56
400.389	139.56
400.613	127.56
400.837	141.56
401.062	142.56
401.286	131.56
401.51	123.56
401.734	126.56
401.958	124.56
402.182	140.56
402.406	118.56
402.63	119.56
402.854	135.56
403.078	138.56
403.302	127.56
403.526	140.56
403.75	137.56
403.974	140.56
404.198	149.56
404.422	141.56
404.645	140.56
404.869	132.56
405.093	137.56
405.317	134.56
405.541	127.56
405.765	123.56
405.988	127.56
406.212	136.56
406.436	127.56
406.66	141.56
406.883	146.56
407.107	147.56
407.331	133.56
407.555	135.56
407.778	141.56
408.002	142.56
408.226	123.56
408.449	134.56
408.673	137.56
408.896	132.56
409.12	134.56
409.344	141.56
409.567	139.56
409.791	143.56
410.014	131.56
410.238	129.56
410.461	159.56
410.685	149.56
410.908	144.56
411.132	146.56
411.355	123.56
411.578	144.56
411.802	118.56
412.025	135.56
412.249	138.56
412.472	119.56
412.695	120.56
412.919	126.56
413.142	135.56
413.365	127.56
413.589	119.56
413.812	120.56
414.035	150.56
414.258	151.56
414.482	132.56
414.705	130.56
414.928	136.56
415.151	141.56
415.374	121.56
415.597	120.56
415.821	119.56
416.044	127.56
416.267	103.56
416.49	141.56
416.713	111.56
416.936	126.56
417.159	132.56
417.382	125.56
417.605	123.56
417.828	132.56
418.051	139.56
418.274	127.56
418.497	131.56
418.72	129.56
418.943	129.56
419.166	124.56
419.389	134.56
419.611	140.56
419.834	142.56
420.057	122.56
420.28	124.56
420.503	138.56
420.726	132.56
420.948	122.56
421.171	124.56
421.394	119.56
421.617	126.56
421.839	119.56
422.062	122.56
422.285	131.56
422.507	130.56
422.73	136.56
422.953	123.56
423.175	139.56
423.398	118.56
423.621	140.56
423.843	134.56
424.066	134.56
424.288	149.56
424.511	132.56
424.733	141.56
424.956	122.56
425.178	128.56
425.401	123.56
425.623	132.56
425.846	125.56
426.068	119.56
426.291	124.56
426.513	130.56
426.735	121.56
426.958	110.56
427.18	118.56
427.402	120.56
427.625	111.56
427.847	126.56
428.069	123.56
428.292	141.56
428.514	126.56
428.736	122.56
428.958	107.56
429.181	128.56
429.403	128.56
429.625	123.56
429.847	119.56
430.069	136.56
430.292	137.56
430.514	116.56
430.736	124.56
430.958	129.56
431.18	113.56
431.402	113.56
431.624	126.56
431.846	119.56
432.068	126.56
432.29	119.56
432.512	133.56
432.734	124.56
432.956	129.56
433.178	132.56
433.4	127.56
433.622	138.56
433.844	126.56
434.066	121.56
434.287	125.56
434.509	125.56
434.731	128.56
434.953	130.56
435.175	106.56
435.397	136.56
435.618	110.56
435.84	131.56
436.062	130.56
436.284	125.56
436.505	108.56
436.727	127.56
436.949	134.56
437.17	114.56
437.392	101.56
437.614	134.56
437.835	116.56
438.057	113.56
438.278	130.56
438.5	117.56
438.721	130.56
438.943	114.56
439.165	108.56
439.386	124.56
439.608	108.56
439.829	115.56
440.05	119.56
440.272	123.56
440.493	125.56
440.715	118.56
440.936	130.56
441.158	131.56
441.379	119.56
441.6	120.56
441.822	130.56
442.043	156.56
442.264	121.56
442.486	115.56
442.707	115.56
442.928	124.56
443.149	108.56
443.371	139.56
443.592	125.56
443.813	130.56
444.034	131.56
444.255	130.56
444.476	142.56
444.698	137.56
444.919	132.56
445.14	416.56
445.361	268.56
445.582	128.56
445.803	140.56
446.024	117.56
446.245	122.56
446.466	141.56
446.687	122.56
446.908	115.56
447.129	131.56
447.35	101.56
447.571	122.56
447.792	107.56
448.013	124.56
448.234	132.56
448.455	123.56
448.675	112.56
448.896	125.56
449.117	117.56
449.338	119.56
449.559	149.56
449.779	141.56
450	116.56
450.221	113.56
450.442	117.56
450.662	123.56
450.883	101.56
451.104	107.56
451.324	129.56
451.545	119.56
451.766	111.56
451.986	124.56
452.207	117.56
452.428	114.56
452.648	111.56
452.869	124.56
453.089	117.56
453.31	106.56
453.53	112.56
453.751	121.56
453.971	127.56
454.192	116.56
454.412	105.56
454.633	98.56
454.853	130.56
455.073	117.56
455.294	123.56
455.514	129.56
455.734	110.56
455.955	112.56
456.175	110.56
456.395	108.56
456.616	106.56
456.836	119.56
457.056	120.56
457.276	102.56
457.497	96.56
457.717	114.56
457.937	107.56
458.157	118.56
458.377	119.56
458.598	117.56
458.818	123.56
459.038	127.56
459.258	122.56
459.478	143.56
459.698	119.56
459.918	137.56
460.138	126.56
460.358	123.56
460.578	130.56
460.798	140.56
461.018	132.56
461.238	135.56
461.458	137.56
461.678	133.56
461.898	133.56
462.118	148.56
462.338	120.56
462.558	131.56
462.777	146.56
462.997	141.56
463.217	174.56
463.437	150.56
463.657	135.56
463.876	131.56
464.096	126.56
464.316	125.56
464.536	137.56
464.755	138.56
464.975	108.56
465.195	130.56
465.414	133.56
465.634	121.56
465.854	122.56
466.073	130.56
466.293	132.56
466.512	125.56
466.732	123.56
466.951	115.56
467.171	132.56
467.391	124.56
467.61	119.56
467.829	117.56
468.049	125.56
468.268	111.56
468.488	125.56
468.707	103.56
468.927	107.56
469.146	112.56
469.365	107.56
469.585	118.56
469.804	112.56
470.023	106.56
470.243	105.56
470.462	129.56
470.681	128.56
470.901	127.56
471.12	110.56
471.339	120.56
471.558	117.56
471.777	125.56
471.997	133.56
472.216	106.56
472.435	114.56
472.654	133.56
472.873	133.56
473.092	123.56
473.311	109.56
473.53	104.56
473.749	115.56
473.968	139.56
474.187	109.56
474.406	123.56
474.625	113.56
474.844	117.56
475.063	119.56
475.282	119.56
475.501	123.56
475.72	133.56
475.939	126.56
476.158	121.56
476.377	122.56
476.596	124.56
476.814	114.56
477.033	124.56
477.252	115.56
477.471	108.56
477.69	123.56
477.908	140.56
478.127	133.56
478.346	123.56
478.564	137.56
478.783	120.56
479.002	118.56
479.22	135.56
479.439	136.56
479.658	125.56
479.876	116.56
480.095	117.56
480.313	134.56
480.532	138.56
480.751	133.56
480.969	141.56
481.188	131.56
481.406	126.56
481.624	134.56
481.843	124.56
482.061	126.56
482.28	106.56
482.498	132.56
482.717	115.56
482.935	111.56
483.153	125.56
483.372	125.56
483.59	124.56
483.808	127.56
484.027	127.56
484.245	126.56
484.463	112.56
484.681	138.56
484.9	126.56
485.118	127.56
485.336	111.56
485.554	108.56
485.772	124.56
485.99	135.56
486.209	132.56
486.427	134.56
486.645	128.56
486.863	130.56
487.081	142.56
487.299	140.56
487.517	134.56
487.735	127.56
487.953	129.56
488.171	143.56
488.389	141.56
488.607	111.56
488.825	126.56
489.043	131.56
489.261	122.56
489.479	131.56
489.696	132.56
489.914	125.56
490.132	116.56
490.35	147.56
490.568	138.56
490.786	126.56
491.003	133.56
491.221	131.56
491.439	111.56
491.657	120.56
491.874	135.56
492.092	134.56
492.31	130.56
492.527	112.56
492.745	132.56
492.963	103.56
493.18	127.56
493.398	130.56
493.615	124.56
493.833	135.56
494.05	124.56
494.268	142.56
494.485	138.56
494.703	120.56
494.92	113.56
495.138	124.56
495.355	118.56
495.573	141.56
495.79	133.56
496.008	133.56
496.225	129.56
496.442	128.56
496.66	133.56
496.877	129.56
497.094	160.56
497.312	132.56
497.529	135.56
497.746	148.56
497.963	132.56
498.181	124.56
498.398	152.56
498.615	147.56
498.832	160.56
499.049	146.56
499.267	153.56
499.484	165.56
499.701	196.56
499.918	214.56
500.135	226.56
500.352	238.56
500.569	228.56
500.786	230.56
501.003	221.56
501.22	203.56
501.437	190.56
501.654	153.56
501.871	180.56
502.088	175.56
502.305	167.56
502.522	165.56
502.739	139.56
502.956	157.56
503.172	153.56
503.389	153.56
503.606	134.56
503.823	135.56
504.04	149.56
504.256	157.56
504.473	153.56
504.69	140.56
504.907	162.56
505.123	146.56
505.34	143.56
505.557	134.56
505.773	157.56
505.99	122.56
506.207	139.56
