Data from SampG_HRD10591_00057.txt Node
Date: Mon Jan 19 11:54:02 EST 2026
User: Yrep
Spectrometer: HR+D1059
Trigger mode: 0
Integration Time (sec): 3.443000E-1
Scans to average: 1
Electric dark correction enabled: true
Nonlinearity correction enabled: false
Boxcar width: 0
XAxis mode: Wavelengths
Number of Pixels in Spectrum: 2048
>>>>>Begin Spectral Data<<<<<
223.165	-16.25
223.4	-16.25
223.635	-16.25
223.869	-23.25
224.104	-26.25
224.338	-16.25
224.573	-19.25
224.808	-7.25
225.042	-2.25
225.277	-6.25
225.511	4.75
225.746	8.75
225.98	4.75
226.215	2.75
226.449	30.75
226.683	25.75
226.918	17.75
227.152	21.75
227.387	37.75
227.621	21.75
227.856	45.75
228.09	41.75
228.324	43.75
228.559	59.75
228.793	68.75
229.027	72.75
229.262	75.75
229.496	78.75
229.73	78.75
229.964	73.75
230.199	64.75
230.433	69.75
230.667	91.75
230.901	82.75
231.136	81.75
231.37	64.75
231.604	63.75
231.838	79.75
232.072	71.75
232.306	81.75
232.541	80.75
232.775	85.75
233.009	90.75
233.243	74.75
233.477	78.75
233.711	62.75
233.945	75.75
234.179	88.75
234.413	80.75
234.647	75.75
234.881	76.75
235.115	78.75
235.349	81.75
235.583	76.75
235.817	74.75
236.051	79.75
236.285	74.75
236.519	94.75
236.753	92.75
236.987	75.75
237.221	79.75
237.455	64.75
237.689	71.75
237.922	71.75
238.156	61.75
238.39	75.75
238.624	82.75
238.858	84.75
239.091	79.75
239.325	79.75
239.559	78.75
239.793	75.75
240.027	86.75
240.26	72.75
240.494	92.75
240.728	73.75
240.961	93.75
241.195	85.75
241.429	79.75
241.662	82.75
241.896	85.75
242.13	80.75
242.363	78.75
242.597	92.75
242.83	83.75
243.064	76.75
243.298	91.75
243.531	64.75
243.765	79.75
243.998	86.75
244.232	76.75
244.465	80.75
244.699	85.75
244.932	84.75
245.166	78.75
245.399	66.75
245.633	92.75
245.866	83.75
246.099	84.75
246.333	82.75
246.566	81.75
246.8	81.75
247.033	82.75
247.266	83.75
247.5	75.75
247.733	90.75
247.966	88.75
248.2	78.75
248.433	85.75
248.666	87.75
248.899	91.75
249.133	82.75
249.366	95.75
249.599	91.75
249.832	71.75
250.066	95.75
250.299	76.75
250.532	86.75
250.765	81.75
250.998	82.75
251.231	92.75
251.465	87.75
251.698	90.75
251.931	86.75
252.164	70.75
252.397	88.75
252.63	99.75
252.863	90.75
253.096	82.75
253.329	78.75
253.562	91.75
253.795	87.75
254.028	86.75
254.261	77.75
254.494	87.75
254.727	89.75
254.96	93.75
255.193	86.75
255.426	66.75
255.659	82.75
255.892	93.75
256.124	72.75
256.357	82.75
256.59	87.75
256.823	84.75
257.056	93.75
257.289	83.75
257.521	85.75
257.754	103.75
257.987	71.75
258.22	93.75
258.452	80.75
258.685	86.75
258.918	91.75
259.151	80.75
259.383	87.75
259.616	89.75
259.849	105.75
260.081	82.75
260.314	78.75
260.547	90.75
260.779	85.75
261.012	80.75
261.244	84.75
261.477	103.75
261.71	98.75
261.942	91.75
262.175	90.75
262.407	84.75
262.64	89.75
262.872	94.75
263.105	75.75
263.337	80.75
263.57	92.75
263.802	85.75
264.035	100.75
264.267	86.75
264.499	83.75
264.732	91.75
264.964	75.75
265.197	72.75
265.429	100.75
265.661	85.75
265.894	95.75
266.126	95.75
266.358	106.75
266.591	89.75
266.823	100.75
267.055	88.75
267.287	96.75
267.52	82.75
267.752	79.75
267.984	75.75
268.216	111.75
268.448	101.75
268.681	103.75
268.913	102.75
269.145	103.75
269.377	100.75
269.609	78.75
269.841	97.75
270.073	98.75
270.306	95.75
270.538	91.75
270.77	89.75
271.002	99.75
271.234	89.75
271.466	82.75
271.698	86.75
271.93	83.75
272.162	101.75
272.394	107.75
272.626	102.75
272.858	84.75
273.09	101.75
273.322	107.75
273.553	80.75
273.785	103.75
274.017	91.75
274.249	80.75
274.481	82.75
274.713	106.75
274.945	89.75
275.176	97.75
275.408	96.75
275.64	103.75
275.872	102.75
276.104	87.75
276.335	91.75
276.567	89.75
276.799	101.75
277.031	84.75
277.262	84.75
277.494	95.75
277.726	107.75
277.957	94.75
278.189	95.75
278.421	83.75
278.652	90.75
278.884	108.75
279.115	95.75
279.347	90.75
279.579	97.75
279.81	102.75
280.042	112.75
280.273	103.75
280.505	93.75
280.736	97.75
280.968	92.75
281.199	87.75
281.431	104.75
281.662	85.75
281.894	103.75
282.125	108.75
282.356	98.75
282.588	88.75
282.819	108.75
283.051	99.75
283.282	84.75
283.513	92.75
283.745	92.75
283.976	114.75
284.207	99.75
284.439	103.75
284.67	102.75
284.901	102.75
285.132	96.75
285.364	85.75
285.595	108.75
285.826	104.75
286.057	95.75
286.288	103.75
286.52	86.75
286.751	88.75
286.982	107.75
287.213	107.75
287.444	94.75
287.675	90.75
287.906	86.75
288.138	88.75
288.369	86.75
288.6	97.75
288.831	93.75
289.062	106.75
289.293	96.75
289.524	101.75
289.755	104.75
289.986	113.75
290.217	107.75
290.448	95.75
290.679	86.75
290.91	101.75
291.141	84.75
291.371	94.75
291.602	118.75
291.833	91.75
292.064	91.75
292.295	104.75
292.526	94.75
292.757	100.75
292.987	112.75
293.218	100.75
293.449	110.75
293.68	100.75
293.91	105.75
294.141	110.75
294.372	96.75
294.603	102.75
294.833	115.75
295.064	104.75
295.295	85.75
295.525	89.75
295.756	104.75
295.987	100.75
296.217	92.75
296.448	103.75
296.679	106.75
296.909	110.75
297.14	111.75
297.37	104.75
297.601	105.75
297.831	98.75
298.062	99.75
298.292	108.75
298.523	92.75
298.753	105.75
298.984	110.75
299.214	105.75
299.445	100.75
299.675	104.75
299.905	105.75
300.136	91.75
300.366	107.75
300.597	107.75
300.827	115.75
301.057	113.75
301.288	108.75
301.518	97.75
301.748	91.75
301.979	134.75
302.209	103.75
302.439	113.75
302.669	107.75
302.9	103.75
303.13	104.75
303.36	105.75
303.59	97.75
303.82	98.75
304.051	96.75
304.281	85.75
304.511	112.75
304.741	96.75
304.971	104.75
305.201	112.75
305.431	103.75
305.661	95.75
305.891	100.75
306.121	108.75
306.352	108.75
306.582	98.75
306.812	107.75
307.042	106.75
307.272	95.75
307.502	97.75
307.731	97.75
307.961	99.75
308.191	107.75
308.421	91.75
308.651	108.75
308.881	120.75
309.111	100.75
309.341	91.75
309.571	88.75
309.8	89.75
310.03	93.75
310.26	101.75
310.49	96.75
310.72	106.75
310.949	95.75
311.179	92.75
311.409	106.75
311.639	100.75
311.868	87.75
312.098	100.75
312.328	102.75
312.557	111.75
312.787	110.75
313.017	110.75
313.246	115.75
313.476	92.75
313.706	102.75
313.935	101.75
314.165	87.75
314.394	91.75
314.624	100.75
314.853	119.75
315.083	102.75
315.312	111.75
315.542	102.75
315.771	104.75
316.001	96.75
316.23	98.75
316.46	100.75
316.689	103.75
316.919	113.75
317.148	110.75
317.377	107.75
317.607	107.75
317.836	98.75
318.065	79.75
318.295	101.75
318.524	108.75
318.753	87.75
318.983	114.75
319.212	103.75
319.441	91.75
319.67	91.75
319.9	93.75
320.129	93.75
320.358	111.75
320.587	105.75
320.816	100.75
321.046	100.75
321.275	118.75
321.504	95.75
321.733	99.75
321.962	97.75
322.191	90.75
322.42	106.75
322.649	102.75
322.878	103.75
323.108	116.75
323.337	106.75
323.566	104.75
323.795	111.75
324.024	105.75
324.253	107.75
324.482	96.75
324.71	114.75
324.939	121.75
325.168	103.75
325.397	97.75
325.626	98.75
325.855	102.75
326.084	115.75
326.313	105.75
326.542	103.75
326.77	104.75
326.999	111.75
327.228	100.75
327.457	114.75
327.686	107.75
327.914	111.75
328.143	98.75
328.372	108.75
328.6	100.75
328.829	104.75
329.058	104.75
329.287	111.75
329.515	112.75
329.744	110.75
329.972	109.75
330.201	109.75
330.43	108.75
330.658	94.75
330.887	111.75
331.115	107.75
331.344	110.75
331.572	111.75
331.801	115.75
332.03	107.75
332.258	126.75
332.486	119.75
332.715	109.75
332.943	117.75
333.172	107.75
333.4	112.75
333.629	122.75
333.857	127.75
334.085	121.75
334.314	124.75
334.542	119.75
334.771	112.75
334.999	121.75
335.227	106.75
335.455	116.75
335.684	120.75
335.912	120.75
336.14	96.75
336.369	111.75
336.597	115.75
336.825	115.75
337.053	116.75
337.281	100.75
337.51	124.75
337.738	130.75
337.966	97.75
338.194	113.75
338.422	120.75
338.65	107.75
338.878	107.75
339.106	123.75
339.334	115.75
339.562	88.75
339.79	120.75
340.018	113.75
340.246	105.75
340.474	111.75
340.702	104.75
340.93	112.75
341.158	105.75
341.386	110.75
341.614	120.75
341.842	108.75
342.07	95.75
342.298	100.75
342.526	102.75
342.754	108.75
342.981	118.75
343.209	111.75
343.437	138.75
343.665	112.75
343.893	124.75
344.12	142.75
344.348	110.75
344.576	122.75
344.804	112.75
345.031	125.75
345.259	114.75
345.487	118.75
345.714	100.75
345.942	101.75
346.17	110.75
346.397	108.75
346.625	115.75
346.853	108.75
347.08	111.75
347.308	113.75
347.535	108.75
347.763	105.75
347.99	115.75
348.218	120.75
348.445	105.75
348.673	119.75
348.9	112.75
349.128	121.75
349.355	108.75
349.583	122.75
349.81	104.75
350.037	97.75
350.265	101.75
350.492	125.75
350.72	108.75
350.947	108.75
351.174	102.75
351.402	106.75
351.629	100.75
351.856	106.75
352.083	105.75
352.311	119.75
352.538	95.75
352.765	113.75
352.992	122.75
353.22	110.75
353.447	99.75
353.674	105.75
353.901	116.75
354.128	108.75
354.355	105.75
354.583	110.75
354.81	116.75
355.037	118.75
355.264	126.75
355.491	106.75
355.718	107.75
355.945	114.75
356.172	106.75
356.399	114.75
356.626	114.75
356.853	104.75
357.08	102.75
357.307	118.75
357.534	117.75
357.761	99.75
357.988	114.75
358.215	114.75
358.441	119.75
358.668	106.75
358.895	98.75
359.122	99.75
359.349	109.75
359.576	94.75
359.802	89.75
360.029	103.75
360.256	85.75
360.483	114.75
360.709	105.75
360.936	126.75
361.163	108.75
361.39	117.75
361.616	112.75
361.843	120.75
362.07	124.75
362.296	97.75
362.523	106.75
362.749	109.75
362.976	105.75
363.203	118.75
363.429	93.75
363.656	97.75
363.882	108.75
364.109	111.75
364.335	107.75
364.562	112.75
364.788	102.75
365.015	112.75
365.241	113.75
365.468	125.75
365.694	100.75
365.92	120.75
366.147	103.75
366.373	103.75
366.599	95.75
366.826	102.75
367.052	116.75
367.278	107.75
367.505	120.75
367.731	126.75
367.957	91.75
368.184	98.75
368.41	108.75
368.636	105.75
368.862	111.75
369.089	103.75
369.315	120.75
369.541	114.75
369.767	108.75
369.993	95.75
370.219	108.75
370.445	112.75
370.672	109.75
370.898	91.75
371.124	105.75
371.35	106.75
371.576	105.75
371.802	102.75
372.028	106.75
372.254	114.75
372.48	112.75
372.706	116.75
372.932	107.75
373.158	88.75
373.384	112.75
373.61	120.75
373.835	131.75
374.061	108.75
374.287	115.75
374.513	105.75
374.739	96.75
374.965	106.75
375.191	112.75
375.416	108.75
375.642	107.75
375.868	115.75
376.094	113.75
376.319	98.75
376.545	106.75
376.771	100.75
376.997	112.75
377.222	106.75
377.448	96.75
377.674	100.75
377.899	103.75
378.125	105.75
378.35	117.75
378.576	94.75
378.802	100.75
379.027	117.75
379.253	110.75
379.478	113.75
379.704	119.75
379.929	112.75
380.155	93.75
380.38	110.75
380.606	113.75
380.831	107.75
381.057	125.75
381.282	104.75
381.507	109.75
381.733	114.75
381.958	107.75
382.184	110.75
382.409	105.75
382.634	108.75
382.86	124.75
383.085	104.75
383.31	114.75
383.535	121.75
383.761	112.75
383.986	114.75
384.211	104.75
384.436	110.75
384.662	113.75
384.887	139.75
385.112	107.75
385.337	112.75
385.562	112.75
385.787	122.75
386.013	126.75
386.238	118.75
386.463	117.75
386.688	134.75
386.913	119.75
387.138	117.75
387.363	99.75
387.588	119.75
387.813	113.75
388.038	134.75
388.263	120.75
388.488	112.75
388.713	128.75
388.938	107.75
389.163	129.75
389.387	116.75
389.612	123.75
389.837	115.75
390.062	113.75
390.287	108.75
390.512	110.75
390.736	106.75
390.961	111.75
391.186	124.75
391.411	106.75
391.636	115.75
391.86	121.75
392.085	120.75
392.31	113.75
392.534	133.75
392.759	128.75
392.984	121.75
393.208	121.75
393.433	137.75
393.658	122.75
393.882	126.75
394.107	129.75
394.331	132.75
394.556	123.75
394.78	127.75
395.005	110.75
395.229	111.75
395.454	120.75
395.678	119.75
395.903	130.75
396.127	127.75
396.352	114.75
396.576	121.75
396.801	114.75
397.025	114.75
397.249	128.75
397.474	125.75
397.698	112.75
397.922	123.75
398.147	123.75
398.371	106.75
398.595	134.75
398.82	129.75
399.044	130.75
399.268	147.75
399.492	150.75
399.717	158.75
399.941	154.75
400.165	140.75
400.389	130.75
400.613	132.75
400.837	124.75
401.062	122.75
401.286	120.75
401.51	125.75
401.734	128.75
401.958	121.75
402.182	132.75
402.406	127.75
402.63	135.75
402.854	132.75
403.078	127.75
403.302	143.75
403.526	126.75
403.75	131.75
403.974	134.75
404.198	132.75
404.422	146.75
404.645	131.75
404.869	124.75
405.093	122.75
405.317	122.75
405.541	124.75
405.765	115.75
405.988	121.75
406.212	123.75
406.436	121.75
406.66	143.75
406.883	122.75
407.107	124.75
407.331	157.75
407.555	162.75
407.778	161.75
408.002	158.75
408.226	144.75
408.449	143.75
408.673	143.75
408.896	130.75
409.12	128.75
409.344	134.75
409.567	143.75
409.791	119.75
410.014	139.75
410.238	145.75
410.461	144.75
410.685	139.75
410.908	130.75
411.132	139.75
411.355	131.75
411.578	139.75
411.802	120.75
412.025	113.75
412.249	119.75
412.472	120.75
412.695	124.75
412.919	126.75
413.142	134.75
413.365	130.75
413.589	121.75
413.812	119.75
414.035	139.75
414.258	143.75
414.482	107.75
414.705	124.75
414.928	134.75
415.151	141.75
415.374	135.75
415.597	124.75
415.821	128.75
416.044	117.75
416.267	126.75
416.49	99.75
416.713	112.75
416.936	142.75
417.159	128.75
417.382	116.75
417.605	113.75
417.828	134.75
418.051	128.75
418.274	125.75
418.497	121.75
418.72	129.75
418.943	143.75
419.166	134.75
419.389	127.75
419.611	138.75
419.834	122.75
420.057	131.75
420.28	107.75
420.503	126.75
420.726	117.75
420.948	128.75
421.171	127.75
421.394	134.75
421.617	130.75
421.839	122.75
422.062	125.75
422.285	130.75
422.507	123.75
422.73	114.75
422.953	113.75
423.175	126.75
423.398	123.75
423.621	133.75
423.843	139.75
424.066	132.75
424.288	148.75
424.511	129.75
424.733	140.75
424.956	127.75
425.178	124.75
425.401	122.75
425.623	127.75
425.846	128.75
426.068	126.75
426.291	139.75
426.513	116.75
426.735	115.75
426.958	107.75
427.18	135.75
427.402	135.75
427.625	130.75
427.847	128.75
428.069	121.75
428.292	120.75
428.514	118.75
428.736	108.75
428.958	132.75
429.181	139.75
429.403	103.75
429.625	105.75
429.847	123.75
430.069	120.75
430.292	136.75
430.514	124.75
430.736	117.75
430.958	138.75
431.18	119.75
431.402	123.75
431.624	119.75
431.846	120.75
432.068	128.75
432.29	132.75
432.512	130.75
432.734	121.75
432.956	130.75
433.178	144.75
433.4	119.75
433.622	118.75
433.844	122.75
434.066	113.75
434.287	121.75
434.509	113.75
434.731	130.75
434.953	142.75
435.175	126.75
435.397	132.75
435.618	129.75
435.84	121.75
436.062	130.75
436.284	129.75
436.505	122.75
436.727	129.75
436.949	123.75
437.17	123.75
437.392	124.75
437.614	119.75
437.835	112.75
438.057	109.75
438.278	107.75
438.5	116.75
438.721	115.75
438.943	121.75
439.165	113.75
439.386	122.75
439.608	131.75
439.829	122.75
440.05	128.75
440.272	105.75
440.493	111.75
440.715	142.75
440.936	142.75
441.158	144.75
441.379	127.75
441.6	123.75
441.822	114.75
442.043	111.75
442.264	105.75
442.486	135.75
442.707	114.75
442.928	122.75
443.149	115.75
443.371	129.75
443.592	120.75
443.813	132.75
444.034	131.75
444.255	138.75
444.476	131.75
444.698	135.75
444.919	146.75
445.14	349.75
445.361	230.75
445.582	130.75
445.803	130.75
446.024	107.75
446.245	123.75
446.466	119.75
446.687	130.75
446.908	129.75
447.129	126.75
447.35	107.75
447.571	123.75
447.792	115.75
448.013	106.75
448.234	113.75
448.455	108.75
448.675	107.75
448.896	113.75
449.117	111.75
449.338	112.75
449.559	118.75
449.779	108.75
450	103.75
450.221	126.75
450.442	110.75
450.662	124.75
450.883	133.75
451.104	115.75
451.324	107.75
451.545	110.75
451.766	129.75
451.986	122.75
452.207	111.75
452.428	112.75
452.648	136.75
452.869	120.75
453.089	127.75
453.31	106.75
453.53	116.75
453.751	123.75
453.971	101.75
454.192	118.75
454.412	114.75
454.633	119.75
454.853	98.75
455.073	105.75
455.294	122.75
455.514	122.75
455.734	111.75
455.955	106.75
456.175	103.75
456.395	118.75
456.616	114.75
456.836	117.75
457.056	109.75
457.276	99.75
457.497	101.75
457.717	107.75
457.937	110.75
458.157	110.75
458.377	99.75
458.598	111.75
458.818	112.75
459.038	124.75
459.258	121.75
459.478	124.75
459.698	129.75
459.918	112.75
460.138	128.75
460.358	147.75
460.578	146.75
460.798	120.75
461.018	131.75
461.238	127.75
461.458	129.75
461.678	134.75
461.898	149.75
462.118	155.75
462.338	147.75
462.558	135.75
462.777	145.75
462.997	146.75
463.217	158.75
463.437	154.75
463.657	133.75
463.876	126.75
464.096	138.75
464.316	132.75
464.536	137.75
464.755	134.75
464.975	132.75
465.195	136.75
465.414	129.75
465.634	115.75
465.854	119.75
466.073	117.75
466.293	107.75
466.512	125.75
466.732	109.75
466.951	112.75
467.171	112.75
467.391	115.75
467.61	129.75
467.829	104.75
468.049	121.75
468.268	120.75
468.488	116.75
468.707	115.75
468.927	121.75
469.146	113.75
469.365	106.75
469.585	127.75
469.804	120.75
470.023	111.75
470.243	118.75
470.462	115.75
470.681	135.75
470.901	128.75
471.12	108.75
471.339	127.75
471.558	127.75
471.777	121.75
471.997	129.75
472.216	112.75
472.435	114.75
472.654	112.75
472.873	117.75
473.092	120.75
473.311	117.75
473.53	103.75
473.749	120.75
473.968	126.75
474.187	114.75
474.406	113.75
474.625	119.75
474.844	130.75
475.063	132.75
475.282	120.75
475.501	110.75
475.72	126.75
475.939	116.75
476.158	111.75
476.377	124.75
476.596	124.75
476.814	118.75
477.033	126.75
477.252	131.75
477.471	120.75
477.69	130.75
477.908	124.75
478.127	156.75
478.346	139.75
478.564	128.75
478.783	127.75
479.002	122.75
479.22	127.75
479.439	133.75
479.658	130.75
479.876	136.75
480.095	129.75
480.313	129.75
480.532	123.75
480.751	136.75
480.969	131.75
481.188	126.75
481.406	133.75
481.624	139.75
481.843	121.75
482.061	120.75
482.28	119.75
482.498	138.75
482.717	120.75
482.935	114.75
483.153	110.75
483.372	124.75
483.59	131.75
483.808	126.75
484.027	122.75
484.245	119.75
484.463	123.75
484.681	134.75
484.9	135.75
485.118	120.75
485.336	126.75
485.554	131.75
485.772	123.75
485.99	113.75
486.209	129.75
486.427	129.75
486.645	127.75
486.863	135.75
487.081	118.75
487.299	138.75
487.517	128.75
487.735	117.75
487.953	122.75
488.171	147.75
488.389	124.75
488.607	123.75
488.825	134.75
489.043	129.75
489.261	131.75
489.479	114.75
489.696	127.75
489.914	130.75
490.132	129.75
490.35	126.75
490.568	120.75
490.786	128.75
491.003	115.75
491.221	137.75
491.439	123.75
491.657	134.75
491.874	137.75
492.092	119.75
492.31	119.75
492.527	117.75
492.745	123.75
492.963	129.75
493.18	135.75
493.398	141.75
493.615	136.75
493.833	137.75
494.05	132.75
494.268	120.75
494.485	151.75
494.703	126.75
494.92	138.75
495.138	122.75
495.355	138.75
495.573	145.75
495.79	138.75
496.008	133.75
496.225	134.75
496.442	134.75
496.66	148.75
496.877	139.75
497.094	152.75
497.312	138.75
497.529	137.75
497.746	144.75
497.963	150.75
498.181	135.75
498.398	138.75
498.615	148.75
498.832	127.75
499.049	161.75
499.267	177.75
499.484	191.75
499.701	187.75
499.918	218.75
500.135	234.75
500.352	258.75
500.569	248.75
500.786	251.75
501.003	228.75
501.22	208.75
501.437	201.75
501.654	176.75
501.871	176.75
502.088	159.75
502.305	168.75
502.522	159.75
502.739	158.75
502.956	152.75
503.172	136.75
503.389	163.75
503.606	143.75
503.823	146.75
504.04	163.75
504.256	158.75
504.473	153.75
504.69	126.75
504.907	147.75
505.123	147.75
505.34	133.75
505.557	138.75
505.773	119.75
505.99	147.75
506.207	129.75
506.423	116.75
506.64	118.75
506.856	117.75
507.073	128.75
