Data from SampG_HRD10591_00091.txt Node
Date: Mon Jan 19 11:54:14 EST 2026
User: Yrep
Spectrometer: HR+D1059
Trigger mode: 0
Integration Time (sec): 3.443000E-1
Scans to average: 1
Electric dark correction enabled: true
Nonlinearity correction enabled: false
Boxcar width: 0
XAxis mode: Wavelengths
Number of Pixels in Spectrum: 2048
>>>>>Begin Spectral Data<<<<<
223.165	-28.25
223.4	-28.25
223.635	-28.25
223.869	-32.25
224.104	-5.25
224.338	-12.25
224.573	-11.25
224.808	-20.25
225.042	-7.25
225.277	-10.25
225.511	-9.25
225.746	-6.25
225.98	6.75
226.215	23.75
226.449	27.75
226.683	24.75
226.918	23.75
227.152	35.75
227.387	34.75
227.621	46.75
227.856	36.75
228.09	58.75
228.324	51.75
228.559	72.75
228.793	58.75
229.027	81.75
229.262	72.75
229.496	65.75
229.73	78.75
229.964	77.75
230.199	77.75
230.433	71.75
230.667	88.75
230.901	81.75
231.136	67.75
231.37	81.75
231.604	85.75
231.838	85.75
232.072	93.75
232.306	70.75
232.541	87.75
232.775	76.75
233.009	79.75
233.243	95.75
233.477	68.75
233.711	85.75
233.945	84.75
234.179	79.75
234.413	80.75
234.647	90.75
234.881	85.75
235.115	87.75
235.349	83.75
235.583	85.75
235.817	84.75
236.051	67.75
236.285	70.75
236.519	82.75
236.753	88.75
236.987	85.75
237.221	66.75
237.455	99.75
237.689	74.75
237.922	75.75
238.156	74.75
238.39	88.75
238.624	73.75
238.858	85.75
239.091	87.75
239.325	95.75
239.559	90.75
239.793	82.75
240.027	73.75
240.26	86.75
240.494	86.75
240.728	87.75
240.961	77.75
241.195	95.75
241.429	77.75
241.662	95.75
241.896	82.75
242.13	77.75
242.363	92.75
242.597	85.75
242.83	87.75
243.064	88.75
243.298	85.75
243.531	101.75
243.765	94.75
243.998	75.75
244.232	85.75
244.465	87.75
244.699	94.75
244.932	83.75
245.166	95.75
245.399	100.75
245.633	99.75
245.866	91.75
246.099	82.75
246.333	102.75
246.566	91.75
246.8	93.75
247.033	87.75
247.266	78.75
247.5	76.75
247.733	88.75
247.966	93.75
248.2	86.75
248.433	82.75
248.666	93.75
248.899	90.75
249.133	92.75
249.366	95.75
249.599	90.75
249.832	70.75
250.066	92.75
250.299	94.75
250.532	90.75
250.765	85.75
250.998	95.75
251.231	85.75
251.465	94.75
251.698	78.75
251.931	92.75
252.164	91.75
252.397	85.75
252.63	88.75
252.863	90.75
253.096	78.75
253.329	95.75
253.562	103.75
253.795	102.75
254.028	86.75
254.261	94.75
254.494	97.75
254.727	99.75
254.96	92.75
255.193	96.75
255.426	83.75
255.659	82.75
255.892	103.75
256.124	109.75
256.357	99.75
256.59	90.75
256.823	87.75
257.056	89.75
257.289	95.75
257.521	91.75
257.754	91.75
257.987	92.75
258.22	99.75
258.452	92.75
258.685	79.75
258.918	83.75
259.151	94.75
259.383	113.75
259.616	87.75
259.849	98.75
260.081	102.75
260.314	91.75
260.547	89.75
260.779	93.75
261.012	105.75
261.244	94.75
261.477	104.75
261.71	90.75
261.942	109.75
262.175	103.75
262.407	106.75
262.64	91.75
262.872	106.75
263.105	97.75
263.337	96.75
263.57	96.75
263.802	97.75
264.035	102.75
264.267	91.75
264.499	95.75
264.732	101.75
264.964	99.75
265.197	117.75
265.429	109.75
265.661	120.75
265.894	93.75
266.126	110.75
266.358	105.75
266.591	96.75
266.823	98.75
267.055	99.75
267.287	105.75
267.52	98.75
267.752	114.75
267.984	116.75
268.216	90.75
268.448	114.75
268.681	97.75
268.913	111.75
269.145	100.75
269.377	109.75
269.609	104.75
269.841	107.75
270.073	108.75
270.306	106.75
270.538	119.75
270.77	109.75
271.002	91.75
271.234	115.75
271.466	99.75
271.698	96.75
271.93	97.75
272.162	101.75
272.394	111.75
272.626	97.75
272.858	83.75
273.09	119.75
273.322	102.75
273.553	93.75
273.785	113.75
274.017	101.75
274.249	118.75
274.481	90.75
274.713	103.75
274.945	119.75
275.176	95.75
275.408	112.75
275.64	117.75
275.872	97.75
276.104	98.75
276.335	119.75
276.567	106.75
276.799	110.75
277.031	94.75
277.262	103.75
277.494	106.75
277.726	117.75
277.957	111.75
278.189	111.75
278.421	107.75
278.652	108.75
278.884	103.75
279.115	109.75
279.347	101.75
279.579	110.75
279.81	104.75
280.042	107.75
280.273	102.75
280.505	109.75
280.736	96.75
280.968	115.75
281.199	106.75
281.431	116.75
281.662	122.75
281.894	119.75
282.125	107.75
282.356	125.75
282.588	108.75
282.819	118.75
283.051	107.75
283.282	113.75
283.513	105.75
283.745	112.75
283.976	120.75
284.207	118.75
284.439	110.75
284.67	117.75
284.901	117.75
285.132	124.75
285.364	107.75
285.595	113.75
285.826	119.75
286.057	123.75
286.288	114.75
286.52	105.75
286.751	103.75
286.982	129.75
287.213	106.75
287.444	117.75
287.675	119.75
287.906	110.75
288.138	122.75
288.369	135.75
288.6	115.75
288.831	116.75
289.062	125.75
289.293	109.75
289.524	128.75
289.755	113.75
289.986	122.75
290.217	111.75
290.448	120.75
290.679	116.75
290.91	129.75
291.141	119.75
291.371	123.75
291.602	118.75
291.833	126.75
292.064	108.75
292.295	119.75
292.526	129.75
292.757	119.75
292.987	120.75
293.218	110.75
293.449	109.75
293.68	117.75
293.91	126.75
294.141	106.75
294.372	124.75
294.603	125.75
294.833	120.75
295.064	133.75
295.295	131.75
295.525	110.75
295.756	124.75
295.987	125.75
296.217	105.75
296.448	114.75
296.679	130.75
296.909	141.75
297.14	133.75
297.37	134.75
297.601	123.75
297.831	112.75
298.062	117.75
298.292	109.75
298.523	118.75
298.753	126.75
298.984	120.75
299.214	116.75
299.445	123.75
299.675	111.75
299.905	122.75
300.136	136.75
300.366	132.75
300.597	132.75
300.827	134.75
301.057	120.75
301.288	131.75
301.518	129.75
301.748	118.75
301.979	172.75
302.209	133.75
302.439	118.75
302.669	130.75
302.9	116.75
303.13	138.75
303.36	122.75
303.59	129.75
303.82	137.75
304.051	128.75
304.281	137.75
304.511	127.75
304.741	118.75
304.971	129.75
305.201	145.75
305.431	127.75
305.661	129.75
305.891	138.75
306.121	132.75
306.352	120.75
306.582	131.75
306.812	141.75
307.042	125.75
307.272	118.75
307.502	125.75
307.731	129.75
307.961	133.75
308.191	132.75
308.421	129.75
308.651	121.75
308.881	125.75
309.111	125.75
309.341	107.75
309.571	129.75
309.8	129.75
310.03	103.75
310.26	116.75
310.49	130.75
310.72	137.75
310.949	125.75
311.179	134.75
311.409	117.75
311.639	118.75
311.868	134.75
312.098	134.75
312.328	136.75
312.557	127.75
312.787	123.75
313.017	109.75
313.246	127.75
313.476	132.75
313.706	127.75
313.935	132.75
314.165	120.75
314.394	140.75
314.624	120.75
314.853	132.75
315.083	131.75
315.312	140.75
315.542	123.75
315.771	135.75
316.001	122.75
316.23	135.75
316.46	139.75
316.689	141.75
316.919	123.75
317.148	122.75
317.377	126.75
317.607	130.75
317.836	127.75
318.065	128.75
318.295	121.75
318.524	132.75
318.753	140.75
318.983	133.75
319.212	133.75
319.441	124.75
319.67	118.75
319.9	134.75
320.129	122.75
320.358	131.75
320.587	121.75
320.816	123.75
321.046	120.75
321.275	141.75
321.504	126.75
321.733	142.75
321.962	116.75
322.191	123.75
322.42	126.75
322.649	128.75
322.878	127.75
323.108	147.75
323.337	123.75
323.566	145.75
323.795	135.75
324.024	123.75
324.253	116.75
324.482	125.75
324.71	137.75
324.939	123.75
325.168	131.75
325.397	121.75
325.626	133.75
325.855	136.75
326.084	126.75
326.313	125.75
326.542	131.75
326.77	130.75
326.999	134.75
327.228	132.75
327.457	130.75
327.686	131.75
327.914	129.75
328.143	142.75
328.372	132.75
328.6	132.75
328.829	124.75
329.058	141.75
329.287	138.75
329.515	130.75
329.744	150.75
329.972	130.75
330.201	123.75
330.43	126.75
330.658	125.75
330.887	131.75
331.115	129.75
331.344	135.75
331.572	145.75
331.801	130.75
332.03	133.75
332.258	147.75
332.486	145.75
332.715	130.75
332.943	134.75
333.172	153.75
333.4	162.75
333.629	163.75
333.857	154.75
334.085	165.75
334.314	160.75
334.542	142.75
334.771	150.75
334.999	145.75
335.227	151.75
335.455	161.75
335.684	167.75
335.912	162.75
336.14	142.75
336.369	136.75
336.597	141.75
336.825	141.75
337.053	139.75
337.281	137.75
337.51	118.75
337.738	140.75
337.966	138.75
338.194	135.75
338.422	145.75
338.65	159.75
338.878	134.75
339.106	150.75
339.334	157.75
339.562	143.75
339.79	145.75
340.018	130.75
340.246	147.75
340.474	145.75
340.702	136.75
340.93	127.75
341.158	134.75
341.386	131.75
341.614	147.75
341.842	145.75
342.07	137.75
342.298	125.75
342.526	129.75
342.754	142.75
342.981	145.75
343.209	130.75
343.437	183.75
343.665	152.75
343.893	141.75
344.12	147.75
344.348	141.75
344.576	127.75
344.804	127.75
345.031	136.75
345.259	152.75
345.487	155.75
345.714	128.75
345.942	141.75
346.17	131.75
346.397	135.75
346.625	134.75
346.853	129.75
347.08	125.75
347.308	132.75
347.535	134.75
347.763	124.75
347.99	141.75
348.218	144.75
348.445	139.75
348.673	133.75
348.9	131.75
349.128	130.75
349.355	129.75
349.583	125.75
349.81	147.75
350.037	142.75
350.265	148.75
350.492	123.75
350.72	126.75
350.947	130.75
351.174	137.75
351.402	121.75
351.629	130.75
351.856	133.75
352.083	121.75
352.311	129.75
352.538	124.75
352.765	109.75
352.992	146.75
353.22	142.75
353.447	138.75
353.674	136.75
353.901	158.75
354.128	134.75
354.355	140.75
354.583	138.75
354.81	134.75
355.037	124.75
355.264	140.75
355.491	131.75
355.718	126.75
355.945	145.75
356.172	124.75
356.399	125.75
356.626	107.75
356.853	121.75
357.08	134.75
357.307	140.75
357.534	138.75
357.761	134.75
357.988	147.75
358.215	145.75
358.441	125.75
358.668	132.75
358.895	123.75
359.122	126.75
359.349	145.75
359.576	137.75
359.802	135.75
360.029	136.75
360.256	136.75
360.483	137.75
360.709	128.75
360.936	155.75
361.163	132.75
361.39	132.75
361.616	137.75
361.843	134.75
362.07	147.75
362.296	125.75
362.523	116.75
362.749	136.75
362.976	125.75
363.203	162.75
363.429	154.75
363.656	135.75
363.882	130.75
364.109	139.75
364.335	139.75
364.562	134.75
364.788	126.75
365.015	126.75
365.241	139.75
365.468	137.75
365.694	138.75
365.92	151.75
366.147	140.75
366.373	150.75
366.599	138.75
366.826	117.75
367.052	136.75
367.278	126.75
367.505	124.75
367.731	145.75
367.957	123.75
368.184	142.75
368.41	135.75
368.636	125.75
368.862	130.75
369.089	124.75
369.315	139.75
369.541	133.75
369.767	148.75
369.993	129.75
370.219	135.75
370.445	133.75
370.672	138.75
370.898	156.75
371.124	133.75
371.35	127.75
371.576	133.75
371.802	140.75
372.028	124.75
372.254	142.75
372.48	137.75
372.706	133.75
372.932	138.75
373.158	133.75
373.384	136.75
373.61	153.75
373.835	134.75
374.061	134.75
374.287	141.75
374.513	135.75
374.739	120.75
374.965	134.75
375.191	145.75
375.416	150.75
375.642	141.75
375.868	148.75
376.094	124.75
376.319	138.75
376.545	136.75
376.771	145.75
376.997	136.75
377.222	149.75
377.448	137.75
377.674	146.75
377.899	142.75
378.125	139.75
378.35	133.75
378.576	133.75
378.802	137.75
379.027	156.75
379.253	140.75
379.478	154.75
379.704	126.75
379.929	142.75
380.155	142.75
380.38	133.75
380.606	141.75
380.831	139.75
381.057	163.75
381.282	145.75
381.507	132.75
381.733	132.75
381.958	139.75
382.184	145.75
382.409	152.75
382.634	152.75
382.86	142.75
383.085	157.75
383.31	142.75
383.535	156.75
383.761	138.75
383.986	171.75
384.211	133.75
384.436	142.75
384.662	126.75
384.887	154.75
385.112	155.75
385.337	160.75
385.562	166.75
385.787	163.75
386.013	155.75
386.238	162.75
386.463	152.75
386.688	172.75
386.913	146.75
387.138	140.75
387.363	163.75
387.588	162.75
387.813	153.75
388.038	163.75
388.263	172.75
388.488	159.75
388.713	172.75
388.938	159.75
389.163	136.75
389.387	159.75
389.612	143.75
389.837	138.75
390.062	161.75
390.287	151.75
390.512	162.75
390.736	147.75
390.961	140.75
391.186	163.75
391.411	159.75
391.636	148.75
391.86	164.75
392.085	152.75
392.31	167.75
392.534	175.75
392.759	168.75
392.984	160.75
393.208	168.75
393.433	166.75
393.658	164.75
393.882	142.75
394.107	151.75
394.331	150.75
394.556	159.75
394.78	166.75
395.005	152.75
395.229	161.75
395.454	166.75
395.678	164.75
395.903	174.75
396.127	179.75
396.352	158.75
396.576	160.75
396.801	150.75
397.025	172.75
397.249	179.75
397.474	183.75
397.698	182.75
397.922	167.75
398.147	182.75
398.371	165.75
398.595	180.75
398.82	179.75
399.044	190.75
399.268	216.75
399.492	230.75
399.717	253.75
399.941	230.75
400.165	206.75
400.389	187.75
400.613	187.75
400.837	174.75
401.062	165.75
401.286	183.75
401.51	180.75
401.734	172.75
401.958	179.75
402.182	188.75
402.406	151.75
402.63	176.75
402.854	172.75
403.078	189.75
403.302	202.75
403.526	193.75
403.75	202.75
403.974	197.75
404.198	215.75
404.422	171.75
404.645	182.75
404.869	200.75
405.093	189.75
405.317	183.75
405.541	200.75
405.765	181.75
405.988	187.75
406.212	181.75
406.436	195.75
406.66	193.75
406.883	192.75
407.107	192.75
407.331	211.75
407.555	212.75
407.778	212.75
408.002	190.75
408.226	201.75
408.449	188.75
408.673	194.75
408.896	195.75
409.12	191.75
409.344	193.75
409.567	203.75
409.791	202.75
410.014	196.75
410.238	182.75
410.461	182.75
410.685	176.75
410.908	185.75
411.132	190.75
411.355	180.75
411.578	184.75
411.802	179.75
412.025	180.75
412.249	167.75
412.472	178.75
412.695	183.75
412.919	172.75
413.142	181.75
413.365	192.75
413.589	175.75
413.812	171.75
414.035	183.75
414.258	179.75
414.482	173.75
414.705	176.75
414.928	175.75
415.151	181.75
415.374	185.75
415.597	165.75
415.821	183.75
416.044	175.75
416.267	165.75
416.49	174.75
416.713	178.75
416.936	174.75
417.159	178.75
417.382	179.75
417.605	179.75
417.828	186.75
418.051	190.75
418.274	185.75
418.497	181.75
418.72	166.75
418.943	179.75
419.166	195.75
419.389	186.75
419.611	189.75
419.834	185.75
420.057	175.75
420.28	176.75
420.503	189.75
420.726	181.75
420.948	188.75
421.171	172.75
421.394	174.75
421.617	173.75
421.839	181.75
422.062	169.75
422.285	164.75
422.507	188.75
422.73	185.75
422.953	157.75
423.175	166.75
423.398	182.75
423.621	198.75
423.843	199.75
424.066	188.75
424.288	184.75
424.511	187.75
424.733	187.75
424.956	178.75
425.178	178.75
425.401	170.75
425.623	171.75
425.846	178.75
426.068	175.75
426.291	172.75
426.513	168.75
426.735	181.75
426.958	173.75
427.18	165.75
427.402	159.75
427.625	161.75
427.847	155.75
428.069	163.75
428.292	158.75
428.514	173.75
428.736	149.75
428.958	171.75
429.181	185.75
429.403	169.75
429.625	157.75
429.847	163.75
430.069	158.75
430.292	181.75
430.514	153.75
430.736	162.75
430.958	152.75
431.18	161.75
431.402	166.75
431.624	157.75
431.846	165.75
432.068	160.75
432.29	164.75
432.512	179.75
432.734	178.75
432.956	189.75
433.178	169.75
433.4	176.75
433.622	179.75
433.844	166.75
434.066	147.75
434.287	170.75
434.509	168.75
434.731	182.75
434.953	168.75
435.175	188.75
435.397	183.75
435.618	179.75
435.84	161.75
436.062	152.75
436.284	165.75
436.505	163.75
436.727	158.75
436.949	157.75
437.17	172.75
437.392	153.75
437.614	165.75
437.835	145.75
438.057	162.75
438.278	145.75
438.5	170.75
438.721	173.75
438.943	170.75
439.165	169.75
439.386	170.75
439.608	165.75
439.829	150.75
440.05	164.75
440.272	155.75
440.493	174.75
440.715	161.75
440.936	167.75
441.158	188.75
441.379	158.75
441.6	182.75
441.822	175.75
442.043	165.75
442.264	164.75
442.486	164.75
442.707	167.75
442.928	186.75
443.149	165.75
443.371	168.75
443.592	173.75
443.813	164.75
444.034	180.75
444.255	189.75
444.476	200.75
444.698	182.75
444.919	185.75
445.14	392.75
445.361	272.75
445.582	188.75
445.803	172.75
446.024	170.75
446.245	164.75
446.466	179.75
446.687	157.75
446.908	154.75
447.129	174.75
447.35	161.75
447.571	173.75
447.792	155.75
448.013	162.75
448.234	156.75
448.455	146.75
448.675	161.75
448.896	150.75
449.117	158.75
449.338	149.75
449.559	163.75
449.779	156.75
450	165.75
450.221	153.75
450.442	150.75
450.662	155.75
450.883	139.75
451.104	179.75
451.324	153.75
451.545	171.75
451.766	163.75
451.986	156.75
452.207	153.75
452.428	158.75
452.648	170.75
452.869	150.75
453.089	148.75
453.31	155.75
453.53	166.75
453.751	153.75
453.971	156.75
454.192	127.75
454.412	125.75
454.633	148.75
454.853	157.75
455.073	129.75
455.294	156.75
455.514	145.75
455.734	154.75
455.955	140.75
456.175	140.75
456.395	153.75
456.616	151.75
456.836	141.75
457.056	144.75
457.276	148.75
457.497	145.75
457.717	134.75
457.937	149.75
458.157	132.75
458.377	133.75
458.598	155.75
458.818	138.75
459.038	168.75
459.258	172.75
459.478	166.75
459.698	167.75
459.918	172.75
460.138	166.75
460.358	187.75
460.578	195.75
460.798	184.75
461.018	171.75
461.238	194.75
461.458	185.75
461.678	165.75
461.898	186.75
462.118	199.75
462.338	195.75
462.558	198.75
462.777	198.75
462.997	200.75
463.217	209.75
463.437	224.75
463.657	194.75
463.876	203.75
464.096	198.75
464.316	194.75
464.536	200.75
464.755	197.75
464.975	177.75
465.195	194.75
465.414	179.75
465.634	176.75
465.854	172.75
466.073	174.75
466.293	156.75
466.512	169.75
466.732	170.75
466.951	160.75
467.171	174.75
467.391	155.75
467.61	154.75
467.829	152.75
468.049	165.75
468.268	172.75
468.488	161.75
468.707	159.75
468.927	150.75
469.146	147.75
469.365	145.75
469.585	161.75
469.804	162.75
470.023	175.75
470.243	159.75
470.462	154.75
470.681	159.75
470.901	169.75
471.12	156.75
471.339	178.75
471.558	159.75
471.777	151.75
471.997	162.75
472.216	153.75
472.435	165.75
472.654	149.75
472.873	181.75
473.092	148.75
473.311	162.75
473.53	162.75
473.749	158.75
473.968	167.75
474.187	154.75
474.406	147.75
474.625	155.75
474.844	159.75
475.063	162.75
475.282	157.75
475.501	144.75
475.72	164.75
475.939	150.75
476.158	147.75
476.377	146.75
476.596	165.75
476.814	172.75
477.033	160.75
477.252	159.75
477.471	163.75
477.69	164.75
477.908	171.75
478.127	183.75
478.346	166.75
478.564	174.75
478.783	166.75
479.002	172.75
479.22	176.75
479.439	165.75
479.658	174.75
479.876	187.75
480.095	170.75
480.313	189.75
480.532	188.75
480.751	186.75
480.969	173.75
481.188	191.75
481.406	187.75
481.624	186.75
481.843	174.75
482.061	169.75
482.28	154.75
482.498	172.75
482.717	173.75
482.935	187.75
483.153	169.75
483.372	159.75
483.59	168.75
483.808	163.75
484.027	166.75
484.245	185.75
484.463	176.75
484.681	181.75
484.9	181.75
485.118	180.75
485.336	175.75
485.554	184.75
485.772	168.75
485.99	168.75
486.209	182.75
486.427	173.75
486.645	181.75
486.863	186.75
487.081	172.75
487.299	170.75
487.517	180.75
487.735	171.75
487.953	181.75
488.171	182.75
488.389	176.75
488.607	177.75
488.825	185.75
489.043	170.75
489.261	173.75
489.479	162.75
489.696	178.75
489.914	169.75
490.132	160.75
490.35	189.75
490.568	167.75
490.786	171.75
491.003	173.75
491.221	168.75
491.439	152.75
491.657	171.75
491.874	179.75
492.092	172.75
492.31	177.75
492.527	182.75
492.745	171.75
492.963	157.75
493.18	179.75
493.398	193.75
493.615	185.75
493.833	177.75
494.05	174.75
494.268	189.75
494.485	171.75
494.703	183.75
494.92	163.75
495.138	170.75
495.355	182.75
495.573	172.75
495.79	181.75
496.008	194.75
496.225	180.75
496.442	195.75
496.66	185.75
496.877	178.75
497.094	191.75
497.312	189.75
497.529	202.75
497.746	192.75
497.963	202.75
498.181	213.75
498.398	202.75
498.615	210.75
498.832	232.75
499.049	244.75
499.267	258.75
499.484	269.75
499.701	309.75
499.918	322.75
500.135	371.75
500.352	391.75
500.569	390.75
500.786	397.75
501.003	380.75
501.22	325.75
501.437	301.75
501.654	266.75
501.871	254.75
502.088	237.75
502.305	241.75
502.522	229.75
502.739	227.75
502.956	215.75
503.172	208.75
503.389	211.75
503.606	192.75
503.823	204.75
504.04	201.75
504.256	196.75
504.473	204.75
504.69	208.75
504.907	195.75
